Criado como novo conjunto de dados;"1909daniel.spp","-4260583.5 Secs"
cm-1;Abs
10000.000000;1.960749
9999.000000;1.959079
9998.000000;1.957119
9997.000000;1.955793
9996.000000;1.951428
9995.000000;1.944089
9994.000000;1.937740
9993.000000;1.933415
9992.000000;1.931499
9991.000000;1.931313
9990.000000;1.931787
9989.000000;1.931734
9988.000000;1.931088
9987.000000;1.931058
9986.000000;1.932492
9985.000000;1.934606
9984.000000;1.935825
9983.000000;1.935424
9982.000000;1.933902
9981.000000;1.932217
9980.000000;1.931242
9979.000000;1.931453
9978.000000;1.932182
9977.000000;1.931541
9976.000000;1.928327
9975.000000;1.923924
9974.000000;1.921042
9973.000000;1.920611
9972.000000;1.921153
9971.000000;1.921373
9970.000000;1.922070
9969.000000;1.924518
9968.000000;1.927843
9967.000000;1.929522
9966.000000;1.928367
9965.000000;1.925693
9964.000000;1.923427
9963.000000;1.922328
9962.000000;1.922301
9961.000000;1.923307
9960.000000;1.925114
9959.000000;1.926785
9958.000000;1.927437
9957.000000;1.927410
9956.000000;1.927742
9955.000000;1.928284
9954.000000;1.927303
9953.000000;1.923887
9952.000000;1.920131
9951.000000;1.919414
9950.000000;1.922362
9949.000000;1.925484
9948.000000;1.924474
9947.000000;1.918716
9946.000000;1.911542
9945.000000;1.906413
9944.000000;1.904585
9943.000000;1.905764
9942.000000;1.908653
9941.000000;1.910615
9940.000000;1.909031
9939.000000;1.904484
9938.000000;1.901120
9937.000000;1.902188
9936.000000;1.906143
9935.000000;1.908466
9934.000000;1.906889
9933.000000;1.903118
9932.000000;1.899764
9931.000000;1.897800
9930.000000;1.897095
9929.000000;1.897333
9928.000000;1.897515
9927.000000;1.896027
9926.000000;1.892323
9925.000000;1.887851
9924.000000;1.884668
9923.000000;1.883842
9922.000000;1.885583
9921.000000;1.889783
9920.000000;1.895389
9919.000000;1.900006
9918.000000;1.901545
9917.000000;1.900245
9916.000000;1.898111
9915.000000;1.896531
9914.000000;1.895263
9913.000000;1.893571
9912.000000;1.891535
9911.000000;1.889930
9910.000000;1.889131
9909.000000;1.888453
9908.000000;1.886712
9907.000000;1.883526
9906.000000;1.879887
9905.000000;1.877161
9904.000000;1.875743
9903.000000;1.875131
9902.000000;1.874991
9901.000000;1.875340
9900.000000;1.875703
9899.000000;1.875142
9898.000000;1.873720
9897.000000;1.873075
9896.000000;1.874680
9895.000000;1.877947
9894.000000;1.880653
9893.000000;1.880951
9892.000000;1.878662
9891.000000;1.875107
9890.000000;1.872311
9889.000000;1.871806
9888.000000;1.873191
9887.000000;1.873994
9886.000000;1.872085
9885.000000;1.868323
9884.000000;1.865615
9883.000000;1.865317
9882.000000;1.865775
9881.000000;1.864650
9880.000000;1.861657
9879.000000;1.858362
9878.000000;1.856227
9877.000000;1.855637
9876.000000;1.856260
9875.000000;1.857448
9874.000000;1.858348
9873.000000;1.858273
9872.000000;1.857273
9871.000000;1.856076
9870.000000;1.855360
9869.000000;1.855224
9868.000000;1.855229
9867.000000;1.854889
9866.000000;1.854342
9865.000000;1.854359
9864.000000;1.855403
9863.000000;1.856803
9862.000000;1.857267
9861.000000;1.856156
9860.000000;1.853813
9859.000000;1.850843
9858.000000;1.847885
9857.000000;1.846084
9856.000000;1.846681
9855.000000;1.849298
9854.000000;1.851232
9853.000000;1.849693
9852.000000;1.844980
9851.000000;1.840594
9850.000000;1.840022
9849.000000;1.843737
9848.000000;1.848772
9847.000000;1.850810
9846.000000;1.847506
9845.000000;1.840559
9844.000000;1.834172
9843.000000;1.831166
9842.000000;1.830786
9841.000000;1.830546
9840.000000;1.829818
9839.000000;1.830351
9838.000000;1.833092
9837.000000;1.836071
9836.000000;1.836476
9835.000000;1.834093
9834.000000;1.831210
9833.000000;1.829571
9832.000000;1.829017
9831.000000;1.828929
9830.000000;1.829423
9829.000000;1.830515
9828.000000;1.831077
9827.000000;1.829704
9826.000000;1.826498
9825.000000;1.823363
9824.000000;1.822591
9823.000000;1.825161
9822.000000;1.829826
9821.000000;1.833728
9820.000000;1.834593
9819.000000;1.832675
9818.000000;1.830129
9817.000000;1.828559
9816.000000;1.827916
9815.000000;1.827745
9814.000000;1.828423
9813.000000;1.830336
9812.000000;1.832383
9811.000000;1.832441
9810.000000;1.829468
9809.000000;1.824604
9808.000000;1.820107
9807.000000;1.817645
9806.000000;1.817420
9805.000000;1.818184
9804.000000;1.818062
9803.000000;1.815931
9802.000000;1.812168
9801.000000;1.808053
9800.000000;1.804665
9799.000000;1.802651
9798.000000;1.802518
9797.000000;1.804083
9796.000000;1.806018
9795.000000;1.806886
9794.000000;1.806401
9793.000000;1.805128
9792.000000;1.803338
9791.000000;1.801126
9790.000000;1.799487
9789.000000;1.799868
9788.000000;1.802094
9787.000000;1.803856
9786.000000;1.803233
9785.000000;1.800894
9784.000000;1.798896
9783.000000;1.798235
9782.000000;1.798619
9781.000000;1.799750
9780.000000;1.801426
9779.000000;1.802634
9778.000000;1.801905
9777.000000;1.799183
9776.000000;1.796603
9775.000000;1.796729
9774.000000;1.800231
9773.000000;1.805318
9772.000000;1.809000
9771.000000;1.808935
9770.000000;1.804634
9769.000000;1.797390
9768.000000;1.789339
9767.000000;1.782676
9766.000000;1.779220
9765.000000;1.779718
9764.000000;1.782935
9763.000000;1.786030
9762.000000;1.786956
9761.000000;1.786352
9760.000000;1.786023
9759.000000;1.785935
9758.000000;1.784049
9757.000000;1.779404
9756.000000;1.774226
9755.000000;1.771899
9754.000000;1.773404
9753.000000;1.776569
9752.000000;1.778504
9751.000000;1.778240
9750.000000;1.776889
9749.000000;1.775783
9748.000000;1.775161
9747.000000;1.774465
9746.000000;1.773504
9745.000000;1.773179
9744.000000;1.774698
9743.000000;1.777775
9742.000000;1.779956
9741.000000;1.778564
9740.000000;1.773765
9739.000000;1.769010
9738.000000;1.767813
9737.000000;1.770283
9736.000000;1.773045
9735.000000;1.772635
9734.000000;1.768906
9733.000000;1.764726
9732.000000;1.762761
9731.000000;1.763241
9730.000000;1.764527
9729.000000;1.765031
9728.000000;1.764404
9727.000000;1.763315
9726.000000;1.762558
9725.000000;1.762251
9724.000000;1.761674
9723.000000;1.760070
9722.000000;1.757800
9721.000000;1.756347
9720.000000;1.756772
9719.000000;1.758366
9718.000000;1.759350
9717.000000;1.758931
9716.000000;1.758038
9715.000000;1.757750
9714.000000;1.757784
9713.000000;1.756994
9712.000000;1.754907
9711.000000;1.752261
9710.000000;1.750121
9709.000000;1.748863
9708.000000;1.748069
9707.000000;1.747111
9706.000000;1.745755
9705.000000;1.744364
9704.000000;1.743617
9703.000000;1.743911
9702.000000;1.744922
9701.000000;1.745825
9700.000000;1.746046
9699.000000;1.745707
9698.000000;1.745212
9697.000000;1.744435
9696.000000;1.742594
9695.000000;1.739216
9694.000000;1.735139
9693.000000;1.732155
9692.000000;1.731467
9691.000000;1.732748
9690.000000;1.734785
9689.000000;1.736652
9688.000000;1.737918
9687.000000;1.738150
9686.000000;1.736991
9685.000000;1.734740
9684.000000;1.732288
9683.000000;1.730486
9682.000000;1.729967
9681.000000;1.731142
9680.000000;1.733407
9679.000000;1.734508
9678.000000;1.732224
9677.000000;1.727275
9676.000000;1.723145
9675.000000;1.722105
9674.000000;1.722648
9673.000000;1.721906
9672.000000;1.719659
9671.000000;1.718247
9670.000000;1.718942
9669.000000;1.720446
9668.000000;1.721275
9667.000000;1.721882
9666.000000;1.723369
9665.000000;1.725478
9664.000000;1.727260
9663.000000;1.728762
9662.000000;1.730531
9661.000000;1.731945
9660.000000;1.731612
9659.000000;1.729381
9658.000000;1.726505
9657.000000;1.723702
9656.000000;1.720487
9655.000000;1.716794
9654.000000;1.713866
9653.000000;1.712770
9652.000000;1.713015
9651.000000;1.713379
9650.000000;1.713588
9649.000000;1.714349
9648.000000;1.715915
9647.000000;1.717422
9646.000000;1.717631
9645.000000;1.715853
9644.000000;1.712260
9643.000000;1.707793
9642.000000;1.703700
9641.000000;1.700728
9640.000000;1.698876
9639.000000;1.698035
9638.000000;1.698295
9637.000000;1.699300
9636.000000;1.699957
9635.000000;1.699547
9634.000000;1.698781
9633.000000;1.698804
9632.000000;1.699214
9631.000000;1.698219
9630.000000;1.695142
9629.000000;1.691807
9628.000000;1.690751
9627.000000;1.692510
9626.000000;1.695115
9625.000000;1.696092
9624.000000;1.694635
9623.000000;1.691948
9622.000000;1.689992
9621.000000;1.689960
9620.000000;1.691530
9619.000000;1.693200
9618.000000;1.693368
9617.000000;1.691326
9616.000000;1.687553
9615.000000;1.683446
9614.000000;1.680784
9613.000000;1.680916
9612.000000;1.683896
9611.000000;1.688184
9610.000000;1.691453
9609.000000;1.692208
9608.000000;1.690868
9607.000000;1.689132
9606.000000;1.688165
9605.000000;1.687402
9604.000000;1.685407
9603.000000;1.682077
9602.000000;1.679255
9601.000000;1.678625
9600.000000;1.679614
9599.000000;1.680078
9598.000000;1.678834
9597.000000;1.676610
9596.000000;1.674428
9595.000000;1.672290
9594.000000;1.669997
9593.000000;1.668232
9592.000000;1.667900
9591.000000;1.668813
9590.000000;1.669909
9589.000000;1.670669
9588.000000;1.671534
9587.000000;1.672820
9586.000000;1.673912
9585.000000;1.673778
9584.000000;1.671960
9583.000000;1.668917
9582.000000;1.665635
9581.000000;1.662943
9580.000000;1.661036
9579.000000;1.659605
9578.000000;1.658348
9577.000000;1.657192
9576.000000;1.656147
9575.000000;1.655410
9574.000000;1.655664
9573.000000;1.657595
9572.000000;1.660640
9571.000000;1.662764
9570.000000;1.662306
9569.000000;1.659853
9568.000000;1.657444
9567.000000;1.656236
9566.000000;1.655815
9565.000000;1.655415
9564.000000;1.654813
9563.000000;1.654011
9562.000000;1.653066
9561.000000;1.652569
9560.000000;1.653193
9559.000000;1.654293
9558.000000;1.654055
9557.000000;1.651919
9556.000000;1.649838
9555.000000;1.649910
9554.000000;1.651516
9553.000000;1.652095
9552.000000;1.650541
9551.000000;1.648428
9550.000000;1.647639
9549.000000;1.648225
9548.000000;1.649130
9547.000000;1.649896
9546.000000;1.650719
9545.000000;1.651410
9544.000000;1.651394
9543.000000;1.650583
9542.000000;1.649508
9541.000000;1.648522
9540.000000;1.647480
9539.000000;1.646286
9538.000000;1.645206
9537.000000;1.644415
9536.000000;1.643705
9535.000000;1.642938
9534.000000;1.642386
9533.000000;1.642223
9532.000000;1.641958
9531.000000;1.640881
9530.000000;1.638992
9529.000000;1.637044
9528.000000;1.635669
9527.000000;1.634806
9526.000000;1.634048
9525.000000;1.633221
9524.000000;1.632436
9523.000000;1.631781
9522.000000;1.631175
9521.000000;1.630420
9520.000000;1.629260
9519.000000;1.627497
9518.000000;1.625320
9517.000000;1.623534
9516.000000;1.623076
9515.000000;1.624050
9514.000000;1.625365
9513.000000;1.625661
9512.000000;1.624823
9511.000000;1.624465
9510.000000;1.626499
9509.000000;1.630874
9508.000000;1.634963
9507.000000;1.635833
9506.000000;1.633280
9505.000000;1.629866
9504.000000;1.627913
9503.000000;1.627295
9502.000000;1.626376
9501.000000;1.624382
9500.000000;1.622136
9499.000000;1.620697
9498.000000;1.620171
9497.000000;1.619938
9496.000000;1.619269
9495.000000;1.617517
9494.000000;1.614371
9493.000000;1.610474
9492.000000;1.607441
9491.000000;1.606745
9490.000000;1.608497
9489.000000;1.611356
9488.000000;1.613529
9487.000000;1.613938
9486.000000;1.612752
9485.000000;1.611027
9484.000000;1.609704
9483.000000;1.608816
9482.000000;1.607759
9481.000000;1.606408
9480.000000;1.605665
9479.000000;1.606473
9478.000000;1.608408
9477.000000;1.609718
9476.000000;1.608956
9475.000000;1.606475
9474.000000;1.604092
9473.000000;1.603280
9472.000000;1.603694
9471.000000;1.603434
9470.000000;1.601040
9469.000000;1.597278
9468.000000;1.594585
9467.000000;1.594769
9466.000000;1.597590
9465.000000;1.601336
9464.000000;1.604159
9463.000000;1.604803
9462.000000;1.602877
9461.000000;1.599244
9460.000000;1.595813
9459.000000;1.593972
9458.000000;1.593188
9457.000000;1.591852
9456.000000;1.589542
9455.000000;1.587662
9454.000000;1.587618
9453.000000;1.589105
9452.000000;1.590524
9451.000000;1.590573
9450.000000;1.589163
9449.000000;1.587217
9448.000000;1.585987
9447.000000;1.586207
9446.000000;1.587430
9445.000000;1.588282
9444.000000;1.587760
9443.000000;1.586174
9442.000000;1.584593
9441.000000;1.583623
9440.000000;1.583035
9439.000000;1.582392
9438.000000;1.581679
9437.000000;1.581326
9436.000000;1.581737
9435.000000;1.582652
9434.000000;1.583027
9433.000000;1.581956
9432.000000;1.579877
9431.000000;1.578353
9430.000000;1.578380
9429.000000;1.579297
9428.000000;1.579775
9427.000000;1.579615
9426.000000;1.579913
9425.000000;1.581436
9424.000000;1.583435
9423.000000;1.584331
9422.000000;1.583288
9421.000000;1.580868
9420.000000;1.578242
9419.000000;1.575943
9418.000000;1.573528
9417.000000;1.570568
9416.000000;1.567784
9415.000000;1.566717
9414.000000;1.568094
9413.000000;1.570862
9412.000000;1.573214
9411.000000;1.574393
9410.000000;1.575056
9409.000000;1.576032
9408.000000;1.577283
9407.000000;1.578057
9406.000000;1.577589
9405.000000;1.575621
9404.000000;1.572711
9403.000000;1.570068
9402.000000;1.568714
9401.000000;1.568656
9400.000000;1.568968
9399.000000;1.568652
9398.000000;1.567244
9397.000000;1.564822
9396.000000;1.561935
9395.000000;1.559527
9394.000000;1.558351
9393.000000;1.558277
9392.000000;1.558520
9391.000000;1.558665
9390.000000;1.559052
9389.000000;1.560013
9388.000000;1.561212
9387.000000;1.561977
9386.000000;1.561862
9385.000000;1.560562
9384.000000;1.557756
9383.000000;1.553626
9382.000000;1.549400
9381.000000;1.546915
9380.000000;1.547432
9379.000000;1.550737
9378.000000;1.555104
9377.000000;1.558210
9376.000000;1.558660
9375.000000;1.557001
9374.000000;1.555013
9373.000000;1.553945
9372.000000;1.553724
9371.000000;1.553764
9370.000000;1.553886
9369.000000;1.554106
9368.000000;1.554125
9367.000000;1.553720
9366.000000;1.553318
9365.000000;1.553419
9364.000000;1.553542
9363.000000;1.552551
9362.000000;1.550223
9361.000000;1.547851
9360.000000;1.546951
9359.000000;1.547770
9358.000000;1.549301
9357.000000;1.550343
9356.000000;1.550177
9355.000000;1.548579
9354.000000;1.545799
9353.000000;1.542716
9352.000000;1.540568
9351.000000;1.540078
9350.000000;1.540842
9349.000000;1.541715
9348.000000;1.541783
9347.000000;1.540880
9346.000000;1.539265
9345.000000;1.537180
9344.000000;1.534984
9343.000000;1.533408
9342.000000;1.533085
9341.000000;1.533709
9340.000000;1.534131
9339.000000;1.533568
9338.000000;1.532430
9337.000000;1.531670
9336.000000;1.531635
9335.000000;1.531926
9334.000000;1.532098
9333.000000;1.532067
9332.000000;1.531937
9331.000000;1.531840
9330.000000;1.531926
9329.000000;1.532161
9328.000000;1.532127
9327.000000;1.531407
9326.000000;1.530236
9325.000000;1.529488
9324.000000;1.529874
9323.000000;1.531283
9322.000000;1.532967
9321.000000;1.534248
9320.000000;1.534987
9319.000000;1.535403
9318.000000;1.535492
9317.000000;1.534744
9316.000000;1.532575
9315.000000;1.529127
9314.000000;1.525582
9313.000000;1.523399
9312.000000;1.523210
9311.000000;1.524423
9310.000000;1.525637
9309.000000;1.525503
9308.000000;1.523627
9307.000000;1.520926
9306.000000;1.518990
9305.000000;1.518787
9304.000000;1.519860
9303.000000;1.520821
9302.000000;1.520542
9301.000000;1.518844
9300.000000;1.516363
9299.000000;1.514111
9298.000000;1.513074
9297.000000;1.513737
9296.000000;1.515655
9295.000000;1.517656
9294.000000;1.518678
9293.000000;1.518481
9292.000000;1.517589
9291.000000;1.516676
9290.000000;1.516052
9289.000000;1.515622
9288.000000;1.515229
9287.000000;1.514975
9286.000000;1.515192
9285.000000;1.516085
9284.000000;1.517452
9283.000000;1.518797
9282.000000;1.519508
9281.000000;1.518957
9280.000000;1.517008
9279.000000;1.514657
9278.000000;1.513610
9277.000000;1.514713
9276.000000;1.516921
9275.000000;1.518148
9274.000000;1.517129
9273.000000;1.514230
9272.000000;1.510613
9271.000000;1.507360
9270.000000;1.505287
9269.000000;1.504727
9268.000000;1.505206
9267.000000;1.505807
9266.000000;1.506198
9265.000000;1.506949
9264.000000;1.508490
9263.000000;1.510047
9262.000000;1.510156
9261.000000;1.508370
9260.000000;1.506073
9259.000000;1.505213
9258.000000;1.506267
9257.000000;1.507637
9256.000000;1.507276
9255.000000;1.504879
9254.000000;1.502054
9253.000000;1.500283
9252.000000;1.499383
9251.000000;1.498323
9250.000000;1.496971
9249.000000;1.496293
9248.000000;1.496962
9247.000000;1.498480
9246.000000;1.499759
9245.000000;1.500041
9244.000000;1.499225
9243.000000;1.497850
9242.000000;1.496887
9241.000000;1.496967
9240.000000;1.497627
9239.000000;1.497908
9238.000000;1.497789
9237.000000;1.498271
9236.000000;1.499722
9235.000000;1.500944
9234.000000;1.500469
9233.000000;1.498191
9232.000000;1.495113
9231.000000;1.492130
9230.000000;1.489812
9229.000000;1.488825
9228.000000;1.489409
9227.000000;1.490539
9226.000000;1.490614
9225.000000;1.489368
9224.000000;1.488333
9223.000000;1.488963
9222.000000;1.490904
9221.000000;1.492554
9220.000000;1.492856
9219.000000;1.491960
9218.000000;1.490395
9217.000000;1.488506
9216.000000;1.486804
9215.000000;1.486139
9214.000000;1.486981
9213.000000;1.488701
9212.000000;1.489912
9211.000000;1.489594
9210.000000;1.487775
9209.000000;1.485275
9208.000000;1.483135
9207.000000;1.482157
9206.000000;1.482410
9205.000000;1.482975
9204.000000;1.482667
9203.000000;1.481349
9202.000000;1.480225
9201.000000;1.480621
9200.000000;1.482739
9199.000000;1.485698
9198.000000;1.488319
9197.000000;1.489524
9196.000000;1.488500
9195.000000;1.485349
9194.000000;1.481592
9193.000000;1.479238
9192.000000;1.479037
9191.000000;1.479939
9190.000000;1.480382
9189.000000;1.479861
9188.000000;1.479122
9187.000000;1.479123
9186.000000;1.480021
9185.000000;1.480924
9184.000000;1.480563
9183.000000;1.478523
9182.000000;1.475880
9181.000000;1.474282
9180.000000;1.474385
9179.000000;1.475475
9178.000000;1.476499
9177.000000;1.476964
9176.000000;1.476783
9175.000000;1.475833
9174.000000;1.474014
9173.000000;1.471466
9172.000000;1.468551
9171.000000;1.465861
9170.000000;1.464225
9169.000000;1.464181
9168.000000;1.465312
9167.000000;1.466504
9166.000000;1.467013
9165.000000;1.466895
9164.000000;1.466374
9163.000000;1.465418
9162.000000;1.464173
9161.000000;1.463179
9160.000000;1.462788
9159.000000;1.462847
9158.000000;1.463195
9157.000000;1.463987
9156.000000;1.465180
9155.000000;1.466203
9154.000000;1.466594
9153.000000;1.466603
9152.000000;1.466722
9151.000000;1.467002
9150.000000;1.467161
9149.000000;1.466893
9148.000000;1.465746
9147.000000;1.463339
9146.000000;1.460145
9145.000000;1.457530
9144.000000;1.456452
9143.000000;1.456612
9142.000000;1.457340
9141.000000;1.458630
9140.000000;1.460592
9139.000000;1.462505
9138.000000;1.463423
9137.000000;1.463481
9136.000000;1.463559
9135.000000;1.463792
9134.000000;1.463427
9133.000000;1.462231
9132.000000;1.461074
9131.000000;1.460892
9130.000000;1.461701
9129.000000;1.462707
9128.000000;1.462827
9127.000000;1.461230
9126.000000;1.458161
9125.000000;1.455225
9124.000000;1.454114
9123.000000;1.454938
9122.000000;1.456346
9121.000000;1.457224
9120.000000;1.457560
9119.000000;1.457677
9118.000000;1.457667
9117.000000;1.457802
9116.000000;1.458460
9115.000000;1.459110
9114.000000;1.458263
9113.000000;1.455220
9112.000000;1.451351
9111.000000;1.448953
9110.000000;1.449232
9109.000000;1.451690
9108.000000;1.454863
9107.000000;1.457269
9106.000000;1.458075
9105.000000;1.457470
9104.000000;1.456295
9103.000000;1.455026
9102.000000;1.453465
9101.000000;1.451638
9100.000000;1.450364
9099.000000;1.450344
9098.000000;1.451100
9097.000000;1.451453
9096.000000;1.450780
9095.000000;1.449282
9094.000000;1.447405
9093.000000;1.445680
9092.000000;1.444892
9091.000000;1.445631
9090.000000;1.447550
9089.000000;1.449530
9088.000000;1.450585
9087.000000;1.450238
9086.000000;1.448268
9085.000000;1.444918
9084.000000;1.441447
9083.000000;1.439662
9082.000000;1.440391
9081.000000;1.442581
9080.000000;1.444205
9079.000000;1.444094
9078.000000;1.442845
9077.000000;1.442107
9076.000000;1.443091
9075.000000;1.445434
9074.000000;1.447304
9073.000000;1.447003
9072.000000;1.444748
9071.000000;1.442586
9070.000000;1.442297
9069.000000;1.443665
9068.000000;1.445001
9067.000000;1.445109
9066.000000;1.444272
9065.000000;1.443335
9064.000000;1.442502
9063.000000;1.441459
9062.000000;1.440358
9061.000000;1.440038
9060.000000;1.441079
9059.000000;1.442890
9058.000000;1.444060
9057.000000;1.443743
9056.000000;1.442470
9055.000000;1.441413
9054.000000;1.440949
9053.000000;1.440270
9052.000000;1.438579
9051.000000;1.436498
9050.000000;1.435793
9049.000000;1.437487
9048.000000;1.440563
9047.000000;1.442845
9046.000000;1.443158
9045.000000;1.442193
9044.000000;1.441127
9043.000000;1.440073
9042.000000;1.438362
9041.000000;1.435922
9040.000000;1.433728
9039.000000;1.432836
9038.000000;1.433329
9037.000000;1.434334
9036.000000;1.434843
9035.000000;1.434453
9034.000000;1.433611
9033.000000;1.433236
9032.000000;1.433854
9031.000000;1.434986
9030.000000;1.435603
9029.000000;1.435328
9028.000000;1.434868
9027.000000;1.435010
9026.000000;1.435463
9025.000000;1.435130
9024.000000;1.433522
9023.000000;1.431560
9022.000000;1.430828
9021.000000;1.432126
9020.000000;1.434647
9019.000000;1.436499
9018.000000;1.436266
9017.000000;1.434214
9016.000000;1.431878
9015.000000;1.430485
9014.000000;1.430053
9013.000000;1.430022
9012.000000;1.430225
9011.000000;1.430792
9010.000000;1.431375
9009.000000;1.431165
9008.000000;1.429820
9007.000000;1.427926
9006.000000;1.426334
9005.000000;1.425439
9004.000000;1.425168
9003.000000;1.425291
9002.000000;1.425598
9001.000000;1.425940
9000.000000;1.426293
8999.000000;1.426722
8998.000000;1.427111
8997.000000;1.427167
8996.000000;1.426849
8995.000000;1.426532
8994.000000;1.426572
8993.000000;1.426859
8992.000000;1.427029
8991.000000;1.427012
8990.000000;1.427012
8989.000000;1.426997
8988.000000;1.426521
8987.000000;1.425205
8986.000000;1.423288
8985.000000;1.421640
8984.000000;1.421229
8983.000000;1.422374
8982.000000;1.424296
8981.000000;1.425608
8980.000000;1.425586
8979.000000;1.424867
8978.000000;1.424621
8977.000000;1.425196
8976.000000;1.425953
8975.000000;1.426286
8974.000000;1.426251
8973.000000;1.426103
8972.000000;1.425804
8971.000000;1.425246
8970.000000;1.424567
8969.000000;1.423995
8968.000000;1.423668
8967.000000;1.423713
8966.000000;1.424053
8965.000000;1.423997
8964.000000;1.422649
8963.000000;1.420177
8962.000000;1.418146
8961.000000;1.417985
8960.000000;1.419450
8959.000000;1.421150
8958.000000;1.422237
8957.000000;1.422898
8956.000000;1.423448
8955.000000;1.423799
8954.000000;1.423847
8953.000000;1.423591
8952.000000;1.422713
8951.000000;1.420777
8950.000000;1.418142
8949.000000;1.416019
8948.000000;1.415276
8947.000000;1.415673
8946.000000;1.416467
8945.000000;1.417170
8944.000000;1.417498
8943.000000;1.417260
8942.000000;1.416793
8941.000000;1.417014
8940.000000;1.418355
8939.000000;1.419897
8938.000000;1.420271
8937.000000;1.419215
8936.000000;1.417659
8935.000000;1.416465
8934.000000;1.415666
8933.000000;1.414796
8932.000000;1.413403
8931.000000;1.411360
8930.000000;1.409164
8929.000000;1.407964
8928.000000;1.408789
8927.000000;1.411504
8926.000000;1.414759
8925.000000;1.417084
8924.000000;1.417850
8923.000000;1.417246
8922.000000;1.415826
8921.000000;1.414274
8920.000000;1.413245
8919.000000;1.413073
8918.000000;1.413586
8917.000000;1.414171
8916.000000;1.414034
8915.000000;1.412705
8914.000000;1.410627
8913.000000;1.409056
8912.000000;1.408942
8911.000000;1.409917
8910.000000;1.410749
8909.000000;1.410727
8908.000000;1.410222
8907.000000;1.409937
8906.000000;1.410097
8905.000000;1.410491
8904.000000;1.410812
8903.000000;1.410770
8902.000000;1.410205
8901.000000;1.409283
8900.000000;1.408327
8899.000000;1.407454
8898.000000;1.406681
8897.000000;1.406374
8896.000000;1.407016
8895.000000;1.408377
8894.000000;1.409427
8893.000000;1.409424
8892.000000;1.408703
8891.000000;1.408058
8890.000000;1.407806
8889.000000;1.407844
8888.000000;1.408154
8887.000000;1.408628
8886.000000;1.408694
8885.000000;1.407808
8884.000000;1.406291
8883.000000;1.405097
8882.000000;1.404696
8881.000000;1.404700
8880.000000;1.404725
8879.000000;1.405087
8878.000000;1.406257
8877.000000;1.407927
8876.000000;1.409074
8875.000000;1.409023
8874.000000;1.408192
8873.000000;1.407589
8872.000000;1.407630
8871.000000;1.407706
8870.000000;1.407075
8869.000000;1.406037
8868.000000;1.405781
8867.000000;1.406961
8866.000000;1.408804
8865.000000;1.409963
8864.000000;1.409979
8863.000000;1.409412
8862.000000;1.408718
8861.000000;1.407689
8860.000000;1.406146
8859.000000;1.404629
8858.000000;1.403983
8857.000000;1.404454
8856.000000;1.405457
8855.000000;1.406089
8854.000000;1.405756
8853.000000;1.404508
8852.000000;1.403022
8851.000000;1.402137
8850.000000;1.402175
8849.000000;1.402784
8848.000000;1.403528
8847.000000;1.404434
8846.000000;1.405736
8845.000000;1.407262
8844.000000;1.408387
8843.000000;1.408615
8842.000000;1.407975
8841.000000;1.406919
8840.000000;1.406028
8839.000000;1.405742
8838.000000;1.406015
8837.000000;1.406233
8836.000000;1.405836
8835.000000;1.405095
8834.000000;1.404885
8833.000000;1.405527
8832.000000;1.406271
8831.000000;1.406289
8830.000000;1.405809
8829.000000;1.405702
8828.000000;1.406193
8827.000000;1.406634
8826.000000;1.406458
8825.000000;1.405755
8824.000000;1.404804
8823.000000;1.403701
8822.000000;1.402721
8821.000000;1.402530
8820.000000;1.403528
8819.000000;1.405268
8818.000000;1.406912
8817.000000;1.408054
8816.000000;1.408726
8815.000000;1.408819
8814.000000;1.408060
8813.000000;1.406591
8812.000000;1.405108
8811.000000;1.404265
8810.000000;1.404131
8809.000000;1.404335
8808.000000;1.404504
8807.000000;1.404486
8806.000000;1.404396
8805.000000;1.404519
8804.000000;1.404994
8803.000000;1.405585
8802.000000;1.405943
8801.000000;1.406049
8800.000000;1.406183
8799.000000;1.406460
8798.000000;1.406657
8797.000000;1.406565
8796.000000;1.406236
8795.000000;1.405800
8794.000000;1.405355
8793.000000;1.405176
8792.000000;1.405679
8791.000000;1.406842
8790.000000;1.407880
8789.000000;1.407924
8788.000000;1.406976
8787.000000;1.405846
8786.000000;1.405168
8785.000000;1.404889
8784.000000;1.404747
8783.000000;1.404795
8782.000000;1.405196
8781.000000;1.405780
8780.000000;1.406207
8779.000000;1.406471
8778.000000;1.406931
8777.000000;1.407826
8776.000000;1.408939
8775.000000;1.409739
8774.000000;1.409721
8773.000000;1.408707
8772.000000;1.407133
8771.000000;1.406042
8770.000000;1.406328
8769.000000;1.407714
8768.000000;1.408771
8767.000000;1.408348
8766.000000;1.406899
8765.000000;1.405950
8764.000000;1.406348
8763.000000;1.407551
8762.000000;1.408670
8761.000000;1.409631
8760.000000;1.410932
8759.000000;1.412603
8758.000000;1.413955
8757.000000;1.414371
8756.000000;1.413986
8755.000000;1.413523
8754.000000;1.413654
8753.000000;1.414491
8752.000000;1.415449
8751.000000;1.415657
8750.000000;1.414755
8749.000000;1.413364
8748.000000;1.412552
8747.000000;1.412763
8746.000000;1.413400
8745.000000;1.413498
8744.000000;1.412659
8743.000000;1.411286
8742.000000;1.410118
8741.000000;1.409648
8740.000000;1.409904
8739.000000;1.410620
8738.000000;1.411528
8737.000000;1.412470
8736.000000;1.413317
8735.000000;1.413954
8734.000000;1.414412
8733.000000;1.414837
8732.000000;1.415209
8731.000000;1.415355
8730.000000;1.415495
8729.000000;1.416437
8728.000000;1.418581
8727.000000;1.420760
8726.000000;1.420839
8725.000000;1.417986
8724.000000;1.413918
8723.000000;1.411267
8722.000000;1.411039
8721.000000;1.412122
8720.000000;1.412993
8719.000000;1.413350
8718.000000;1.413882
8717.000000;1.414962
8716.000000;1.416145
8715.000000;1.416823
8714.000000;1.416858
8713.000000;1.416481
8712.000000;1.416032
8711.000000;1.416076
8710.000000;1.417315
8709.000000;1.419781
8708.000000;1.422186
8707.000000;1.422751
8706.000000;1.421035
8705.000000;1.418508
8704.000000;1.416964
8703.000000;1.416812
8702.000000;1.417258
8701.000000;1.417642
8700.000000;1.417967
8699.000000;1.418281
8698.000000;1.418334
8697.000000;1.418035
8696.000000;1.417692
8695.000000;1.417522
8694.000000;1.417322
8693.000000;1.416904
8692.000000;1.416510
8691.000000;1.416521
8690.000000;1.417048
8689.000000;1.417977
8688.000000;1.419132
8687.000000;1.420145
8686.000000;1.420488
8685.000000;1.419918
8684.000000;1.418709
8683.000000;1.417294
8682.000000;1.415952
8681.000000;1.415086
8680.000000;1.415410
8679.000000;1.417357
8678.000000;1.420385
8677.000000;1.423211
8676.000000;1.424702
8675.000000;1.424462
8674.000000;1.422848
8673.000000;1.420749
8672.000000;1.419171
8671.000000;1.418621
8670.000000;1.418793
8669.000000;1.419034
8668.000000;1.419034
8667.000000;1.418902
8666.000000;1.418719
8665.000000;1.418392
8664.000000;1.417857
8663.000000;1.417093
8662.000000;1.416007
8661.000000;1.414663
8660.000000;1.413601
8659.000000;1.413551
8658.000000;1.414643
8657.000000;1.416066
8656.000000;1.416706
8655.000000;1.416104
8654.000000;1.414805
8653.000000;1.413871
8652.000000;1.414012
8651.000000;1.415048
8650.000000;1.416176
8649.000000;1.416866
8648.000000;1.417370
8647.000000;1.418196
8646.000000;1.419291
8645.000000;1.420123
8644.000000;1.420398
8643.000000;1.420212
8642.000000;1.419564
8641.000000;1.418321
8640.000000;1.416724
8639.000000;1.415429
8638.000000;1.414905
8637.000000;1.415199
8636.000000;1.416293
8635.000000;1.418115
8634.000000;1.419977
8633.000000;1.420624
8632.000000;1.419431
8631.000000;1.417233
8630.000000;1.415502
8629.000000;1.414925
8628.000000;1.415206
8627.000000;1.415897
8626.000000;1.416808
8625.000000;1.417661
8624.000000;1.418007
8623.000000;1.417707
8622.000000;1.417167
8621.000000;1.416918
8620.000000;1.417182
8619.000000;1.417901
8618.000000;1.418899
8617.000000;1.419822
8616.000000;1.420115
8615.000000;1.419354
8614.000000;1.417682
8613.000000;1.415863
8612.000000;1.414747
8611.000000;1.414548
8610.000000;1.414630
8609.000000;1.414177
8608.000000;1.413151
8607.000000;1.412354
8606.000000;1.412484
8605.000000;1.413395
8604.000000;1.414473
8603.000000;1.415412
8602.000000;1.416214
8601.000000;1.416685
8600.000000;1.416486
8599.000000;1.415681
8598.000000;1.414772
8597.000000;1.414111
8596.000000;1.413721
8595.000000;1.413736
8594.000000;1.414472
8593.000000;1.415763
8592.000000;1.416630
8591.000000;1.416081
8590.000000;1.414147
8589.000000;1.411872
8588.000000;1.410383
8587.000000;1.410151
8586.000000;1.410921
8585.000000;1.411969
8584.000000;1.412480
8583.000000;1.412042
8582.000000;1.411005
8581.000000;1.410227
8580.000000;1.410354
8579.000000;1.411287
8578.000000;1.412335
8577.000000;1.412864
8576.000000;1.412814
8575.000000;1.412649
8574.000000;1.412820
8573.000000;1.413336
8572.000000;1.413856
8571.000000;1.414099
8570.000000;1.414004
8569.000000;1.413637
8568.000000;1.413164
8567.000000;1.412887
8566.000000;1.413078
8565.000000;1.413732
8564.000000;1.414610
8563.000000;1.415440
8562.000000;1.415896
8561.000000;1.415588
8560.000000;1.414449
8559.000000;1.413067
8558.000000;1.412162
8557.000000;1.411671
8556.000000;1.410861
8555.000000;1.409496
8554.000000;1.408360
8553.000000;1.408297
8552.000000;1.409128
8551.000000;1.409948
8550.000000;1.410208
8549.000000;1.410051
8548.000000;1.409831
8547.000000;1.409851
8546.000000;1.410412
8545.000000;1.411471
8544.000000;1.412210
8543.000000;1.411582
8542.000000;1.409533
8541.000000;1.407232
8540.000000;1.405880
8539.000000;1.405660
8538.000000;1.405989
8537.000000;1.406374
8536.000000;1.406684
8535.000000;1.406870
8534.000000;1.406900
8533.000000;1.406953
8532.000000;1.407318
8531.000000;1.408053
8530.000000;1.408876
8529.000000;1.409444
8528.000000;1.409602
8527.000000;1.409335
8526.000000;1.408602
8525.000000;1.407410
8524.000000;1.406070
8523.000000;1.405159
8522.000000;1.405050
8521.000000;1.405520
8520.000000;1.406011
8519.000000;1.406288
8518.000000;1.406631
8517.000000;1.407285
8516.000000;1.408012
8515.000000;1.408438
8514.000000;1.408602
8513.000000;1.408811
8512.000000;1.409017
8511.000000;1.408797
8510.000000;1.407998
8509.000000;1.407071
8508.000000;1.406622
8507.000000;1.406856
8506.000000;1.407483
8505.000000;1.407999
8504.000000;1.408000
8503.000000;1.407458
8502.000000;1.406757
8501.000000;1.406302
8500.000000;1.406139
8499.000000;1.406095
8498.000000;1.406186
8497.000000;1.406529
8496.000000;1.406947
8495.000000;1.407069
8494.000000;1.406892
8493.000000;1.406832
8492.000000;1.407089
8491.000000;1.407342
8490.000000;1.407252
8489.000000;1.406922
8488.000000;1.406620
8487.000000;1.406348
8486.000000;1.405946
8485.000000;1.405365
8484.000000;1.404592
8483.000000;1.403558
8482.000000;1.402387
8481.000000;1.401494
8480.000000;1.401149
8479.000000;1.401178
8478.000000;1.401421
8477.000000;1.402158
8476.000000;1.403629
8475.000000;1.405344
8474.000000;1.406402
8473.000000;1.406502
8472.000000;1.406191
8471.000000;1.406095
8470.000000;1.406340
8469.000000;1.406754
8468.000000;1.407118
8467.000000;1.407057
8466.000000;1.406142
8465.000000;1.404486
8464.000000;1.403009
8463.000000;1.402745
8462.000000;1.403892
8461.000000;1.405700
8460.000000;1.407198
8459.000000;1.407839
8458.000000;1.407545
8457.000000;1.406508
8456.000000;1.405166
8455.000000;1.404175
8454.000000;1.404031
8453.000000;1.404574
8452.000000;1.405030
8451.000000;1.404769
8450.000000;1.403935
8449.000000;1.403171
8448.000000;1.402868
8447.000000;1.402928
8446.000000;1.403152
8445.000000;1.403412
8444.000000;1.403377
8443.000000;1.402571
8442.000000;1.401084
8441.000000;1.399810
8440.000000;1.399521
8439.000000;1.399934
8438.000000;1.400125
8437.000000;1.399714
8436.000000;1.399171
8435.000000;1.399023
8434.000000;1.399284
8433.000000;1.399767
8432.000000;1.400416
8431.000000;1.401093
8430.000000;1.401469
8429.000000;1.401427
8428.000000;1.401304
8427.000000;1.401451
8426.000000;1.401752
8425.000000;1.401828
8424.000000;1.401558
8423.000000;1.401097
8422.000000;1.400556
8421.000000;1.399958
8420.000000;1.399491
8419.000000;1.399507
8418.000000;1.400199
8417.000000;1.401374
8416.000000;1.402476
8415.000000;1.402786
8414.000000;1.401784
8413.000000;1.399630
8412.000000;1.397371
8411.000000;1.396396
8410.000000;1.397393
8409.000000;1.399731
8408.000000;1.401936
8407.000000;1.402948
8406.000000;1.402913
8405.000000;1.402648
8404.000000;1.402518
8403.000000;1.402116
8402.000000;1.401075
8401.000000;1.399788
8400.000000;1.399001
8399.000000;1.398935
8398.000000;1.399190
8397.000000;1.399402
8396.000000;1.399558
8395.000000;1.399647
8394.000000;1.399481
8393.000000;1.399063
8392.000000;1.398758
8391.000000;1.398811
8390.000000;1.398994
8389.000000;1.399038
8388.000000;1.399178
8387.000000;1.399859
8386.000000;1.400971
8385.000000;1.401778
8384.000000;1.401647
8383.000000;1.400667
8382.000000;1.399500
8381.000000;1.398771
8380.000000;1.398588
8379.000000;1.398529
8378.000000;1.398115
8377.000000;1.397418
8376.000000;1.397066
8375.000000;1.397463
8374.000000;1.398183
8373.000000;1.398430
8372.000000;1.398021
8371.000000;1.397512
8370.000000;1.397329
8369.000000;1.397216
8368.000000;1.396767
8367.000000;1.396162
8366.000000;1.396005
8365.000000;1.396594
8364.000000;1.397667
8363.000000;1.398862
8362.000000;1.400083
8361.000000;1.401263
8360.000000;1.402001
8359.000000;1.401725
8358.000000;1.400275
8357.000000;1.398204
8356.000000;1.396444
8355.000000;1.395647
8354.000000;1.395783
8353.000000;1.396250
8352.000000;1.396358
8351.000000;1.395841
8350.000000;1.395088
8349.000000;1.394886
8348.000000;1.395785
8347.000000;1.397524
8346.000000;1.399125
8345.000000;1.399684
8344.000000;1.399136
8343.000000;1.398196
8342.000000;1.397579
8341.000000;1.397424
8340.000000;1.397432
8339.000000;1.397341
8338.000000;1.397154
8337.000000;1.396991
8336.000000;1.396888
8335.000000;1.396793
8334.000000;1.396652
8333.000000;1.396443
8332.000000;1.396094
8331.000000;1.395431
8330.000000;1.394321
8329.000000;1.392944
8328.000000;1.391802
8327.000000;1.391329
8326.000000;1.391473
8325.000000;1.391808
8324.000000;1.392069
8323.000000;1.392464
8322.000000;1.393344
8321.000000;1.394660
8320.000000;1.395909
8319.000000;1.396567
8318.000000;1.396456
8317.000000;1.395759
8316.000000;1.394908
8315.000000;1.394461
8314.000000;1.394796
8313.000000;1.395674
8312.000000;1.396267
8311.000000;1.395901
8310.000000;1.394768
8309.000000;1.393677
8308.000000;1.393139
8307.000000;1.392918
8306.000000;1.392517
8305.000000;1.391809
8304.000000;1.391031
8303.000000;1.390418
8302.000000;1.390123
8301.000000;1.390302
8300.000000;1.390980
8299.000000;1.391820
8298.000000;1.392278
8297.000000;1.392050
8296.000000;1.391251
8295.000000;1.390185
8294.000000;1.389189
8293.000000;1.388657
8292.000000;1.388850
8291.000000;1.389508
8290.000000;1.389925
8289.000000;1.389690
8288.000000;1.389199
8287.000000;1.389171
8286.000000;1.389807
8285.000000;1.390675
8284.000000;1.391256
8283.000000;1.391330
8282.000000;1.390914
8281.000000;1.390225
8280.000000;1.389760
8279.000000;1.390000
8278.000000;1.390807
8277.000000;1.391358
8276.000000;1.390962
8275.000000;1.389833
8274.000000;1.388842
8273.000000;1.388642
8272.000000;1.389202
8271.000000;1.389988
8270.000000;1.390379
8269.000000;1.390048
8268.000000;1.389264
8267.000000;1.388823
8266.000000;1.389373
8265.000000;1.390724
8264.000000;1.391982
8263.000000;1.392430
8262.000000;1.392066
8261.000000;1.391240
8260.000000;1.390149
8259.000000;1.388914
8258.000000;1.387854
8257.000000;1.387277
8256.000000;1.387079
8255.000000;1.386898
8254.000000;1.386683
8253.000000;1.386779
8252.000000;1.387339
8251.000000;1.387961
8250.000000;1.388130
8249.000000;1.387846
8248.000000;1.387577
8247.000000;1.387622
8246.000000;1.387802
8245.000000;1.387814
8244.000000;1.387684
8243.000000;1.387680
8242.000000;1.387846
8241.000000;1.387855
8240.000000;1.387424
8239.000000;1.386736
8238.000000;1.386263
8237.000000;1.386238
8236.000000;1.386481
8235.000000;1.386786
8234.000000;1.387210
8233.000000;1.387796
8232.000000;1.388225
8231.000000;1.388108
8230.000000;1.387623
8229.000000;1.387473
8228.000000;1.388032
8227.000000;1.388801
8226.000000;1.388937
8225.000000;1.388162
8224.000000;1.386919
8223.000000;1.385765
8222.000000;1.384932
8221.000000;1.384427
8220.000000;1.384218
8219.000000;1.384226
8218.000000;1.384323
8217.000000;1.384471
8216.000000;1.384742
8215.000000;1.385151
8214.000000;1.385588
8213.000000;1.385935
8212.000000;1.386081
8211.000000;1.385800
8210.000000;1.384882
8209.000000;1.383569
8208.000000;1.382632
8207.000000;1.382733
8206.000000;1.383696
8205.000000;1.384626
8204.000000;1.384846
8203.000000;1.384593
8202.000000;1.384663
8201.000000;1.385433
8200.000000;1.386397
8199.000000;1.386693
8198.000000;1.386062
8197.000000;1.385143
8196.000000;1.384777
8195.000000;1.385118
8194.000000;1.385564
8193.000000;1.385497
8192.000000;1.384893
8191.000000;1.384153
8190.000000;1.383582
8189.000000;1.383230
8188.000000;1.383137
8187.000000;1.383443
8186.000000;1.384136
8185.000000;1.384831
8184.000000;1.384956
8183.000000;1.384260
8182.000000;1.383141
8181.000000;1.382378
8180.000000;1.382405
8179.000000;1.382897
8178.000000;1.383224
8177.000000;1.383269
8176.000000;1.383508
8175.000000;1.384150
8174.000000;1.384597
8173.000000;1.384118
8172.000000;1.382909
8171.000000;1.381975
8170.000000;1.381982
8169.000000;1.382634
8168.000000;1.383243
8167.000000;1.383505
8166.000000;1.383516
8165.000000;1.383347
8164.000000;1.382968
8163.000000;1.382480
8162.000000;1.382107
8161.000000;1.381996
8160.000000;1.382198
8159.000000;1.382740
8158.000000;1.383488
8157.000000;1.384005
8156.000000;1.383811
8155.000000;1.382891
8154.000000;1.381800
8153.000000;1.381213
8152.000000;1.381412
8151.000000;1.382159
8150.000000;1.382910
8149.000000;1.383207
8148.000000;1.383047
8147.000000;1.382866
8146.000000;1.383027
8145.000000;1.383331
8144.000000;1.383207
8143.000000;1.382399
8142.000000;1.381295
8141.000000;1.380500
8140.000000;1.380258
8139.000000;1.380390
8138.000000;1.380630
8137.000000;1.380814
8136.000000;1.380823
8135.000000;1.380556
8134.000000;1.380051
8133.000000;1.379555
8132.000000;1.379364
8131.000000;1.379544
8130.000000;1.379853
8129.000000;1.379963
8128.000000;1.379810
8127.000000;1.379673
8126.000000;1.379872
8125.000000;1.380377
8124.000000;1.380772
8123.000000;1.380574
8122.000000;1.379646
8121.000000;1.378383
8120.000000;1.377544
8119.000000;1.377744
8118.000000;1.378914
8117.000000;1.380305
8116.000000;1.381186
8115.000000;1.381488
8114.000000;1.381555
8113.000000;1.381431
8112.000000;1.380795
8111.000000;1.379659
8110.000000;1.378670
8109.000000;1.378428
8108.000000;1.378766
8107.000000;1.379015
8106.000000;1.378874
8105.000000;1.378680
8104.000000;1.378824
8103.000000;1.379220
8102.000000;1.379431
8101.000000;1.379174
8100.000000;1.378575
8099.000000;1.378048
8098.000000;1.377939
8097.000000;1.378236
8096.000000;1.378574
8095.000000;1.378634
8094.000000;1.378481
8093.000000;1.378422
8092.000000;1.378558
8091.000000;1.378659
8090.000000;1.378503
8089.000000;1.378172
8088.000000;1.377930
8087.000000;1.377922
8086.000000;1.378077
8085.000000;1.378224
8084.000000;1.378216
8083.000000;1.377978
8082.000000;1.377537
8081.000000;1.377044
8080.000000;1.376739
8079.000000;1.376856
8078.000000;1.377493
8077.000000;1.378510
8076.000000;1.379563
8075.000000;1.380277
8074.000000;1.380373
8073.000000;1.379724
8072.000000;1.378442
8071.000000;1.376995
8070.000000;1.376048
8069.000000;1.375971
8068.000000;1.376499
8067.000000;1.377021
8066.000000;1.377184
8065.000000;1.377115
8064.000000;1.377074
8063.000000;1.377129
8062.000000;1.377213
8061.000000;1.377293
8060.000000;1.377341
8059.000000;1.377248
8058.000000;1.376909
8057.000000;1.376373
8056.000000;1.375835
8055.000000;1.375511
8054.000000;1.375493
8053.000000;1.375638
8052.000000;1.375637
8051.000000;1.375305
8050.000000;1.374795
8049.000000;1.374407
8048.000000;1.374219
8047.000000;1.374088
8046.000000;1.374005
8045.000000;1.374200
8044.000000;1.374731
8043.000000;1.375219
8042.000000;1.375241
8041.000000;1.374886
8040.000000;1.374650
8039.000000;1.374816
8038.000000;1.375194
8037.000000;1.375495
8036.000000;1.375741
8035.000000;1.376164
8034.000000;1.376845
8033.000000;1.377621
8032.000000;1.378283
8031.000000;1.378719
8030.000000;1.378845
8029.000000;1.378482
8028.000000;1.377467
8027.000000;1.375938
8026.000000;1.374442
8025.000000;1.373607
8024.000000;1.373626
8023.000000;1.374114
8022.000000;1.374512
8021.000000;1.374584
8020.000000;1.374481
8019.000000;1.374397
8018.000000;1.374360
8017.000000;1.374378
8016.000000;1.374580
8015.000000;1.375057
8014.000000;1.375647
8013.000000;1.376033
8012.000000;1.376096
8011.000000;1.376065
8010.000000;1.376229
8009.000000;1.376554
8008.000000;1.376670
8007.000000;1.376291
8006.000000;1.375624
8005.000000;1.375292
8004.000000;1.375781
8003.000000;1.376904
8002.000000;1.377823
8001.000000;1.377714
8000.000000;1.376539
7999.000000;1.375080
7998.000000;1.374196
7997.000000;1.374095
7996.000000;1.374333
7995.000000;1.374398
7994.000000;1.374160
7993.000000;1.373790
7992.000000;1.373477
7991.000000;1.373365
7990.000000;1.373611
7989.000000;1.374263
7988.000000;1.375127
7987.000000;1.375890
7986.000000;1.376363
7985.000000;1.376503
7984.000000;1.376265
7983.000000;1.375665
7982.000000;1.374951
7981.000000;1.374457
7980.000000;1.374188
7979.000000;1.373770
7978.000000;1.372945
7977.000000;1.371989
7976.000000;1.371456
7975.000000;1.371594
7974.000000;1.372170
7973.000000;1.372816
7972.000000;1.373368
7971.000000;1.373841
7970.000000;1.374196
7969.000000;1.374255
7968.000000;1.373854
7967.000000;1.373085
7966.000000;1.372347
7965.000000;1.372033
7964.000000;1.372133
7963.000000;1.372232
7962.000000;1.371994
7961.000000;1.371578
7960.000000;1.371460
7959.000000;1.371873
7958.000000;1.372568
7957.000000;1.373102
7956.000000;1.373273
7955.000000;1.373226
7954.000000;1.373243
7953.000000;1.373448
7952.000000;1.373710
7951.000000;1.373785
7950.000000;1.373573
7949.000000;1.373191
7948.000000;1.372791
7947.000000;1.372419
7946.000000;1.372118
7945.000000;1.372016
7944.000000;1.372150
7943.000000;1.372258
7942.000000;1.372020
7941.000000;1.371524
7940.000000;1.371295
7939.000000;1.371717
7938.000000;1.372570
7937.000000;1.373277
7936.000000;1.373530
7935.000000;1.373469
7934.000000;1.373310
7933.000000;1.373021
7932.000000;1.372472
7931.000000;1.371772
7930.000000;1.371321
7929.000000;1.371440
7928.000000;1.372012
7927.000000;1.372535
7926.000000;1.372577
7925.000000;1.372201
7924.000000;1.371903
7923.000000;1.372127
7922.000000;1.372853
7921.000000;1.373616
7920.000000;1.373880
7919.000000;1.373422
7918.000000;1.372457
7917.000000;1.371461
7916.000000;1.370841
7915.000000;1.370705
7914.000000;1.370942
7913.000000;1.371408
7912.000000;1.371945
7911.000000;1.372274
7910.000000;1.372110
7909.000000;1.371543
7908.000000;1.371144
7907.000000;1.371457
7906.000000;1.372401
7905.000000;1.373331
7904.000000;1.373705
7903.000000;1.373545
7902.000000;1.373228
7901.000000;1.373062
7900.000000;1.373116
7899.000000;1.373274
7898.000000;1.373306
7897.000000;1.373039
7896.000000;1.372599
7895.000000;1.372371
7894.000000;1.372581
7893.000000;1.373008
7892.000000;1.373260
7891.000000;1.373225
7890.000000;1.373043
7889.000000;1.372748
7888.000000;1.372242
7887.000000;1.371631
7886.000000;1.371288
7885.000000;1.371431
7884.000000;1.371826
7883.000000;1.372068
7882.000000;1.372025
7881.000000;1.371892
7880.000000;1.371891
7879.000000;1.372072
7878.000000;1.372336
7877.000000;1.372527
7876.000000;1.372511
7875.000000;1.372305
7874.000000;1.372098
7873.000000;1.372112
7872.000000;1.372417
7871.000000;1.372906
7870.000000;1.373355
7869.000000;1.373511
7868.000000;1.373260
7867.000000;1.372804
7866.000000;1.372503
7865.000000;1.372444
7864.000000;1.372294
7863.000000;1.371748
7862.000000;1.371010
7861.000000;1.370603
7860.000000;1.370760
7859.000000;1.371219
7858.000000;1.371614
7857.000000;1.371865
7856.000000;1.372082
7855.000000;1.372250
7854.000000;1.372186
7853.000000;1.371785
7852.000000;1.371223
7851.000000;1.370913
7850.000000;1.371188
7849.000000;1.371979
7848.000000;1.372840
7847.000000;1.373355
7846.000000;1.373472
7845.000000;1.373378
7844.000000;1.373184
7843.000000;1.372894
7842.000000;1.372592
7841.000000;1.372400
7840.000000;1.372268
7839.000000;1.371983
7838.000000;1.371435
7837.000000;1.370745
7836.000000;1.370163
7835.000000;1.370004
7834.000000;1.370605
7833.000000;1.372036
7832.000000;1.373775
7831.000000;1.374974
7830.000000;1.375190
7829.000000;1.374686
7828.000000;1.373939
7827.000000;1.373167
7826.000000;1.372484
7825.000000;1.372197
7824.000000;1.372571
7823.000000;1.373397
7822.000000;1.374061
7821.000000;1.374084
7820.000000;1.373472
7819.000000;1.372602
7818.000000;1.371934
7817.000000;1.371767
7816.000000;1.372108
7815.000000;1.372749
7814.000000;1.373519
7813.000000;1.374321
7812.000000;1.374923
7811.000000;1.374963
7810.000000;1.374391
7809.000000;1.373701
7808.000000;1.373408
7807.000000;1.373406
7806.000000;1.373175
7805.000000;1.372563
7804.000000;1.372034
7803.000000;1.372081
7802.000000;1.372683
7801.000000;1.373441
7800.000000;1.373979
7799.000000;1.374136
7798.000000;1.373986
7797.000000;1.373823
7796.000000;1.373950
7795.000000;1.374347
7794.000000;1.374656
7793.000000;1.374578
7792.000000;1.374184
7791.000000;1.373753
7790.000000;1.373483
7789.000000;1.373423
7788.000000;1.373535
7787.000000;1.373684
7786.000000;1.373730
7785.000000;1.373742
7784.000000;1.373963
7783.000000;1.374446
7782.000000;1.374892
7781.000000;1.375046
7780.000000;1.375078
7779.000000;1.375327
7778.000000;1.375766
7777.000000;1.375999
7776.000000;1.375771
7775.000000;1.375213
7774.000000;1.374602
7773.000000;1.374125
7772.000000;1.373939
7771.000000;1.374141
7770.000000;1.374519
7769.000000;1.374558
7768.000000;1.373961
7767.000000;1.373076
7766.000000;1.372631
7765.000000;1.373045
7764.000000;1.374117
7763.000000;1.375298
7762.000000;1.376115
7761.000000;1.376352
7760.000000;1.376083
7759.000000;1.375638
7758.000000;1.375444
7757.000000;1.375730
7756.000000;1.376359
7755.000000;1.376990
7754.000000;1.377404
7753.000000;1.377635
7752.000000;1.377803
7751.000000;1.377916
7750.000000;1.377902
7749.000000;1.377791
7748.000000;1.377741
7747.000000;1.377841
7746.000000;1.377943
7745.000000;1.377820
7744.000000;1.377496
7743.000000;1.377308
7742.000000;1.377544
7741.000000;1.378098
7740.000000;1.378560
7739.000000;1.378637
7738.000000;1.378374
7737.000000;1.378006
7736.000000;1.377704
7735.000000;1.377530
7734.000000;1.377528
7733.000000;1.377731
7732.000000;1.378099
7731.000000;1.378498
7730.000000;1.378768
7729.000000;1.378844
7728.000000;1.378812
7727.000000;1.378824
7726.000000;1.378915
7725.000000;1.378917
7724.000000;1.378630
7723.000000;1.378060
7722.000000;1.377435
7721.000000;1.376987
7720.000000;1.376823
7719.000000;1.376995
7718.000000;1.377516
7717.000000;1.378223
7716.000000;1.378773
7715.000000;1.378921
7714.000000;1.378757
7713.000000;1.378570
7712.000000;1.378534
7711.000000;1.378608
7710.000000;1.378685
7709.000000;1.378686
7708.000000;1.378583
7707.000000;1.378459
7706.000000;1.378538
7705.000000;1.379023
7704.000000;1.379843
7703.000000;1.380631
7702.000000;1.381006
7701.000000;1.380833
7700.000000;1.380300
7699.000000;1.379785
7698.000000;1.379598
7697.000000;1.379735
7696.000000;1.379906
7695.000000;1.379906
7694.000000;1.379881
7693.000000;1.380117
7692.000000;1.380631
7691.000000;1.381156
7690.000000;1.381488
7689.000000;1.381623
7688.000000;1.381551
7687.000000;1.381188
7686.000000;1.380642
7685.000000;1.380298
7684.000000;1.380455
7683.000000;1.380989
7682.000000;1.381536
7681.000000;1.381932
7680.000000;1.382308
7679.000000;1.382816
7678.000000;1.383396
7677.000000;1.383848
7676.000000;1.384043
7675.000000;1.384008
7674.000000;1.383819
7673.000000;1.383471
7672.000000;1.382939
7671.000000;1.382407
7670.000000;1.382297
7669.000000;1.382895
7668.000000;1.383958
7667.000000;1.384860
7666.000000;1.385159
7665.000000;1.384907
7664.000000;1.384418
7663.000000;1.383924
7662.000000;1.383533
7661.000000;1.383324
7660.000000;1.383350
7659.000000;1.383647
7658.000000;1.384227
7657.000000;1.384949
7656.000000;1.385393
7655.000000;1.385184
7654.000000;1.384535
7653.000000;1.384207
7652.000000;1.384715
7651.000000;1.385756
7650.000000;1.386597
7649.000000;1.386867
7648.000000;1.386780
7647.000000;1.386719
7646.000000;1.386869
7645.000000;1.387160
7644.000000;1.387336
7643.000000;1.387133
7642.000000;1.386591
7641.000000;1.386137
7640.000000;1.386163
7639.000000;1.386610
7638.000000;1.387116
7637.000000;1.387469
7636.000000;1.387709
7635.000000;1.387888
7634.000000;1.388036
7633.000000;1.388299
7632.000000;1.388831
7631.000000;1.389518
7630.000000;1.390078
7629.000000;1.390460
7628.000000;1.390874
7627.000000;1.391362
7626.000000;1.391620
7625.000000;1.391382
7624.000000;1.390802
7623.000000;1.390292
7622.000000;1.390133
7621.000000;1.390325
7620.000000;1.390711
7619.000000;1.391113
7618.000000;1.391441
7617.000000;1.391745
7616.000000;1.392085
7615.000000;1.392343
7614.000000;1.392306
7613.000000;1.391999
7612.000000;1.391792
7611.000000;1.392062
7610.000000;1.392812
7609.000000;1.393668
7608.000000;1.394207
7607.000000;1.394263
7606.000000;1.394058
7605.000000;1.394045
7604.000000;1.394479
7603.000000;1.395076
7602.000000;1.395231
7601.000000;1.394713
7600.000000;1.394014
7599.000000;1.393890
7598.000000;1.394606
7597.000000;1.395712
7596.000000;1.396492
7595.000000;1.396554
7594.000000;1.396072
7593.000000;1.395579
7592.000000;1.395549
7591.000000;1.396088
7590.000000;1.396923
7589.000000;1.397667
7588.000000;1.398092
7587.000000;1.398202
7586.000000;1.398155
7585.000000;1.398128
7584.000000;1.398201
7583.000000;1.398333
7582.000000;1.398439
7581.000000;1.398496
7580.000000;1.398549
7579.000000;1.398651
7578.000000;1.398854
7577.000000;1.399191
7576.000000;1.399627
7575.000000;1.400054
7574.000000;1.400415
7573.000000;1.400765
7572.000000;1.401130
7571.000000;1.401403
7570.000000;1.401521
7569.000000;1.401644
7568.000000;1.401968
7567.000000;1.402439
7566.000000;1.402851
7565.000000;1.403194
7564.000000;1.403650
7563.000000;1.404215
7562.000000;1.404605
7561.000000;1.404666
7560.000000;1.404637
7559.000000;1.404871
7558.000000;1.405439
7557.000000;1.406146
7556.000000;1.406756
7555.000000;1.407078
7554.000000;1.407003
7553.000000;1.406659
7552.000000;1.406431
7551.000000;1.406657
7550.000000;1.407334
7549.000000;1.408188
7548.000000;1.408931
7547.000000;1.409359
7546.000000;1.409377
7545.000000;1.409154
7544.000000;1.409137
7543.000000;1.409690
7542.000000;1.410690
7541.000000;1.411658
7540.000000;1.412263
7539.000000;1.412555
7538.000000;1.412690
7537.000000;1.412657
7536.000000;1.412411
7535.000000;1.412131
7534.000000;1.412156
7533.000000;1.412616
7532.000000;1.413240
7531.000000;1.413580
7530.000000;1.413453
7529.000000;1.413087
7528.000000;1.412860
7527.000000;1.412980
7526.000000;1.413492
7525.000000;1.414437
7524.000000;1.415793
7523.000000;1.417246
7522.000000;1.418276
7521.000000;1.418605
7520.000000;1.418464
7519.000000;1.418321
7518.000000;1.418434
7517.000000;1.418755
7516.000000;1.419131
7515.000000;1.419440
7514.000000;1.419618
7513.000000;1.419705
7512.000000;1.419861
7511.000000;1.420220
7510.000000;1.420709
7509.000000;1.421101
7508.000000;1.421250
7507.000000;1.421217
7506.000000;1.421196
7505.000000;1.421362
7504.000000;1.421760
7503.000000;1.422262
7502.000000;1.422658
7501.000000;1.422837
7500.000000;1.422874
7499.000000;1.422935
7498.000000;1.423143
7497.000000;1.423529
7496.000000;1.424078
7495.000000;1.424666
7494.000000;1.425075
7493.000000;1.425381
7492.000000;1.425797
7491.000000;1.426499
7490.000000;1.427330
7489.000000;1.427925
7488.000000;1.428075
7487.000000;1.427960
7486.000000;1.427976
7485.000000;1.428378
7484.000000;1.429095
7483.000000;1.429847
7482.000000;1.430437
7481.000000;1.430890
7480.000000;1.431294
7479.000000;1.431584
7478.000000;1.431629
7477.000000;1.431503
7476.000000;1.431475
7475.000000;1.431683
7474.000000;1.432003
7473.000000;1.432339
7472.000000;1.432855
7471.000000;1.433749
7470.000000;1.434876
7469.000000;1.435779
7468.000000;1.436089
7467.000000;1.435825
7466.000000;1.435341
7465.000000;1.435077
7464.000000;1.435305
7463.000000;1.435995
7462.000000;1.436887
7461.000000;1.437734
7460.000000;1.438437
7459.000000;1.438977
7458.000000;1.439341
7457.000000;1.439633
7456.000000;1.440080
7455.000000;1.440781
7454.000000;1.441499
7453.000000;1.441870
7452.000000;1.441794
7451.000000;1.441518
7450.000000;1.441382
7449.000000;1.441610
7448.000000;1.442241
7447.000000;1.443106
7446.000000;1.443868
7445.000000;1.444272
7444.000000;1.444366
7443.000000;1.444387
7442.000000;1.444463
7441.000000;1.444565
7440.000000;1.444702
7439.000000;1.444965
7438.000000;1.445366
7437.000000;1.445814
7436.000000;1.446317
7435.000000;1.447014
7434.000000;1.447899
7433.000000;1.448661
7432.000000;1.448957
7431.000000;1.448803
7430.000000;1.448553
7429.000000;1.448551
7428.000000;1.448872
7427.000000;1.449370
7426.000000;1.449860
7425.000000;1.450232
7424.000000;1.450484
7423.000000;1.450697
7422.000000;1.450968
7421.000000;1.451355
7420.000000;1.451892
7419.000000;1.452592
7418.000000;1.453348
7417.000000;1.453871
7416.000000;1.453884
7415.000000;1.453448
7414.000000;1.453023
7413.000000;1.453095
7412.000000;1.453778
7411.000000;1.454831
7410.000000;1.455945
7409.000000;1.456861
7408.000000;1.457302
7407.000000;1.457089
7406.000000;1.456460
7405.000000;1.456075
7404.000000;1.456444
7403.000000;1.457426
7402.000000;1.458403
7401.000000;1.458860
7400.000000;1.458728
7399.000000;1.458325
7398.000000;1.458142
7397.000000;1.458519
7396.000000;1.459313
7395.000000;1.459952
7394.000000;1.460036
7393.000000;1.459816
7392.000000;1.459824
7391.000000;1.460221
7390.000000;1.460851
7389.000000;1.461756
7388.000000;1.463138
7387.000000;1.464809
7386.000000;1.466137
7385.000000;1.466668
7384.000000;1.466425
7383.000000;1.465581
7382.000000;1.464353
7381.000000;1.463370
7380.000000;1.463500
7379.000000;1.464785
7378.000000;1.465977
7377.000000;1.465740
7376.000000;1.464254
7375.000000;1.463215
7374.000000;1.464081
7373.000000;1.466536
7372.000000;1.468821
7371.000000;1.469432
7370.000000;1.468436
7369.000000;1.467276
7368.000000;1.467365
7367.000000;1.468817
7366.000000;1.470614
7365.000000;1.471833
7364.000000;1.472292
7363.000000;1.472108
7362.000000;1.471452
7361.000000;1.470942
7360.000000;1.471440
7359.000000;1.472904
7358.000000;1.473992
7357.000000;1.473467
7356.000000;1.471798
7355.000000;1.470828
7354.000000;1.471808
7353.000000;1.474199
7352.000000;1.476408
7351.000000;1.477185
7350.000000;1.476443
7349.000000;1.475294
7348.000000;1.475136
7347.000000;1.476194
7346.000000;1.477178
7345.000000;1.476927
7344.000000;1.475858
7343.000000;1.475026
7342.000000;1.474341
7341.000000;1.473014
7340.000000;1.471675
7339.000000;1.472378
7338.000000;1.475800
7337.000000;1.479952
7336.000000;1.482464
7335.000000;1.483004
7334.000000;1.482950
7333.000000;1.483553
7332.000000;1.484854
7331.000000;1.485851
7330.000000;1.485257
7329.000000;1.482751
7328.000000;1.480036
7327.000000;1.479753
7326.000000;1.482486
7325.000000;1.485823
7324.000000;1.487328
7323.000000;1.487353
7322.000000;1.487973
7321.000000;1.489960
7320.000000;1.492072
7319.000000;1.492956
7318.000000;1.492600
7317.000000;1.491967
7316.000000;1.492037
7315.000000;1.493135
7314.000000;1.494582
7313.000000;1.495208
7312.000000;1.494728
7311.000000;1.494249
7310.000000;1.494740
7309.000000;1.495453
7308.000000;1.495040
7307.000000;1.493962
7306.000000;1.494384
7305.000000;1.497357
7304.000000;1.501307
7303.000000;1.503895
7302.000000;1.504254
7301.000000;1.503106
7300.000000;1.501862
7299.000000;1.501973
7298.000000;1.504052
7297.000000;1.506914
7296.000000;1.508255
7295.000000;1.507091
7294.000000;1.505183
7293.000000;1.505234
7292.000000;1.507756
7291.000000;1.510642
7290.000000;1.511833
7289.000000;1.511434
7288.000000;1.511155
7287.000000;1.512337
7286.000000;1.514766
7285.000000;1.517184
7284.000000;1.518634
7283.000000;1.519251
7282.000000;1.519858
7281.000000;1.520974
7280.000000;1.522446
7279.000000;1.523944
7278.000000;1.525411
7277.000000;1.526943
7276.000000;1.528417
7275.000000;1.529518
7274.000000;1.530133
7273.000000;1.530571
7272.000000;1.531350
7271.000000;1.532750
7270.000000;1.534531
7269.000000;1.536161
7268.000000;1.537429
7267.000000;1.538690
7266.000000;1.540316
7265.000000;1.542056
7264.000000;1.543293
7263.000000;1.543871
7262.000000;1.544330
7261.000000;1.545290
7260.000000;1.546914
7259.000000;1.549092
7258.000000;1.551694
7257.000000;1.554372
7256.000000;1.556451
7255.000000;1.557432
7254.000000;1.557642
7253.000000;1.558120
7252.000000;1.559740
7251.000000;1.562454
7250.000000;1.565416
7249.000000;1.567922
7248.000000;1.570085
7247.000000;1.572332
7246.000000;1.574336
7245.000000;1.574951
7244.000000;1.573726
7243.000000;1.572314
7242.000000;1.573399
7241.000000;1.577719
7240.000000;1.583094
7239.000000;1.587079
7238.000000;1.589535
7237.000000;1.591928
7236.000000;1.594845
7235.000000;1.597138
7234.000000;1.597584
7233.000000;1.596846
7232.000000;1.597441
7231.000000;1.601355
7230.000000;1.607704
7229.000000;1.613479
7228.000000;1.616550
7227.000000;1.617446
7226.000000;1.618476
7225.000000;1.621390
7224.000000;1.625972
7223.000000;1.630736
7222.000000;1.634398
7221.000000;1.636649
7220.000000;1.638163
7219.000000;1.640140
7218.000000;1.643375
7217.000000;1.647493
7216.000000;1.651377
7215.000000;1.654465
7214.000000;1.657307
7213.000000;1.660803
7212.000000;1.665247
7211.000000;1.670268
7210.000000;1.675300
7209.000000;1.679821
7208.000000;1.683437
7207.000000;1.686136
7206.000000;1.688450
7205.000000;1.691135
7204.000000;1.694647
7203.000000;1.698960
7202.000000;1.703709
7201.000000;1.708406
7200.000000;1.712750
7199.000000;1.716894
7198.000000;1.721237
7197.000000;1.725836
7196.000000;1.730330
7195.000000;1.734609
7194.000000;1.739163
7193.000000;1.744333
7192.000000;1.749491
7191.000000;1.753590
7190.000000;1.756528
7189.000000;1.759468
7188.000000;1.763692
7187.000000;1.769497
7186.000000;1.776176
7185.000000;1.782553
7184.000000;1.787488
7183.000000;1.790480
7182.000000;1.792324
7181.000000;1.794907
7180.000000;1.799614
7179.000000;1.805925
7178.000000;1.812089
7177.000000;1.817020
7176.000000;1.821089
7175.000000;1.825313
7174.000000;1.830203
7173.000000;1.835425
7172.000000;1.840281
7171.000000;1.844363
7170.000000;1.847928
7169.000000;1.851801
7168.000000;1.856762
7167.000000;1.862887
7166.000000;1.869521
7165.000000;1.875818
7164.000000;1.881151
7163.000000;1.885212
7162.000000;1.888300
7161.000000;1.891684
7160.000000;1.896892
7159.000000;1.904114
7158.000000;1.911815
7157.000000;1.918390
7156.000000;1.923696
7155.000000;1.928648
7154.000000;1.933806
7153.000000;1.938990
7152.000000;1.944077
7151.000000;1.949394
7150.000000;1.955131
7149.000000;1.960994
7148.000000;1.966678
7147.000000;1.972167
7146.000000;1.977431
7145.000000;1.982384
7144.000000;1.987306
7143.000000;1.992707
7142.000000;1.998386
7141.000000;2.003225
7140.000000;2.006511
7139.000000;2.009089
7138.000000;2.012453
7137.000000;2.016964
7136.000000;2.021836
7135.000000;2.026699
7134.000000;2.032116
7133.000000;2.038487
7132.000000;2.045348
7131.000000;2.052092
7130.000000;2.058490
7129.000000;2.064129
7128.000000;2.068299
7127.000000;2.071134
7126.000000;2.074147
7125.000000;2.078670
7124.000000;2.084179
7123.000000;2.089082
7122.000000;2.092857
7121.000000;2.096353
7120.000000;2.100061
7119.000000;2.103346
7118.000000;2.105844
7117.000000;2.108551
7116.000000;2.112601
7115.000000;2.117701
7114.000000;2.122850
7113.000000;2.128033
7112.000000;2.134051
7111.000000;2.140812
7110.000000;2.146780
7109.000000;2.150495
7108.000000;2.152068
7107.000000;2.152848
7106.000000;2.154216
7105.000000;2.156908
7104.000000;2.160823
7103.000000;2.165037
7102.000000;2.168511
7101.000000;2.171354
7100.000000;2.174933
7099.000000;2.180197
7098.000000;2.186264
7097.000000;2.191340
7096.000000;2.194880
7095.000000;2.198011
7094.000000;2.201676
7093.000000;2.205320
7092.000000;2.207973
7091.000000;2.209811
7090.000000;2.211765
7089.000000;2.214088
7088.000000;2.216292
7087.000000;2.218485
7086.000000;2.221790
7085.000000;2.226924
7084.000000;2.232968
7083.000000;2.238143
7082.000000;2.241622
7081.000000;2.243990
7080.000000;2.245918
7079.000000;2.247138
7078.000000;2.247296
7077.000000;2.247304
7076.000000;2.248901
7075.000000;2.252793
7074.000000;2.257845
7073.000000;2.262374
7072.000000;2.265846
7071.000000;2.268725
7070.000000;2.271025
7069.000000;2.272065
7068.000000;2.271835
7067.000000;2.271656
7066.000000;2.272913
7065.000000;2.275570
7064.000000;2.278352
7063.000000;2.280198
7062.000000;2.281183
7061.000000;2.282039
7060.000000;2.283152
7059.000000;2.284057
7058.000000;2.283912
7057.000000;2.282610
7056.000000;2.281330
7055.000000;2.281702
7054.000000;2.284338
7053.000000;2.288442
7052.000000;2.293036
7051.000000;2.297835
7050.000000;2.302466
7049.000000;2.305822
7048.000000;2.307178
7047.000000;2.307420
7046.000000;2.308121
7045.000000;2.309606
7044.000000;2.310784
7043.000000;2.310794
7042.000000;2.310000
7041.000000;2.309323
7040.000000;2.309416
7039.000000;2.310643
7038.000000;2.313056
7037.000000;2.315916
7036.000000;2.317866
7035.000000;2.318131
7034.000000;2.317318
7033.000000;2.316769
7032.000000;2.317380
7031.000000;2.319083
7030.000000;2.320978
7029.000000;2.321821
7028.000000;2.320983
7027.000000;2.319263
7026.000000;2.318351
7025.000000;2.319177
7024.000000;2.321030
7023.000000;2.322579
7022.000000;2.323531
7021.000000;2.324877
7020.000000;2.327588
7019.000000;2.331362
7018.000000;2.334673
7017.000000;2.336008
7016.000000;2.335223
7015.000000;2.333606
7014.000000;2.332357
7013.000000;2.331168
7012.000000;2.328842
7011.000000;2.325426
7010.000000;2.322971
7009.000000;2.323593
7008.000000;2.327151
7007.000000;2.331426
7006.000000;2.334451
7005.000000;2.336113
7004.000000;2.337450
7003.000000;2.338830
7002.000000;2.339065
7001.000000;2.336620
7000.000000;2.331950
6999.000000;2.328136
6998.000000;2.328516
6997.000000;2.333591
6996.000000;2.340400
6995.000000;2.345060
6994.000000;2.345878
6993.000000;2.343908
6992.000000;2.341225
6991.000000;2.339343
6990.000000;2.338672
6989.000000;2.338550
6988.000000;2.337845
6987.000000;2.336126
6986.000000;2.334286
6985.000000;2.333631
6984.000000;2.334597
6983.000000;2.336753
6982.000000;2.339580
6981.000000;2.342638
6980.000000;2.345404
6979.000000;2.347607
6978.000000;2.349441
6977.000000;2.350793
6976.000000;2.350833
6975.000000;2.349291
6974.000000;2.347512
6973.000000;2.347073
6972.000000;2.347818
6971.000000;2.348376
6970.000000;2.348514
6969.000000;2.349541
6968.000000;2.352079
6967.000000;2.354788
6966.000000;2.355797
6965.000000;2.354544
6964.000000;2.351797
6963.000000;2.348764
6962.000000;2.346832
6961.000000;2.347207
6960.000000;2.349774
6959.000000;2.352726
6958.000000;2.354115
6957.000000;2.353530
6956.000000;2.351724
6955.000000;2.349311
6954.000000;2.346760
6953.000000;2.345109
6952.000000;2.345573
6951.000000;2.348443
6950.000000;2.352884
6949.000000;2.357601
6948.000000;2.361141
6947.000000;2.362045
6946.000000;2.359926
6945.000000;2.356336
6944.000000;2.353360
6943.000000;2.351249
6942.000000;2.348487
6941.000000;2.344441
6940.000000;2.340827
6939.000000;2.339808
6938.000000;2.341495
6937.000000;2.344093
6936.000000;2.346051
6935.000000;2.347272
6934.000000;2.348234
6933.000000;2.348780
6932.000000;2.348162
6931.000000;2.345870
6930.000000;2.342273
6929.000000;2.338721
6928.000000;2.336994
6927.000000;2.338120
6926.000000;2.341379
6925.000000;2.344566
6924.000000;2.345691
6923.000000;2.344569
6922.000000;2.342588
6921.000000;2.341127
6920.000000;2.340650
6919.000000;2.341157
6918.000000;2.342700
6917.000000;2.345108
6916.000000;2.347671
6915.000000;2.349534
6914.000000;2.350242
6913.000000;2.349738
6912.000000;2.348166
6911.000000;2.346014
6910.000000;2.344117
6909.000000;2.342988
6908.000000;2.342352
6907.000000;2.341797
6906.000000;2.341583
6905.000000;2.342050
6904.000000;2.342529
6903.000000;2.342040
6902.000000;2.341121
6901.000000;2.341580
6900.000000;2.343960
6899.000000;2.346342
6898.000000;2.346597
6897.000000;2.345062
6896.000000;2.343554
6895.000000;2.342448
6894.000000;2.340616
6893.000000;2.338106
6892.000000;2.336856
6891.000000;2.338177
6890.000000;2.341063
6889.000000;2.343777
6888.000000;2.345879
6887.000000;2.347528
6886.000000;2.347785
6885.000000;2.345462
6884.000000;2.341439
6883.000000;2.338275
6882.000000;2.337227
6881.000000;2.336997
6880.000000;2.335655
6879.000000;2.332735
6878.000000;2.329457
6877.000000;2.327603
6876.000000;2.328382
6875.000000;2.331814
6874.000000;2.336096
6873.000000;2.338086
6872.000000;2.336003
6871.000000;2.331371
6870.000000;2.327201
6869.000000;2.324704
6868.000000;2.322872
6867.000000;2.320872
6866.000000;2.319371
6865.000000;2.319213
6864.000000;2.320153
6863.000000;2.321604
6862.000000;2.323559
6861.000000;2.325870
6860.000000;2.327437
6859.000000;2.327227
6858.000000;2.325588
6857.000000;2.323556
6856.000000;2.321373
6855.000000;2.318864
6854.000000;2.316870
6853.000000;2.316802
6852.000000;2.318585
6851.000000;2.320435
6850.000000;2.321134
6849.000000;2.321327
6848.000000;2.321932
6847.000000;2.322257
6846.000000;2.320798
6845.000000;2.317517
6844.000000;2.314244
6843.000000;2.312796
6842.000000;2.313401
6841.000000;2.315021
6840.000000;2.316655
6839.000000;2.317927
6838.000000;2.318595
6837.000000;2.318056
6836.000000;2.315870
6835.000000;2.312665
6834.000000;2.309809
6833.000000;2.307783
6832.000000;2.305444
6831.000000;2.301659
6830.000000;2.297351
6829.000000;2.294845
6828.000000;2.295086
6827.000000;2.296365
6826.000000;2.296144
6825.000000;2.293656
6824.000000;2.290238
6823.000000;2.287604
6822.000000;2.286688
6821.000000;2.287532
6820.000000;2.289198
6819.000000;2.290195
6818.000000;2.289805
6817.000000;2.288832
6816.000000;2.288538
6815.000000;2.289023
6814.000000;2.289120
6813.000000;2.287710
6812.000000;2.284576
6811.000000;2.280237
6810.000000;2.275720
6809.000000;2.272426
6808.000000;2.271453
6807.000000;2.272636
6806.000000;2.274439
6805.000000;2.275015
6804.000000;2.273499
6803.000000;2.270454
6802.000000;2.267281
6801.000000;2.265061
6800.000000;2.263621
6799.000000;2.261747
6798.000000;2.258567
6797.000000;2.254629
6796.000000;2.251389
6795.000000;2.249835
6794.000000;2.249844
6793.000000;2.250563
6792.000000;2.250887
6791.000000;2.249797
6790.000000;2.247057
6789.000000;2.243740
6788.000000;2.241466
6787.000000;2.240939
6786.000000;2.241538
6785.000000;2.242244
6784.000000;2.242444
6783.000000;2.241798
6782.000000;2.239964
6781.000000;2.236979
6780.000000;2.233640
6779.000000;2.230847
6778.000000;2.228583
6777.000000;2.226114
6776.000000;2.223246
6775.000000;2.220849
6774.000000;2.219767
6773.000000;2.219494
6772.000000;2.218488
6771.000000;2.215927
6770.000000;2.212704
6769.000000;2.210298
6768.000000;2.208956
6767.000000;2.207555
6766.000000;2.205207
6765.000000;2.202488
6764.000000;2.200685
6763.000000;2.200166
6762.000000;2.199944
6761.000000;2.198792
6760.000000;2.196475
6759.000000;2.193785
6758.000000;2.191473
6757.000000;2.189352
6756.000000;2.186631
6755.000000;2.183226
6754.000000;2.180332
6753.000000;2.179178
6752.000000;2.179348
6751.000000;2.179006
6750.000000;2.176965
6749.000000;2.173867
6748.000000;2.170945
6747.000000;2.168565
6746.000000;2.166675
6745.000000;2.165766
6744.000000;2.166196
6743.000000;2.166895
6742.000000;2.166041
6741.000000;2.163248
6740.000000;2.160027
6739.000000;2.157782
6738.000000;2.156315
6737.000000;2.154606
6736.000000;2.152242
6735.000000;2.149536
6734.000000;2.146951
6733.000000;2.145010
6732.000000;2.144126
6731.000000;2.143791
6730.000000;2.142459
6729.000000;2.139116
6728.000000;2.134750
6727.000000;2.131471
6726.000000;2.130328
6725.000000;2.130575
6724.000000;2.130849
6723.000000;2.130341
6722.000000;2.128753
6721.000000;2.126021
6720.000000;2.122588
6719.000000;2.119426
6718.000000;2.117156
6717.000000;2.115383
6716.000000;2.113272
6715.000000;2.110666
6714.000000;2.108215
6713.000000;2.106469
6712.000000;2.105243
6711.000000;2.103958
6710.000000;2.102277
6709.000000;2.100208
6708.000000;2.097840
6707.000000;2.095278
6706.000000;2.092668
6705.000000;2.090144
6704.000000;2.087736
6703.000000;2.085599
6702.000000;2.084016
6701.000000;2.083282
6700.000000;2.083029
6699.000000;2.082179
6698.000000;2.080177
6697.000000;2.077339
6696.000000;2.074454
6695.000000;2.071982
6694.000000;2.069974
6693.000000;2.068321
6692.000000;2.066793
6691.000000;2.064970
6690.000000;2.062522
6689.000000;2.059578
6688.000000;2.056568
6687.000000;2.053786
6686.000000;2.051338
6685.000000;2.049410
6684.000000;2.048173
6683.000000;2.047369
6682.000000;2.046336
6681.000000;2.044633
6680.000000;2.042456
6679.000000;2.040304
6678.000000;2.038406
6677.000000;2.036648
6676.000000;2.034935
6675.000000;2.033380
6674.000000;2.032110
6673.000000;2.030941
6672.000000;2.029281
6671.000000;2.026580
6670.000000;2.023067
6669.000000;2.019894
6668.000000;2.018156
6667.000000;2.017719
6666.000000;2.017291
6665.000000;2.015754
6664.000000;2.013203
6663.000000;2.010552
6662.000000;2.008436
6661.000000;2.006832
6660.000000;2.005483
6659.000000;2.004254
6658.000000;2.003059
6657.000000;2.001773
6656.000000;2.000328
6655.000000;1.998739
6654.000000;1.996936
6653.000000;1.994776
6652.000000;1.992343
6651.000000;1.990094
6650.000000;1.988465
6649.000000;1.987309
6648.000000;1.985934
6647.000000;1.983790
6646.000000;1.981013
6645.000000;1.978177
6644.000000;1.975677
6643.000000;1.973565
6642.000000;1.971848
6641.000000;1.970576
6640.000000;1.969542
6639.000000;1.968248
6638.000000;1.966405
6637.000000;1.964289
6636.000000;1.962393
6635.000000;1.960873
6634.000000;1.959605
6633.000000;1.958576
6632.000000;1.957820
6631.000000;1.957023
6630.000000;1.955603
6629.000000;1.953306
6628.000000;1.950456
6627.000000;1.947511
6626.000000;1.944685
6625.000000;1.942101
6624.000000;1.939978
6623.000000;1.938368
6622.000000;1.936918
6621.000000;1.935140
6620.000000;1.932915
6619.000000;1.930579
6618.000000;1.928578
6617.000000;1.927140
6616.000000;1.926195
6615.000000;1.925448
6614.000000;1.924533
6613.000000;1.923198
6612.000000;1.921413
6611.000000;1.919342
6610.000000;1.917277
6609.000000;1.915519
6608.000000;1.914176
6607.000000;1.913069
6606.000000;1.911936
6605.000000;1.910693
6604.000000;1.909336
6603.000000;1.907670
6602.000000;1.905461
6601.000000;1.902944
6600.000000;1.900835
6599.000000;1.899612
6598.000000;1.898951
6597.000000;1.898048
6596.000000;1.896410
6595.000000;1.894178
6594.000000;1.891857
6593.000000;1.889918
6592.000000;1.888528
6591.000000;1.887408
6590.000000;1.885994
6589.000000;1.883996
6588.000000;1.881797
6587.000000;1.880101
6586.000000;1.879172
6585.000000;1.878569
6584.000000;1.877638
6583.000000;1.876134
6582.000000;1.874329
6581.000000;1.872655
6580.000000;1.871293
6579.000000;1.870038
6578.000000;1.868497
6577.000000;1.866441
6576.000000;1.864008
6575.000000;1.861564
6574.000000;1.859455
6573.000000;1.857869
6572.000000;1.856792
6571.000000;1.855962
6570.000000;1.854990
6569.000000;1.853682
6568.000000;1.852214
6567.000000;1.850911
6566.000000;1.849890
6565.000000;1.849034
6564.000000;1.848186
6563.000000;1.847224
6562.000000;1.845997
6561.000000;1.844417
6560.000000;1.842622
6559.000000;1.840844
6558.000000;1.839109
6557.000000;1.837230
6556.000000;1.835145
6555.000000;1.833064
6554.000000;1.831224
6553.000000;1.829631
6552.000000;1.828157
6551.000000;1.826736
6550.000000;1.825362
6549.000000;1.823960
6548.000000;1.822437
6547.000000;1.820824
6546.000000;1.819292
6545.000000;1.818027
6544.000000;1.817117
6543.000000;1.816500
6542.000000;1.815937
6541.000000;1.815098
6540.000000;1.813807
6539.000000;1.812222
6538.000000;1.810688
6537.000000;1.809384
6536.000000;1.808158
6535.000000;1.806762
6534.000000;1.805199
6533.000000;1.803752
6532.000000;1.802669
6531.000000;1.801864
6530.000000;1.800989
6529.000000;1.799769
6528.000000;1.798193
6527.000000;1.796391
6526.000000;1.794487
6525.000000;1.792629
6524.000000;1.791011
6523.000000;1.789702
6522.000000;1.788498
6521.000000;1.787125
6520.000000;1.785607
6519.000000;1.784281
6518.000000;1.783376
6517.000000;1.782726
6516.000000;1.781980
6515.000000;1.780987
6514.000000;1.779845
6513.000000;1.778632
6512.000000;1.777240
6511.000000;1.775550
6510.000000;1.773681
6509.000000;1.771997
6508.000000;1.770800
6507.000000;1.769998
6506.000000;1.769121
6505.000000;1.767743
6504.000000;1.765917
6503.000000;1.764114
6502.000000;1.762700
6501.000000;1.761590
6500.000000;1.760464
6499.000000;1.759258
6498.000000;1.758249
6497.000000;1.757639
6496.000000;1.757193
6495.000000;1.756424
6494.000000;1.755118
6493.000000;1.753592
6492.000000;1.752379
6491.000000;1.751687
6490.000000;1.751222
6489.000000;1.750520
6488.000000;1.749360
6487.000000;1.747848
6486.000000;1.746181
6485.000000;1.744476
6484.000000;1.742817
6483.000000;1.741347
6482.000000;1.740206
6481.000000;1.739381
6480.000000;1.738671
6479.000000;1.737814
6478.000000;1.736676
6477.000000;1.735353
6476.000000;1.734075
6475.000000;1.732995
6474.000000;1.732059
6473.000000;1.731097
6472.000000;1.730019
6471.000000;1.728883
6470.000000;1.727781
6469.000000;1.726733
6468.000000;1.725685
6467.000000;1.724565
6466.000000;1.723332
6465.000000;1.722035
6464.000000;1.720845
6463.000000;1.719932
6462.000000;1.719256
6461.000000;1.718566
6460.000000;1.717654
6459.000000;1.716555
6458.000000;1.715430
6457.000000;1.714339
6456.000000;1.713238
6455.000000;1.712127
6454.000000;1.711076
6453.000000;1.710102
6452.000000;1.709144
6451.000000;1.708168
6450.000000;1.707231
6449.000000;1.706391
6448.000000;1.705642
6447.000000;1.704952
6446.000000;1.704304
6445.000000;1.703632
6444.000000;1.702785
6443.000000;1.701662
6442.000000;1.700386
6441.000000;1.699258
6440.000000;1.698469
6439.000000;1.697893
6438.000000;1.697196
6437.000000;1.696190
6436.000000;1.694973
6435.000000;1.693725
6434.000000;1.692447
6433.000000;1.691048
6432.000000;1.689637
6431.000000;1.688522
6430.000000;1.687851
6429.000000;1.687404
6428.000000;1.686837
6427.000000;1.686033
6426.000000;1.685077
6425.000000;1.684018
6424.000000;1.682875
6423.000000;1.681804
6422.000000;1.680996
6421.000000;1.680360
6420.000000;1.679514
6419.000000;1.678215
6418.000000;1.676650
6417.000000;1.675199
6416.000000;1.674045
6415.000000;1.673132
6414.000000;1.672375
6413.000000;1.671750
6412.000000;1.671202
6411.000000;1.670649
6410.000000;1.670071
6409.000000;1.669490
6408.000000;1.668880
6407.000000;1.668196
6406.000000;1.667487
6405.000000;1.666879
6404.000000;1.666403
6403.000000;1.665921
6402.000000;1.665233
6401.000000;1.664241
6400.000000;1.663000
6399.000000;1.661706
6398.000000;1.660611
6397.000000;1.659871
6396.000000;1.659402
6395.000000;1.658944
6394.000000;1.658289
6393.000000;1.657442
6392.000000;1.656568
6391.000000;1.655819
6390.000000;1.655216
6389.000000;1.654654
6388.000000;1.653971
6387.000000;1.653061
6386.000000;1.651960
6385.000000;1.650810
6384.000000;1.649754
6383.000000;1.648856
6382.000000;1.648088
6381.000000;1.647343
6380.000000;1.646469
6379.000000;1.645389
6378.000000;1.644225
6377.000000;1.643260
6376.000000;1.642704
6375.000000;1.642498
6374.000000;1.642359
6373.000000;1.641998
6372.000000;1.641307
6371.000000;1.640387
6370.000000;1.639447
6369.000000;1.638685
6368.000000;1.638194
6367.000000;1.637942
6366.000000;1.637778
6365.000000;1.637448
6364.000000;1.636685
6363.000000;1.635416
6362.000000;1.633924
6361.000000;1.632691
6360.000000;1.631970
6359.000000;1.631525
6358.000000;1.630894
6357.000000;1.629915
6356.000000;1.628898
6355.000000;1.628256
6354.000000;1.628056
6353.000000;1.627990
6352.000000;1.627715
6351.000000;1.627148
6350.000000;1.626452
6349.000000;1.625814
6348.000000;1.625262
6347.000000;1.624661
6346.000000;1.623847
6345.000000;1.622810
6344.000000;1.621720
6343.000000;1.620759
6342.000000;1.619947
6341.000000;1.619165
6340.000000;1.618356
6339.000000;1.617627
6338.000000;1.617107
6337.000000;1.616751
6336.000000;1.616385
6335.000000;1.615917
6334.000000;1.615446
6333.000000;1.615082
6332.000000;1.614723
6331.000000;1.614101
6330.000000;1.613104
6329.000000;1.611975
6328.000000;1.611105
6327.000000;1.610636
6326.000000;1.610356
6325.000000;1.610000
6324.000000;1.609559
6323.000000;1.609188
6322.000000;1.608880
6321.000000;1.608421
6320.000000;1.607689
6319.000000;1.606853
6318.000000;1.606158
6317.000000;1.605622
6316.000000;1.605059
6315.000000;1.604357
6314.000000;1.603586
6313.000000;1.602848
6312.000000;1.602150
6311.000000;1.601458
6310.000000;1.600783
6309.000000;1.600161
6308.000000;1.599608
6307.000000;1.599132
6306.000000;1.598742
6305.000000;1.598394
6304.000000;1.597959
6303.000000;1.597335
6302.000000;1.596564
6301.000000;1.595815
6300.000000;1.595218
6299.000000;1.594741
6298.000000;1.594232
6297.000000;1.593587
6296.000000;1.592864
6295.000000;1.592216
6294.000000;1.591711
6293.000000;1.591250
6292.000000;1.590680
6291.000000;1.589967
6290.000000;1.589214
6289.000000;1.588550
6288.000000;1.588035
6287.000000;1.587674
6286.000000;1.587438
6285.000000;1.587270
6284.000000;1.587079
6283.000000;1.586759
6282.000000;1.586223
6281.000000;1.585477
6280.000000;1.584665
6279.000000;1.583979
6278.000000;1.583473
6277.000000;1.583002
6276.000000;1.582430
6275.000000;1.581819
6274.000000;1.581339
6273.000000;1.581029
6272.000000;1.580796
6271.000000;1.580589
6270.000000;1.580432
6269.000000;1.580259
6268.000000;1.579898
6267.000000;1.579293
6266.000000;1.578627
6265.000000;1.578103
6264.000000;1.577692
6263.000000;1.577198
6262.000000;1.576514
6261.000000;1.575717
6260.000000;1.574960
6259.000000;1.574366
6258.000000;1.573978
6257.000000;1.573728
6256.000000;1.573434
6255.000000;1.572930
6254.000000;1.572227
6253.000000;1.571508
6252.000000;1.570953
6251.000000;1.570580
6250.000000;1.570261
6249.000000;1.569863
6248.000000;1.569364
6247.000000;1.568829
6246.000000;1.568302
6245.000000;1.567789
6244.000000;1.567335
6243.000000;1.567039
6242.000000;1.566888
6241.000000;1.566670
6240.000000;1.566199
6239.000000;1.565586
6238.000000;1.565118
6237.000000;1.564848
6236.000000;1.564505
6235.000000;1.563864
6234.000000;1.563067
6233.000000;1.562440
6232.000000;1.562124
6231.000000;1.561998
6230.000000;1.561869
6229.000000;1.561628
6228.000000;1.561301
6227.000000;1.561024
6226.000000;1.560907
6225.000000;1.560839
6224.000000;1.560522
6223.000000;1.559815
6222.000000;1.558953
6221.000000;1.558291
6220.000000;1.557923
6219.000000;1.557666
6218.000000;1.557352
6217.000000;1.556954
6216.000000;1.556483
6215.000000;1.555934
6214.000000;1.555340
6213.000000;1.554748
6212.000000;1.554149
6211.000000;1.553558
6210.000000;1.553129
6209.000000;1.553037
6208.000000;1.553235
6207.000000;1.553449
6206.000000;1.553439
6205.000000;1.553156
6204.000000;1.552673
6203.000000;1.552114
6202.000000;1.551639
6201.000000;1.551346
6200.000000;1.551138
6199.000000;1.550795
6198.000000;1.550226
6197.000000;1.549554
6196.000000;1.548920
6195.000000;1.548345
6194.000000;1.547809
6193.000000;1.547348
6192.000000;1.546977
6191.000000;1.546630
6190.000000;1.546251
6189.000000;1.545889
6188.000000;1.545626
6187.000000;1.545462
6186.000000;1.545317
6185.000000;1.545086
6184.000000;1.544683
6183.000000;1.544109
6182.000000;1.543509
6181.000000;1.543074
6180.000000;1.542833
6179.000000;1.542648
6178.000000;1.542429
6177.000000;1.542256
6176.000000;1.542212
6175.000000;1.542199
6174.000000;1.542018
6173.000000;1.541590
6172.000000;1.540993
6171.000000;1.540340
6170.000000;1.539715
6169.000000;1.539198
6168.000000;1.538842
6167.000000;1.538614
6166.000000;1.538407
6165.000000;1.538127
6164.000000;1.537757
6163.000000;1.537345
6162.000000;1.536949
6161.000000;1.536572
6160.000000;1.536142
6159.000000;1.535612
6158.000000;1.535092
6157.000000;1.534806
6156.000000;1.534831
6155.000000;1.534935
6154.000000;1.534778
6153.000000;1.534259
6152.000000;1.533621
6151.000000;1.533187
6150.000000;1.533053
6149.000000;1.533039
6148.000000;1.532916
6147.000000;1.532636
6146.000000;1.532363
6145.000000;1.532277
6144.000000;1.532378
6143.000000;1.532471
6142.000000;1.532338
6141.000000;1.531909
6140.000000;1.531282
6139.000000;1.530625
6138.000000;1.530074
6137.000000;1.529663
6136.000000;1.529336
6135.000000;1.529043
6134.000000;1.528809
6133.000000;1.528699
6132.000000;1.528711
6131.000000;1.528760
6130.000000;1.528772
6129.000000;1.528719
6128.000000;1.528567
6127.000000;1.528264
6126.000000;1.527833
6125.000000;1.527420
6124.000000;1.527158
6123.000000;1.527017
6122.000000;1.526815
6121.000000;1.526388
6120.000000;1.525724
6119.000000;1.524971
6118.000000;1.524354
6117.000000;1.524023
6116.000000;1.523925
6115.000000;1.523830
6114.000000;1.523546
6113.000000;1.523118
6112.000000;1.522790
6111.000000;1.522757
6110.000000;1.522971
6109.000000;1.523173
6108.000000;1.523099
6107.000000;1.522676
6106.000000;1.522047
6105.000000;1.521430
6104.000000;1.520958
6103.000000;1.520644
6102.000000;1.520446
6101.000000;1.520318
6100.000000;1.520196
6099.000000;1.520001
6098.000000;1.519709
6097.000000;1.519374
6096.000000;1.519073
6095.000000;1.518839
6094.000000;1.518675
6093.000000;1.518590
6092.000000;1.518585
6091.000000;1.518601
6090.000000;1.518542
6089.000000;1.518345
6088.000000;1.518030
6087.000000;1.517667
6086.000000;1.517310
6085.000000;1.516956
6084.000000;1.516558
6083.000000;1.516095
6082.000000;1.515641
6081.000000;1.515342
6080.000000;1.515299
6079.000000;1.515468
6078.000000;1.515697
6077.000000;1.515848
6076.000000;1.515868
6075.000000;1.515751
6074.000000;1.515481
6073.000000;1.515051
6072.000000;1.514528
6071.000000;1.514043
6070.000000;1.513688
6069.000000;1.513449
6068.000000;1.513265
6067.000000;1.513118
6066.000000;1.513024
6065.000000;1.512953
6064.000000;1.512816
6063.000000;1.512568
6062.000000;1.512261
6061.000000;1.511976
6060.000000;1.511722
6059.000000;1.511454
6058.000000;1.511151
6057.000000;1.510853
6056.000000;1.510619
6055.000000;1.510488
6054.000000;1.510447
6053.000000;1.510424
6052.000000;1.510331
6051.000000;1.510156
6050.000000;1.509978
6049.000000;1.509849
6048.000000;1.509706
6047.000000;1.509448
6046.000000;1.509060
6045.000000;1.508617
6044.000000;1.508184
6043.000000;1.507801
6042.000000;1.507537
6041.000000;1.507477
6040.000000;1.507617
6039.000000;1.507820
6038.000000;1.507906
6037.000000;1.507782
6036.000000;1.507508
6035.000000;1.507254
6034.000000;1.507175
6033.000000;1.507268
6032.000000;1.507351
6031.000000;1.507230
6030.000000;1.506876
6029.000000;1.506428
6028.000000;1.506078
6027.000000;1.505971
6026.000000;1.506137
6025.000000;1.506435
6024.000000;1.506610
6023.000000;1.506523
6022.000000;1.506321
6021.000000;1.506266
6020.000000;1.506401
6019.000000;1.506504
6018.000000;1.506393
6017.000000;1.506144
6016.000000;1.505956
6015.000000;1.505900
6014.000000;1.505873
6013.000000;1.505736
6012.000000;1.505430
6011.000000;1.504993
6010.000000;1.504538
6009.000000;1.504192
6008.000000;1.504013
6007.000000;1.503961
6006.000000;1.503982
6005.000000;1.504051
6004.000000;1.504144
6003.000000;1.504215
6002.000000;1.504229
6001.000000;1.504184
6000.000000;1.504065
5999.000000;1.503839
5998.000000;1.503524
5997.000000;1.503219
5996.000000;1.503015
5995.000000;1.502914
5994.000000;1.502860
5993.000000;1.502812
5992.000000;1.502752
5991.000000;1.502662
5990.000000;1.502555
5989.000000;1.502497
5988.000000;1.502541
5987.000000;1.502652
5986.000000;1.502752
5985.000000;1.502821
5984.000000;1.502906
5983.000000;1.503018
5982.000000;1.503085
5981.000000;1.503027
5980.000000;1.502837
5979.000000;1.502572
5978.000000;1.502283
5977.000000;1.501979
5976.000000;1.501672
5975.000000;1.501427
5974.000000;1.501340
5973.000000;1.501440
5972.000000;1.501644
5971.000000;1.501832
5970.000000;1.501968
5969.000000;1.502115
5968.000000;1.502320
5967.000000;1.502516
5966.000000;1.502571
5965.000000;1.502431
5964.000000;1.502194
5963.000000;1.502014
5962.000000;1.501931
5961.000000;1.501831
5960.000000;1.501598
5959.000000;1.501290
5958.000000;1.501093
5957.000000;1.501097
5956.000000;1.501181
5955.000000;1.501187
5954.000000;1.501115
5953.000000;1.501081
5952.000000;1.501117
5951.000000;1.501133
5950.000000;1.501050
5949.000000;1.500883
5948.000000;1.500691
5947.000000;1.500532
5946.000000;1.500483
5945.000000;1.500607
5944.000000;1.500857
5943.000000;1.501079
5942.000000;1.501150
5941.000000;1.501080
5940.000000;1.500953
5939.000000;1.500848
5938.000000;1.500831
5937.000000;1.500947
5936.000000;1.501176
5935.000000;1.501409
5934.000000;1.501515
5933.000000;1.501430
5932.000000;1.501178
5931.000000;1.500879
5930.000000;1.500725
5929.000000;1.500863
5928.000000;1.501250
5927.000000;1.501657
5926.000000;1.501859
5925.000000;1.501805
5924.000000;1.501593
5923.000000;1.501353
5922.000000;1.501180
5921.000000;1.501115
5920.000000;1.501130
5919.000000;1.501153
5918.000000;1.501150
5917.000000;1.501161
5916.000000;1.501209
5915.000000;1.501232
5914.000000;1.501155
5913.000000;1.501008
5912.000000;1.500924
5911.000000;1.501020
5910.000000;1.501303
5909.000000;1.501679
5908.000000;1.502019
5907.000000;1.502221
5906.000000;1.502261
5905.000000;1.502186
5904.000000;1.502080
5903.000000;1.502024
5902.000000;1.502076
5901.000000;1.502248
5900.000000;1.502501
5899.000000;1.502773
5898.000000;1.503015
5897.000000;1.503184
5896.000000;1.503213
5895.000000;1.503054
5894.000000;1.502762
5893.000000;1.502481
5892.000000;1.502349
5891.000000;1.502416
5890.000000;1.502642
5889.000000;1.502925
5888.000000;1.503134
5887.000000;1.503198
5886.000000;1.503180
5885.000000;1.503218
5884.000000;1.503367
5883.000000;1.503530
5882.000000;1.503583
5881.000000;1.503511
5880.000000;1.503419
5879.000000;1.503409
5878.000000;1.503496
5877.000000;1.503593
5876.000000;1.503603
5875.000000;1.503533
5874.000000;1.503531
5873.000000;1.503748
5872.000000;1.504172
5871.000000;1.504639
5870.000000;1.504999
5869.000000;1.505223
5868.000000;1.505354
5867.000000;1.505436
5866.000000;1.505515
5865.000000;1.505618
5864.000000;1.505712
5863.000000;1.505739
5862.000000;1.505740
5861.000000;1.505849
5860.000000;1.506128
5859.000000;1.506476
5858.000000;1.506755
5857.000000;1.506952
5856.000000;1.507129
5855.000000;1.507294
5854.000000;1.507396
5853.000000;1.507433
5852.000000;1.507478
5851.000000;1.507611
5850.000000;1.507870
5849.000000;1.508245
5848.000000;1.508647
5847.000000;1.508923
5846.000000;1.508973
5845.000000;1.508866
5844.000000;1.508785
5843.000000;1.508851
5842.000000;1.509048
5841.000000;1.509296
5840.000000;1.509543
5839.000000;1.509786
5838.000000;1.510049
5837.000000;1.510356
5836.000000;1.510701
5835.000000;1.511040
5834.000000;1.511340
5833.000000;1.511630
5832.000000;1.511959
5831.000000;1.512301
5830.000000;1.512539
5829.000000;1.512613
5828.000000;1.512645
5827.000000;1.512864
5826.000000;1.513370
5825.000000;1.513997
5824.000000;1.514450
5823.000000;1.514585
5822.000000;1.514523
5821.000000;1.514491
5820.000000;1.514605
5819.000000;1.514847
5818.000000;1.515176
5817.000000;1.515560
5816.000000;1.515914
5815.000000;1.516128
5814.000000;1.516194
5813.000000;1.516254
5812.000000;1.516449
5811.000000;1.516760
5810.000000;1.517036
5809.000000;1.517154
5808.000000;1.517136
5807.000000;1.517142
5806.000000;1.517371
5805.000000;1.517917
5804.000000;1.518684
5803.000000;1.519447
5802.000000;1.520033
5801.000000;1.520415
5800.000000;1.520647
5799.000000;1.520788
5798.000000;1.520918
5797.000000;1.521153
5796.000000;1.521570
5795.000000;1.522121
5794.000000;1.522680
5793.000000;1.523160
5792.000000;1.523569
5791.000000;1.523985
5790.000000;1.524488
5789.000000;1.525084
5788.000000;1.525644
5787.000000;1.525981
5786.000000;1.526054
5785.000000;1.526062
5784.000000;1.526274
5783.000000;1.526754
5782.000000;1.527327
5781.000000;1.527786
5780.000000;1.528087
5779.000000;1.528321
5778.000000;1.528577
5777.000000;1.528869
5776.000000;1.529173
5775.000000;1.529494
5774.000000;1.529876
5773.000000;1.530348
5772.000000;1.530868
5771.000000;1.531348
5770.000000;1.531757
5769.000000;1.532144
5768.000000;1.532551
5767.000000;1.532932
5766.000000;1.533236
5765.000000;1.533541
5764.000000;1.534016
5763.000000;1.534733
5762.000000;1.535575
5761.000000;1.536357
5760.000000;1.537011
5759.000000;1.537587
5758.000000;1.538145
5757.000000;1.538674
5756.000000;1.539143
5755.000000;1.539544
5754.000000;1.539896
5753.000000;1.540241
5752.000000;1.540662
5751.000000;1.541264
5750.000000;1.542066
5749.000000;1.542925
5748.000000;1.543612
5747.000000;1.544020
5746.000000;1.544268
5745.000000;1.544588
5744.000000;1.545109
5743.000000;1.545776
5742.000000;1.546461
5741.000000;1.547085
5740.000000;1.547642
5739.000000;1.548144
5738.000000;1.548593
5737.000000;1.549004
5736.000000;1.549422
5735.000000;1.549907
5734.000000;1.550497
5733.000000;1.551169
5732.000000;1.551862
5731.000000;1.552536
5730.000000;1.553194
5729.000000;1.553843
5728.000000;1.554463
5727.000000;1.555043
5726.000000;1.555630
5725.000000;1.556288
5724.000000;1.557015
5723.000000;1.557723
5722.000000;1.558316
5721.000000;1.558755
5720.000000;1.559078
5719.000000;1.559397
5718.000000;1.559877
5717.000000;1.560628
5716.000000;1.561568
5715.000000;1.562457
5714.000000;1.563119
5713.000000;1.563602
5712.000000;1.564083
5711.000000;1.564650
5710.000000;1.565250
5709.000000;1.565836
5708.000000;1.566486
5707.000000;1.567340
5706.000000;1.568443
5705.000000;1.569673
5704.000000;1.570819
5703.000000;1.571709
5702.000000;1.572285
5701.000000;1.572616
5700.000000;1.572851
5699.000000;1.573184
5698.000000;1.573757
5697.000000;1.574646
5696.000000;1.575695
5695.000000;1.576703
5694.000000;1.577567
5693.000000;1.578298
5692.000000;1.579007
5691.000000;1.579761
5690.000000;1.580539
5689.000000;1.581288
5688.000000;1.581999
5687.000000;1.582711
5686.000000;1.583445
5685.000000;1.584178
5684.000000;1.584888
5683.000000;1.585593
5682.000000;1.586312
5681.000000;1.587011
5680.000000;1.587649
5679.000000;1.588261
5678.000000;1.588944
5677.000000;1.589716
5676.000000;1.590464
5675.000000;1.591079
5674.000000;1.591605
5673.000000;1.592195
5672.000000;1.592949
5671.000000;1.593839
5670.000000;1.594767
5669.000000;1.595634
5668.000000;1.596387
5667.000000;1.597034
5666.000000;1.597642
5665.000000;1.598270
5664.000000;1.598917
5663.000000;1.599579
5662.000000;1.600298
5661.000000;1.601091
5660.000000;1.601855
5659.000000;1.602447
5658.000000;1.602891
5657.000000;1.603408
5656.000000;1.604195
5655.000000;1.605215
5654.000000;1.606245
5653.000000;1.607090
5652.000000;1.607714
5651.000000;1.608216
5650.000000;1.608714
5649.000000;1.609243
5648.000000;1.609740
5647.000000;1.610155
5646.000000;1.610571
5645.000000;1.611169
5644.000000;1.612039
5643.000000;1.613063
5642.000000;1.614027
5641.000000;1.614798
5640.000000;1.615380
5639.000000;1.615836
5638.000000;1.616233
5637.000000;1.616649
5636.000000;1.617147
5635.000000;1.617725
5634.000000;1.618311
5633.000000;1.618841
5632.000000;1.619339
5631.000000;1.619904
5630.000000;1.620596
5629.000000;1.621332
5628.000000;1.621934
5627.000000;1.622290
5626.000000;1.622488
5625.000000;1.622741
5624.000000;1.623188
5623.000000;1.623795
5622.000000;1.624428
5621.000000;1.624976
5620.000000;1.625394
5619.000000;1.625718
5618.000000;1.626058
5617.000000;1.626530
5616.000000;1.627138
5615.000000;1.627768
5614.000000;1.628337
5613.000000;1.628877
5612.000000;1.629426
5611.000000;1.629880
5610.000000;1.630078
5609.000000;1.630032
5608.000000;1.629988
5607.000000;1.630188
5606.000000;1.630623
5605.000000;1.631055
5604.000000;1.631294
5603.000000;1.631383
5602.000000;1.631542
5601.000000;1.631941
5600.000000;1.632543
5599.000000;1.633132
5598.000000;1.633497
5597.000000;1.633606
5596.000000;1.633611
5595.000000;1.633689
5594.000000;1.633876
5593.000000;1.634093
5592.000000;1.634294
5591.000000;1.634531
5590.000000;1.634875
5589.000000;1.635310
5588.000000;1.635756
5587.000000;1.636139
5586.000000;1.636391
5585.000000;1.636450
5584.000000;1.636342
5583.000000;1.636226
5582.000000;1.636272
5581.000000;1.636488
5580.000000;1.636748
5579.000000;1.636985
5578.000000;1.637231
5577.000000;1.637476
5576.000000;1.637614
5575.000000;1.637627
5574.000000;1.637687
5573.000000;1.637960
5572.000000;1.638369
5571.000000;1.638659
5570.000000;1.638676
5569.000000;1.638492
5568.000000;1.638278
5567.000000;1.638158
5566.000000;1.638175
5565.000000;1.638290
5564.000000;1.638392
5563.000000;1.638405
5562.000000;1.638385
5561.000000;1.638468
5560.000000;1.638683
5559.000000;1.638899
5558.000000;1.638964
5557.000000;1.638867
5556.000000;1.638722
5555.000000;1.638654
5554.000000;1.638708
5553.000000;1.638841
5552.000000;1.638956
5551.000000;1.638956
5550.000000;1.638802
5549.000000;1.638560
5548.000000;1.638388
5547.000000;1.638440
5546.000000;1.638731
5545.000000;1.639074
5544.000000;1.639242
5543.000000;1.639218
5542.000000;1.639227
5541.000000;1.639465
5540.000000;1.639848
5539.000000;1.640113
5538.000000;1.640142
5537.000000;1.640073
5536.000000;1.640058
5535.000000;1.640033
5534.000000;1.639827
5533.000000;1.639423
5532.000000;1.638982
5531.000000;1.638633
5530.000000;1.638351
5529.000000;1.638104
5528.000000;1.638012
5527.000000;1.638241
5526.000000;1.638754
5525.000000;1.639240
5524.000000;1.639389
5523.000000;1.639208
5522.000000;1.638999
5521.000000;1.639027
5520.000000;1.639251
5519.000000;1.639429
5518.000000;1.639420
5517.000000;1.639312
5516.000000;1.639274
5515.000000;1.639361
5514.000000;1.639508
5513.000000;1.639668
5512.000000;1.639867
5511.000000;1.640087
5510.000000;1.640200
5509.000000;1.640134
5508.000000;1.640072
5507.000000;1.640310
5506.000000;1.640851
5505.000000;1.641305
5504.000000;1.641345
5503.000000;1.641125
5502.000000;1.641032
5501.000000;1.641142
5500.000000;1.641198
5499.000000;1.641124
5498.000000;1.641261
5497.000000;1.641858
5496.000000;1.642560
5495.000000;1.642772
5494.000000;1.642489
5493.000000;1.642390
5492.000000;1.642959
5491.000000;1.643798
5490.000000;1.644131
5489.000000;1.643768
5488.000000;1.643211
5487.000000;1.642952
5486.000000;1.642994
5485.000000;1.643059
5484.000000;1.643005
5483.000000;1.642880
5482.000000;1.642742
5481.000000;1.642694
5480.000000;1.642989
5479.000000;1.643755
5478.000000;1.644620
5477.000000;1.645001
5476.000000;1.644911
5475.000000;1.645124
5474.000000;1.646185
5473.000000;1.647529
5472.000000;1.648178
5471.000000;1.647982
5470.000000;1.647652
5469.000000;1.647812
5468.000000;1.648407
5467.000000;1.649013
5466.000000;1.649459
5465.000000;1.649886
5464.000000;1.650338
5463.000000;1.650642
5462.000000;1.650714
5461.000000;1.650787
5460.000000;1.651204
5459.000000;1.651981
5458.000000;1.652722
5457.000000;1.653110
5456.000000;1.653332
5455.000000;1.653851
5454.000000;1.654801
5453.000000;1.655727
5452.000000;1.656113
5451.000000;1.656135
5450.000000;1.656638
5449.000000;1.658112
5448.000000;1.659898
5447.000000;1.660933
5446.000000;1.661188
5445.000000;1.661678
5444.000000;1.662849
5443.000000;1.663867
5442.000000;1.663971
5441.000000;1.663758
5440.000000;1.664460
5439.000000;1.666255
5438.000000;1.668026
5437.000000;1.668829
5436.000000;1.668951
5435.000000;1.669492
5434.000000;1.671192
5433.000000;1.673599
5432.000000;1.675463
5431.000000;1.676037
5430.000000;1.675872
5429.000000;1.676304
5428.000000;1.678058
5427.000000;1.680438
5426.000000;1.682229
5425.000000;1.683094
5424.000000;1.683653
5423.000000;1.684609
5422.000000;1.686116
5421.000000;1.687810
5420.000000;1.689376
5419.000000;1.691034
5418.000000;1.693213
5417.000000;1.695720
5416.000000;1.697771
5415.000000;1.699088
5414.000000;1.700445
5413.000000;1.702582
5412.000000;1.704925
5411.000000;1.706354
5410.000000;1.706965
5409.000000;1.707998
5408.000000;1.710132
5407.000000;1.712803
5406.000000;1.715286
5405.000000;1.717629
5404.000000;1.720228
5403.000000;1.723121
5402.000000;1.726136
5401.000000;1.729209
5400.000000;1.732195
5399.000000;1.734887
5398.000000;1.737483
5397.000000;1.740402
5396.000000;1.743523
5395.000000;1.746292
5394.000000;1.748697
5393.000000;1.751459
5392.000000;1.754943
5391.000000;1.758655
5390.000000;1.762189
5389.000000;1.765769
5388.000000;1.769623
5387.000000;1.773511
5386.000000;1.777278
5385.000000;1.781286
5384.000000;1.785711
5383.000000;1.790058
5382.000000;1.794081
5381.000000;1.798421
5380.000000;1.803537
5379.000000;1.808817
5378.000000;1.813534
5377.000000;1.818067
5376.000000;1.823279
5375.000000;1.829058
5374.000000;1.834571
5373.000000;1.839703
5372.000000;1.845123
5371.000000;1.851115
5370.000000;1.857338
5369.000000;1.863655
5368.000000;1.870396
5367.000000;1.877618
5366.000000;1.884795
5365.000000;1.891591
5364.000000;1.898366
5363.000000;1.905611
5362.000000;1.913306
5361.000000;1.921143
5360.000000;1.928998
5359.000000;1.937013
5358.000000;1.945352
5357.000000;1.953931
5356.000000;1.962430
5355.000000;1.970684
5354.000000;1.979135
5353.000000;1.988513
5352.000000;1.998699
5351.000000;2.008555
5350.000000;2.017582
5349.000000;2.026991
5348.000000;2.038176
5347.000000;2.050690
5346.000000;2.062767
5345.000000;2.073699
5344.000000;2.084667
5343.000000;2.096744
5342.000000;2.109249
5341.000000;2.121067
5340.000000;2.132475
5339.000000;2.144777
5338.000000;2.158684
5337.000000;2.173455
5336.000000;2.187697
5335.000000;2.200735
5334.000000;2.213053
5333.000000;2.225857
5332.000000;2.240233
5331.000000;2.256094
5330.000000;2.271935
5329.000000;2.286275
5328.000000;2.299325
5327.000000;2.312807
5326.000000;2.327893
5325.000000;2.343801
5324.000000;2.359036
5323.000000;2.373470
5322.000000;2.388227
5321.000000;2.403776
5320.000000;2.419091
5319.000000;2.432960
5318.000000;2.445506
5317.000000;2.457779
5316.000000;2.470338
5315.000000;2.482955
5314.000000;2.495551
5313.000000;2.508641
5312.000000;2.522544
5311.000000;2.536525
5310.000000;2.549174
5309.000000;2.559746
5308.000000;2.568867
5307.000000;2.577688
5306.000000;2.586429
5305.000000;2.594247
5304.000000;2.600704
5303.000000;2.606828
5302.000000;2.614254
5301.000000;2.623366
5300.000000;2.632754
5299.000000;2.640695
5298.000000;2.646682
5297.000000;2.651320
5296.000000;2.655388
5295.000000;2.659384
5294.000000;2.663258
5293.000000;2.666184
5292.000000;2.667340
5291.000000;2.667356
5290.000000;2.668232
5289.000000;2.671051
5288.000000;2.674392
5287.000000;2.676150
5286.000000;2.676549
5285.000000;2.678196
5284.000000;2.682993
5283.000000;2.689487
5282.000000;2.693851
5281.000000;2.693667
5280.000000;2.690425
5279.000000;2.687851
5278.000000;2.687989
5277.000000;2.689549
5276.000000;2.690149
5275.000000;2.689461
5274.000000;2.689157
5273.000000;2.690184
5272.000000;2.691529
5271.000000;2.691826
5270.000000;2.690940
5269.000000;2.689498
5268.000000;2.688035
5267.000000;2.687246
5266.000000;2.688115
5265.000000;2.690727
5264.000000;2.693339
5263.000000;2.693782
5262.000000;2.691876
5261.000000;2.689572
5260.000000;2.688846
5259.000000;2.690071
5258.000000;2.691916
5257.000000;2.692444
5256.000000;2.690808
5255.000000;2.688398
5254.000000;2.687826
5253.000000;2.690062
5252.000000;2.693181
5251.000000;2.694590
5250.000000;2.693901
5249.000000;2.692948
5248.000000;2.693459
5247.000000;2.695412
5246.000000;2.697585
5245.000000;2.698896
5244.000000;2.698794
5243.000000;2.697137
5242.000000;2.694282
5241.000000;2.690993
5240.000000;2.688100
5239.000000;2.686399
5238.000000;2.686409
5237.000000;2.687930
5236.000000;2.690124
5235.000000;2.692132
5234.000000;2.693397
5233.000000;2.693481
5232.000000;2.692120
5231.000000;2.689901
5230.000000;2.688440
5229.000000;2.689046
5228.000000;2.691284
5227.000000;2.693430
5226.000000;2.694207
5225.000000;2.693724
5224.000000;2.692872
5223.000000;2.692427
5222.000000;2.692771
5221.000000;2.693816
5220.000000;2.695039
5219.000000;2.695928
5218.000000;2.696310
5217.000000;2.695939
5216.000000;2.694249
5215.000000;2.691425
5214.000000;2.689346
5213.000000;2.690149
5212.000000;2.693666
5211.000000;2.697162
5210.000000;2.697979
5209.000000;2.695938
5208.000000;2.692819
5207.000000;2.690302
5206.000000;2.688975
5205.000000;2.688601
5204.000000;2.688660
5203.000000;2.688832
5202.000000;2.689184
5201.000000;2.689800
5200.000000;2.690299
5199.000000;2.690150
5198.000000;2.689605
5197.000000;2.689754
5196.000000;2.691139
5195.000000;2.692601
5194.000000;2.692241
5193.000000;2.689540
5192.000000;2.686061
5191.000000;2.684068
5190.000000;2.684762
5189.000000;2.687734
5188.000000;2.691636
5187.000000;2.695018
5186.000000;2.696804
5185.000000;2.696671
5184.000000;2.695388
5183.000000;2.694383
5182.000000;2.694389
5181.000000;2.694567
5180.000000;2.693392
5179.000000;2.690573
5178.000000;2.687627
5177.000000;2.686295
5176.000000;2.686810
5175.000000;2.687926
5174.000000;2.688247
5173.000000;2.687304
5172.000000;2.685584
5171.000000;2.683948
5170.000000;2.683057
5169.000000;2.683086
5168.000000;2.683930
5167.000000;2.685555
5166.000000;2.687805
5165.000000;2.689861
5164.000000;2.690385
5163.000000;2.688629
5162.000000;2.685279
5161.000000;2.682013
5160.000000;2.680466
5159.000000;2.681447
5158.000000;2.684440
5157.000000;2.687761
5156.000000;2.689872
5155.000000;2.690792
5154.000000;2.691514
5153.000000;2.692135
5152.000000;2.691786
5151.000000;2.690601
5150.000000;2.690306
5149.000000;2.691929
5148.000000;2.694016
5147.000000;2.694262
5146.000000;2.692397
5145.000000;2.690112
5144.000000;2.688699
5143.000000;2.688126
5142.000000;2.688035
5141.000000;2.688169
5140.000000;2.687828
5139.000000;2.686331
5138.000000;2.684311
5137.000000;2.683399
5136.000000;2.684232
5135.000000;2.685705
5134.000000;2.686577
5133.000000;2.686952
5132.000000;2.687718
5131.000000;2.689293
5130.000000;2.691315
5129.000000;2.692862
5128.000000;2.692708
5127.000000;2.690250
5126.000000;2.686614
5125.000000;2.683989
5124.000000;2.683450
5123.000000;2.684063
5122.000000;2.684376
5121.000000;2.683981
5120.000000;2.682992
5119.000000;2.681065
5118.000000;2.678090
5117.000000;2.675254
5116.000000;2.674270
5115.000000;2.675578
5114.000000;2.677986
5113.000000;2.680135
5112.000000;2.681762
5111.000000;2.683299
5110.000000;2.684644
5109.000000;2.684940
5108.000000;2.683761
5107.000000;2.682176
5106.000000;2.682073
5105.000000;2.684144
5104.000000;2.686845
5103.000000;2.687861
5102.000000;2.686681
5101.000000;2.685138
5100.000000;2.685291
5099.000000;2.687424
5098.000000;2.690258
5097.000000;2.692385
5096.000000;2.693008
5095.000000;2.691881
5094.000000;2.689328
5093.000000;2.686217
5092.000000;2.683324
5091.000000;2.680783
5090.000000;2.678532
5089.000000;2.677152
5088.000000;2.677809
5087.000000;2.681199
5086.000000;2.686581
5085.000000;2.691829
5084.000000;2.694558
5083.000000;2.693658
5082.000000;2.690147
5081.000000;2.686453
5080.000000;2.684576
5079.000000;2.684818
5078.000000;2.685891
5077.000000;2.685876
5076.000000;2.683503
5075.000000;2.679274
5074.000000;2.675395
5073.000000;2.673998
5072.000000;2.675114
5071.000000;2.676717
5070.000000;2.677136
5069.000000;2.676944
5068.000000;2.677676
5067.000000;2.679201
5066.000000;2.679610
5065.000000;2.677926
5064.000000;2.675776
5063.000000;2.675537
5062.000000;2.677508
5061.000000;2.679763
5060.000000;2.680642
5059.000000;2.680545
5058.000000;2.680824
5057.000000;2.681667
5056.000000;2.681910
5055.000000;2.680816
5054.000000;2.679164
5053.000000;2.678134
5052.000000;2.677748
5051.000000;2.677109
5050.000000;2.675927
5049.000000;2.674970
5048.000000;2.674796
5047.000000;2.674754
5046.000000;2.673721
5045.000000;2.671567
5044.000000;2.669322
5043.000000;2.668011
5042.000000;2.667829
5041.000000;2.668335
5040.000000;2.668985
5039.000000;2.669449
5038.000000;2.669724
5037.000000;2.670111
5036.000000;2.670930
5035.000000;2.672126
5034.000000;2.673293
5033.000000;2.674135
5032.000000;2.674723
5031.000000;2.675140
5030.000000;2.675005
5029.000000;2.673665
5028.000000;2.671059
5027.000000;2.668227
5026.000000;2.666549
5025.000000;2.666424
5024.000000;2.667049
5023.000000;2.667609
5022.000000;2.668237
5021.000000;2.669383
5020.000000;2.670494
5019.000000;2.670085
5018.000000;2.667292
5017.000000;2.662896
5016.000000;2.658583
5015.000000;2.655634
5014.000000;2.654380
5013.000000;2.654256
5012.000000;2.654136
5011.000000;2.653217
5010.000000;2.652149
5009.000000;2.652776
5008.000000;2.655981
5007.000000;2.659972
5006.000000;2.661624
5005.000000;2.659864
5004.000000;2.656677
5003.000000;2.654383
5002.000000;2.653205
5001.000000;2.651891
5000.000000;2.649824
4999.000000;2.647649
4998.000000;2.646260
4997.000000;2.645572
4996.000000;2.644855
4995.000000;2.644145
4994.000000;2.644352
4993.000000;2.645907
4992.000000;2.648075
4991.000000;2.649677
4990.000000;2.650039
4989.000000;2.649235
4988.000000;2.647859
4987.000000;2.646655
4986.000000;2.646041
4985.000000;2.645792
4984.000000;2.645321
4983.000000;2.644332
4982.000000;2.642942
4981.000000;2.641109
4980.000000;2.638487
4979.000000;2.635185
4978.000000;2.632195
4977.000000;2.630424
4976.000000;2.629493
4975.000000;2.628223
4974.000000;2.626375
4973.000000;2.625215
4972.000000;2.625958
4971.000000;2.628147
4970.000000;2.630059
4969.000000;2.630361
4968.000000;2.628911
4967.000000;2.626282
4966.000000;2.623220
4965.000000;2.620573
4964.000000;2.619003
4963.000000;2.618319
4962.000000;2.617463
4961.000000;2.615563
4960.000000;2.612871
4959.000000;2.610406
4958.000000;2.608886
4957.000000;2.608437
4956.000000;2.609162
4955.000000;2.611172
4954.000000;2.613726
4953.000000;2.615104
4952.000000;2.614126
4951.000000;2.611545
4950.000000;2.609163
4949.000000;2.607695
4948.000000;2.606194
4947.000000;2.603523
4946.000000;2.599676
4945.000000;2.595472
4944.000000;2.591731
4943.000000;2.589189
4942.000000;2.588511
4941.000000;2.589665
4940.000000;2.591517
4939.000000;2.592622
4938.000000;2.592355
4937.000000;2.590860
4936.000000;2.588268
4935.000000;2.584660
4934.000000;2.580530
4933.000000;2.576584
4932.000000;2.573139
4931.000000;2.570230
4930.000000;2.568105
4929.000000;2.566983
4928.000000;2.566487
4927.000000;2.566015
4926.000000;2.565635
4925.000000;2.565808
4924.000000;2.566229
4923.000000;2.565834
4922.000000;2.564179
4921.000000;2.561935
4920.000000;2.559687
4919.000000;2.557150
4918.000000;2.554158
4917.000000;2.551569
4916.000000;2.550182
4915.000000;2.549352
4914.000000;2.547713
4913.000000;2.545007
4912.000000;2.542350
4911.000000;2.540727
4910.000000;2.539925
4909.000000;2.539077
4908.000000;2.537619
4907.000000;2.535366
4906.000000;2.532226
4905.000000;2.528380
4904.000000;2.524540
4903.000000;2.521519
4902.000000;2.519482
4901.000000;2.517866
4900.000000;2.516117
4899.000000;2.514310
4898.000000;2.512882
4897.000000;2.511911
4896.000000;2.510973
4895.000000;2.509668
4894.000000;2.507953
4893.000000;2.505873
4892.000000;2.503345
4891.000000;2.500490
4890.000000;2.497827
4889.000000;2.495663
4888.000000;2.493510
4887.000000;2.490698
4886.000000;2.487492
4885.000000;2.484933
4884.000000;2.483443
4883.000000;2.482198
4882.000000;2.480117
4881.000000;2.476994
4880.000000;2.473426
4879.000000;2.470147
4878.000000;2.467756
4877.000000;2.466550
4876.000000;2.466099
4875.000000;2.465299
4874.000000;2.463337
4873.000000;2.460421
4872.000000;2.457251
4871.000000;2.454136
4870.000000;2.451087
4869.000000;2.448325
4868.000000;2.445986
4867.000000;2.443613
4866.000000;2.440652
4865.000000;2.437419
4864.000000;2.434902
4863.000000;2.433450
4862.000000;2.432203
4861.000000;2.430071
4860.000000;2.426892
4859.000000;2.423399
4858.000000;2.420375
4857.000000;2.418134
4856.000000;2.416566
4855.000000;2.415429
4854.000000;2.414551
4853.000000;2.413771
4852.000000;2.412689
4851.000000;2.410685
4850.000000;2.407499
4849.000000;2.403703
4848.000000;2.400209
4847.000000;2.397296
4846.000000;2.394475
4845.000000;2.391385
4844.000000;2.388428
4843.000000;2.386264
4842.000000;2.384894
4841.000000;2.383563
4840.000000;2.381522
4839.000000;2.378779
4838.000000;2.376058
4837.000000;2.374008
4836.000000;2.372527
4835.000000;2.370901
4834.000000;2.368619
4833.000000;2.365863
4832.000000;2.363087
4831.000000;2.360371
4830.000000;2.357505
4829.000000;2.354510
4828.000000;2.351679
4827.000000;2.349178
4826.000000;2.346945
4825.000000;2.344989
4824.000000;2.343451
4823.000000;2.342273
4822.000000;2.341128
4821.000000;2.339789
4820.000000;2.338238
4819.000000;2.336342
4818.000000;2.333756
4817.000000;2.330319
4816.000000;2.326292
4815.000000;2.322100
4814.000000;2.318100
4813.000000;2.314614
4812.000000;2.311830
4811.000000;2.309470
4810.000000;2.306912
4809.000000;2.303957
4808.000000;2.301194
4807.000000;2.299231
4806.000000;2.297814
4805.000000;2.296073
4804.000000;2.293536
4803.000000;2.290512
4802.000000;2.287530
4801.000000;2.284789
4800.000000;2.282228
4799.000000;2.279774
4798.000000;2.277314
4797.000000;2.274714
4796.000000;2.272013
4795.000000;2.269465
4794.000000;2.267244
4793.000000;2.265222
4792.000000;2.263145
4791.000000;2.260930
4790.000000;2.258667
4789.000000;2.256401
4788.000000;2.254061
4787.000000;2.251545
4786.000000;2.248796
4785.000000;2.245831
4784.000000;2.242758
4783.000000;2.239717
4782.000000;2.236755
4781.000000;2.233813
4780.000000;2.230940
4779.000000;2.228376
4778.000000;2.226228
4777.000000;2.224129
4776.000000;2.221537
4775.000000;2.218484
4774.000000;2.215702
4773.000000;2.213697
4772.000000;2.211898
4771.000000;2.209167
4770.000000;2.205286
4769.000000;2.201514
4768.000000;2.199324
4767.000000;2.198818
4766.000000;2.198635
4765.000000;2.197318
4764.000000;2.194541
4763.000000;2.191024
4762.000000;2.187644
4761.000000;2.184831
4760.000000;2.182517
4759.000000;2.180390
4758.000000;2.178221
4757.000000;2.176069
4756.000000;2.174144
4755.000000;2.172450
4754.000000;2.170677
4753.000000;2.168555
4752.000000;2.166191
4751.000000;2.163895
4750.000000;2.161719
4749.000000;2.159390
4748.000000;2.156705
4747.000000;2.153812
4746.000000;2.150999
4745.000000;2.148354
4744.000000;2.145798
4743.000000;2.143353
4742.000000;2.141118
4741.000000;2.139008
4740.000000;2.136759
4739.000000;2.134301
4738.000000;2.131946
4737.000000;2.130019
4736.000000;2.128433
4735.000000;2.126846
4734.000000;2.125127
4733.000000;2.123389
4732.000000;2.121605
4731.000000;2.119516
4730.000000;2.117058
4729.000000;2.114555
4728.000000;2.112285
4727.000000;2.110025
4726.000000;2.107277
4725.000000;2.103867
4724.000000;2.100217
4723.000000;2.097070
4722.000000;2.095006
4721.000000;2.094029
4720.000000;2.093440
4719.000000;2.092286
4718.000000;2.090183
4717.000000;2.087665
4716.000000;2.085526
4715.000000;2.083958
4714.000000;2.082508
4713.000000;2.080714
4712.000000;2.078511
4711.000000;2.076085
4710.000000;2.073715
4709.000000;2.071772
4708.000000;2.070497
4707.000000;2.069648
4706.000000;2.068597
4705.000000;2.066883
4704.000000;2.064576
4703.000000;2.062020
4702.000000;2.059449
4701.000000;2.056987
4700.000000;2.054826
4699.000000;2.053130
4698.000000;2.051780
4697.000000;2.050345
4696.000000;2.048436
4695.000000;2.046116
4694.000000;2.043951
4693.000000;2.042530
4692.000000;2.041837
4691.000000;2.041146
4690.000000;2.039699
4689.000000;2.037446
4688.000000;2.034981
4687.000000;2.032836
4686.000000;2.031054
4685.000000;2.029391
4684.000000;2.027635
4683.000000;2.025683
4682.000000;2.023537
4681.000000;2.021324
4680.000000;2.019206
4679.000000;2.017249
4678.000000;2.015482
4677.000000;2.014042
4676.000000;2.013018
4675.000000;2.012149
4674.000000;2.010966
4673.000000;2.009308
4672.000000;2.007467
4671.000000;2.005757
4670.000000;2.004194
4669.000000;2.002706
4668.000000;2.001336
4667.000000;2.000063
4666.000000;1.998695
4665.000000;1.997181
4664.000000;1.995831
4663.000000;1.994939
4662.000000;1.994298
4661.000000;1.993332
4660.000000;1.991671
4659.000000;1.989490
4658.000000;1.987351
4657.000000;1.985806
4656.000000;1.984986
4655.000000;1.984421
4654.000000;1.983378
4653.000000;1.981548
4652.000000;1.979326
4651.000000;1.977315
4650.000000;1.975722
4649.000000;1.974386
4648.000000;1.973181
4647.000000;1.972079
4646.000000;1.970967
4645.000000;1.969687
4644.000000;1.968230
4643.000000;1.966709
4642.000000;1.965176
4641.000000;1.963657
4640.000000;1.962268
4639.000000;1.961074
4638.000000;1.959869
4637.000000;1.958391
4636.000000;1.956754
4635.000000;1.955428
4634.000000;1.954716
4633.000000;1.954425
4632.000000;1.954107
4631.000000;1.953438
4630.000000;1.952364
4629.000000;1.951045
4628.000000;1.949746
4627.000000;1.948610
4626.000000;1.947441
4625.000000;1.945827
4624.000000;1.943613
4623.000000;1.941223
4622.000000;1.939387
4621.000000;1.938515
4620.000000;1.938359
4619.000000;1.938250
4618.000000;1.937675
4617.000000;1.936618
4616.000000;1.935370
4615.000000;1.934116
4614.000000;1.932803
4613.000000;1.931370
4612.000000;1.929921
4611.000000;1.928613
4610.000000;1.927496
4609.000000;1.926541
4608.000000;1.925687
4607.000000;1.924813
4606.000000;1.923786
4605.000000;1.922650
4604.000000;1.921628
4603.000000;1.920822
4602.000000;1.920054
4601.000000;1.919141
4600.000000;1.918190
4599.000000;1.917434
4598.000000;1.916865
4597.000000;1.916224
4596.000000;1.915304
4595.000000;1.914104
4594.000000;1.912797
4593.000000;1.911717
4592.000000;1.911228
4591.000000;1.911332
4590.000000;1.911462
4589.000000;1.910931
4588.000000;1.909603
4587.000000;1.907947
4586.000000;1.906485
4585.000000;1.905414
4584.000000;1.904674
4583.000000;1.904043
4582.000000;1.903167
4581.000000;1.901803
4580.000000;1.900176
4579.000000;1.898823
4578.000000;1.898002
4577.000000;1.897440
4576.000000;1.896752
4575.000000;1.895854
4574.000000;1.894867
4573.000000;1.893869
4572.000000;1.892940
4571.000000;1.892224
4570.000000;1.891733
4569.000000;1.891183
4568.000000;1.890264
4567.000000;1.889034
4566.000000;1.887885
4565.000000;1.887141
4564.000000;1.886789
4563.000000;1.886535
4562.000000;1.886037
4561.000000;1.885130
4560.000000;1.883935
4559.000000;1.882763
4558.000000;1.881871
4557.000000;1.881361
4556.000000;1.881273
4555.000000;1.881560
4554.000000;1.881916
4553.000000;1.881830
4552.000000;1.881027
4551.000000;1.879780
4550.000000;1.878647
4549.000000;1.877931
4548.000000;1.877482
4547.000000;1.876938
4546.000000;1.875999
4545.000000;1.874597
4544.000000;1.873013
4543.000000;1.871801
4542.000000;1.871367
4541.000000;1.871541
4540.000000;1.871735
4539.000000;1.871596
4538.000000;1.871389
4537.000000;1.871598
4536.000000;1.872234
4535.000000;1.872669
4534.000000;1.872174
4533.000000;1.870615
4532.000000;1.868666
4531.000000;1.867335
4530.000000;1.867144
4529.000000;1.867647
4528.000000;1.867786
4527.000000;1.866906
4526.000000;1.865411
4525.000000;1.864308
4524.000000;1.864158
4523.000000;1.864659
4522.000000;1.865159
4521.000000;1.865312
4520.000000;1.865104
4519.000000;1.864536
4518.000000;1.863630
4517.000000;1.862630
4516.000000;1.861820
4515.000000;1.861143
4514.000000;1.860335
4513.000000;1.859524
4512.000000;1.859322
4511.000000;1.860123
4510.000000;1.861545
4509.000000;1.862788
4508.000000;1.863353
4507.000000;1.863207
4506.000000;1.862516
4505.000000;1.861603
4504.000000;1.861009
4503.000000;1.861148
4502.000000;1.861784
4501.000000;1.862146
4500.000000;1.861711
4499.000000;1.860711
4498.000000;1.859808
4497.000000;1.859473
4496.000000;1.859711
4495.000000;1.860163
4494.000000;1.860387
4493.000000;1.860174
4492.000000;1.859721
4491.000000;1.859403
4490.000000;1.859347
4489.000000;1.859354
4488.000000;1.859215
4487.000000;1.858941
4486.000000;1.858673
4485.000000;1.858550
4484.000000;1.858695
4483.000000;1.859130
4482.000000;1.859647
4481.000000;1.859938
4480.000000;1.859953
4479.000000;1.859945
4478.000000;1.860106
4477.000000;1.860360
4476.000000;1.860619
4475.000000;1.860970
4474.000000;1.861450
4473.000000;1.861822
4472.000000;1.861850
4471.000000;1.861683
4470.000000;1.861770
4469.000000;1.862386
4468.000000;1.863395
4467.000000;1.864404
4466.000000;1.865044
4465.000000;1.865167
4464.000000;1.864983
4463.000000;1.864962
4462.000000;1.865440
4461.000000;1.866294
4460.000000;1.867097
4459.000000;1.867539
4458.000000;1.867607
4457.000000;1.867430
4456.000000;1.867178
4455.000000;1.867129
4454.000000;1.867579
4453.000000;1.868559
4452.000000;1.869699
4451.000000;1.870506
4450.000000;1.870760
4449.000000;1.870649
4448.000000;1.870568
4447.000000;1.870865
4446.000000;1.871682
4445.000000;1.872913
4444.000000;1.874273
4443.000000;1.875492
4442.000000;1.876532
4441.000000;1.877625
4440.000000;1.879045
4439.000000;1.880745
4438.000000;1.882230
4437.000000;1.882900
4436.000000;1.882621
4435.000000;1.881854
4434.000000;1.881232
4433.000000;1.881096
4432.000000;1.881419
4431.000000;1.882001
4430.000000;1.882657
4429.000000;1.883379
4428.000000;1.884428
4427.000000;1.886062
4426.000000;1.887979
4425.000000;1.889206
4424.000000;1.888907
4423.000000;1.887366
4422.000000;1.885888
4421.000000;1.885606
4420.000000;1.886518
4419.000000;1.887733
4418.000000;1.888453
4417.000000;1.888599
4416.000000;1.888611
4415.000000;1.888909
4414.000000;1.889642
4413.000000;1.890798
4412.000000;1.892324
4411.000000;1.894107
4410.000000;1.895901
4409.000000;1.897424
4408.000000;1.898621
4407.000000;1.899799
4406.000000;1.901364
4405.000000;1.903328
4404.000000;1.905038
4403.000000;1.905546
4402.000000;1.904482
4401.000000;1.902639
4400.000000;1.901506
4399.000000;1.902008
4398.000000;1.903708
4397.000000;1.905344
4396.000000;1.906139
4395.000000;1.906415
4394.000000;1.906975
4393.000000;1.908277
4392.000000;1.910310
4391.000000;1.912810
4390.000000;1.915166
4389.000000;1.916448
4388.000000;1.916171
4387.000000;1.915133
4386.000000;1.914932
4385.000000;1.916356
4384.000000;1.918487
4383.000000;1.919657
4382.000000;1.919252
4381.000000;1.918262
4380.000000;1.918048
4379.000000;1.918937
4378.000000;1.920216
4377.000000;1.921192
4376.000000;1.921830
4375.000000;1.922401
4374.000000;1.922919
4373.000000;1.923241
4372.000000;1.923572
4371.000000;1.924414
4370.000000;1.925879
4369.000000;1.927386
4368.000000;1.928278
4367.000000;1.928541
4366.000000;1.928703
4365.000000;1.929198
4364.000000;1.930079
4363.000000;1.931202
4362.000000;1.932323
4361.000000;1.933042
4360.000000;1.932983
4359.000000;1.932140
4358.000000;1.930942
4357.000000;1.929933
4356.000000;1.929504
4355.000000;1.929872
4354.000000;1.931056
4353.000000;1.932777
4352.000000;1.934554
4351.000000;1.936013
4350.000000;1.937128
4349.000000;1.938201
4348.000000;1.939615
4347.000000;1.941412
4346.000000;1.943012
4345.000000;1.943663
4344.000000;1.943420
4343.000000;1.943388
4342.000000;1.944595
4341.000000;1.946793
4340.000000;1.948796
4339.000000;1.949931
4338.000000;1.950660
4337.000000;1.951687
4336.000000;1.952913
4335.000000;1.953507
4334.000000;1.952771
4333.000000;1.950878
4332.000000;1.948919
4331.000000;1.948160
4330.000000;1.948987
4329.000000;1.950666
4328.000000;1.952356
4327.000000;1.954002
4326.000000;1.955758
4325.000000;1.956992
4324.000000;1.956833
4323.000000;1.955714
4322.000000;1.955229
4321.000000;1.956093
4320.000000;1.957171
4319.000000;1.957094
4318.000000;1.956063
4317.000000;1.955292
4316.000000;1.955306
4315.000000;1.955654
4314.000000;1.955681
4313.000000;1.954779
4312.000000;1.952438
4311.000000;1.949104
4310.000000;1.946686
4309.000000;1.947184
4308.000000;1.950735
4307.000000;1.955469
4306.000000;1.959130
4305.000000;1.960419
4304.000000;1.959214
4303.000000;1.956446
4302.000000;1.953779
4301.000000;1.952567
4300.000000;1.952897
4299.000000;1.953989
4298.000000;1.955330
4297.000000;1.956829
4296.000000;1.958072
4295.000000;1.958364
4294.000000;1.957568
4293.000000;1.956149
4292.000000;1.954424
4291.000000;1.952560
4290.000000;1.951131
4289.000000;1.950713
4288.000000;1.950855
4287.000000;1.950381
4286.000000;1.948895
4285.000000;1.947237
4284.000000;1.946433
4283.000000;1.947065
4282.000000;1.949492
4281.000000;1.953364
4280.000000;1.956698
4279.000000;1.956742
4278.000000;1.952506
4277.000000;1.945666
4276.000000;1.938775
4275.000000;1.933752
4274.000000;1.931835
4273.000000;1.933103
4272.000000;1.935547
4271.000000;1.935962
4270.000000;1.932932
4269.000000;1.928480
4268.000000;1.925857
4267.000000;1.926155
4266.000000;1.927846
4265.000000;1.928926
4264.000000;1.928251
4263.000000;1.925139
4262.000000;1.919248
4261.000000;1.911361
4260.000000;1.903574
4259.000000;1.898241
4258.000000;1.896516
4257.000000;1.897438
4256.000000;1.898333
4255.000000;1.896950
4254.000000;1.893653
4253.000000;1.890741
4252.000000;1.889459
4251.000000;1.888588
4250.000000;1.885843
4249.000000;1.879463
4248.000000;1.868585
4247.000000;1.853924
4246.000000;1.838711
4245.000000;1.827535
4244.000000;1.822569
4243.000000;1.821511
4242.000000;1.820384
4241.000000;1.818075
4240.000000;1.816395
4239.000000;1.816122
4238.000000;1.815212
4237.000000;1.811229
4236.000000;1.803953
4235.000000;1.795054
4234.000000;1.786460
4233.000000;1.779347
4232.000000;1.773411
4231.000000;1.766818
4230.000000;1.757848
4229.000000;1.746565
4228.000000;1.734437
4227.000000;1.722335
4226.000000;1.709519
4225.000000;1.695138
4224.000000;1.679295
4223.000000;1.662657
4222.000000;1.646475
4221.000000;1.632956
4220.000000;1.624285
4219.000000;1.619698
4218.000000;1.614280
4217.000000;1.602881
4216.000000;1.584641
4215.000000;1.561036
4214.000000;1.532284
4213.000000;1.499772
4212.000000;1.468096
4211.000000;1.441586
4210.000000;1.419774
4209.000000;1.397045
4208.000000;1.368164
4207.000000;1.332834
4206.000000;1.292683
4205.000000;1.247290
4204.000000;1.196000
4203.000000;1.140329
4202.000000;1.081816
4201.000000;1.020835
4200.000000;0.962321
4199.000000;0.920701
4198.000000;0.910566
4197.000000;0.933373
4196.000000;0.979137
4195.000000;1.035062
4194.000000;1.094151
4193.000000;1.155872
4192.000000;1.218893
4191.000000;1.279093
4190.000000;1.334298
4189.000000;1.384656
4188.000000;1.428689
4187.000000;1.464656
4186.000000;1.495824
4185.000000;1.529011
4184.000000;1.567396
4183.000000;1.608110
4182.000000;1.647201
4181.000000;1.684087
4180.000000;1.718382
4179.000000;1.745685
4178.000000;1.762356
4177.000000;1.772311
4176.000000;1.783652
4175.000000;1.800226
4174.000000;1.820153
4173.000000;1.841713
4172.000000;1.866321
4171.000000;1.894723
4170.000000;1.924580
4169.000000;1.953589
4168.000000;1.981934
4167.000000;2.009089
4166.000000;2.030266
4165.000000;2.040513
4164.000000;2.042569
4163.000000;2.045231
4162.000000;2.053332
4161.000000;2.063826
4160.000000;2.071965
4159.000000;2.078311
4158.000000;2.087428
4157.000000;2.101180
4156.000000;2.116649
4155.000000;2.131428
4154.000000;2.149002
4153.000000;2.176003
4152.000000;2.211603
4151.000000;2.241348
4150.000000;2.251086
4149.000000;2.242943
4148.000000;2.229458
4147.000000;2.224085
4146.000000;2.233986
4145.000000;2.256669
4144.000000;2.283394
4143.000000;2.305601
4142.000000;2.321699
4141.000000;2.333549
4140.000000;2.339692
4139.000000;2.341084
4138.000000;2.343237
4137.000000;2.349894
4136.000000;2.359553
4135.000000;2.368252
4134.000000;2.376652
4133.000000;2.390116
4132.000000;2.410265
4131.000000;2.431689
4130.000000;2.449696
4129.000000;2.466626
4128.000000;2.485123
4127.000000;2.499875
4126.000000;2.502577
4125.000000;2.493677
4124.000000;2.484818
4123.000000;2.487394
4122.000000;2.504209
4121.000000;2.534132
4120.000000;2.571845
4119.000000;2.601269
4118.000000;2.608035
4117.000000;2.594726
4116.000000;2.569414
4115.000000;2.537940
4114.000000;2.512300
4113.000000;2.510775
4112.000000;2.544235
4111.000000;2.601810
4110.000000;2.647959
4109.000000;2.651823
4108.000000;2.626051
4107.000000;2.604297
4106.000000;2.601924
4105.000000;2.614178
4104.000000;2.633384
4103.000000;2.662957
4102.000000;2.710400
4101.000000;2.768715
4100.000000;2.807830
4099.000000;2.802905
4098.000000;2.767217
4097.000000;2.726129
4096.000000;2.694904
4095.000000;2.676516
4094.000000;2.664490
4093.000000;2.651480
4092.000000;2.635226
4091.000000;2.619211
4090.000000;2.609133
4089.000000;2.610784
4088.000000;2.627725
4087.000000;2.656958
4086.000000;2.689777
4085.000000;2.718744
4084.000000;2.736940
4083.000000;2.736898
4082.000000;2.722580
4081.000000;2.707331
4080.000000;2.701151
4079.000000;2.711276
4078.000000;2.744335
4077.000000;2.799039
4076.000000;2.855816
4075.000000;2.882969
4074.000000;2.872074
4073.000000;2.845474
4072.000000;2.821776
4071.000000;2.809825
4070.000000;2.816698
4069.000000;2.843438
4068.000000;2.870492
4067.000000;2.860936
4066.000000;2.815664
4065.000000;2.785947
4064.000000;2.810345
4063.000000;2.885783
4062.000000;2.971442
4061.000000;3.014350
4060.000000;2.994815
4059.000000;2.946027
4058.000000;2.910553
4057.000000;2.908326
4056.000000;2.937487
4055.000000;2.972675
4054.000000;2.977222
4053.000000;2.948905
4052.000000;2.918550
4051.000000;2.901037
4050.000000;2.883660
4049.000000;2.858033
4048.000000;2.840862
4047.000000;2.848729
4046.000000;2.877893
4045.000000;2.912976
4044.000000;2.944530
4043.000000;2.967371
4042.000000;2.979230
4041.000000;2.980435
4040.000000;2.967629
4039.000000;2.943221
4038.000000;2.919457
4037.000000;2.908308
4036.000000;2.915101
4035.000000;2.940371
4034.000000;2.983098
4033.000000;3.036007
4032.000000;3.074985
4031.000000;3.073916
4030.000000;3.038010
4029.000000;3.001179
4028.000000;2.992487
4027.000000;3.009215
4026.000000;3.024325
4025.000000;3.029468
4024.000000;3.043124
4023.000000;3.073554
4022.000000;3.117466
4021.000000;3.151944
4020.000000;3.133276
4019.000000;3.085688
4018.000000;3.065704
4017.000000;3.077509
4016.000000;3.089699
4015.000000;3.078800
4014.000000;3.051436
4013.000000;3.041838
4012.000000;3.085534
4011.000000;3.183670
4010.000000;3.284023
4009.000000;3.309512
4008.000000;3.259456
4007.000000;3.193612
4006.000000;3.151055
4005.000000;3.149035
4004.000000;3.187133
4003.000000;3.232059
4002.000000;3.218923
4001.000000;3.134128
4000.000000;3.046045
3999.000000;3.010889
3998.000000;3.041027
3997.000000;3.119820
3996.000000;3.211556
3995.000000;3.276027
3994.000000;3.292464
3993.000000;3.271526
3992.000000;3.236338
3991.000000;3.192213
3990.000000;3.130857
3989.000000;3.066679
3988.000000;3.026897
3987.000000;3.017286
3986.000000;3.026971
3985.000000;3.047090
3984.000000;3.074035
3983.000000;3.103593
3982.000000;3.136761
3981.000000;3.188743
3980.000000;3.278407
3979.000000;3.395029
3978.000000;3.460875
3977.000000;3.447434
3976.000000;3.427784
3975.000000;3.430583
3974.000000;3.447216
3973.000000;3.460840
3972.000000;3.420194
3971.000000;3.328638
3970.000000;3.270428
3969.000000;3.277649
3968.000000;3.333820
3967.000000;3.352285
3966.000000;3.280608
3965.000000;3.204621
3964.000000;3.179507
3963.000000;3.208508
3962.000000;3.271749
3961.000000;3.332482
3960.000000;3.369128
3959.000000;3.390081
3958.000000;3.391283
3957.000000;3.371220
3956.000000;3.354537
3955.000000;3.357464
3954.000000;3.369427
3953.000000;3.347091
3952.000000;3.297558
3951.000000;3.291144
3950.000000;3.348542
3949.000000;3.415625
3948.000000;3.415262
3947.000000;3.392814
3946.000000;3.408259
3945.000000;3.429717
3944.000000;3.416981
3943.000000;3.397845
3942.000000;3.435500
3941.000000;3.522624
3940.000000;3.570053
3939.000000;3.584169
3938.000000;3.598243
3937.000000;3.647856
3936.000000;3.743448
3935.000000;3.836024
3934.000000;3.909516
3933.000000;4.022153
3932.000000;4.050094
3931.000000;3.924344
3930.000000;3.842413
3929.000000;3.747335
3928.000000;3.675384
3927.000000;3.666552
3926.000000;3.679358
3925.000000;3.636728
3924.000000;3.542753
3923.000000;3.499843
3922.000000;3.537930
3921.000000;3.611097
3920.000000;3.699914
3919.000000;3.833619
3918.000000;4.004897
3917.000000;4.194840
3916.000000;4.403677
3915.000000;4.125016
3914.000000;3.851283
3913.000000;3.751197
3912.000000;3.711332
3911.000000;3.712790
3910.000000;3.762635
3909.000000;3.928680
3908.000000;3.988625
3907.000000;3.917868
3906.000000;3.934949
3905.000000;3.993974
3904.000000;4.042383
3903.000000;4.129802
3902.000000;4.319238
3901.000000;4.450286
3900.000000;4.375763
3899.000000;4.218807
3898.000000;4.047964
3897.000000;3.911827
3896.000000;3.867494
3895.000000;3.880223
3894.000000;3.923380
3893.000000;3.986132
3892.000000;4.097591
3891.000000;4.288355
3890.000000;4.617824
3889.000000;4.879995
3888.000000;4.625389
3887.000000;4.485773
3886.000000;4.272255
3885.000000;3.993754
3884.000000;3.917631
3883.000000;4.111697
3882.000000;4.372426
3881.000000;4.519203
3880.000000;4.536363
3879.000000;4.368817
3878.000000;4.223799
3877.000000;4.260627
3876.000000;4.335643
3875.000000;4.427809
3874.000000;4.650527
3873.000000;4.510027
3872.000000;4.687992
3871.000000;5.061571
3870.000000;4.582948
3869.000000;4.117883
3868.000000;4.056343
3867.000000;4.332164
3866.000000;4.474505
3865.000000;4.320285
3864.000000;4.135658
3863.000000;4.183325
3862.000000;4.449784
3861.000000;5.077926
3860.000000;4.761178
3859.000000;4.251069
3858.000000;4.150664
3857.000000;4.323064
3856.000000;4.674961
3855.000000;5.525228
3854.000000;5.211955
3853.000000;4.632486
3852.000000;4.530715
3851.000000;4.630822
3850.000000;4.634146
3849.000000;4.441321
3848.000000;4.199357
3847.000000;4.057990
3846.000000;4.105348
3845.000000;4.419175
3844.000000;4.813813
3843.000000;4.379723
3842.000000;4.265293
3841.000000;4.361424
3840.000000;4.625457
3839.000000;4.828255
3838.000000;4.975166
3837.000000;5.150924
3836.000000;4.755766
3835.000000;4.566237
3834.000000;4.606245
3833.000000;4.713660
3832.000000;4.696843
3831.000000;4.323105
3830.000000;4.046505
3829.000000;4.028756
3828.000000;4.158358
3827.000000;4.220038
3826.000000;4.165407
3825.000000;4.332078
3824.000000;4.645525
3823.000000;4.759644
3822.000000;4.952973
3821.000000;5.062973
3820.000000;4.985364
3819.000000;4.866901
3818.000000;4.817359
3817.000000;4.704155
3816.000000;4.481324
3815.000000;4.370827
3814.000000;4.323002
3813.000000;4.079165
3812.000000;3.977576
3811.000000;3.801146
3810.000000;3.713553
3809.000000;3.777455
3808.000000;3.915390
3807.000000;4.051792
3806.000000;4.344534
3805.000000;4.461702
3804.000000;4.567334
3803.000000;4.652835
3802.000000;4.520000
3801.000000;4.271100
3800.000000;4.256037
3799.000000;4.302916
3798.000000;4.377576
3797.000000;4.260857
3796.000000;4.088542
3795.000000;4.071932
3794.000000;4.311495
3793.000000;4.638343
3792.000000;4.457702
3791.000000;4.080131
3790.000000;3.829303
3789.000000;3.755133
3788.000000;3.752920
3787.000000;3.644821
3786.000000;3.551370
3785.000000;3.538799
3784.000000;3.573468
3783.000000;3.666459
3782.000000;3.822395
3781.000000;3.965042
3780.000000;4.040625
3779.000000;4.374489
3778.000000;4.472201
3777.000000;3.966934
3776.000000;3.788043
3775.000000;3.635898
3774.000000;3.552627
3773.000000;3.618670
3772.000000;3.817687
3771.000000;4.016255
3770.000000;4.035668
3769.000000;3.880385
3768.000000;3.846158
3767.000000;3.953527
3766.000000;4.044281
3765.000000;4.238919
3764.000000;4.926469
3763.000000;4.120657
3762.000000;4.217125
3761.000000;4.618702
3760.000000;4.350003
3759.000000;3.976999
3758.000000;4.037182
3757.000000;4.260738
3756.000000;4.451992
3755.000000;4.609331
3754.000000;4.762457
3753.000000;4.779810
3752.000000;4.716525
3751.000000;4.711741
3750.000000;4.815694
3749.000000;4.992190
3748.000000;5.315043
3747.000000;5.385369
3746.000000;5.348084
3745.000000;5.107839
3744.000000;4.681293
3743.000000;4.551930
3742.000000;4.834480
3741.000000;5.403741
3740.000000;4.833850
3739.000000;4.460984
3738.000000;4.347527
3737.000000;4.503342
3736.000000;4.925918
3735.000000;5.182633
3734.000000;4.838332
3733.000000;4.939157
3732.000000;5.011308
3731.000000;4.667451
3730.000000;4.297802
3729.000000;4.206527
3728.000000;4.185045
3727.000000;4.078644
3726.000000;3.928599
3725.000000;3.898833
3724.000000;4.042353
3723.000000;4.286414
3722.000000;4.849067
3721.000000;4.342210
3720.000000;4.032258
3719.000000;4.044313
3718.000000;4.187252
3717.000000;4.564898
3716.000000;4.212788
3715.000000;4.093627
3714.000000;4.266543
3713.000000;4.586742
3712.000000;4.343545
3711.000000;4.193007
3710.000000;4.164467
3709.000000;4.115927
3708.000000;4.099855
3707.000000;4.087860
3706.000000;4.071121
3705.000000;4.113403
3704.000000;4.051641
3703.000000;3.884479
3702.000000;3.797615
3701.000000;3.856072
3700.000000;4.003117
3699.000000;3.957393
3698.000000;3.866066
3697.000000;3.772014
3696.000000;3.705867
3695.000000;3.781165
3694.000000;4.086524
3693.000000;4.309324
3692.000000;4.265231
3691.000000;4.372050
3690.000000;4.590047
3689.000000;4.736356
3688.000000;4.793645
3687.000000;5.056360
3686.000000;5.081973
3685.000000;4.730954
3684.000000;4.791852
3683.000000;5.084777
3682.000000;4.159299
3681.000000;3.892108
3680.000000;3.882008
3679.000000;4.122727
3678.000000;4.598510
3677.000000;4.865442
3676.000000;4.767019
3675.000000;4.432674
3674.000000;4.311376
3673.000000;4.561024
3672.000000;4.882157
3671.000000;4.859675
3670.000000;4.660466
3669.000000;4.583786
3668.000000;4.828153
3667.000000;4.879327
3666.000000;4.473335
3665.000000;4.251680
3664.000000;4.217894
3663.000000;4.042112
3662.000000;3.876306
3661.000000;3.806301
3660.000000;3.782203
3659.000000;3.878196
3658.000000;4.105872
3657.000000;4.123499
3656.000000;3.936023
3655.000000;4.004356
3654.000000;4.250344
3653.000000;4.333502
3652.000000;4.409961
3651.000000;4.381181
3650.000000;4.342239
3649.000000;4.438030
3648.000000;4.745689
3647.000000;4.893860
3646.000000;4.616005
3645.000000;4.503613
3644.000000;4.629054
3643.000000;4.512320
3642.000000;4.359968
3641.000000;4.370000
3640.000000;3.944780
3639.000000;3.720115
3638.000000;3.662602
3637.000000;3.685887
3636.000000;3.784592
3635.000000;3.919571
3634.000000;4.059738
3633.000000;4.262231
3632.000000;4.524820
3631.000000;4.643411
3630.000000;4.580838
3629.000000;4.348894
3628.000000;4.165440
3627.000000;4.261811
3626.000000;4.480237
3625.000000;4.392564
3624.000000;4.096742
3623.000000;3.851359
3622.000000;3.816526
3621.000000;4.115335
3620.000000;4.108947
3619.000000;3.738804
3618.000000;3.635002
3617.000000;3.689412
3616.000000;3.810523
3615.000000;3.872297
3614.000000;3.848595
3613.000000;3.810740
3612.000000;3.848499
3611.000000;3.947572
3610.000000;4.022326
3609.000000;4.048115
3608.000000;4.135638
3607.000000;4.332312
3606.000000;4.239735
3605.000000;4.134738
3604.000000;3.922043
3603.000000;3.702490
3602.000000;3.611720
3601.000000;3.654104
3600.000000;3.669210
3599.000000;3.582312
3598.000000;3.594589
3597.000000;3.721768
3596.000000;3.946929
3595.000000;4.136516
3594.000000;4.086990
3593.000000;4.001142
3592.000000;3.997271
3591.000000;4.114940
3590.000000;4.178013
3589.000000;4.108862
3588.000000;4.009709
3587.000000;3.928820
3586.000000;3.965251
3585.000000;4.187637
3584.000000;4.206677
3583.000000;4.088580
3582.000000;4.308693
3581.000000;4.160607
3580.000000;3.800311
3579.000000;3.664439
3578.000000;3.585038
3577.000000;3.569845
3576.000000;3.620740
3575.000000;3.631856
3574.000000;3.596286
3573.000000;3.591036
3572.000000;3.618413
3571.000000;3.710069
3570.000000;3.909978
3569.000000;4.038391
3568.000000;3.956116
3567.000000;3.874761
3566.000000;3.831866
3565.000000;3.871545
3564.000000;4.020689
3563.000000;4.198479
3562.000000;4.063261
3561.000000;3.782356
3560.000000;3.606956
3559.000000;3.548794
3558.000000;3.603680
3557.000000;3.767933
3556.000000;3.967673
3555.000000;4.083971
3554.000000;4.590794
3553.000000;3.931119
3552.000000;3.607342
3551.000000;3.513295
3550.000000;3.523555
3549.000000;3.551646
3548.000000;3.570679
3547.000000;3.629326
3546.000000;3.769143
3545.000000;3.872148
3544.000000;3.820017
3543.000000;3.800989
3542.000000;3.834031
3541.000000;4.002499
3540.000000;4.474751
3539.000000;4.408217
3538.000000;4.176015
3537.000000;4.171538
3536.000000;4.034542
3535.000000;3.850004
3534.000000;3.709472
3533.000000;3.683012
3532.000000;3.754174
3531.000000;3.836422
3530.000000;3.859073
3529.000000;3.812572
3528.000000;3.725454
3527.000000;3.684913
3526.000000;3.749225
3525.000000;3.859589
3524.000000;3.839903
3523.000000;3.704509
3522.000000;3.592456
3521.000000;3.554903
3520.000000;3.592001
3519.000000;3.777538
3518.000000;3.921178
3517.000000;3.578136
3516.000000;3.392227
3515.000000;3.324169
3514.000000;3.303293
3513.000000;3.322960
3512.000000;3.416858
3511.000000;3.665216
3510.000000;3.950997
3509.000000;3.736798
3508.000000;3.554623
3507.000000;3.529880
3506.000000;3.573690
3505.000000;3.638417
3504.000000;3.712671
3503.000000;3.886860
3502.000000;3.981156
3501.000000;3.800978
3500.000000;3.801760
3499.000000;4.088570
3498.000000;4.142943
3497.000000;3.948207
3496.000000;4.020207
3495.000000;4.238250
3494.000000;4.165650
3493.000000;3.909728
3492.000000;3.607361
3491.000000;3.392735
3490.000000;3.282621
3489.000000;3.261402
3488.000000;3.311130
3487.000000;3.405632
3486.000000;3.549118
3485.000000;3.588716
3484.000000;3.435780
3483.000000;3.337238
3482.000000;3.321467
3481.000000;3.350495
3480.000000;3.397222
3479.000000;3.450155
3478.000000;3.510515
3477.000000;3.572897
3476.000000;3.637839
3475.000000;3.749497
3474.000000;3.911310
3473.000000;3.975235
3472.000000;3.914161
3471.000000;3.960706
3470.000000;4.093464
3469.000000;3.893255
3468.000000;3.749486
3467.000000;3.608852
3466.000000;3.503842
3465.000000;3.514219
3464.000000;3.833985
3463.000000;4.425233
3462.000000;3.675513
3461.000000;3.519693
3460.000000;3.520923
3459.000000;3.686735
3458.000000;4.070904
3457.000000;3.989485
3456.000000;3.796089
3455.000000;3.872583
3454.000000;3.763050
3453.000000;3.575538
3452.000000;3.536769
3451.000000;3.526209
3450.000000;3.424655
3449.000000;3.384917
3448.000000;3.481432
3447.000000;3.729945
3446.000000;4.183594
3445.000000;4.208202
3444.000000;3.862139
3443.000000;3.681427
3442.000000;3.616871
3441.000000;3.845274
3440.000000;4.543997
3439.000000;3.653938
3438.000000;3.526360
3437.000000;3.613539
3436.000000;3.926013
3435.000000;4.200960
3434.000000;4.094082
3433.000000;4.433851
3432.000000;4.534239
3431.000000;4.155628
3430.000000;3.972838
3429.000000;3.896770
3428.000000;3.972759
3427.000000;4.095619
3426.000000;4.112717
3425.000000;3.670757
3424.000000;3.425808
3423.000000;3.394965
3422.000000;3.497307
3421.000000;3.749551
3420.000000;4.042047
3419.000000;3.921850
3418.000000;3.940130
3417.000000;4.026628
3416.000000;3.747830
3415.000000;3.459203
3414.000000;3.358110
3413.000000;3.459248
3412.000000;3.743975
3411.000000;4.188183
3410.000000;4.095366
3409.000000;3.710912
3408.000000;3.559504
3407.000000;3.397276
3406.000000;3.240604
3405.000000;3.138209
3404.000000;3.113236
3403.000000;3.154631
3402.000000;3.216366
3401.000000;3.251847
3400.000000;3.253880
3399.000000;3.255913
3398.000000;3.298850
3397.000000;3.417028
3396.000000;3.640663
3395.000000;4.032375
3394.000000;4.197397
3393.000000;4.055863
3392.000000;4.179851
3391.000000;3.966628
3390.000000;3.606532
3389.000000;3.440086
3388.000000;3.368001
3387.000000;3.324642
3386.000000;3.314750
3385.000000;3.361111
3384.000000;3.465116
3383.000000;3.636540
3382.000000;3.969697
3381.000000;4.585426
3380.000000;4.445864
3379.000000;4.366268
3378.000000;4.184857
3377.000000;3.759831
3376.000000;3.507504
3375.000000;3.390680
3374.000000;3.391204
3373.000000;3.504874
3372.000000;3.812093
3371.000000;4.256244
3370.000000;3.898111
3369.000000;3.717834
3368.000000;3.761152
3367.000000;3.904843
3366.000000;3.999307
3365.000000;3.828644
3364.000000;3.590698
3363.000000;3.427544
3362.000000;3.330871
3361.000000;3.257121
3360.000000;3.210752
3359.000000;3.242893
3358.000000;3.393700
3357.000000;3.660499
3356.000000;3.863044
3355.000000;3.879521
3354.000000;3.798813
3353.000000;3.612846
3352.000000;3.452773
3351.000000;3.513364
3350.000000;3.950626
3349.000000;3.679501
3348.000000;3.434046
3347.000000;3.677086
3346.000000;4.121071
3345.000000;3.751558
3344.000000;3.532548
3343.000000;3.460360
3342.000000;3.378535
3341.000000;3.338117
3340.000000;3.396123
3339.000000;3.542544
3338.000000;3.625970
3337.000000;3.606425
3336.000000;3.606405
3335.000000;3.646259
3334.000000;3.714342
3333.000000;3.749269
3332.000000;3.706243
3331.000000;3.697356
3330.000000;3.713072
3329.000000;3.826203
3328.000000;3.812063
3327.000000;3.559634
3326.000000;3.494156
3325.000000;3.600239
3324.000000;3.972499
3323.000000;3.965034
3322.000000;3.688902
3321.000000;3.707944
3320.000000;3.635218
3319.000000;3.517750
3318.000000;3.420444
3317.000000;3.298061
3316.000000;3.245127
3315.000000;3.313576
3314.000000;3.469373
3313.000000;3.790434
3312.000000;3.828026
3311.000000;3.421543
3310.000000;3.306137
3309.000000;3.378923
3308.000000;3.552946
3307.000000;3.713326
3306.000000;3.846676
3305.000000;4.050267
3304.000000;3.986816
3303.000000;3.707023
3302.000000;3.529790
3301.000000;3.442015
3300.000000;3.430995
3299.000000;3.452737
3298.000000;3.442656
3297.000000;3.413788
3296.000000;3.432061
3295.000000;3.482051
3294.000000;3.539073
3293.000000;3.620727
3292.000000;3.703823
3291.000000;4.133810
3290.000000;3.959746
3289.000000;3.489200
3288.000000;3.318432
3287.000000;3.250847
3286.000000;3.266804
3285.000000;3.402450
3284.000000;3.635798
3283.000000;3.772989
3282.000000;3.812774
3281.000000;3.749191
3280.000000;3.642962
3279.000000;3.571051
3278.000000;3.551460
3277.000000;3.580765
3276.000000;3.577492
3275.000000;3.492911
3274.000000;3.411059
3273.000000;3.399792
3272.000000;3.476593
3271.000000;3.643279
3270.000000;3.796858
3269.000000;3.876185
3268.000000;3.733044
3267.000000;3.503158
3266.000000;3.422286
3265.000000;3.554300
3264.000000;4.082937
3263.000000;3.734217
3262.000000;3.508135
3261.000000;3.720927
3260.000000;3.788759
3259.000000;3.438023
3258.000000;3.294590
3257.000000;3.294640
3256.000000;3.321036
3255.000000;3.303846
3254.000000;3.259593
3253.000000;3.268391
3252.000000;3.395006
3251.000000;3.760711
3250.000000;4.199612
3249.000000;3.758881
3248.000000;3.603138
3247.000000;3.598235
3246.000000;3.671755
3245.000000;3.685527
3244.000000;3.643805
3243.000000;3.668668
3242.000000;3.862528
3241.000000;4.309093
3240.000000;3.912894
3239.000000;3.640171
3238.000000;3.635459
3237.000000;3.706575
3236.000000;3.924177
3235.000000;4.349447
3234.000000;3.964427
3233.000000;3.811825
3232.000000;3.878676
3231.000000;3.813399
3230.000000;3.704924
3229.000000;3.624292
3228.000000;3.540275
3227.000000;3.448914
3226.000000;3.395724
3225.000000;3.437704
3224.000000;3.644302
3223.000000;3.806715
3222.000000;3.613647
3221.000000;3.504039
3220.000000;3.420026
3219.000000;3.343460
3218.000000;3.283560
3217.000000;3.233213
3216.000000;3.222471
3215.000000;3.291231
3214.000000;3.468207
3213.000000;3.639708
3212.000000;3.898615
3211.000000;4.090808
3210.000000;3.572419
3209.000000;3.329193
3208.000000;3.291933
3207.000000;3.410862
3206.000000;3.654872
3205.000000;3.720422
3204.000000;3.740542
3203.000000;4.080133
3202.000000;4.146086
3201.000000;3.655557
3200.000000;3.474966
3199.000000;3.440341
3198.000000;3.528650
3197.000000;3.730577
3196.000000;4.013908
3195.000000;4.324973
3194.000000;3.846843
3193.000000;3.540285
3192.000000;3.467588
3191.000000;3.469939
3190.000000;3.482302
3189.000000;3.522094
3188.000000;3.551867
3187.000000;3.540546
3186.000000;3.610099
3185.000000;3.718419
3184.000000;3.761936
3183.000000;3.869153
3182.000000;3.679658
3181.000000;3.449733
3180.000000;3.348686
3179.000000;3.302494
3178.000000;3.257500
3177.000000;3.239840
3176.000000;3.271482
3175.000000;3.463906
3174.000000;4.131406
3173.000000;3.575222
3172.000000;3.308458
3171.000000;3.287270
3170.000000;3.336555
3169.000000;3.382443
3168.000000;3.441516
3167.000000;3.609476
3166.000000;3.600878
3165.000000;3.458886
3164.000000;3.498108
3163.000000;3.493111
3162.000000;3.347610
3161.000000;3.234239
3160.000000;3.171156
3159.000000;3.197100
3158.000000;3.417469
3157.000000;3.853623
3156.000000;3.510185
3155.000000;3.299840
3154.000000;3.276671
3153.000000;3.364680
3152.000000;3.915606
3151.000000;3.475346
3150.000000;3.127900
3149.000000;3.073752
3148.000000;3.171279
3147.000000;3.522093
3146.000000;4.026981
3145.000000;3.510707
3144.000000;3.430569
3143.000000;3.566513
3142.000000;3.804887
3141.000000;3.966781
3140.000000;3.827496
3139.000000;3.671471
3138.000000;3.587677
3137.000000;3.756397
3136.000000;4.152643
3135.000000;4.088572
3134.000000;4.050696
3133.000000;3.847681
3132.000000;3.565109
3131.000000;3.491358
3130.000000;3.820277
3129.000000;3.740064
3128.000000;3.310475
3127.000000;3.176724
3126.000000;3.198896
3125.000000;3.367802
3124.000000;3.785488
3123.000000;4.195461
3122.000000;3.831613
3121.000000;3.611692
3120.000000;3.472881
3119.000000;3.383027
3118.000000;3.324379
3117.000000;3.300011
3116.000000;3.303726
3115.000000;3.306544
3114.000000;3.318817
3113.000000;3.352625
3112.000000;3.367604
3111.000000;3.308413
3110.000000;3.233948
3109.000000;3.221137
3108.000000;3.283199
3107.000000;3.368648
3106.000000;3.408837
3105.000000;3.419355
3104.000000;3.527538
3103.000000;3.797634
3102.000000;3.675143
3101.000000;3.503728
3100.000000;3.484295
3099.000000;3.429997
3098.000000;3.386337
3097.000000;3.391072
3096.000000;3.393128
3095.000000;3.430662
3094.000000;3.504283
3093.000000;3.520040
3092.000000;3.498751
3091.000000;3.689571
3090.000000;4.257841
3089.000000;3.674448
3088.000000;3.444940
3087.000000;3.438695
3086.000000;3.537993
3085.000000;3.717034
3084.000000;3.678925
3083.000000;3.435447
3082.000000;3.252355
3081.000000;3.164485
3080.000000;3.178580
3079.000000;3.306511
3078.000000;3.482343
3077.000000;3.553198
3076.000000;3.560736
3075.000000;3.622124
3074.000000;3.749599
3073.000000;3.773840
3072.000000;3.579873
3071.000000;3.396435
3070.000000;3.313857
3069.000000;3.299952
3068.000000;3.290397
3067.000000;3.249147
3066.000000;3.201559
3065.000000;3.181892
3064.000000;3.203536
3063.000000;3.273118
3062.000000;3.383519
3061.000000;3.503363
3060.000000;3.557818
3059.000000;3.472557
3058.000000;3.339921
3057.000000;3.263186
3056.000000;3.278634
3055.000000;3.371736
3054.000000;3.459132
3053.000000;3.426152
3052.000000;3.321585
3051.000000;3.263274
3050.000000;3.336756
3049.000000;3.724934
3048.000000;3.922991
3047.000000;3.511121
3046.000000;3.393236
3045.000000;3.466638
3044.000000;3.670427
3043.000000;3.826524
3042.000000;3.699537
3041.000000;3.492435
3040.000000;3.382771
3039.000000;3.370613
3038.000000;3.439545
3037.000000;3.549110
3036.000000;3.588293
3035.000000;3.588658
3034.000000;3.542184
3033.000000;3.470038
3032.000000;3.479708
3031.000000;3.680389
3030.000000;3.881419
3029.000000;3.497027
3028.000000;3.247688
3027.000000;3.170099
3026.000000;3.220423
3025.000000;3.496982
3024.000000;3.687070
3023.000000;3.407182
3022.000000;3.312660
3021.000000;3.369580
3020.000000;3.487737
3019.000000;3.607547
3018.000000;3.731290
3017.000000;3.978218
3016.000000;3.800050
3015.000000;3.471084
3014.000000;3.332516
3013.000000;3.285797
3012.000000;3.228984
3011.000000;3.197665
3010.000000;3.296845
3009.000000;3.596505
3008.000000;3.757188
3007.000000;3.515655
3006.000000;3.481895
3005.000000;3.678620
3004.000000;3.693266
3003.000000;3.463810
3002.000000;3.458796
3001.000000;3.877254
3000.000000;3.928595
2999.000000;3.422782
2998.000000;3.353266
2997.000000;3.585993
2996.000000;3.997013
2995.000000;3.773929
2994.000000;3.656084
2993.000000;3.647248
2992.000000;3.576692
2991.000000;3.552666
2990.000000;3.521594
2989.000000;3.432229
2988.000000;3.346754
2987.000000;3.370178
2986.000000;3.484552
2985.000000;3.460214
2984.000000;3.365016
2983.000000;3.383215
2982.000000;3.468573
2981.000000;3.517545
2980.000000;3.540361
2979.000000;3.528127
2978.000000;3.424999
2977.000000;3.333166
2976.000000;3.330262
2975.000000;3.432722
2974.000000;3.736836
2973.000000;4.124119
2972.000000;3.724863
2971.000000;3.427694
2970.000000;3.303487
2969.000000;3.285312
2968.000000;3.350364
2967.000000;3.478632
2966.000000;3.707080
2965.000000;3.981504
2964.000000;3.893303
2963.000000;3.525693
2962.000000;3.332690
2961.000000;3.321798
2960.000000;3.603026
2959.000000;4.249466
2958.000000;3.610198
2957.000000;3.459335
2956.000000;3.462650
2955.000000;3.567702
2954.000000;3.708107
2953.000000;3.519294
2952.000000;3.423259
2951.000000;3.486337
2950.000000;3.598090
2949.000000;3.555855
2948.000000;3.405968
2947.000000;3.331862
2946.000000;3.351165
2945.000000;3.450400
2944.000000;3.571805
2943.000000;3.744992
2942.000000;3.957129
2941.000000;3.809521
2940.000000;3.535429
2939.000000;3.508110
2938.000000;4.055760
2937.000000;3.695868
2936.000000;3.297332
2935.000000;3.204992
2934.000000;3.209589
2933.000000;3.291429
2932.000000;3.369723
2931.000000;3.389574
2930.000000;3.361065
2929.000000;3.474728
2928.000000;3.868395
2927.000000;3.531786
2926.000000;3.233912
2925.000000;3.194510
2924.000000;3.286103
2923.000000;3.671226
2922.000000;4.072807
2921.000000;3.864481
2920.000000;4.094706
2919.000000;3.624279
2918.000000;3.370707
2917.000000;3.470926
2916.000000;3.791783
2915.000000;3.568395
2914.000000;3.299923
2913.000000;3.215515
2912.000000;3.182158
2911.000000;3.202953
2910.000000;3.307890
2909.000000;3.568638
2908.000000;3.877618
2907.000000;4.187760
2906.000000;3.882842
2905.000000;3.451156
2904.000000;3.361355
2903.000000;3.531704
2902.000000;3.694052
2901.000000;3.548132
2900.000000;3.541779
2899.000000;3.611629
2898.000000;3.696060
2897.000000;3.517511
2896.000000;3.245053
2895.000000;3.168908
2894.000000;3.212035
2893.000000;3.365584
2892.000000;3.537022
2891.000000;3.592337
2890.000000;4.173681
2889.000000;3.899261
2888.000000;3.607431
2887.000000;3.938917
2886.000000;3.581845
2885.000000;3.369712
2884.000000;3.484377
2883.000000;3.713491
2882.000000;3.716479
2881.000000;3.613722
2880.000000;3.784168
2879.000000;4.121758
2878.000000;3.546348
2877.000000;3.294153
2876.000000;3.221238
2875.000000;3.241660
2874.000000;3.346447
2873.000000;3.647714
2872.000000;4.260995
2871.000000;3.814013
2870.000000;3.639524
2869.000000;3.498981
2868.000000;3.358564
2867.000000;3.319145
2866.000000;3.373543
2865.000000;3.494441
2864.000000;3.632472
2863.000000;4.120816
2862.000000;3.947215
2861.000000;3.510508
2860.000000;3.419029
2859.000000;3.425858
2858.000000;3.486070
2857.000000;3.639752
2856.000000;3.630050
2855.000000;3.349522
2854.000000;3.231886
2853.000000;3.313975
2852.000000;3.485302
2851.000000;3.607919
2850.000000;3.844345
2849.000000;4.205638
2848.000000;3.870035
2847.000000;3.541395
2846.000000;3.468229
2845.000000;3.660752
2844.000000;3.919622
2843.000000;3.725155
2842.000000;3.682174
2841.000000;4.120274
2840.000000;4.138445
2839.000000;3.719425
2838.000000;3.607642
2837.000000;3.521659
2836.000000;3.616638
2835.000000;3.856458
2834.000000;3.823510
2833.000000;3.657214
2832.000000;3.555015
2831.000000;3.608854
2830.000000;3.875811
2829.000000;3.881847
2828.000000;3.635982
2827.000000;3.576314
2826.000000;3.573482
2825.000000;3.419430
2824.000000;3.250342
2823.000000;3.170212
2822.000000;3.177770
2821.000000;3.275388
2820.000000;3.523422
2819.000000;3.977055
2818.000000;3.942212
2817.000000;3.764513
2816.000000;3.903259
2815.000000;4.163250
2814.000000;3.764151
2813.000000;3.663349
2812.000000;4.066757
2811.000000;3.730695
2810.000000;3.419138
2809.000000;3.481337
2808.000000;3.853672
2807.000000;3.859031
2806.000000;3.519200
2805.000000;3.463202
2804.000000;3.577048
2803.000000;3.857243
2802.000000;4.047648
2801.000000;4.137702
2800.000000;4.307897
2799.000000;3.763434
2798.000000;3.466665
2797.000000;3.355603
2796.000000;3.314180
2795.000000;3.275052
2794.000000;3.233007
2793.000000;3.236259
2792.000000;3.304710
2791.000000;3.467026
2790.000000;3.631511
2789.000000;3.558268
2788.000000;3.447166
2787.000000;3.405492
2786.000000;3.386251
2785.000000;3.362576
2784.000000;3.342836
2783.000000;3.356054
2782.000000;3.420083
2781.000000;3.565653
2780.000000;3.682661
2779.000000;3.604934
2778.000000;3.585196
2777.000000;3.760899
2776.000000;3.826878
2775.000000;3.540150
2774.000000;3.358257
2773.000000;3.308477
2772.000000;3.423193
2771.000000;3.703775
2770.000000;3.638621
2769.000000;3.493039
2768.000000;3.557712
2767.000000;3.731932
2766.000000;3.563361
2765.000000;3.287917
2764.000000;3.175471
2763.000000;3.181282
2762.000000;3.254898
2761.000000;3.323749
2760.000000;3.345326
2759.000000;3.358685
2758.000000;3.395761
2757.000000;3.429020
2756.000000;3.446058
2755.000000;3.488198
2754.000000;3.588387
2753.000000;3.620895
2752.000000;3.505981
2751.000000;3.420554
2750.000000;3.432372
2749.000000;3.438974
2748.000000;3.433340
2747.000000;3.520742
2746.000000;3.780050
2745.000000;4.356579
2744.000000;3.752668
2743.000000;3.349754
2742.000000;3.243799
2741.000000;3.358486
2740.000000;3.810611
2739.000000;4.003850
2738.000000;3.714342
2737.000000;3.866287
2736.000000;4.160164
2735.000000;3.938388
2734.000000;3.718488
2733.000000;3.645787
2732.000000;3.737616
2731.000000;4.225836
2730.000000;3.962715
2729.000000;3.612400
2728.000000;3.628309
2727.000000;3.759940
2726.000000;4.005972
2725.000000;3.880566
2724.000000;3.656741
2723.000000;3.594386
2722.000000;3.471101
2721.000000;3.314987
2720.000000;3.251105
2719.000000;3.279794
2718.000000;3.378155
2717.000000;3.544480
2716.000000;3.894263
2715.000000;4.029463
2714.000000;3.612560
2713.000000;3.522221
2712.000000;3.711546
2711.000000;3.984699
2710.000000;3.894140
2709.000000;4.080245
2708.000000;4.494426
2707.000000;4.010374
2706.000000;3.940210
2705.000000;4.053011
2704.000000;3.861404
2703.000000;3.608078
2702.000000;3.436023
2701.000000;3.321581
2700.000000;3.285548
2699.000000;3.316512
2698.000000;3.385532
2697.000000;3.527874
2696.000000;3.752716
2695.000000;4.069918
2694.000000;4.261351
2693.000000;3.967373
2692.000000;4.106600
2691.000000;3.935842
2690.000000;3.503678
2689.000000;3.406157
2688.000000;3.520572
2687.000000;3.778863
2686.000000;3.892273
2685.000000;3.739886
2684.000000;3.684266
2683.000000;3.820778
2682.000000;4.029977
2681.000000;3.875569
2680.000000;3.660589
2679.000000;3.493262
2678.000000;3.333607
2677.000000;3.225022
2676.000000;3.199706
2675.000000;3.231895
2674.000000;3.277696
2673.000000;3.276516
2672.000000;3.258928
2671.000000;3.274858
2670.000000;3.412096
2669.000000;3.886036
2668.000000;3.988953
2667.000000;3.653095
2666.000000;3.828539
2665.000000;4.120031
2664.000000;3.587542
2663.000000;3.398332
2662.000000;3.378499
2661.000000;3.393224
2660.000000;3.445464
2659.000000;3.559089
2658.000000;3.863279
2657.000000;3.979295
2656.000000;3.735386
2655.000000;3.853756
2654.000000;4.066946
2653.000000;3.720905
2652.000000;3.551526
2651.000000;3.550481
2650.000000;3.746474
2649.000000;4.082556
2648.000000;3.728553
2647.000000;3.529634
2646.000000;3.561478
2645.000000;3.790208
2644.000000;4.181553
2643.000000;3.788016
2642.000000;3.602915
2641.000000;3.655429
2640.000000;3.695671
2639.000000;3.618441
2638.000000;3.511370
2637.000000;3.517270
2636.000000;3.710483
2635.000000;3.999700
2634.000000;4.127738
2633.000000;4.159236
2632.000000;4.130226
2631.000000;4.452494
2630.000000;4.272777
2629.000000;3.858847
2628.000000;3.743993
2627.000000;3.709633
2626.000000;3.723365
2625.000000;3.826041
2624.000000;3.962173
2623.000000;3.748639
2622.000000;3.511842
2621.000000;3.445633
2620.000000;3.496067
2619.000000;3.603396
2618.000000;3.677396
2617.000000;3.709001
2616.000000;3.661735
2615.000000;3.437859
2614.000000;3.244466
2613.000000;3.189092
2612.000000;3.282897
2611.000000;3.490715
2610.000000;3.523735
2609.000000;3.375295
2608.000000;3.276404
2607.000000;3.231282
2606.000000;3.278063
2605.000000;3.420574
2604.000000;3.877743
2603.000000;4.544484
2602.000000;3.708456
2601.000000;3.537385
2600.000000;3.424335
2599.000000;3.329995
2598.000000;3.286549
2597.000000;3.284488
2596.000000;3.347107
2595.000000;3.430739
2594.000000;3.485020
2593.000000;3.502119
2592.000000;3.522158
2591.000000;3.508852
2590.000000;3.501521
2589.000000;3.573555
2588.000000;3.746516
2587.000000;3.751177
2586.000000;3.561765
2585.000000;3.457346
2584.000000;3.423008
2583.000000;3.389292
2582.000000;3.319947
2581.000000;3.256626
2580.000000;3.249984
2579.000000;3.335124
2578.000000;3.505385
2577.000000;3.827625
2576.000000;4.345438
2575.000000;3.791183
2574.000000;3.447561
2573.000000;3.364198
2572.000000;3.482235
2571.000000;3.791377
2570.000000;3.974045
2569.000000;3.941269
2568.000000;3.811238
2567.000000;3.711694
2566.000000;3.756212
2565.000000;3.837085
2564.000000;3.867759
2563.000000;3.798628
2562.000000;3.635417
2561.000000;3.483588
2560.000000;3.413632
2559.000000;3.452566
2558.000000;3.567167
2557.000000;3.560875
2556.000000;3.390858
2555.000000;3.239179
2554.000000;3.172053
2553.000000;3.209956
2552.000000;3.376757
2551.000000;3.793077
2550.000000;4.064276
2549.000000;3.928897
2548.000000;3.899705
2547.000000;3.598680
2546.000000;3.511296
2545.000000;3.608822
2544.000000;3.873175
2543.000000;3.993488
2542.000000;3.675700
2541.000000;3.524109
2540.000000;3.567538
2539.000000;3.684132
2538.000000;3.625010
2537.000000;3.637286
2536.000000;3.613449
2535.000000;3.409648
2534.000000;3.316797
2533.000000;3.318991
2532.000000;3.363194
2531.000000;3.434942
2530.000000;3.697665
2529.000000;3.827188
2528.000000;3.357164
2527.000000;3.191595
2526.000000;3.213022
2525.000000;3.367536
2524.000000;3.646029
2523.000000;4.017266
2522.000000;4.297881
2521.000000;3.828028
2520.000000;3.739525
2519.000000;3.717131
2518.000000;3.472994
2517.000000;3.324211
2516.000000;3.266692
2515.000000;3.251503
2514.000000;3.272318
2513.000000;3.295083
2512.000000;3.325835
2511.000000;3.383636
2510.000000;3.463791
2509.000000;3.531870
2508.000000;3.528339
2507.000000;3.455895
2506.000000;3.437183
2505.000000;3.511430
2504.000000;3.814586
2503.000000;4.348389
2502.000000;3.832126
2501.000000;3.672701
2500.000000;3.680115
2499.000000;3.730270
2498.000000;3.816474
2497.000000;3.712052
2496.000000;3.583472
2495.000000;3.543451
2494.000000;3.539801
2493.000000;3.624927
2492.000000;3.832581
2491.000000;3.900621
2490.000000;4.063369
2489.000000;3.891226
2488.000000;3.552769
2487.000000;3.477145
2486.000000;3.501484
2485.000000;3.548940
2484.000000;3.612197
2483.000000;3.614527
2482.000000;3.527066
2481.000000;3.427761
2480.000000;3.392752
2479.000000;3.417612
2478.000000;3.558754
2477.000000;4.010549
2476.000000;4.059415
2475.000000;3.710962
2474.000000;3.588999
2473.000000;3.478521
2472.000000;3.437208
2471.000000;3.428904
2470.000000;3.369732
2469.000000;3.320852
2468.000000;3.355148
2467.000000;3.494959
2466.000000;3.724803
2465.000000;3.877383
2464.000000;3.795834
2463.000000;3.630491
2462.000000;3.489528
2461.000000;3.374383
2460.000000;3.320806
2459.000000;3.343734
2458.000000;3.460899
2457.000000;3.897137
2456.000000;3.998519
2455.000000;3.620068
2454.000000;3.551618
2453.000000;3.691998
2452.000000;4.239914
2451.000000;4.028326
2450.000000;3.717061
2449.000000;3.673637
2448.000000;3.643633
2447.000000;3.566805
2446.000000;3.495641
2445.000000;3.505819
2444.000000;3.691616
2443.000000;4.040882
2442.000000;3.792543
2441.000000;3.584872
2440.000000;3.597971
2439.000000;3.770041
2438.000000;3.831652
2437.000000;3.635781
2436.000000;3.532821
2435.000000;3.474594
2434.000000;3.421659
2433.000000;3.393397
2432.000000;3.388756
2431.000000;3.396019
2430.000000;3.431075
2429.000000;3.546976
2428.000000;3.801844
2427.000000;3.995114
2426.000000;3.926620
2425.000000;3.948319
2424.000000;3.983130
2423.000000;3.911040
2422.000000;4.140135
2421.000000;4.387938
2420.000000;3.837627
2419.000000;3.681289
2418.000000;3.653622
2417.000000;3.610829
2416.000000;3.531590
2415.000000;3.431411
2414.000000;3.433355
2413.000000;3.591008
2412.000000;3.954704
2411.000000;4.620334
2410.000000;4.563705
2409.000000;4.049924
2408.000000;3.774952
2407.000000;3.636111
2406.000000;3.733447
2405.000000;3.992948
2404.000000;3.955805
2403.000000;3.864671
2402.000000;3.623904
2401.000000;3.424404
2400.000000;3.390902
2399.000000;3.563646
2398.000000;3.867346
2397.000000;3.643026
2396.000000;3.480309
2395.000000;3.468200
2394.000000;3.493109
2393.000000;3.516591
2392.000000;3.480118
2391.000000;3.427695
2390.000000;3.367434
2389.000000;3.327132
2388.000000;3.338660
2387.000000;3.414266
2386.000000;3.456015
2385.000000;3.390180
2384.000000;3.351724
2383.000000;3.383537
2382.000000;3.369937
2381.000000;3.309668
2380.000000;3.325042
2379.000000;3.533401
2378.000000;4.166072
2377.000000;4.716161
2376.000000;4.003495
2375.000000;3.703696
2374.000000;3.605876
2373.000000;3.810825
2372.000000;3.754589
2371.000000;3.808239
2370.000000;3.434831
2369.000000;3.273317
2368.000000;3.094068
2367.000000;2.878217
2366.000000;2.913244
2365.000000;3.144070
2364.000000;3.412933
2363.000000;3.249598
2362.000000;3.206052
2361.000000;3.186562
2360.000000;3.121529
2359.000000;3.083118
2358.000000;3.121600
2357.000000;3.229873
2356.000000;3.244525
2355.000000;3.178781
2354.000000;3.128660
2353.000000;3.098371
2352.000000;3.094646
2351.000000;3.108209
2350.000000;3.093462
2349.000000;3.091092
2348.000000;3.120409
2347.000000;3.112582
2346.000000;3.053696
2345.000000;3.042258
2344.000000;3.108304
2343.000000;3.313182
2342.000000;3.567316
2341.000000;3.312517
2340.000000;3.114287
2339.000000;3.067253
2338.000000;3.090101
2337.000000;3.130006
2336.000000;3.145677
2335.000000;3.164050
2334.000000;3.190561
2333.000000;3.269308
2332.000000;3.490226
2331.000000;3.745851
2330.000000;3.630059
2329.000000;3.505783
2328.000000;3.314437
2327.000000;3.205393
2326.000000;3.197663
2325.000000;3.306784
2324.000000;3.699562
2323.000000;4.053227
2322.000000;3.650270
2321.000000;3.716500
2320.000000;3.467377
2319.000000;3.315795
2318.000000;3.371049
2317.000000;3.222115
2316.000000;3.410439
2315.000000;3.704461
2314.000000;3.290260
2313.000000;3.068830
2312.000000;2.997967
2311.000000;3.002792
2310.000000;3.109792
2309.000000;3.248473
2308.000000;3.306065
2307.000000;3.223838
2306.000000;3.145005
2305.000000;3.143500
2304.000000;3.234043
2303.000000;3.405922
2302.000000;3.655152
2301.000000;3.839541
2300.000000;3.714050
2299.000000;3.569287
2298.000000;3.521430
2297.000000;3.505387
2296.000000;3.523292
2295.000000;3.581575
2294.000000;3.647146
2293.000000;3.635762
2292.000000;3.695068
2291.000000;3.737313
2290.000000;3.807940
2289.000000;4.356269
2288.000000;3.866743
2287.000000;3.523152
2286.000000;3.505859
2285.000000;3.682351
2284.000000;3.807841
2283.000000;3.654776
2282.000000;3.649831
2281.000000;3.892195
2280.000000;4.351895
2279.000000;3.982970
2278.000000;3.711073
2277.000000;3.641740
2276.000000;3.651215
2275.000000;3.761237
2274.000000;3.943293
2273.000000;4.054288
2272.000000;3.939464
2271.000000;4.039137
2270.000000;4.380761
2269.000000;3.929793
2268.000000;3.696588
2267.000000;3.687016
2266.000000;3.637915
2265.000000;3.546013
2264.000000;3.464068
2263.000000;3.476941
2262.000000;3.592077
2261.000000;3.891422
2260.000000;4.434064
2259.000000;3.979927
2258.000000;3.771540
2257.000000;3.701835
2256.000000;3.594628
2255.000000;3.539138
2254.000000;3.553116
2253.000000;3.596748
2252.000000;3.560582
2251.000000;3.522325
2250.000000;3.557848
2249.000000;3.758614
2248.000000;4.185732
2247.000000;4.075024
2246.000000;3.764124
2245.000000;3.780153
2244.000000;4.202466
2243.000000;4.023916
2242.000000;3.877971
2241.000000;4.037625
2240.000000;3.683858
2239.000000;3.455374
2238.000000;3.361476
2237.000000;3.323128
2236.000000;3.366466
2235.000000;3.483770
2234.000000;3.640837
2233.000000;3.708869
2232.000000;3.694282
2231.000000;3.697950
2230.000000;3.780707
2229.000000;3.926246
2228.000000;3.837141
2227.000000;3.623335
2226.000000;3.535306
2225.000000;3.552236
2224.000000;3.658673
2223.000000;3.842644
2222.000000;4.014977
2221.000000;4.431767
2220.000000;4.516107
2219.000000;3.919068
2218.000000;3.850248
2217.000000;3.986786
2216.000000;3.810604
2215.000000;3.635550
2214.000000;3.638620
2213.000000;3.645633
2212.000000;3.620856
2211.000000;3.636679
2210.000000;3.875096
2209.000000;4.425656
2208.000000;4.020219
2207.000000;3.798545
2206.000000;3.728114
2205.000000;3.718972
2204.000000;3.860247
2203.000000;4.025224
2202.000000;3.991344
2201.000000;3.830940
2200.000000;3.800413
2199.000000;4.005161
2198.000000;3.838745
2197.000000;3.539230
2196.000000;3.512255
2195.000000;3.661241
2194.000000;3.704277
2193.000000;3.539559
2192.000000;3.442749
2191.000000;3.395371
2190.000000;3.327816
2189.000000;3.293163
2188.000000;3.339832
2187.000000;3.553704
2186.000000;3.937049
2185.000000;3.848661
2184.000000;3.734817
2183.000000;3.784602
2182.000000;3.724767
2181.000000;3.606316
2180.000000;3.530594
2179.000000;3.613622
2178.000000;3.901230
2177.000000;4.049138
2176.000000;4.050967
2175.000000;3.932707
2174.000000;3.684246
2173.000000;3.778591
2172.000000;4.206134
2171.000000;3.898562
2170.000000;3.721308
2169.000000;4.144156
2168.000000;4.136094
2167.000000;3.701263
2166.000000;3.684001
2165.000000;3.740260
2164.000000;3.755157
2163.000000;3.821175
2162.000000;4.108208
2161.000000;3.965953
2160.000000;3.704757
2159.000000;3.752432
2158.000000;3.869546
2157.000000;3.829988
2156.000000;3.722710
2155.000000;3.795534
2154.000000;4.213618
2153.000000;4.284460
2152.000000;3.982063
2151.000000;3.864878
2150.000000;3.667914
2149.000000;3.509363
2148.000000;3.475715
2147.000000;3.586380
2146.000000;3.867270
2145.000000;3.985113
2144.000000;3.775225
2143.000000;3.663158
2142.000000;3.628996
2141.000000;3.797941
2140.000000;3.890607
2139.000000;3.599743
2138.000000;3.483145
2137.000000;3.547365
2136.000000;3.749784
2135.000000;3.952080
2134.000000;3.919693
2133.000000;4.064974
2132.000000;4.648941
2131.000000;4.151903
2130.000000;3.846098
2129.000000;3.757159
2128.000000;3.659282
2127.000000;3.644370
2126.000000;3.654438
2125.000000;3.778727
2124.000000;4.213696
2123.000000;3.912203
2122.000000;3.624703
2121.000000;3.671617
2120.000000;3.966866
2119.000000;4.470772
2118.000000;4.364219
2117.000000;4.018214
2116.000000;4.003619
2115.000000;4.224893
2114.000000;3.846272
2113.000000;3.558134
2112.000000;3.480674
2111.000000;3.492380
2110.000000;3.591936
2109.000000;3.766819
2108.000000;3.935944
2107.000000;3.951757
2106.000000;3.826059
2105.000000;3.669567
2104.000000;3.582648
2103.000000;3.564542
2102.000000;3.699276
2101.000000;3.941860
2100.000000;3.711558
2099.000000;3.503808
2098.000000;3.415521
2097.000000;3.351626
2096.000000;3.344218
2095.000000;3.436587
2094.000000;3.650677
2093.000000;4.062896
2092.000000;4.471372
2091.000000;4.337554
2090.000000;4.642171
2089.000000;4.273462
2088.000000;4.061418
2087.000000;4.369918
2086.000000;4.364186
2085.000000;4.033968
2084.000000;3.812640
2083.000000;3.596098
2082.000000;3.472075
2081.000000;3.447989
2080.000000;3.539871
2079.000000;3.901330
2078.000000;4.463520
2077.000000;4.265185
2076.000000;4.133922
2075.000000;3.865200
2074.000000;3.664554
2073.000000;3.540614
2072.000000;3.467158
2071.000000;3.511075
2070.000000;3.652159
2069.000000;3.736598
2068.000000;3.793928
2067.000000;3.931388
2066.000000;3.845385
2065.000000;3.706851
2064.000000;3.705970
2063.000000;3.742870
2062.000000;3.722039
2061.000000;3.698679
2060.000000;3.800185
2059.000000;4.053110
2058.000000;4.122150
2057.000000;4.027373
2056.000000;3.910824
2055.000000;3.721841
2054.000000;3.634483
2053.000000;3.668723
2052.000000;3.764056
2051.000000;3.808804
2050.000000;3.756479
2049.000000;3.688182
2048.000000;3.604376
2047.000000;3.500863
2046.000000;3.444471
2045.000000;3.470081
2044.000000;3.580769
2043.000000;3.703527
2042.000000;3.680946
2041.000000;3.604465
2040.000000;3.544826
2039.000000;3.472420
2038.000000;3.413884
2037.000000;3.418763
2036.000000;3.603641
2035.000000;4.075951
2034.000000;4.063671
2033.000000;3.963010
2032.000000;4.103201
2031.000000;4.003035
2030.000000;3.851768
2029.000000;3.837496
2028.000000;4.289269
2027.000000;4.282774
2026.000000;3.789033
2025.000000;3.634350
2024.000000;3.504879
2023.000000;3.402825
2022.000000;3.380604
2021.000000;3.446572
2020.000000;3.461626
2019.000000;3.385007
2018.000000;3.367982
2017.000000;3.409970
2016.000000;3.426319
2015.000000;3.396007
2014.000000;3.376397
2013.000000;3.423545
2012.000000;3.554145
2011.000000;3.806831
2010.000000;4.207146
2009.000000;4.125279
2008.000000;3.888411
2007.000000;3.903455
2006.000000;4.318914
2005.000000;4.504198
2004.000000;4.120003
2003.000000;4.066732
2002.000000;3.709063
2001.000000;3.439744
2000.000000;3.340234
1999.000000;3.335774
1998.000000;3.410228
1997.000000;3.530403
1996.000000;3.700874
1995.000000;3.865512
1994.000000;3.959343
1993.000000;3.857680
1992.000000;3.913916
1991.000000;4.389902
1990.000000;3.957625
1989.000000;3.691777
1988.000000;3.670501
1987.000000;3.666754
1986.000000;3.644825
1985.000000;3.630927
1984.000000;3.694564
1983.000000;3.737047
1982.000000;3.660364
1981.000000;3.578723
1980.000000;3.577633
1979.000000;3.642813
1978.000000;3.699235
1977.000000;3.655957
1976.000000;3.592310
1975.000000;3.610181
1974.000000;3.646797
1973.000000;3.635220
1972.000000;3.697103
1971.000000;3.951343
1970.000000;4.331962
1969.000000;4.251929
1968.000000;3.985074
1967.000000;3.790642
1966.000000;3.669589
1965.000000;3.662698
1964.000000;3.764154
1963.000000;4.031294
1962.000000;4.319880
1961.000000;4.088612
1960.000000;3.892350
1959.000000;3.733141
1958.000000;3.664332
1957.000000;3.718191
1956.000000;3.745995
1955.000000;3.793980
1954.000000;3.876374
1953.000000;3.928033
1952.000000;3.985412
1951.000000;3.979980
1950.000000;3.982581
1949.000000;3.923136
1948.000000;3.697209
1947.000000;3.665261
1946.000000;4.323990
1945.000000;3.999274
1944.000000;3.746155
1943.000000;4.352015
1942.000000;3.886084
1941.000000;3.616827
1940.000000;3.681203
1939.000000;3.744331
1938.000000;3.599450
1937.000000;3.460408
1936.000000;3.470194
1935.000000;3.566774
1934.000000;3.680273
1933.000000;3.671038
1932.000000;3.570164
1931.000000;3.511413
1930.000000;3.521984
1929.000000;3.512901
1928.000000;3.474987
1927.000000;3.502135
1926.000000;3.627964
1925.000000;3.840972
1924.000000;3.907542
1923.000000;3.808935
1922.000000;3.749067
1921.000000;3.693420
1920.000000;3.676665
1919.000000;3.758905
1918.000000;3.898373
1917.000000;3.906287
1916.000000;3.919413
1915.000000;4.027504
1914.000000;4.037201
1913.000000;3.806705
1912.000000;3.569884
1911.000000;3.510278
1910.000000;3.620315
1909.000000;3.899656
1908.000000;4.120068
1907.000000;4.346288
1906.000000;4.714914
1905.000000;4.035217
1904.000000;3.980620
1903.000000;4.263013
1902.000000;4.004314
1901.000000;3.734207
1900.000000;3.707173
1899.000000;3.863327
1898.000000;4.207840
1897.000000;4.665616
1896.000000;4.286499
1895.000000;3.955892
1894.000000;3.865896
1893.000000;3.840116
1892.000000;3.779944
1891.000000;3.784013
1890.000000;4.011293
1889.000000;4.190821
1888.000000;4.020838
1887.000000;3.810443
1886.000000;3.702765
1885.000000;3.612677
1884.000000;3.766630
1883.000000;4.517346
1882.000000;3.787641
1881.000000;3.564295
1880.000000;3.639222
1879.000000;3.851177
1878.000000;4.162356
1877.000000;4.116470
1876.000000;4.137046
1875.000000;4.160264
1874.000000;4.249700
1873.000000;4.103642
1872.000000;3.817983
1871.000000;3.651393
1870.000000;3.615765
1869.000000;3.695540
1868.000000;3.772364
1867.000000;3.657322
1866.000000;3.698913
1865.000000;4.119476
1864.000000;4.495404
1863.000000;4.700309
1862.000000;4.069203
1861.000000;3.669526
1860.000000;3.595875
1859.000000;3.652012
1858.000000;3.645902
1857.000000;3.536144
1856.000000;3.475353
1855.000000;3.521263
1854.000000;3.649571
1853.000000;3.727630
1852.000000;3.709977
1851.000000;3.721361
1850.000000;3.757193
1849.000000;3.893637
1848.000000;4.213532
1847.000000;3.910463
1846.000000;3.576506
1845.000000;3.471244
1844.000000;3.427663
1843.000000;3.419803
1842.000000;3.471631
1841.000000;3.618327
1840.000000;3.865884
1839.000000;3.805333
1838.000000;3.615784
1837.000000;3.599355
1836.000000;3.670538
1835.000000;3.631048
1834.000000;3.511183
1833.000000;3.472122
1832.000000;3.609939
1831.000000;3.912579
1830.000000;3.905874
1829.000000;3.845349
1828.000000;3.876470
1827.000000;3.774056
1826.000000;3.674228
1825.000000;3.654052
1824.000000;3.952018
1823.000000;4.620859
1822.000000;4.105695
1821.000000;4.415722
1820.000000;4.311997
1819.000000;3.765854
1818.000000;3.660197
1817.000000;3.711874
1816.000000;3.746866
1815.000000;3.793567
1814.000000;4.352940
1813.000000;4.128355
1812.000000;3.734976
1811.000000;3.700370
1810.000000;3.726019
1809.000000;3.991065
1808.000000;4.301357
1807.000000;4.026928
1806.000000;3.700126
1805.000000;3.555411
1804.000000;3.552303
1803.000000;3.795583
1802.000000;4.569833
1801.000000;4.034056
1800.000000;3.854053
1799.000000;3.909768
1798.000000;3.774841
1797.000000;3.581429
1796.000000;3.515932
1795.000000;3.592448
1794.000000;3.738364
1793.000000;3.778056
1792.000000;3.611848
1791.000000;3.496471
1790.000000;3.469859
1789.000000;3.522030
1788.000000;3.642139
1787.000000;3.826125
1786.000000;4.109700
1785.000000;4.200225
1784.000000;3.934189
1783.000000;3.801102
1782.000000;3.982808
1781.000000;4.098522
1780.000000;3.741103
1779.000000;3.550918
1778.000000;3.457347
1777.000000;3.431461
1776.000000;3.496765
1775.000000;3.680674
1774.000000;3.859146
1773.000000;3.674236
1772.000000;3.508090
1771.000000;3.523294
1770.000000;3.766829
1769.000000;4.140167
1768.000000;4.130506
1767.000000;3.975312
1766.000000;3.806314
1765.000000;3.621821
1764.000000;3.464463
1763.000000;3.341012
1762.000000;3.254104
1761.000000;3.209077
1760.000000;3.234370
1759.000000;3.341322
1758.000000;3.531904
1757.000000;3.901105
1756.000000;3.998333
1755.000000;3.667218
1754.000000;3.579366
1753.000000;3.696119
1752.000000;3.922671
1751.000000;4.189175
1750.000000;4.734428
1749.000000;4.200739
1748.000000;3.747526
1747.000000;3.634973
1746.000000;3.794538
1745.000000;3.990090
1744.000000;3.795945
1743.000000;3.601129
1742.000000;3.446412
1741.000000;3.381664
1740.000000;3.435472
1739.000000;3.899887
1738.000000;3.985094
1737.000000;3.445467
1736.000000;3.398011
1735.000000;3.481548
1734.000000;3.599302
1733.000000;3.818716
1732.000000;4.123398
1731.000000;3.849337
1730.000000;3.614750
1729.000000;3.629277
1728.000000;3.677292
1727.000000;3.652395
1726.000000;3.597579
1725.000000;3.604193
1724.000000;3.715009
1723.000000;4.064292
1722.000000;4.209307
1721.000000;3.869184
1720.000000;3.778443
1719.000000;3.664036
1718.000000;3.584320
1717.000000;3.649619
1716.000000;3.764674
1715.000000;3.733935
1714.000000;3.666348
1713.000000;3.712591
1712.000000;3.669063
1711.000000;3.575409
1710.000000;3.537854
1709.000000;3.517634
1708.000000;3.524941
1707.000000;3.693884
1706.000000;4.268031
1705.000000;3.828860
1704.000000;3.383424
1703.000000;3.269443
1702.000000;3.265923
1701.000000;3.270129
1700.000000;3.234563
1699.000000;3.447315
1698.000000;4.048256
1697.000000;4.016356
1696.000000;4.194211
1695.000000;4.204040
1694.000000;3.845050
1693.000000;3.684507
1692.000000;3.783704
1691.000000;3.940271
1690.000000;3.699799
1689.000000;3.575088
1688.000000;3.584518
1687.000000;3.636344
1686.000000;3.620872
1685.000000;3.510843
1684.000000;3.399881
1683.000000;3.377555
1682.000000;3.329826
1681.000000;3.288558
1680.000000;3.351848
1679.000000;3.422987
1678.000000;3.504015
1677.000000;3.684168
1676.000000;3.739336
1675.000000;3.494591
1674.000000;3.287336
1673.000000;3.166463
1672.000000;3.133928
1671.000000;3.196183
1670.000000;3.333804
1669.000000;3.598078
1668.000000;3.795158
1667.000000;3.687840
1666.000000;3.745089
1665.000000;3.794417
1664.000000;3.604315
1663.000000;3.473932
1662.000000;3.507386
1661.000000;3.685978
1660.000000;3.735531
1659.000000;3.618580
1658.000000;3.542882
1657.000000;3.465414
1656.000000;3.408484
1655.000000;3.471166
1654.000000;3.605166
1653.000000;3.656603
1652.000000;3.628337
1651.000000;3.626358
1650.000000;3.843606
1649.000000;3.438425
1648.000000;3.143414
1647.000000;3.135201
1646.000000;3.271031
1645.000000;3.549449
1644.000000;3.878022
1643.000000;3.975057
1642.000000;3.983786
1641.000000;4.004509
1640.000000;3.838772
1639.000000;3.621328
1638.000000;3.479794
1637.000000;3.361365
1636.000000;3.200768
1635.000000;3.037852
1634.000000;2.982684
1633.000000;3.069451
1632.000000;3.289736
1631.000000;3.517356
1630.000000;3.485233
1629.000000;3.412776
1628.000000;3.485764
1627.000000;3.561323
1626.000000;3.478427
1625.000000;3.458514
1624.000000;3.713571
1623.000000;3.972662
1622.000000;3.693115
1621.000000;3.615210
1620.000000;3.572275
1619.000000;3.459628
1618.000000;3.432241
1617.000000;3.490055
1616.000000;3.626156
1615.000000;3.867657
1614.000000;3.937152
1613.000000;3.732711
1612.000000;3.646024
1611.000000;3.643169
1610.000000;3.654848
1609.000000;3.761969
1608.000000;4.084965
1607.000000;3.916258
1606.000000;3.532102
1605.000000;3.379804
1604.000000;3.341841
1603.000000;3.381236
1602.000000;3.407142
1601.000000;3.378880
1600.000000;3.387348
1599.000000;3.476149
1598.000000;3.676801
1597.000000;3.799023
1596.000000;3.653559
1595.000000;3.567961
1594.000000;3.615444
1593.000000;3.758032
1592.000000;3.858373
1591.000000;3.819873
1590.000000;3.869756
1589.000000;3.960992
1588.000000;3.841316
1587.000000;3.846403
1586.000000;4.014353
1585.000000;3.932107
1584.000000;3.772805
1583.000000;3.660343
1582.000000;3.549397
1581.000000;3.472022
1580.000000;3.461786
1579.000000;3.592457
1578.000000;3.839007
1577.000000;3.898217
1576.000000;3.812773
1575.000000;3.777882
1574.000000;3.786471
1573.000000;3.846695
1572.000000;4.078213
1571.000000;4.281726
1570.000000;3.890524
1569.000000;3.675080
1568.000000;3.653114
1567.000000;3.851069
1566.000000;4.062644
1565.000000;3.969212
1564.000000;4.089519
1563.000000;3.813407
1562.000000;3.544956
1561.000000;3.503625
1560.000000;3.514385
1559.000000;3.689147
1558.000000;4.541835
1557.000000;3.925049
1556.000000;3.411883
1555.000000;3.339063
1554.000000;3.446108
1553.000000;3.657475
1552.000000;3.991887
1551.000000;4.171407
1550.000000;4.005411
1549.000000;3.781850
1548.000000;3.585421
1547.000000;3.521612
1546.000000;3.562839
1545.000000;3.587038
1544.000000;3.555716
1543.000000;3.561226
1542.000000;3.506443
1541.000000;3.371084
1540.000000;3.322337
1539.000000;3.314271
1538.000000;3.314057
1537.000000;3.271475
1536.000000;3.229130
1535.000000;3.265013
1534.000000;3.523746
1533.000000;4.019630
1532.000000;3.586510
1531.000000;3.446246
1530.000000;3.459857
1529.000000;3.465040
1528.000000;3.468392
1527.000000;3.429048
1526.000000;3.408135
1525.000000;3.562714
1524.000000;3.785956
1523.000000;3.431640
1522.000000;3.273259
1521.000000;3.204374
1520.000000;3.096095
1519.000000;3.033101
1518.000000;3.220457
1517.000000;3.531718
1516.000000;3.273280
1515.000000;3.176041
1514.000000;3.283419
1513.000000;3.481326
1512.000000;3.701748
1511.000000;3.728239
1510.000000;3.655433
1509.000000;3.527896
1508.000000;3.447660
1507.000000;3.386244
1506.000000;3.516171
1505.000000;3.752222
1504.000000;3.502738
1503.000000;3.436544
1502.000000;3.740675
1501.000000;4.147827
1500.000000;3.542492
1499.000000;3.336386
1498.000000;3.314174
1497.000000;3.350157
1496.000000;3.391022
1495.000000;3.398233
1494.000000;3.466580
1493.000000;3.510460
1492.000000;3.393962
1491.000000;3.326035
1490.000000;3.423751
1489.000000;3.661524
1488.000000;4.153021
1487.000000;4.313679
1486.000000;3.755054
1485.000000;3.514143
1484.000000;3.435997
1483.000000;3.463557
1482.000000;3.588946
1481.000000;3.775130
1480.000000;3.946524
1479.000000;4.025616
1478.000000;4.083682
1477.000000;4.027976
1476.000000;4.089101
1475.000000;4.124064
1474.000000;3.700650
1473.000000;3.467328
1472.000000;3.323745
1471.000000;3.261184
1470.000000;3.329073
1469.000000;3.586499
1468.000000;4.165906
1467.000000;4.064635
1466.000000;3.791995
1465.000000;3.797634
1464.000000;4.040110
1463.000000;4.318601
1462.000000;3.924755
1461.000000;3.744086
1460.000000;3.748084
1459.000000;4.089811
1458.000000;4.212477
1457.000000;3.869942
1456.000000;3.826173
1455.000000;4.037040
1454.000000;4.553667
1453.000000;4.079613
1452.000000;4.094332
1451.000000;4.637237
1450.000000;4.583877
1449.000000;3.943715
1448.000000;3.598747
1447.000000;3.532705
1446.000000;3.667305
1445.000000;3.740618
1444.000000;3.615508
1443.000000;3.540813
1442.000000;3.501251
1441.000000;3.499877
1440.000000;3.572098
1439.000000;3.716554
1438.000000;3.812064
1437.000000;3.814525
1436.000000;3.784652
1435.000000;3.826662
1434.000000;4.074598
1433.000000;3.907449
1432.000000;3.640424
1431.000000;3.600115
1430.000000;3.788783
1429.000000;3.733292
1428.000000;3.428900
1427.000000;3.334236
1426.000000;3.404655
1425.000000;3.589358
1424.000000;3.819680
1423.000000;3.951011
1422.000000;3.896677
1421.000000;3.794875
1420.000000;3.805683
1419.000000;4.159305
1418.000000;4.128116
1417.000000;3.603734
1416.000000;3.451171
1415.000000;3.405469
1414.000000;3.384481
1413.000000;3.361976
1412.000000;3.368541
1411.000000;3.444464
1410.000000;3.598147
1409.000000;3.821424
1408.000000;3.797201
1407.000000;3.652823
1406.000000;3.529476
1405.000000;3.425972
1404.000000;3.418023
1403.000000;3.517558
1402.000000;3.644672
1401.000000;3.758436
1400.000000;4.066489
1399.000000;3.902642
1398.000000;3.506328
1397.000000;3.373479
1396.000000;3.360245
1395.000000;3.363451
1394.000000;3.358601
1393.000000;3.395880
1392.000000;3.501575
1391.000000;3.696410
1390.000000;3.867214
1389.000000;3.780084
1388.000000;3.742152
1387.000000;3.894673
1386.000000;4.185773
1385.000000;4.410800
1384.000000;4.174993
1383.000000;3.899765
1382.000000;3.846795
1381.000000;3.861148
1380.000000;3.758434
1379.000000;3.637473
1378.000000;3.550262
1377.000000;3.557793
1376.000000;3.758793
1375.000000;3.814173
1374.000000;3.601414
1373.000000;3.551909
1372.000000;3.635499
1371.000000;3.772929
1370.000000;3.775480
1369.000000;3.592019
1368.000000;3.435971
1367.000000;3.355261
1366.000000;3.375956
1365.000000;3.475728
1364.000000;3.558310
1363.000000;3.633714
1362.000000;3.834286
1361.000000;4.275958
1360.000000;3.861982
1359.000000;3.459249
1358.000000;3.348032
1357.000000;3.379609
1356.000000;3.518624
1355.000000;3.706066
1354.000000;3.942160
1353.000000;4.042738
1352.000000;3.764013
1351.000000;3.589543
1350.000000;3.561487
1349.000000;3.588252
1348.000000;3.542318
1347.000000;3.481937
1346.000000;3.507795
1345.000000;3.681559
1344.000000;4.007185
1343.000000;3.935811
1342.000000;3.938486
1341.000000;4.186861
1340.000000;3.990456
1339.000000;3.794388
1338.000000;3.718877
1337.000000;3.741682
1336.000000;3.914625
1335.000000;3.945041
1334.000000;3.798879
1333.000000;3.693247
1332.000000;3.576730
1331.000000;3.571444
1330.000000;3.690594
1329.000000;3.961380
1328.000000;4.500907
1327.000000;4.215593
1326.000000;4.054062
1325.000000;3.987814
1324.000000;3.802767
1323.000000;3.654396
1322.000000;3.617133
1321.000000;3.679364
1320.000000;3.950829
1319.000000;4.656798
1318.000000;3.833243
1317.000000;3.583415
1316.000000;3.553229
1315.000000;3.610451
1314.000000;3.707315
1313.000000;3.814709
1312.000000;4.120999
1311.000000;3.979880
1310.000000;3.656260
1309.000000;3.658036
1308.000000;3.907396
1307.000000;4.149110
1306.000000;3.951703
1305.000000;3.786191
1304.000000;3.740590
1303.000000;3.874964
1302.000000;4.089633
1301.000000;3.895777
1300.000000;3.688416
1299.000000;3.707815
1298.000000;3.991483
1297.000000;3.933459
1296.000000;3.837066
1295.000000;3.834273
1294.000000;3.656894
1293.000000;3.565828
1292.000000;3.696375
1291.000000;4.016889
1290.000000;3.705450
1289.000000;3.514591
1288.000000;3.484762
1287.000000;3.462250
1286.000000;3.469060
1285.000000;3.538117
1284.000000;3.685227
1283.000000;3.911121
1282.000000;3.995276
1281.000000;3.762623
1280.000000;3.582279
1279.000000;3.478871
1278.000000;3.408952
1277.000000;3.358764
1276.000000;3.353108
1275.000000;3.421209
1274.000000;3.567899
1273.000000;3.704126
1272.000000;3.745204
1271.000000;3.792285
1270.000000;3.887957
1269.000000;3.967322
1268.000000;3.842586
1267.000000;3.644531
1266.000000;3.495259
1265.000000;3.434293
1264.000000;3.514007
1263.000000;3.773619
1262.000000;3.922949
1261.000000;3.930788
1260.000000;4.259504
1259.000000;4.058815
1258.000000;3.855711
1257.000000;3.959760
1256.000000;3.844693
1255.000000;3.634874
1254.000000;3.816723
1253.000000;4.109348
1252.000000;3.593468
1251.000000;3.415312
1250.000000;3.454590
1249.000000;3.613842
1248.000000;3.817001
1247.000000;3.954153
1246.000000;4.371752
1245.000000;4.101725
1244.000000;3.714028
1243.000000;3.669176
1242.000000;3.927025
1241.000000;3.791806
1240.000000;3.472619
1239.000000;3.393824
1238.000000;3.530473
1237.000000;3.825827
1236.000000;3.650956
1235.000000;3.469422
1234.000000;3.433801
1233.000000;3.449960
1232.000000;3.495526
1231.000000;3.575857
1230.000000;3.721237
1229.000000;3.878745
1228.000000;4.037369
1227.000000;4.012585
1226.000000;3.723238
1225.000000;3.511192
1224.000000;3.401336
1223.000000;3.358950
1222.000000;3.368836
1221.000000;3.426173
1220.000000;3.556434
1219.000000;3.754899
1218.000000;3.869054
1217.000000;3.926906
1216.000000;4.101308
1215.000000;4.391191
1214.000000;4.082630
1213.000000;4.062971
1212.000000;4.512347
1211.000000;3.884413
1210.000000;3.610680
1209.000000;3.493093
1208.000000;3.411405
1207.000000;3.387777
1206.000000;3.404096
1205.000000;3.398665
1204.000000;3.369035
1203.000000;3.390544
1202.000000;3.502258
1201.000000;3.579921
1200.000000;3.498974
