Criado como novo conjunto de dados;"1909daniel.spp","-4278764.7 Secs"
cm-1;Abs
10000.000000;1.364126
9999.000000;1.363963
9998.000000;1.362800
9997.000000;1.360360
9996.000000;1.357332
9995.000000;1.354794
9994.000000;1.353591
9993.000000;1.353498
9992.000000;1.353598
9991.000000;1.353381
9990.000000;1.353339
9989.000000;1.354079
9988.000000;1.355330
9987.000000;1.356177
9986.000000;1.355965
9985.000000;1.354502
9984.000000;1.351782
9983.000000;1.348238
9982.000000;1.345066
9981.000000;1.343480
9980.000000;1.343514
9979.000000;1.344067
9978.000000;1.344207
9977.000000;1.343962
9976.000000;1.343787
9975.000000;1.343826
9974.000000;1.343973
9973.000000;1.344142
9972.000000;1.344154
9971.000000;1.343653
9970.000000;1.342505
9969.000000;1.341096
9968.000000;1.339984
9967.000000;1.339337
9966.000000;1.338866
9965.000000;1.338221
9964.000000;1.337400
9963.000000;1.336773
9962.000000;1.336695
9961.000000;1.336997
9960.000000;1.336940
9959.000000;1.335923
9958.000000;1.334215
9957.000000;1.332658
9956.000000;1.331597
9955.000000;1.330483
9954.000000;1.328734
9953.000000;1.326729
9952.000000;1.325613
9951.000000;1.326123
9950.000000;1.327755
9949.000000;1.329103
9948.000000;1.329001
9947.000000;1.327405
9946.000000;1.325200
9945.000000;1.323244
9944.000000;1.321750
9943.000000;1.320539
9942.000000;1.319570
9941.000000;1.318981
9940.000000;1.318735
9939.000000;1.318552
9938.000000;1.318273
9937.000000;1.318072
9936.000000;1.318115
9935.000000;1.318113
9934.000000;1.317482
9933.000000;1.316026
9932.000000;1.314343
9931.000000;1.313368
9930.000000;1.313439
9929.000000;1.313909
9928.000000;1.313780
9927.000000;1.312682
9926.000000;1.311135
9925.000000;1.309918
9924.000000;1.309352
9923.000000;1.309151
9922.000000;1.308781
9921.000000;1.307963
9920.000000;1.306956
9919.000000;1.306310
9918.000000;1.306216
9917.000000;1.306153
9916.000000;1.305430
9915.000000;1.304024
9914.000000;1.302542
9913.000000;1.301345
9912.000000;1.300148
9911.000000;1.298628
9910.000000;1.297042
9909.000000;1.295971
9908.000000;1.295643
9907.000000;1.295763
9906.000000;1.295841
9905.000000;1.295488
9904.000000;1.294537
9903.000000;1.293164
9902.000000;1.291883
9901.000000;1.291257
9900.000000;1.291488
9899.000000;1.292222
9898.000000;1.292731
9897.000000;1.292413
9896.000000;1.291286
9895.000000;1.289880
9894.000000;1.288516
9893.000000;1.286923
9892.000000;1.284895
9891.000000;1.283033
9890.000000;1.282196
9889.000000;1.282262
9888.000000;1.282103
9887.000000;1.280980
9886.000000;1.279389
9885.000000;1.278223
9884.000000;1.277746
9883.000000;1.277784
9882.000000;1.278303
9881.000000;1.279106
9880.000000;1.279334
9879.000000;1.278090
9878.000000;1.275625
9877.000000;1.273311
9876.000000;1.272314
9875.000000;1.272586
9874.000000;1.273127
9873.000000;1.272960
9872.000000;1.271895
9871.000000;1.270561
9870.000000;1.269719
9869.000000;1.269461
9868.000000;1.269200
9867.000000;1.268495
9866.000000;1.267561
9865.000000;1.266735
9864.000000;1.265857
9863.000000;1.264634
9862.000000;1.263372
9861.000000;1.262753
9860.000000;1.262934
9859.000000;1.263342
9858.000000;1.263407
9857.000000;1.263143
9856.000000;1.262864
9855.000000;1.262628
9854.000000;1.262096
9853.000000;1.260832
9852.000000;1.258724
9851.000000;1.256236
9850.000000;1.254158
9849.000000;1.252956
9848.000000;1.252437
9847.000000;1.252139
9846.000000;1.251860
9845.000000;1.251562
9844.000000;1.251005
9843.000000;1.249930
9842.000000;1.248577
9841.000000;1.247595
9840.000000;1.247305
9839.000000;1.247313
9838.000000;1.246958
9837.000000;1.246004
9836.000000;1.244811
9835.000000;1.243998
9834.000000;1.243975
9833.000000;1.244621
9832.000000;1.245312
9831.000000;1.245352
9830.000000;1.244475
9829.000000;1.242931
9828.000000;1.241170
9827.000000;1.239560
9826.000000;1.238319
9825.000000;1.237552
9824.000000;1.237285
9823.000000;1.237491
9822.000000;1.237990
9821.000000;1.238305
9820.000000;1.237843
9819.000000;1.236460
9818.000000;1.234731
9817.000000;1.233438
9816.000000;1.232818
9815.000000;1.232501
9814.000000;1.232093
9813.000000;1.231622
9812.000000;1.231401
9811.000000;1.231599
9810.000000;1.231977
9809.000000;1.231964
9808.000000;1.231089
9807.000000;1.229422
9806.000000;1.227476
9805.000000;1.225625
9804.000000;1.223871
9803.000000;1.222280
9802.000000;1.221284
9801.000000;1.221145
9800.000000;1.221283
9799.000000;1.220708
9798.000000;1.219219
9797.000000;1.217784
9796.000000;1.217510
9795.000000;1.218455
9794.000000;1.219633
9793.000000;1.220028
9792.000000;1.219453
9791.000000;1.218497
9790.000000;1.217835
9789.000000;1.217642
9788.000000;1.217551
9787.000000;1.217017
9786.000000;1.215676
9785.000000;1.213537
9784.000000;1.211094
9783.000000;1.209259
9782.000000;1.208779
9781.000000;1.209438
9780.000000;1.209991
9779.000000;1.209246
9778.000000;1.207255
9777.000000;1.205170
9776.000000;1.203993
9775.000000;1.203765
9774.000000;1.203889
9773.000000;1.203840
9772.000000;1.203392
9771.000000;1.202435
9770.000000;1.200910
9769.000000;1.198953
9768.000000;1.196940
9767.000000;1.195335
9766.000000;1.194430
9765.000000;1.194175
9764.000000;1.194255
9763.000000;1.194351
9762.000000;1.194325
9761.000000;1.194194
9760.000000;1.194011
9759.000000;1.193850
9758.000000;1.193770
9757.000000;1.193637
9756.000000;1.193109
9755.000000;1.192000
9754.000000;1.190641
9753.000000;1.189644
9752.000000;1.189243
9751.000000;1.189026
9750.000000;1.188395
9749.000000;1.187203
9748.000000;1.185904
9747.000000;1.185113
9746.000000;1.185013
9745.000000;1.185105
9744.000000;1.184595
9743.000000;1.183156
9742.000000;1.181259
9741.000000;1.179683
9740.000000;1.178737
9739.000000;1.178112
9738.000000;1.177374
9737.000000;1.176432
9736.000000;1.175533
9735.000000;1.174992
9734.000000;1.174945
9733.000000;1.175203
9732.000000;1.175283
9731.000000;1.174791
9730.000000;1.173889
9729.000000;1.173197
9728.000000;1.173062
9727.000000;1.173103
9726.000000;1.172641
9725.000000;1.171491
9724.000000;1.170067
9723.000000;1.168842
9722.000000;1.167989
9721.000000;1.167576
9720.000000;1.167689
9719.000000;1.168153
9718.000000;1.168365
9717.000000;1.167771
9716.000000;1.166454
9715.000000;1.164986
9714.000000;1.163730
9713.000000;1.162562
9712.000000;1.161310
9711.000000;1.160131
9710.000000;1.159245
9709.000000;1.158537
9708.000000;1.157695
9707.000000;1.156678
9706.000000;1.155762
9705.000000;1.155094
9704.000000;1.154482
9703.000000;1.153727
9702.000000;1.152987
9701.000000;1.152626
9700.000000;1.152741
9699.000000;1.153043
9698.000000;1.153208
9697.000000;1.153189
9696.000000;1.153036
9695.000000;1.152488
9694.000000;1.151096
9693.000000;1.148916
9692.000000;1.146819
9691.000000;1.145751
9690.000000;1.145688
9689.000000;1.145614
9688.000000;1.144619
9687.000000;1.142822
9686.000000;1.141082
9685.000000;1.140098
9684.000000;1.140013
9683.000000;1.140598
9682.000000;1.141428
9681.000000;1.141914
9680.000000;1.141618
9679.000000;1.140657
9678.000000;1.139599
9677.000000;1.138872
9676.000000;1.138403
9675.000000;1.137831
9674.000000;1.136943
9673.000000;1.135880
9672.000000;1.135001
9671.000000;1.134556
9670.000000;1.134400
9669.000000;1.134095
9668.000000;1.133340
9667.000000;1.132216
9666.000000;1.130936
9665.000000;1.129508
9664.000000;1.127842
9663.000000;1.126067
9662.000000;1.124523
9661.000000;1.123499
9660.000000;1.123113
9659.000000;1.123296
9658.000000;1.123684
9657.000000;1.123680
9656.000000;1.122955
9655.000000;1.121852
9654.000000;1.121048
9653.000000;1.120841
9652.000000;1.120955
9651.000000;1.120936
9650.000000;1.120470
9649.000000;1.119469
9648.000000;1.118192
9647.000000;1.117214
9646.000000;1.116861
9645.000000;1.116707
9644.000000;1.115986
9643.000000;1.114584
9642.000000;1.113216
9641.000000;1.112549
9640.000000;1.112506
9639.000000;1.112532
9638.000000;1.112156
9637.000000;1.111145
9636.000000;1.109494
9635.000000;1.107545
9634.000000;1.105868
9633.000000;1.104776
9632.000000;1.104089
9631.000000;1.103470
9630.000000;1.102809
9629.000000;1.102177
9628.000000;1.101649
9627.000000;1.101333
9626.000000;1.101339
9625.000000;1.101525
9624.000000;1.101462
9623.000000;1.100872
9622.000000;1.099986
9621.000000;1.099311
9620.000000;1.099171
9619.000000;1.099543
9618.000000;1.100155
9617.000000;1.100582
9616.000000;1.100421
9615.000000;1.099551
9614.000000;1.098204
9613.000000;1.096728
9612.000000;1.095396
9611.000000;1.094391
9610.000000;1.093718
9609.000000;1.093147
9608.000000;1.092539
9607.000000;1.092174
9606.000000;1.092375
9605.000000;1.092758
9604.000000;1.092400
9603.000000;1.090996
9602.000000;1.089350
9601.000000;1.088363
9600.000000;1.087926
9599.000000;1.087268
9598.000000;1.086094
9597.000000;1.084841
9596.000000;1.083915
9595.000000;1.083206
9594.000000;1.082445
9593.000000;1.081623
9592.000000;1.080910
9591.000000;1.080385
9590.000000;1.079992
9589.000000;1.079634
9588.000000;1.079266
9587.000000;1.078936
9586.000000;1.078716
9585.000000;1.078523
9584.000000;1.078068
9583.000000;1.077135
9582.000000;1.075846
9581.000000;1.074539
9580.000000;1.073424
9579.000000;1.072483
9578.000000;1.071620
9577.000000;1.070779
9576.000000;1.069963
9575.000000;1.069226
9574.000000;1.068636
9573.000000;1.068206
9572.000000;1.067950
9571.000000;1.067953
9570.000000;1.068217
9569.000000;1.068391
9568.000000;1.067915
9567.000000;1.066621
9566.000000;1.064996
9565.000000;1.063694
9564.000000;1.062959
9563.000000;1.062673
9562.000000;1.062716
9561.000000;1.062988
9560.000000;1.063183
9559.000000;1.062913
9558.000000;1.062136
9557.000000;1.061201
9556.000000;1.060420
9555.000000;1.059675
9554.000000;1.058512
9553.000000;1.056662
9552.000000;1.054522
9551.000000;1.053052
9550.000000;1.052997
9549.000000;1.054117
9548.000000;1.055345
9547.000000;1.055823
9546.000000;1.055604
9545.000000;1.055193
9544.000000;1.054730
9543.000000;1.053962
9542.000000;1.052833
9541.000000;1.051669
9540.000000;1.050731
9539.000000;1.049944
9538.000000;1.049150
9537.000000;1.048380
9536.000000;1.047750
9535.000000;1.047275
9534.000000;1.046856
9533.000000;1.046349
9532.000000;1.045605
9531.000000;1.044535
9530.000000;1.043207
9529.000000;1.041804
9528.000000;1.040509
9527.000000;1.039478
9526.000000;1.038881
9525.000000;1.038795
9524.000000;1.039016
9523.000000;1.039103
9522.000000;1.038713
9521.000000;1.037891
9520.000000;1.036977
9519.000000;1.036238
9518.000000;1.035612
9517.000000;1.034834
9516.000000;1.033857
9515.000000;1.033073
9514.000000;1.032955
9513.000000;1.033464
9512.000000;1.033932
9511.000000;1.033636
9510.000000;1.032431
9509.000000;1.030788
9508.000000;1.029322
9507.000000;1.028358
9506.000000;1.027819
9505.000000;1.027382
9504.000000;1.026778
9503.000000;1.026010
9502.000000;1.025296
9501.000000;1.024786
9500.000000;1.024443
9499.000000;1.024199
9498.000000;1.024069
9497.000000;1.023999
9496.000000;1.023763
9495.000000;1.023188
9494.000000;1.022381
9493.000000;1.021587
9492.000000;1.020858
9491.000000;1.020075
9490.000000;1.019254
9489.000000;1.018643
9488.000000;1.018422
9487.000000;1.018394
9486.000000;1.018102
9485.000000;1.017281
9484.000000;1.016176
9483.000000;1.015329
9482.000000;1.015013
9481.000000;1.014914
9480.000000;1.014460
9479.000000;1.013487
9478.000000;1.012441
9477.000000;1.011917
9476.000000;1.012087
9475.000000;1.012600
9474.000000;1.012921
9473.000000;1.012709
9472.000000;1.011991
9471.000000;1.011058
9470.000000;1.010136
9469.000000;1.009135
9468.000000;1.007818
9467.000000;1.006228
9466.000000;1.004804
9465.000000;1.003968
9464.000000;1.003720
9463.000000;1.003718
9462.000000;1.003634
9461.000000;1.003360
9460.000000;1.002972
9459.000000;1.002646
9458.000000;1.002524
9457.000000;1.002540
9456.000000;1.002397
9455.000000;1.001762
9454.000000;1.000476
9453.000000;0.998613
9452.000000;0.996515
9451.000000;0.994814
9450.000000;0.994156
9449.000000;0.994608
9448.000000;0.995456
9447.000000;0.995858
9446.000000;0.995670
9445.000000;0.995427
9444.000000;0.995526
9443.000000;0.995700
9442.000000;0.995372
9441.000000;0.994322
9440.000000;0.992861
9439.000000;0.991490
9438.000000;0.990548
9437.000000;0.990141
9436.000000;0.990191
9435.000000;0.990425
9434.000000;0.990452
9433.000000;0.989980
9432.000000;0.989021
9431.000000;0.987797
9430.000000;0.986447
9429.000000;0.984936
9428.000000;0.983307
9427.000000;0.981901
9426.000000;0.981141
9425.000000;0.981142
9424.000000;0.981659
9423.000000;0.982336
9422.000000;0.982838
9421.000000;0.982809
9420.000000;0.982006
9419.000000;0.980599
9418.000000;0.979172
9417.000000;0.978268
9416.000000;0.978005
9415.000000;0.978108
9414.000000;0.978149
9413.000000;0.977732
9412.000000;0.976731
9411.000000;0.975517
9410.000000;0.974763
9409.000000;0.974796
9408.000000;0.975229
9407.000000;0.975393
9406.000000;0.975007
9405.000000;0.974272
9404.000000;0.973429
9403.000000;0.972534
9402.000000;0.971611
9401.000000;0.970741
9400.000000;0.969926
9399.000000;0.969072
9398.000000;0.968192
9397.000000;0.967448
9396.000000;0.966899
9395.000000;0.966386
9394.000000;0.965796
9393.000000;0.965276
9392.000000;0.965009
9391.000000;0.964872
9390.000000;0.964550
9389.000000;0.964011
9388.000000;0.963600
9387.000000;0.963577
9386.000000;0.963686
9385.000000;0.963366
9384.000000;0.962323
9383.000000;0.960772
9382.000000;0.959167
9381.000000;0.957893
9380.000000;0.957159
9379.000000;0.956976
9378.000000;0.957093
9377.000000;0.957143
9376.000000;0.956982
9375.000000;0.956786
9374.000000;0.956704
9373.000000;0.956559
9372.000000;0.956085
9371.000000;0.955346
9370.000000;0.954703
9369.000000;0.954373
9368.000000;0.954207
9367.000000;0.953905
9366.000000;0.953284
9365.000000;0.952337
9364.000000;0.951214
9363.000000;0.950203
9362.000000;0.949575
9361.000000;0.949327
9360.000000;0.949150
9359.000000;0.948715
9358.000000;0.948011
9357.000000;0.947361
9356.000000;0.947102
9355.000000;0.947222
9354.000000;0.947265
9353.000000;0.946682
9352.000000;0.945395
9351.000000;0.943967
9350.000000;0.943093
9349.000000;0.942918
9348.000000;0.942957
9347.000000;0.942659
9346.000000;0.941951
9345.000000;0.941245
9344.000000;0.940989
9343.000000;0.941207
9342.000000;0.941428
9341.000000;0.941127
9340.000000;0.940261
9339.000000;0.939259
9338.000000;0.938422
9337.000000;0.937583
9336.000000;0.936549
9335.000000;0.935612
9334.000000;0.935261
9333.000000;0.935486
9332.000000;0.935742
9331.000000;0.935614
9330.000000;0.935189
9329.000000;0.934711
9328.000000;0.934241
9327.000000;0.933839
9326.000000;0.933729
9325.000000;0.934003
9324.000000;0.934345
9323.000000;0.934332
9322.000000;0.933960
9321.000000;0.933623
9320.000000;0.933553
9319.000000;0.933432
9318.000000;0.932704
9317.000000;0.931242
9316.000000;0.929647
9315.000000;0.928733
9314.000000;0.928710
9313.000000;0.928980
9312.000000;0.928833
9311.000000;0.928169
9310.000000;0.927366
9309.000000;0.926596
9308.000000;0.925649
9307.000000;0.924409
9306.000000;0.923149
9305.000000;0.922274
9304.000000;0.921974
9303.000000;0.922180
9302.000000;0.922622
9301.000000;0.922914
9300.000000;0.922855
9299.000000;0.922708
9298.000000;0.922900
9297.000000;0.923342
9296.000000;0.923354
9295.000000;0.922446
9294.000000;0.920903
9293.000000;0.919421
9292.000000;0.918405
9291.000000;0.917822
9290.000000;0.917488
9289.000000;0.917232
9288.000000;0.916939
9287.000000;0.916654
9286.000000;0.916566
9285.000000;0.916712
9284.000000;0.916789
9283.000000;0.916432
9282.000000;0.915614
9281.000000;0.914661
9280.000000;0.913978
9279.000000;0.913805
9278.000000;0.914093
9277.000000;0.914495
9276.000000;0.914605
9275.000000;0.914281
9274.000000;0.913638
9273.000000;0.912743
9272.000000;0.911577
9271.000000;0.910336
9270.000000;0.909453
9269.000000;0.909135
9268.000000;0.909060
9267.000000;0.908725
9266.000000;0.907944
9265.000000;0.906887
9264.000000;0.905851
9263.000000;0.905167
9262.000000;0.905085
9261.000000;0.905483
9260.000000;0.905843
9259.000000;0.905709
9258.000000;0.905054
9257.000000;0.904074
9256.000000;0.902892
9255.000000;0.901678
9254.000000;0.900761
9253.000000;0.900297
9252.000000;0.900020
9251.000000;0.899650
9250.000000;0.899373
9249.000000;0.899534
9248.000000;0.899989
9247.000000;0.900174
9246.000000;0.899787
9245.000000;0.899090
9244.000000;0.898565
9243.000000;0.898541
9242.000000;0.899039
9241.000000;0.899662
9240.000000;0.899739
9239.000000;0.898970
9238.000000;0.897911
9237.000000;0.897392
9236.000000;0.897465
9235.000000;0.897389
9234.000000;0.896731
9233.000000;0.895963
9232.000000;0.895681
9231.000000;0.895704
9230.000000;0.895356
9229.000000;0.894418
9228.000000;0.893358
9227.000000;0.892666
9226.000000;0.892322
9225.000000;0.891988
9224.000000;0.891487
9223.000000;0.890941
9222.000000;0.890514
9221.000000;0.890158
9220.000000;0.889671
9219.000000;0.888984
9218.000000;0.888299
9217.000000;0.887869
9216.000000;0.887711
9215.000000;0.887662
9214.000000;0.887643
9213.000000;0.887694
9212.000000;0.887771
9211.000000;0.887719
9210.000000;0.887477
9209.000000;0.887140
9208.000000;0.886752
9207.000000;0.886233
9206.000000;0.885584
9205.000000;0.885019
9204.000000;0.884712
9203.000000;0.884538
9202.000000;0.884201
9201.000000;0.883617
9200.000000;0.883037
9199.000000;0.882782
9198.000000;0.882881
9197.000000;0.882948
9196.000000;0.882465
9195.000000;0.881270
9194.000000;0.879788
9193.000000;0.878685
9192.000000;0.878289
9191.000000;0.878409
9190.000000;0.878665
9189.000000;0.878823
9188.000000;0.878766
9187.000000;0.878385
9186.000000;0.877689
9185.000000;0.876937
9184.000000;0.876472
9183.000000;0.876417
9182.000000;0.876638
9181.000000;0.876952
9180.000000;0.877264
9179.000000;0.877508
9178.000000;0.877543
9177.000000;0.877195
9176.000000;0.876389
9175.000000;0.875255
9174.000000;0.874082
9173.000000;0.873136
9172.000000;0.872530
9171.000000;0.872272
9170.000000;0.872354
9169.000000;0.872694
9168.000000;0.873021
9167.000000;0.873026
9166.000000;0.872684
9165.000000;0.872301
9164.000000;0.872128
9163.000000;0.872033
9162.000000;0.871681
9161.000000;0.870978
9160.000000;0.870161
9159.000000;0.869440
9158.000000;0.868738
9157.000000;0.867880
9156.000000;0.866980
9155.000000;0.866470
9154.000000;0.866692
9153.000000;0.867480
9152.000000;0.868204
9151.000000;0.868262
9150.000000;0.867533
9149.000000;0.866394
9148.000000;0.865382
9147.000000;0.864847
9146.000000;0.864799
9145.000000;0.864917
9144.000000;0.864740
9143.000000;0.864031
9142.000000;0.863026
9141.000000;0.862251
9140.000000;0.862056
9139.000000;0.862382
9138.000000;0.862956
9137.000000;0.863526
9136.000000;0.863861
9135.000000;0.863713
9134.000000;0.863009
9133.000000;0.862020
9132.000000;0.861165
9131.000000;0.860670
9130.000000;0.860504
9129.000000;0.860557
9128.000000;0.860700
9127.000000;0.860707
9126.000000;0.860371
9125.000000;0.859766
9124.000000;0.859206
9123.000000;0.858818
9122.000000;0.858347
9121.000000;0.857534
9120.000000;0.856570
9119.000000;0.855962
9118.000000;0.855979
9117.000000;0.856373
9116.000000;0.856660
9115.000000;0.856553
9114.000000;0.856109
9113.000000;0.855612
9112.000000;0.855354
9111.000000;0.855426
9110.000000;0.855607
9109.000000;0.855518
9108.000000;0.854998
9107.000000;0.854323
9106.000000;0.853974
9105.000000;0.854166
9104.000000;0.854611
9103.000000;0.854750
9102.000000;0.854227
9101.000000;0.853175
9100.000000;0.852056
9099.000000;0.851250
9098.000000;0.850820
9097.000000;0.850650
9096.000000;0.850671
9095.000000;0.850897
9094.000000;0.851287
9093.000000;0.851680
9092.000000;0.851870
9091.000000;0.851725
9090.000000;0.851241
9089.000000;0.850580
9088.000000;0.850017
9087.000000;0.849734
9086.000000;0.849643
9085.000000;0.849462
9084.000000;0.848982
9083.000000;0.848207
9082.000000;0.847244
9081.000000;0.846200
9080.000000;0.845188
9079.000000;0.844333
9078.000000;0.843691
9077.000000;0.843265
9076.000000;0.843124
9075.000000;0.843383
9074.000000;0.843952
9073.000000;0.844454
9072.000000;0.844532
9071.000000;0.844224
9070.000000;0.843906
9069.000000;0.843873
9068.000000;0.844099
9067.000000;0.844364
9066.000000;0.844487
9065.000000;0.844393
9064.000000;0.844035
9063.000000;0.843382
9062.000000;0.842513
9061.000000;0.841711
9060.000000;0.841336
9059.000000;0.841460
9058.000000;0.841662
9057.000000;0.841363
9056.000000;0.840484
9055.000000;0.839593
9054.000000;0.839264
9053.000000;0.839426
9052.000000;0.839552
9051.000000;0.839384
9050.000000;0.839187
9049.000000;0.839281
9048.000000;0.839612
9047.000000;0.839911
9046.000000;0.840066
9045.000000;0.840130
9044.000000;0.840060
9043.000000;0.839688
9042.000000;0.838992
9041.000000;0.838227
9040.000000;0.837698
9039.000000;0.837415
9038.000000;0.837057
9037.000000;0.836321
9036.000000;0.835281
9035.000000;0.834353
9034.000000;0.833900
9033.000000;0.833922
9032.000000;0.834179
9031.000000;0.834499
9030.000000;0.834829
9029.000000;0.835069
9028.000000;0.835053
9027.000000;0.834763
9026.000000;0.834409
9025.000000;0.834166
9024.000000;0.833949
9023.000000;0.833570
9022.000000;0.833056
9021.000000;0.832646
9020.000000;0.832467
9019.000000;0.832362
9018.000000;0.832093
9017.000000;0.831649
9016.000000;0.831249
9015.000000;0.831102
9014.000000;0.831201
9013.000000;0.831333
9012.000000;0.831223
9011.000000;0.830734
9010.000000;0.830031
9009.000000;0.829507
9008.000000;0.829399
9007.000000;0.829456
9006.000000;0.829122
9005.000000;0.828175
9004.000000;0.827067
9003.000000;0.826499
9002.000000;0.826729
9001.000000;0.827407
9000.000000;0.828001
8999.000000;0.828199
8998.000000;0.827960
8997.000000;0.827416
8996.000000;0.826787
8995.000000;0.826254
8994.000000;0.825808
8993.000000;0.825307
8992.000000;0.824708
8991.000000;0.824132
8990.000000;0.823702
8989.000000;0.823446
8988.000000;0.823387
8987.000000;0.823545
8986.000000;0.823818
8985.000000;0.824024
8984.000000;0.824134
8983.000000;0.824303
8982.000000;0.824569
8981.000000;0.824720
8980.000000;0.824586
8979.000000;0.824277
8978.000000;0.823990
8977.000000;0.823708
8976.000000;0.823300
8975.000000;0.822812
8974.000000;0.822450
8973.000000;0.822320
8972.000000;0.822306
8971.000000;0.822192
8970.000000;0.821825
8969.000000;0.821259
8968.000000;0.820772
8967.000000;0.820630
8966.000000;0.820759
8965.000000;0.820859
8964.000000;0.820907
8963.000000;0.821244
8962.000000;0.821944
8961.000000;0.822391
8960.000000;0.821879
8959.000000;0.820496
8958.000000;0.819041
8957.000000;0.818134
8956.000000;0.817771
8955.000000;0.817680
8954.000000;0.817722
8953.000000;0.817872
8952.000000;0.818085
8951.000000;0.818336
8950.000000;0.818575
8949.000000;0.818613
8948.000000;0.818281
8947.000000;0.817746
8946.000000;0.817435
8945.000000;0.817538
8944.000000;0.817811
8943.000000;0.817887
8942.000000;0.817597
8941.000000;0.816955
8940.000000;0.816096
8939.000000;0.815337
8938.000000;0.815036
8937.000000;0.815251
8936.000000;0.815689
8935.000000;0.816097
8934.000000;0.816495
8933.000000;0.816910
8932.000000;0.817107
8931.000000;0.816815
8930.000000;0.816086
8929.000000;0.815262
8928.000000;0.814642
8927.000000;0.814309
8926.000000;0.814163
8925.000000;0.813992
8924.000000;0.813604
8923.000000;0.813034
8922.000000;0.812581
8921.000000;0.812532
8920.000000;0.812894
8919.000000;0.813447
8918.000000;0.813941
8917.000000;0.814142
8916.000000;0.813822
8915.000000;0.812933
8914.000000;0.811787
8913.000000;0.810910
8912.000000;0.810612
8911.000000;0.810730
8910.000000;0.810826
8909.000000;0.810627
8908.000000;0.810311
8907.000000;0.810318
8906.000000;0.810849
8905.000000;0.811556
8904.000000;0.811852
8903.000000;0.811485
8902.000000;0.810679
8901.000000;0.809751
8900.000000;0.808828
8899.000000;0.808023
8898.000000;0.807630
8897.000000;0.807901
8896.000000;0.808673
8895.000000;0.809441
8894.000000;0.809851
8893.000000;0.809997
8892.000000;0.810210
8891.000000;0.810647
8890.000000;0.811127
8889.000000;0.811285
8888.000000;0.810816
8887.000000;0.809656
8886.000000;0.808087
8885.000000;0.806739
8884.000000;0.806312
8883.000000;0.807025
8882.000000;0.808261
8881.000000;0.808995
8880.000000;0.808741
8879.000000;0.807988
8878.000000;0.807533
8877.000000;0.807554
8876.000000;0.807548
8875.000000;0.807097
8874.000000;0.806385
8873.000000;0.805897
8872.000000;0.805869
8871.000000;0.806174
8870.000000;0.806553
8869.000000;0.806814
8868.000000;0.806932
8867.000000;0.807047
8866.000000;0.807292
8865.000000;0.807552
8864.000000;0.807520
8863.000000;0.807076
8862.000000;0.806506
8861.000000;0.806230
8860.000000;0.806369
8859.000000;0.806669
8858.000000;0.806799
8857.000000;0.806635
8856.000000;0.806276
8855.000000;0.805878
8854.000000;0.805498
8853.000000;0.805112
8852.000000;0.804768
8851.000000;0.804637
8850.000000;0.804821
8849.000000;0.805177
8848.000000;0.805454
8847.000000;0.805591
8846.000000;0.805756
8845.000000;0.806074
8844.000000;0.806461
8843.000000;0.806709
8842.000000;0.806630
8841.000000;0.806156
8840.000000;0.805448
8839.000000;0.804900
8838.000000;0.804827
8837.000000;0.805110
8836.000000;0.805312
8835.000000;0.805193
8834.000000;0.804940
8833.000000;0.804846
8832.000000;0.804951
8831.000000;0.805089
8830.000000;0.805145
8829.000000;0.805151
8828.000000;0.805239
8827.000000;0.805539
8826.000000;0.805994
8825.000000;0.806274
8824.000000;0.806059
8823.000000;0.805493
8822.000000;0.805128
8821.000000;0.805301
8820.000000;0.805726
8819.000000;0.805865
8818.000000;0.805516
8817.000000;0.804895
8816.000000;0.804275
8815.000000;0.803770
8814.000000;0.803372
8813.000000;0.803052
8812.000000;0.802843
8811.000000;0.802895
8810.000000;0.803354
8809.000000;0.804103
8808.000000;0.804762
8807.000000;0.805081
8806.000000;0.805168
8805.000000;0.805215
8804.000000;0.805188
8803.000000;0.804997
8802.000000;0.804819
8801.000000;0.804958
8800.000000;0.805424
8799.000000;0.805902
8798.000000;0.806159
8797.000000;0.806263
8796.000000;0.806361
8795.000000;0.806474
8794.000000;0.806560
8793.000000;0.806593
8792.000000;0.806492
8791.000000;0.806135
8790.000000;0.805596
8789.000000;0.805248
8788.000000;0.805466
8787.000000;0.806201
8786.000000;0.806952
8785.000000;0.807209
8784.000000;0.806897
8783.000000;0.806396
8782.000000;0.806157
8781.000000;0.806298
8780.000000;0.806562
8779.000000;0.806622
8778.000000;0.806394
8777.000000;0.806072
8776.000000;0.805905
8775.000000;0.805953
8774.000000;0.806074
8773.000000;0.806176
8772.000000;0.806417
8771.000000;0.807027
8770.000000;0.807891
8769.000000;0.808488
8768.000000;0.808419
8767.000000;0.807905
8766.000000;0.807554
8765.000000;0.807671
8764.000000;0.808017
8763.000000;0.808252
8762.000000;0.808387
8761.000000;0.808698
8760.000000;0.809360
8759.000000;0.810254
8758.000000;0.811050
8757.000000;0.811423
8756.000000;0.811317
8755.000000;0.811017
8754.000000;0.810832
8753.000000;0.810734
8752.000000;0.810496
8751.000000;0.810159
8750.000000;0.810065
8749.000000;0.810344
8748.000000;0.810678
8747.000000;0.810756
8746.000000;0.810700
8745.000000;0.810784
8744.000000;0.810979
8743.000000;0.811066
8742.000000;0.811035
8741.000000;0.811027
8740.000000;0.810990
8739.000000;0.810745
8738.000000;0.810416
8737.000000;0.810464
8736.000000;0.811180
8735.000000;0.812311
8734.000000;0.813268
8733.000000;0.813585
8732.000000;0.813188
8731.000000;0.812394
8730.000000;0.811684
8729.000000;0.811346
8728.000000;0.811311
8727.000000;0.811401
8726.000000;0.811646
8725.000000;0.812157
8724.000000;0.812749
8723.000000;0.812993
8722.000000;0.812759
8721.000000;0.812497
8720.000000;0.812764
8719.000000;0.813545
8718.000000;0.814216
8717.000000;0.814180
8716.000000;0.813498
8715.000000;0.812855
8714.000000;0.812930
8713.000000;0.813791
8712.000000;0.814894
8711.000000;0.815654
8710.000000;0.815959
8709.000000;0.816108
8708.000000;0.816363
8707.000000;0.816675
8706.000000;0.816786
8705.000000;0.816501
8704.000000;0.815878
8703.000000;0.815272
8702.000000;0.815102
8701.000000;0.815459
8700.000000;0.815950
8699.000000;0.816110
8698.000000;0.815934
8697.000000;0.815822
8696.000000;0.816003
8695.000000;0.816245
8694.000000;0.816244
8693.000000;0.816073
8692.000000;0.816104
8691.000000;0.816547
8690.000000;0.817226
8689.000000;0.817743
8688.000000;0.817791
8687.000000;0.817407
8686.000000;0.817008
8685.000000;0.817062
8684.000000;0.817583
8683.000000;0.818027
8682.000000;0.817854
8681.000000;0.817153
8680.000000;0.816550
8679.000000;0.816503
8678.000000;0.816880
8677.000000;0.817277
8676.000000;0.817531
8675.000000;0.817759
8674.000000;0.818055
8673.000000;0.818379
8672.000000;0.818701
8671.000000;0.819041
8670.000000;0.819301
8669.000000;0.819254
8668.000000;0.818842
8667.000000;0.818375
8666.000000;0.818263
8665.000000;0.818551
8664.000000;0.818841
8663.000000;0.818727
8662.000000;0.818243
8661.000000;0.817822
8660.000000;0.817861
8659.000000;0.818337
8658.000000;0.818845
8657.000000;0.818973
8656.000000;0.818620
8655.000000;0.818008
8654.000000;0.817439
8653.000000;0.817100
8652.000000;0.817011
8651.000000;0.817049
8650.000000;0.817026
8649.000000;0.816847
8648.000000;0.816642
8647.000000;0.816640
8646.000000;0.816881
8645.000000;0.817142
8644.000000;0.817205
8643.000000;0.817070
8642.000000;0.816829
8641.000000;0.816497
8640.000000;0.816093
8639.000000;0.815792
8638.000000;0.815780
8637.000000;0.816006
8636.000000;0.816248
8635.000000;0.816393
8634.000000;0.816495
8633.000000;0.816597
8632.000000;0.816662
8631.000000;0.816673
8630.000000;0.816612
8629.000000;0.816378
8628.000000;0.815971
8627.000000;0.815722
8626.000000;0.816029
8625.000000;0.816774
8624.000000;0.817266
8623.000000;0.816951
8622.000000;0.815996
8621.000000;0.815011
8620.000000;0.814416
8619.000000;0.814292
8618.000000;0.814650
8617.000000;0.815483
8616.000000;0.816538
8615.000000;0.817338
8614.000000;0.817555
8613.000000;0.817252
8612.000000;0.816724
8611.000000;0.816201
8610.000000;0.815781
8609.000000;0.815504
8608.000000;0.815372
8607.000000;0.815296
8606.000000;0.815110
8605.000000;0.814697
8604.000000;0.814123
8603.000000;0.813580
8602.000000;0.813189
8601.000000;0.812907
8600.000000;0.812681
8599.000000;0.812617
8598.000000;0.812844
8597.000000;0.813240
8596.000000;0.813488
8595.000000;0.813469
8594.000000;0.813415
8593.000000;0.813584
8592.000000;0.813935
8591.000000;0.814218
8590.000000;0.814242
8589.000000;0.813936
8588.000000;0.813295
8587.000000;0.812453
8586.000000;0.811755
8585.000000;0.811540
8584.000000;0.811833
8583.000000;0.812334
8582.000000;0.812692
8581.000000;0.812746
8580.000000;0.812559
8579.000000;0.812336
8578.000000;0.812261
8577.000000;0.812349
8576.000000;0.812479
8575.000000;0.812585
8574.000000;0.812711
8573.000000;0.812830
8572.000000;0.812793
8571.000000;0.812573
8570.000000;0.812389
8569.000000;0.812388
8568.000000;0.812358
8567.000000;0.811998
8566.000000;0.811402
8565.000000;0.810994
8564.000000;0.811013
8563.000000;0.811315
8562.000000;0.811661
8561.000000;0.811902
8560.000000;0.811864
8559.000000;0.811390
8558.000000;0.810657
8557.000000;0.810191
8556.000000;0.810333
8555.000000;0.810829
8554.000000;0.811133
8553.000000;0.811007
8552.000000;0.810655
8551.000000;0.810370
8550.000000;0.810236
8549.000000;0.810164
8548.000000;0.810034
8547.000000;0.809798
8546.000000;0.809547
8545.000000;0.809457
8544.000000;0.809583
8543.000000;0.809754
8542.000000;0.809771
8541.000000;0.809636
8540.000000;0.809501
8539.000000;0.809444
8538.000000;0.809439
8537.000000;0.809451
8536.000000;0.809399
8535.000000;0.809079
8534.000000;0.808362
8533.000000;0.807486
8532.000000;0.806926
8531.000000;0.806879
8530.000000;0.807071
8529.000000;0.807171
8528.000000;0.807175
8527.000000;0.807233
8526.000000;0.807308
8525.000000;0.807252
8524.000000;0.807097
8523.000000;0.806981
8522.000000;0.806848
8521.000000;0.806531
8520.000000;0.806160
8519.000000;0.806175
8518.000000;0.806755
8517.000000;0.807458
8516.000000;0.807636
8515.000000;0.807120
8514.000000;0.806324
8513.000000;0.805764
8512.000000;0.805655
8511.000000;0.805894
8510.000000;0.806218
8509.000000;0.806356
8508.000000;0.806190
8507.000000;0.805842
8506.000000;0.805548
8505.000000;0.805426
8504.000000;0.805401
8503.000000;0.805315
8502.000000;0.805025
8501.000000;0.804462
8500.000000;0.803728
8499.000000;0.803139
8498.000000;0.803007
8497.000000;0.803316
8496.000000;0.803694
8495.000000;0.803785
8494.000000;0.803576
8493.000000;0.803324
8492.000000;0.803231
8491.000000;0.803302
8490.000000;0.803452
8489.000000;0.803633
8488.000000;0.803811
8487.000000;0.803858
8486.000000;0.803574
8485.000000;0.802906
8484.000000;0.802167
8483.000000;0.801899
8482.000000;0.802392
8481.000000;0.803334
8480.000000;0.804037
8479.000000;0.804043
8478.000000;0.803471
8477.000000;0.802803
8476.000000;0.802455
8475.000000;0.802538
8474.000000;0.802869
8473.000000;0.803103
8472.000000;0.802970
8471.000000;0.802490
8470.000000;0.801968
8469.000000;0.801717
8468.000000;0.801810
8467.000000;0.802105
8466.000000;0.802412
8465.000000;0.802573
8464.000000;0.802468
8463.000000;0.802066
8462.000000;0.801529
8461.000000;0.801187
8460.000000;0.801313
8459.000000;0.801873
8458.000000;0.802470
8457.000000;0.802608
8456.000000;0.802110
8455.000000;0.801290
8454.000000;0.800662
8453.000000;0.800481
8452.000000;0.800582
8451.000000;0.800649
8450.000000;0.800522
8449.000000;0.800255
8448.000000;0.799961
8447.000000;0.799723
8446.000000;0.799604
8445.000000;0.799650
8444.000000;0.799854
8443.000000;0.800149
8442.000000;0.800458
8441.000000;0.800731
8440.000000;0.800904
8439.000000;0.800871
8438.000000;0.800553
8437.000000;0.800066
8436.000000;0.799741
8435.000000;0.799829
8434.000000;0.800163
8433.000000;0.800293
8432.000000;0.800055
8431.000000;0.799829
8430.000000;0.800057
8429.000000;0.800604
8428.000000;0.800876
8427.000000;0.800533
8426.000000;0.799843
8425.000000;0.799267
8424.000000;0.798963
8423.000000;0.798799
8422.000000;0.798665
8421.000000;0.798584
8420.000000;0.798631
8419.000000;0.798851
8418.000000;0.799167
8417.000000;0.799323
8416.000000;0.799068
8415.000000;0.798518
8414.000000;0.798163
8413.000000;0.798332
8412.000000;0.798791
8411.000000;0.799040
8410.000000;0.798911
8409.000000;0.798645
8408.000000;0.798453
8407.000000;0.798267
8406.000000;0.797950
8405.000000;0.797536
8404.000000;0.797165
8403.000000;0.796923
8402.000000;0.796792
8401.000000;0.796713
8400.000000;0.796651
8399.000000;0.796678
8398.000000;0.796953
8397.000000;0.797491
8396.000000;0.797961
8395.000000;0.797909
8394.000000;0.797262
8393.000000;0.796473
8392.000000;0.796061
8391.000000;0.796111
8390.000000;0.796288
8389.000000;0.796265
8388.000000;0.796022
8387.000000;0.795770
8386.000000;0.795704
8385.000000;0.795848
8384.000000;0.796066
8383.000000;0.796207
8382.000000;0.796275
8381.000000;0.796435
8380.000000;0.796793
8379.000000;0.797199
8378.000000;0.797321
8377.000000;0.796969
8376.000000;0.796317
8375.000000;0.795755
8374.000000;0.795519
8373.000000;0.795501
8372.000000;0.795434
8371.000000;0.795230
8370.000000;0.795049
8369.000000;0.795042
8368.000000;0.795122
8367.000000;0.795083
8366.000000;0.794868
8365.000000;0.794618
8364.000000;0.794482
8363.000000;0.794500
8362.000000;0.794659
8361.000000;0.794895
8360.000000;0.795000
8359.000000;0.794711
8358.000000;0.794029
8357.000000;0.793343
8356.000000;0.793083
8355.000000;0.793261
8354.000000;0.793505
8353.000000;0.793521
8352.000000;0.793356
8351.000000;0.793230
8350.000000;0.793240
8349.000000;0.793319
8348.000000;0.793348
8347.000000;0.793223
8346.000000;0.792920
8345.000000;0.792600
8344.000000;0.792554
8343.000000;0.792897
8342.000000;0.793362
8341.000000;0.793517
8340.000000;0.793214
8339.000000;0.792704
8338.000000;0.792316
8337.000000;0.792152
8336.000000;0.792143
8335.000000;0.792246
8334.000000;0.792457
8333.000000;0.792684
8332.000000;0.792737
8331.000000;0.792503
8330.000000;0.792068
8329.000000;0.791648
8328.000000;0.791429
8327.000000;0.791476
8326.000000;0.791738
8325.000000;0.792081
8324.000000;0.792328
8323.000000;0.792315
8322.000000;0.791985
8321.000000;0.791472
8320.000000;0.791079
8319.000000;0.791092
8318.000000;0.791562
8317.000000;0.792238
8316.000000;0.792724
8315.000000;0.792752
8314.000000;0.792343
8313.000000;0.791747
8312.000000;0.791217
8311.000000;0.790801
8310.000000;0.790370
8309.000000;0.789863
8308.000000;0.789453
8307.000000;0.789405
8306.000000;0.789753
8305.000000;0.790218
8304.000000;0.790478
8303.000000;0.790465
8302.000000;0.790345
8301.000000;0.790262
8300.000000;0.790206
8299.000000;0.790088
8298.000000;0.789881
8297.000000;0.789646
8296.000000;0.789469
8295.000000;0.789390
8294.000000;0.789377
8293.000000;0.789346
8292.000000;0.789218
8291.000000;0.788983
8290.000000;0.788729
8289.000000;0.788583
8288.000000;0.788608
8287.000000;0.788711
8286.000000;0.788698
8285.000000;0.788448
8284.000000;0.788037
8283.000000;0.787657
8282.000000;0.787430
8281.000000;0.787341
8280.000000;0.787292
8279.000000;0.787179
8278.000000;0.786930
8277.000000;0.786574
8276.000000;0.786264
8275.000000;0.786130
8274.000000;0.786115
8273.000000;0.786056
8272.000000;0.785947
8271.000000;0.785984
8270.000000;0.786280
8269.000000;0.786649
8268.000000;0.786802
8267.000000;0.786674
8266.000000;0.786453
8265.000000;0.786324
8264.000000;0.786318
8263.000000;0.786371
8262.000000;0.786439
8261.000000;0.786491
8260.000000;0.786502
8259.000000;0.786464
8258.000000;0.786404
8257.000000;0.786347
8256.000000;0.786297
8255.000000;0.786234
8254.000000;0.786126
8253.000000;0.785956
8252.000000;0.785762
8251.000000;0.785612
8250.000000;0.785528
8249.000000;0.785457
8248.000000;0.785354
8247.000000;0.785237
8246.000000;0.785132
8245.000000;0.785012
8244.000000;0.784844
8243.000000;0.784651
8242.000000;0.784494
8241.000000;0.784410
8240.000000;0.784424
8239.000000;0.784570
8238.000000;0.784846
8237.000000;0.785174
8236.000000;0.785428
8235.000000;0.785481
8234.000000;0.785220
8233.000000;0.784639
8232.000000;0.783953
8231.000000;0.783509
8230.000000;0.783472
8229.000000;0.783672
8228.000000;0.783825
8227.000000;0.783841
8226.000000;0.783803
8225.000000;0.783732
8224.000000;0.783570
8223.000000;0.783353
8222.000000;0.783227
8221.000000;0.783241
8220.000000;0.783253
8219.000000;0.783106
8218.000000;0.782802
8217.000000;0.782457
8216.000000;0.782177
8215.000000;0.782027
8214.000000;0.782062
8213.000000;0.782277
8212.000000;0.782539
8211.000000;0.782615
8210.000000;0.782335
8209.000000;0.781757
8208.000000;0.781156
8207.000000;0.780800
8206.000000;0.780729
8205.000000;0.780786
8204.000000;0.780851
8203.000000;0.780936
8202.000000;0.781035
8201.000000;0.781054
8200.000000;0.780951
8199.000000;0.780833
8198.000000;0.780790
8197.000000;0.780733
8196.000000;0.780578
8195.000000;0.780494
8194.000000;0.780769
8193.000000;0.781388
8192.000000;0.781946
8191.000000;0.782023
8190.000000;0.781564
8189.000000;0.780885
8188.000000;0.780391
8187.000000;0.780300
8186.000000;0.780499
8185.000000;0.780624
8184.000000;0.780383
8183.000000;0.779852
8182.000000;0.779399
8181.000000;0.779297
8180.000000;0.779509
8179.000000;0.779816
8178.000000;0.780063
8177.000000;0.780214
8176.000000;0.780263
8175.000000;0.780203
8174.000000;0.780030
8173.000000;0.779779
8172.000000;0.779541
8171.000000;0.779431
8170.000000;0.779480
8169.000000;0.779564
8168.000000;0.779511
8167.000000;0.779259
8166.000000;0.778880
8165.000000;0.778478
8164.000000;0.778169
8163.000000;0.778093
8162.000000;0.778309
8161.000000;0.778684
8160.000000;0.778984
8159.000000;0.779100
8158.000000;0.779090
8157.000000;0.779024
8156.000000;0.778908
8155.000000;0.778758
8154.000000;0.778603
8153.000000;0.778400
8152.000000;0.778085
8151.000000;0.777751
8150.000000;0.777635
8149.000000;0.777855
8148.000000;0.778240
8147.000000;0.778479
8146.000000;0.778379
8145.000000;0.777953
8144.000000;0.777383
8143.000000;0.776925
8142.000000;0.776741
8141.000000;0.776752
8140.000000;0.776728
8139.000000;0.776555
8138.000000;0.776346
8137.000000;0.776259
8136.000000;0.776339
8135.000000;0.776552
8134.000000;0.776857
8133.000000;0.777152
8132.000000;0.777287
8131.000000;0.777207
8130.000000;0.777028
8129.000000;0.776885
8128.000000;0.776804
8127.000000;0.776755
8126.000000;0.776722
8125.000000;0.776647
8124.000000;0.776416
8123.000000;0.776031
8122.000000;0.775680
8121.000000;0.775519
8120.000000;0.775476
8119.000000;0.775368
8118.000000;0.775168
8117.000000;0.774996
8116.000000;0.774912
8115.000000;0.774870
8114.000000;0.774860
8113.000000;0.774954
8112.000000;0.775179
8111.000000;0.775436
8110.000000;0.775575
8109.000000;0.775507
8108.000000;0.775251
8107.000000;0.774943
8106.000000;0.774794
8105.000000;0.774924
8104.000000;0.775204
8103.000000;0.775354
8102.000000;0.775217
8101.000000;0.774895
8100.000000;0.774581
8099.000000;0.774333
8098.000000;0.774081
8097.000000;0.773803
8096.000000;0.773593
8095.000000;0.773539
8094.000000;0.773577
8093.000000;0.773560
8092.000000;0.773422
8091.000000;0.773232
8090.000000;0.773057
8089.000000;0.772889
8088.000000;0.772741
8087.000000;0.772734
8086.000000;0.772948
8085.000000;0.773243
8084.000000;0.773373
8083.000000;0.773293
8082.000000;0.773231
8081.000000;0.773375
8080.000000;0.773636
8079.000000;0.773793
8078.000000;0.773781
8077.000000;0.773711
8076.000000;0.773683
8075.000000;0.773674
8074.000000;0.773619
8073.000000;0.773489
8072.000000;0.773317
8071.000000;0.773189
8070.000000;0.773190
8069.000000;0.773306
8068.000000;0.773414
8067.000000;0.773409
8066.000000;0.773297
8065.000000;0.773130
8064.000000;0.772886
8063.000000;0.772524
8062.000000;0.772101
8061.000000;0.771764
8060.000000;0.771636
8059.000000;0.771767
8058.000000;0.772146
8057.000000;0.772656
8056.000000;0.773038
8055.000000;0.773062
8054.000000;0.772763
8053.000000;0.772407
8052.000000;0.772182
8051.000000;0.771997
8050.000000;0.771654
8049.000000;0.771140
8048.000000;0.770684
8047.000000;0.770527
8046.000000;0.770716
8045.000000;0.771084
8044.000000;0.771381
8043.000000;0.771452
8042.000000;0.771318
8041.000000;0.771143
8040.000000;0.771068
8039.000000;0.771075
8038.000000;0.771020
8037.000000;0.770790
8036.000000;0.770427
8035.000000;0.770108
8034.000000;0.770011
8033.000000;0.770188
8032.000000;0.770522
8031.000000;0.770809
8030.000000;0.770891
8029.000000;0.770772
8028.000000;0.770587
8027.000000;0.770471
8026.000000;0.770441
8025.000000;0.770419
8024.000000;0.770322
8023.000000;0.770116
8022.000000;0.769826
8021.000000;0.769537
8020.000000;0.769373
8019.000000;0.769415
8018.000000;0.769595
8017.000000;0.769741
8016.000000;0.769756
8015.000000;0.769718
8014.000000;0.769773
8013.000000;0.769963
8012.000000;0.770206
8011.000000;0.770402
8010.000000;0.770487
8009.000000;0.770426
8008.000000;0.770233
8007.000000;0.770001
8006.000000;0.769848
8005.000000;0.769814
8004.000000;0.769830
8003.000000;0.769794
8002.000000;0.769633
8001.000000;0.769354
8000.000000;0.769087
7999.000000;0.769065
7998.000000;0.769416
7997.000000;0.769961
7996.000000;0.770302
7995.000000;0.770202
7994.000000;0.769800
7993.000000;0.769398
7992.000000;0.769109
7991.000000;0.768825
7990.000000;0.768497
7989.000000;0.768287
7988.000000;0.768396
7987.000000;0.768801
7986.000000;0.769247
7985.000000;0.769477
7984.000000;0.769416
7983.000000;0.769156
7982.000000;0.768828
7981.000000;0.768527
7980.000000;0.768314
7979.000000;0.768221
7978.000000;0.768244
7977.000000;0.768361
7976.000000;0.768573
7975.000000;0.768888
7974.000000;0.769246
7973.000000;0.769500
7972.000000;0.769500
7971.000000;0.769220
7970.000000;0.768776
7969.000000;0.768328
7968.000000;0.767959
7967.000000;0.767671
7966.000000;0.767461
7965.000000;0.767409
7964.000000;0.767624
7963.000000;0.768088
7962.000000;0.768596
7961.000000;0.768912
7960.000000;0.768972
7959.000000;0.768882
7958.000000;0.768736
7957.000000;0.768535
7956.000000;0.768291
7955.000000;0.768064
7954.000000;0.767872
7953.000000;0.767667
7952.000000;0.767479
7951.000000;0.767459
7950.000000;0.767673
7949.000000;0.767957
7948.000000;0.768096
7947.000000;0.768066
7946.000000;0.767991
7945.000000;0.767918
7944.000000;0.767811
7943.000000;0.767707
7942.000000;0.767689
7941.000000;0.767721
7940.000000;0.767675
7939.000000;0.767556
7938.000000;0.767523
7937.000000;0.767624
7936.000000;0.767688
7935.000000;0.767559
7934.000000;0.767326
7933.000000;0.767194
7932.000000;0.767227
7931.000000;0.767316
7930.000000;0.767343
7929.000000;0.767284
7928.000000;0.767172
7927.000000;0.767067
7926.000000;0.767031
7925.000000;0.767089
7924.000000;0.767214
7923.000000;0.767378
7922.000000;0.767585
7921.000000;0.767824
7920.000000;0.768043
7919.000000;0.768214
7918.000000;0.768352
7917.000000;0.768420
7916.000000;0.768294
7915.000000;0.767911
7914.000000;0.767429
7913.000000;0.767136
7912.000000;0.767182
7911.000000;0.767452
7910.000000;0.767684
7909.000000;0.767691
7908.000000;0.767479
7907.000000;0.767237
7906.000000;0.767197
7905.000000;0.767454
7904.000000;0.767869
7903.000000;0.768146
7902.000000;0.768066
7901.000000;0.767658
7900.000000;0.767176
7899.000000;0.766891
7898.000000;0.766888
7897.000000;0.767036
7896.000000;0.767158
7895.000000;0.767205
7894.000000;0.767243
7893.000000;0.767314
7892.000000;0.767378
7891.000000;0.767370
7890.000000;0.767270
7889.000000;0.767097
7888.000000;0.766887
7887.000000;0.766715
7886.000000;0.766678
7885.000000;0.766791
7884.000000;0.766954
7883.000000;0.767040
7882.000000;0.767031
7881.000000;0.767028
7880.000000;0.767129
7879.000000;0.767323
7878.000000;0.767500
7877.000000;0.767557
7876.000000;0.767498
7875.000000;0.767429
7874.000000;0.767457
7873.000000;0.767599
7872.000000;0.767786
7871.000000;0.767912
7870.000000;0.767880
7869.000000;0.767670
7868.000000;0.767396
7867.000000;0.767233
7866.000000;0.767228
7865.000000;0.767220
7864.000000;0.767052
7863.000000;0.766809
7862.000000;0.766723
7861.000000;0.766875
7860.000000;0.767124
7859.000000;0.767339
7858.000000;0.767541
7857.000000;0.767757
7856.000000;0.767888
7855.000000;0.767840
7854.000000;0.767698
7853.000000;0.767640
7852.000000;0.767719
7851.000000;0.767833
7850.000000;0.767884
7849.000000;0.767862
7848.000000;0.767802
7847.000000;0.767729
7846.000000;0.767665
7845.000000;0.767636
7844.000000;0.767653
7843.000000;0.767715
7842.000000;0.767801
7841.000000;0.767857
7840.000000;0.767817
7839.000000;0.767679
7838.000000;0.767501
7837.000000;0.767310
7836.000000;0.767082
7835.000000;0.766873
7834.000000;0.766877
7833.000000;0.767228
7832.000000;0.767784
7831.000000;0.768220
7830.000000;0.768347
7829.000000;0.768264
7828.000000;0.768178
7827.000000;0.768188
7826.000000;0.768253
7825.000000;0.768300
7824.000000;0.768287
7823.000000;0.768243
7822.000000;0.768251
7821.000000;0.768380
7820.000000;0.768584
7819.000000;0.768718
7818.000000;0.768694
7817.000000;0.768571
7816.000000;0.768457
7815.000000;0.768373
7814.000000;0.768278
7813.000000;0.768203
7812.000000;0.768260
7811.000000;0.768487
7810.000000;0.768753
7809.000000;0.768866
7808.000000;0.768756
7807.000000;0.768527
7806.000000;0.768324
7805.000000;0.768208
7804.000000;0.768163
7803.000000;0.768169
7802.000000;0.768242
7801.000000;0.768396
7800.000000;0.768611
7799.000000;0.768837
7798.000000;0.769036
7797.000000;0.769213
7796.000000;0.769386
7795.000000;0.769517
7794.000000;0.769479
7793.000000;0.769176
7792.000000;0.768700
7791.000000;0.768331
7790.000000;0.768309
7789.000000;0.768626
7788.000000;0.769066
7787.000000;0.769420
7786.000000;0.769614
7785.000000;0.769672
7784.000000;0.769650
7783.000000;0.769625
7782.000000;0.769672
7781.000000;0.769792
7780.000000;0.769896
7779.000000;0.769897
7778.000000;0.769800
7777.000000;0.769682
7776.000000;0.769598
7775.000000;0.769547
7774.000000;0.769501
7773.000000;0.769477
7772.000000;0.769541
7771.000000;0.769739
7770.000000;0.770016
7769.000000;0.770226
7768.000000;0.770261
7767.000000;0.770153
7766.000000;0.770019
7765.000000;0.769917
7764.000000;0.769826
7763.000000;0.769746
7762.000000;0.769747
7761.000000;0.769876
7760.000000;0.770076
7759.000000;0.770246
7758.000000;0.770350
7757.000000;0.770457
7756.000000;0.770662
7755.000000;0.770992
7754.000000;0.771362
7753.000000;0.771612
7752.000000;0.771633
7751.000000;0.771484
7750.000000;0.771360
7749.000000;0.771419
7748.000000;0.771642
7747.000000;0.771857
7746.000000;0.771889
7745.000000;0.771708
7744.000000;0.771461
7743.000000;0.771358
7742.000000;0.771484
7741.000000;0.771724
7740.000000;0.771899
7739.000000;0.771947
7738.000000;0.771943
7737.000000;0.771967
7736.000000;0.772051
7735.000000;0.772221
7734.000000;0.772488
7733.000000;0.772764
7732.000000;0.772886
7731.000000;0.772804
7730.000000;0.772657
7729.000000;0.772624
7728.000000;0.772735
7727.000000;0.772887
7726.000000;0.772985
7725.000000;0.773003
7724.000000;0.772966
7723.000000;0.772932
7722.000000;0.772948
7721.000000;0.773001
7720.000000;0.773030
7719.000000;0.773057
7718.000000;0.773202
7717.000000;0.773518
7716.000000;0.773854
7715.000000;0.774013
7714.000000;0.773996
7713.000000;0.773981
7712.000000;0.774079
7711.000000;0.774223
7710.000000;0.774331
7709.000000;0.774434
7708.000000;0.774597
7707.000000;0.774787
7706.000000;0.774908
7705.000000;0.774927
7704.000000;0.774909
7703.000000;0.774948
7702.000000;0.775080
7701.000000;0.775244
7700.000000;0.775323
7699.000000;0.775254
7698.000000;0.775120
7697.000000;0.775096
7696.000000;0.775265
7695.000000;0.775533
7694.000000;0.775751
7693.000000;0.775888
7692.000000;0.776025
7691.000000;0.776211
7690.000000;0.776386
7689.000000;0.776481
7688.000000;0.776535
7687.000000;0.776669
7686.000000;0.776959
7685.000000;0.777356
7684.000000;0.777717
7683.000000;0.777913
7682.000000;0.777909
7681.000000;0.777783
7680.000000;0.777681
7679.000000;0.777723
7678.000000;0.777916
7677.000000;0.778158
7676.000000;0.778343
7675.000000;0.778429
7674.000000;0.778419
7673.000000;0.778326
7672.000000;0.778202
7671.000000;0.778176
7670.000000;0.778347
7669.000000;0.778618
7668.000000;0.778757
7667.000000;0.778678
7666.000000;0.778582
7665.000000;0.778745
7664.000000;0.779185
7663.000000;0.779650
7662.000000;0.779916
7661.000000;0.779985
7660.000000;0.779997
7659.000000;0.780038
7658.000000;0.780093
7657.000000;0.780130
7656.000000;0.780165
7655.000000;0.780267
7654.000000;0.780513
7653.000000;0.780909
7652.000000;0.781333
7651.000000;0.781609
7650.000000;0.781654
7649.000000;0.781557
7648.000000;0.781489
7647.000000;0.781558
7646.000000;0.781754
7645.000000;0.781981
7644.000000;0.782146
7643.000000;0.782239
7642.000000;0.782363
7641.000000;0.782631
7640.000000;0.783015
7639.000000;0.783354
7638.000000;0.783523
7637.000000;0.783575
7636.000000;0.783660
7635.000000;0.783852
7634.000000;0.784113
7633.000000;0.784375
7632.000000;0.784596
7631.000000;0.784744
7630.000000;0.784823
7629.000000;0.784913
7628.000000;0.785103
7627.000000;0.785368
7626.000000;0.785578
7625.000000;0.785653
7624.000000;0.785655
7623.000000;0.785690
7622.000000;0.785769
7621.000000;0.785844
7620.000000;0.785928
7619.000000;0.786112
7618.000000;0.786456
7617.000000;0.786900
7616.000000;0.787314
7615.000000;0.787608
7614.000000;0.787784
7613.000000;0.787915
7612.000000;0.788072
7611.000000;0.788267
7610.000000;0.788479
7609.000000;0.788714
7608.000000;0.789020
7607.000000;0.789412
7606.000000;0.789820
7605.000000;0.790163
7604.000000;0.790447
7603.000000;0.790749
7602.000000;0.791089
7601.000000;0.791383
7600.000000;0.791544
7599.000000;0.791596
7598.000000;0.791653
7597.000000;0.791780
7596.000000;0.791924
7595.000000;0.792007
7594.000000;0.792048
7593.000000;0.792160
7592.000000;0.792428
7591.000000;0.792801
7590.000000;0.793156
7589.000000;0.793433
7588.000000;0.793676
7587.000000;0.793933
7586.000000;0.794168
7585.000000;0.794320
7584.000000;0.794418
7583.000000;0.794565
7582.000000;0.794821
7581.000000;0.795137
7580.000000;0.795430
7579.000000;0.795682
7578.000000;0.795951
7577.000000;0.796294
7576.000000;0.796715
7575.000000;0.797143
7574.000000;0.797477
7573.000000;0.797650
7572.000000;0.797677
7571.000000;0.797636
7570.000000;0.797610
7569.000000;0.797658
7568.000000;0.797833
7567.000000;0.798186
7566.000000;0.798709
7565.000000;0.799307
7564.000000;0.799848
7563.000000;0.800257
7562.000000;0.800549
7561.000000;0.800801
7560.000000;0.801090
7559.000000;0.801432
7558.000000;0.801759
7557.000000;0.801979
7556.000000;0.802083
7555.000000;0.802169
7554.000000;0.802345
7553.000000;0.802621
7552.000000;0.802929
7551.000000;0.803231
7550.000000;0.803554
7549.000000;0.803931
7548.000000;0.804349
7547.000000;0.804786
7546.000000;0.805244
7545.000000;0.805728
7544.000000;0.806193
7543.000000;0.806565
7542.000000;0.806811
7541.000000;0.806973
7540.000000;0.807119
7539.000000;0.807282
7538.000000;0.807448
7537.000000;0.807625
7536.000000;0.807874
7535.000000;0.808263
7534.000000;0.808775
7533.000000;0.809302
7532.000000;0.809751
7531.000000;0.810118
7530.000000;0.810454
7529.000000;0.810772
7528.000000;0.811028
7527.000000;0.811188
7526.000000;0.811256
7525.000000;0.811273
7524.000000;0.811312
7523.000000;0.811478
7522.000000;0.811844
7521.000000;0.812377
7520.000000;0.812959
7519.000000;0.813510
7518.000000;0.814023
7517.000000;0.814489
7516.000000;0.814864
7515.000000;0.815155
7514.000000;0.815480
7513.000000;0.815935
7512.000000;0.816467
7511.000000;0.816931
7510.000000;0.817277
7509.000000;0.817573
7508.000000;0.817869
7507.000000;0.818146
7506.000000;0.818420
7505.000000;0.818773
7504.000000;0.819204
7503.000000;0.819639
7502.000000;0.819933
7501.000000;0.820151
7500.000000;0.820474
7499.000000;0.820960
7498.000000;0.821467
7497.000000;0.821841
7496.000000;0.822109
7495.000000;0.822436
7494.000000;0.822919
7493.000000;0.823474
7492.000000;0.823933
7491.000000;0.824214
7490.000000;0.824375
7489.000000;0.824520
7488.000000;0.824700
7487.000000;0.824932
7486.000000;0.825273
7485.000000;0.825795
7484.000000;0.826462
7483.000000;0.827107
7482.000000;0.827565
7481.000000;0.827813
7480.000000;0.827963
7479.000000;0.828159
7478.000000;0.828511
7477.000000;0.829031
7476.000000;0.829607
7475.000000;0.830079
7474.000000;0.830437
7473.000000;0.830861
7472.000000;0.831499
7471.000000;0.832239
7470.000000;0.832795
7469.000000;0.833020
7468.000000;0.833036
7467.000000;0.833071
7466.000000;0.833266
7465.000000;0.833625
7464.000000;0.834066
7463.000000;0.834486
7462.000000;0.834838
7461.000000;0.835168
7460.000000;0.835550
7459.000000;0.835993
7458.000000;0.836459
7457.000000;0.836960
7456.000000;0.837531
7455.000000;0.838130
7454.000000;0.838655
7453.000000;0.839067
7452.000000;0.839414
7451.000000;0.839722
7450.000000;0.839955
7449.000000;0.840101
7448.000000;0.840227
7447.000000;0.840405
7446.000000;0.840667
7445.000000;0.841049
7444.000000;0.841577
7443.000000;0.842175
7442.000000;0.842692
7441.000000;0.843058
7440.000000;0.843344
7439.000000;0.843645
7438.000000;0.843990
7437.000000;0.844390
7436.000000;0.844862
7435.000000;0.845356
7434.000000;0.845737
7433.000000;0.845937
7432.000000;0.846043
7431.000000;0.846189
7430.000000;0.846425
7429.000000;0.846740
7428.000000;0.847133
7427.000000;0.847580
7426.000000;0.848025
7425.000000;0.848483
7424.000000;0.849029
7423.000000;0.849606
7422.000000;0.849957
7421.000000;0.849917
7420.000000;0.849670
7419.000000;0.849575
7418.000000;0.849755
7417.000000;0.850050
7416.000000;0.850348
7415.000000;0.850793
7414.000000;0.851578
7413.000000;0.852602
7412.000000;0.853450
7411.000000;0.853745
7410.000000;0.853500
7409.000000;0.853084
7408.000000;0.852841
7407.000000;0.852782
7406.000000;0.852744
7405.000000;0.852747
7404.000000;0.852969
7403.000000;0.853440
7402.000000;0.853943
7401.000000;0.854215
7400.000000;0.854183
7399.000000;0.854020
7398.000000;0.853984
7397.000000;0.854162
7396.000000;0.854351
7395.000000;0.854280
7394.000000;0.854043
7393.000000;0.854097
7392.000000;0.854732
7391.000000;0.855694
7390.000000;0.856513
7389.000000;0.856967
7388.000000;0.857022
7387.000000;0.856546
7386.000000;0.855544
7385.000000;0.854579
7384.000000;0.854310
7383.000000;0.854521
7382.000000;0.854285
7381.000000;0.853360
7380.000000;0.852795
7379.000000;0.853547
7378.000000;0.855085
7377.000000;0.856066
7376.000000;0.856030
7375.000000;0.855810
7374.000000;0.856414
7373.000000;0.857991
7372.000000;0.859872
7371.000000;0.861191
7370.000000;0.861410
7369.000000;0.860662
7368.000000;0.859724
7367.000000;0.859355
7366.000000;0.859661
7365.000000;0.860403
7364.000000;0.861482
7363.000000;0.862604
7362.000000;0.863004
7361.000000;0.862259
7360.000000;0.861150
7359.000000;0.860811
7358.000000;0.861212
7357.000000;0.861204
7356.000000;0.860143
7355.000000;0.858706
7354.000000;0.857917
7353.000000;0.858009
7352.000000;0.858437
7351.000000;0.858356
7350.000000;0.857073
7349.000000;0.854827
7348.000000;0.853054
7347.000000;0.853070
7346.000000;0.854501
7345.000000;0.855888
7344.000000;0.856705
7343.000000;0.857641
7342.000000;0.858903
7341.000000;0.859641
7340.000000;0.859779
7339.000000;0.860901
7338.000000;0.864184
7337.000000;0.868559
7336.000000;0.871908
7335.000000;0.873058
7334.000000;0.872227
7333.000000;0.870460
7332.000000;0.869113
7331.000000;0.868962
7330.000000;0.869251
7329.000000;0.868576
7328.000000;0.867212
7327.000000;0.867496
7326.000000;0.870899
7325.000000;0.875820
7324.000000;0.879502
7323.000000;0.881206
7322.000000;0.882388
7321.000000;0.884187
7320.000000;0.886044
7319.000000;0.886775
7318.000000;0.885853
7317.000000;0.883710
7316.000000;0.881618
7315.000000;0.880949
7314.000000;0.881700
7313.000000;0.882171
7312.000000;0.881093
7311.000000;0.879592
7310.000000;0.879824
7309.000000;0.882012
7308.000000;0.884257
7307.000000;0.885193
7306.000000;0.885547
7305.000000;0.886659
7304.000000;0.888739
7303.000000;0.891240
7302.000000;0.893549
7301.000000;0.894847
7300.000000;0.894558
7299.000000;0.893640
7298.000000;0.894200
7297.000000;0.896943
7296.000000;0.900055
7295.000000;0.901462
7294.000000;0.901493
7293.000000;0.902322
7292.000000;0.905088
7291.000000;0.908738
7290.000000;0.911608
7289.000000;0.913111
7288.000000;0.913835
7287.000000;0.914678
7286.000000;0.916171
7285.000000;0.918189
7284.000000;0.920121
7283.000000;0.921523
7282.000000;0.922544
7281.000000;0.923592
7280.000000;0.924776
7279.000000;0.925903
7278.000000;0.926910
7277.000000;0.927973
7276.000000;0.929199
7275.000000;0.930439
7274.000000;0.931536
7273.000000;0.932603
7272.000000;0.933950
7271.000000;0.935742
7270.000000;0.937721
7269.000000;0.939324
7268.000000;0.940252
7267.000000;0.940886
7266.000000;0.941870
7265.000000;0.943290
7264.000000;0.944588
7263.000000;0.945447
7262.000000;0.946403
7261.000000;0.948265
7260.000000;0.951053
7259.000000;0.953979
7258.000000;0.956384
7257.000000;0.958150
7256.000000;0.959161
7255.000000;0.959048
7254.000000;0.957800
7253.000000;0.956352
7252.000000;0.956246
7251.000000;0.958289
7250.000000;0.961605
7249.000000;0.964405
7248.000000;0.965807
7247.000000;0.966540
7246.000000;0.967571
7245.000000;0.968462
7244.000000;0.967998
7243.000000;0.966451
7242.000000;0.966289
7241.000000;0.969771
7240.000000;0.976190
7239.000000;0.982500
7238.000000;0.986403
7237.000000;0.988111
7236.000000;0.989247
7235.000000;0.990761
7234.000000;0.992207
7233.000000;0.993006
7232.000000;0.994138
7231.000000;0.997663
7230.000000;1.004277
7229.000000;1.012231
7228.000000;1.018940
7227.000000;1.023165
7226.000000;1.025663
7225.000000;1.028096
7224.000000;1.031476
7223.000000;1.035553
7222.000000;1.039397
7221.000000;1.042424
7220.000000;1.045031
7219.000000;1.048257
7218.000000;1.052689
7217.000000;1.057773
7216.000000;1.062392
7215.000000;1.066112
7214.000000;1.069511
7213.000000;1.073260
7212.000000;1.077328
7211.000000;1.081310
7210.000000;1.085094
7209.000000;1.088866
7208.000000;1.092640
7207.000000;1.096150
7206.000000;1.099217
7205.000000;1.102129
7204.000000;1.105603
7203.000000;1.110320
7202.000000;1.116369
7201.000000;1.123101
7200.000000;1.129607
7199.000000;1.135459
7198.000000;1.140851
7197.000000;1.146018
7196.000000;1.150780
7195.000000;1.154889
7194.000000;1.158546
7193.000000;1.162212
7192.000000;1.166057
7191.000000;1.169964
7190.000000;1.173960
7189.000000;1.178121
7188.000000;1.182217
7187.000000;1.186045
7186.000000;1.190075
7185.000000;1.195065
7184.000000;1.200917
7183.000000;1.206619
7182.000000;1.211624
7181.000000;1.216780
7180.000000;1.223291
7179.000000;1.231118
7178.000000;1.239036
7177.000000;1.245989
7176.000000;1.251794
7175.000000;1.256773
7174.000000;1.261195
7173.000000;1.265175
7172.000000;1.268692
7171.000000;1.271712
7170.000000;1.274615
7169.000000;1.278229
7168.000000;1.283154
7167.000000;1.289253
7166.000000;1.296136
7165.000000;1.303785
7164.000000;1.312133
7163.000000;1.320350
7162.000000;1.327460
7161.000000;1.333831
7160.000000;1.341134
7159.000000;1.350221
7158.000000;1.359777
7157.000000;1.367769
7156.000000;1.373563
7155.000000;1.378195
7154.000000;1.383005
7153.000000;1.388459
7152.000000;1.394155
7151.000000;1.399532
7150.000000;1.404394
7149.000000;1.409014
7148.000000;1.413864
7147.000000;1.419080
7146.000000;1.424248
7145.000000;1.429046
7144.000000;1.433950
7143.000000;1.439815
7142.000000;1.446661
7141.000000;1.453520
7140.000000;1.459772
7139.000000;1.466098
7138.000000;1.473540
7137.000000;1.482030
7136.000000;1.490425
7135.000000;1.497829
7134.000000;1.504333
7133.000000;1.510530
7132.000000;1.516780
7131.000000;1.523051
7130.000000;1.529027
7129.000000;1.534279
7128.000000;1.538672
7127.000000;1.542746
7126.000000;1.547312
7125.000000;1.552507
7124.000000;1.557713
7123.000000;1.562587
7122.000000;1.567664
7121.000000;1.573447
7120.000000;1.579329
7119.000000;1.584160
7118.000000;1.587965
7117.000000;1.592372
7116.000000;1.598907
7115.000000;1.607277
7114.000000;1.615757
7113.000000;1.622897
7112.000000;1.628459
7111.000000;1.632955
7110.000000;1.636867
7109.000000;1.640425
7108.000000;1.643784
7107.000000;1.647268
7106.000000;1.651411
7105.000000;1.656625
7104.000000;1.662838
7103.000000;1.669431
7102.000000;1.675528
7101.000000;1.680442
7100.000000;1.684087
7099.000000;1.687125
7098.000000;1.690568
7097.000000;1.695017
7096.000000;1.700321
7095.000000;1.705990
7094.000000;1.711760
7093.000000;1.717584
7092.000000;1.723270
7091.000000;1.728507
7090.000000;1.733303
7089.000000;1.737998
7088.000000;1.742623
7087.000000;1.746623
7086.000000;1.749577
7085.000000;1.751938
7084.000000;1.754612
7083.000000;1.757887
7082.000000;1.761179
7081.000000;1.763976
7080.000000;1.766601
7079.000000;1.769727
7078.000000;1.773490
7077.000000;1.777412
7076.000000;1.780954
7075.000000;1.783836
7074.000000;1.786032
7073.000000;1.787913
7072.000000;1.790331
7071.000000;1.794025
7070.000000;1.798777
7069.000000;1.803507
7068.000000;1.807421
7067.000000;1.810784
7066.000000;1.814343
7065.000000;1.818235
7064.000000;1.821831
7063.000000;1.824588
7062.000000;1.826607
7061.000000;1.828237
7060.000000;1.829526
7059.000000;1.830344
7058.000000;1.830952
7057.000000;1.832142
7056.000000;1.834591
7055.000000;1.838123
7054.000000;1.841793
7053.000000;1.844830
7052.000000;1.847415
7051.000000;1.850352
7050.000000;1.853962
7049.000000;1.857538
7048.000000;1.860071
7047.000000;1.861447
7046.000000;1.862664
7045.000000;1.864719
7044.000000;1.867464
7043.000000;1.869799
7042.000000;1.870920
7041.000000;1.871185
7040.000000;1.871630
7039.000000;1.872821
7038.000000;1.874417
7037.000000;1.875812
7036.000000;1.876986
7035.000000;1.878509
7034.000000;1.880790
7033.000000;1.883497
7032.000000;1.885808
7031.000000;1.887192
7030.000000;1.887894
7029.000000;1.888649
7028.000000;1.890026
7027.000000;1.892015
7026.000000;1.894126
7025.000000;1.895788
7024.000000;1.896751
7023.000000;1.897251
7022.000000;1.897922
7021.000000;1.899409
7020.000000;1.901843
7019.000000;1.904715
7018.000000;1.907262
7017.000000;1.908893
7016.000000;1.909411
7015.000000;1.909111
7014.000000;1.908746
7013.000000;1.909046
7012.000000;1.910056
7011.000000;1.911166
7010.000000;1.912013
7009.000000;1.913031
7008.000000;1.914753
7007.000000;1.916876
7006.000000;1.918527
7005.000000;1.919350
7004.000000;1.919784
7003.000000;1.920343
7002.000000;1.921299
7001.000000;1.923069
7000.000000;1.926076
6999.000000;1.929807
6998.000000;1.932614
6997.000000;1.933176
6996.000000;1.931955
6995.000000;1.930610
6994.000000;1.930137
6993.000000;1.930051
6992.000000;1.929275
6991.000000;1.927491
6990.000000;1.925542
6989.000000;1.924653
6988.000000;1.925337
6987.000000;1.926960
6986.000000;1.928416
6985.000000;1.929247
6984.000000;1.929792
6983.000000;1.930268
6982.000000;1.930304
6981.000000;1.929698
6980.000000;1.929165
6979.000000;1.929709
6978.000000;1.931369
6977.000000;1.933067
6976.000000;1.933675
6975.000000;1.932916
6974.000000;1.931333
6973.000000;1.929862
6972.000000;1.929425
6971.000000;1.930391
6970.000000;1.932138
6969.000000;1.933426
6968.000000;1.933580
6967.000000;1.933155
6966.000000;1.933173
6965.000000;1.933822
6964.000000;1.934263
6963.000000;1.933728
6962.000000;1.932473
6961.000000;1.931419
6960.000000;1.931094
6959.000000;1.931262
6958.000000;1.931518
6957.000000;1.931718
6956.000000;1.931715
6955.000000;1.931228
6954.000000;1.930415
6953.000000;1.930218
6952.000000;1.931485
6951.000000;1.933794
6950.000000;1.935664
6949.000000;1.936054
6948.000000;1.935201
6947.000000;1.933930
6946.000000;1.932749
6945.000000;1.931822
6944.000000;1.931286
6943.000000;1.931195
6942.000000;1.931362
6941.000000;1.931503
6940.000000;1.931407
6939.000000;1.930941
6938.000000;1.930184
6937.000000;1.929634
6936.000000;1.929858
6935.000000;1.930775
6934.000000;1.931617
6933.000000;1.931773
6932.000000;1.931291
6931.000000;1.930491
6930.000000;1.929616
6929.000000;1.929067
6928.000000;1.929314
6927.000000;1.930165
6926.000000;1.930633
6925.000000;1.929989
6924.000000;1.928605
6923.000000;1.927387
6922.000000;1.926715
6921.000000;1.926346
6920.000000;1.925898
6919.000000;1.924999
6918.000000;1.923340
6917.000000;1.921187
6916.000000;1.919534
6915.000000;1.919183
6914.000000;1.919924
6913.000000;1.920975
6912.000000;1.921846
6911.000000;1.922336
6910.000000;1.922092
6909.000000;1.920920
6908.000000;1.919344
6907.000000;1.918168
6906.000000;1.917643
6905.000000;1.917603
6904.000000;1.918164
6903.000000;1.919467
6902.000000;1.920802
6901.000000;1.920871
6900.000000;1.919300
6899.000000;1.917255
6898.000000;1.916241
6897.000000;1.916724
6896.000000;1.918024
6895.000000;1.918988
6894.000000;1.918587
6893.000000;1.916491
6892.000000;1.913538
6891.000000;1.911267
6890.000000;1.910582
6889.000000;1.911029
6888.000000;1.911484
6887.000000;1.911260
6886.000000;1.910326
6885.000000;1.908852
6884.000000;1.907083
6883.000000;1.905550
6882.000000;1.904878
6881.000000;1.905235
6880.000000;1.906187
6879.000000;1.907115
6878.000000;1.907578
6877.000000;1.907312
6876.000000;1.906232
6875.000000;1.904628
6874.000000;1.903091
6873.000000;1.901952
6872.000000;1.900838
6871.000000;1.899116
6870.000000;1.896853
6869.000000;1.894997
6868.000000;1.894380
6867.000000;1.894842
6866.000000;1.895594
6865.000000;1.896183
6864.000000;1.896690
6863.000000;1.897132
6862.000000;1.897217
6861.000000;1.896791
6860.000000;1.896060
6859.000000;1.895147
6858.000000;1.893828
6857.000000;1.891992
6856.000000;1.890008
6855.000000;1.888385
6854.000000;1.887325
6853.000000;1.886836
6852.000000;1.886910
6851.000000;1.887304
6850.000000;1.887439
6849.000000;1.886907
6848.000000;1.885864
6847.000000;1.884637
6846.000000;1.883274
6845.000000;1.881821
6844.000000;1.880649
6843.000000;1.879944
6842.000000;1.879032
6841.000000;1.876895
6840.000000;1.873482
6839.000000;1.870000
6838.000000;1.867784
6837.000000;1.867139
6836.000000;1.867305
6835.000000;1.867261
6834.000000;1.866543
6833.000000;1.865428
6832.000000;1.864432
6831.000000;1.863579
6830.000000;1.862321
6829.000000;1.860276
6828.000000;1.857830
6827.000000;1.855684
6826.000000;1.853971
6825.000000;1.852120
6824.000000;1.849555
6823.000000;1.846368
6822.000000;1.843289
6821.000000;1.841134
6820.000000;1.840189
6819.000000;1.839954
6818.000000;1.839498
6817.000000;1.838232
6816.000000;1.836294
6815.000000;1.834137
6814.000000;1.831974
6813.000000;1.829800
6812.000000;1.827659
6811.000000;1.825575
6810.000000;1.823384
6809.000000;1.820961
6808.000000;1.818537
6807.000000;1.816501
6806.000000;1.814902
6805.000000;1.813306
6804.000000;1.811164
6803.000000;1.808290
6802.000000;1.805067
6801.000000;1.802217
6800.000000;1.800151
6799.000000;1.798494
6798.000000;1.796529
6797.000000;1.794150
6796.000000;1.791938
6795.000000;1.790123
6794.000000;1.788072
6793.000000;1.785251
6792.000000;1.782208
6791.000000;1.779924
6790.000000;1.778441
6789.000000;1.776848
6788.000000;1.774574
6787.000000;1.772011
6786.000000;1.769729
6785.000000;1.767692
6784.000000;1.765461
6783.000000;1.762773
6782.000000;1.759660
6781.000000;1.756328
6780.000000;1.753122
6779.000000;1.750412
6778.000000;1.748288
6777.000000;1.746477
6776.000000;1.744589
6775.000000;1.742337
6774.000000;1.739573
6773.000000;1.736364
6772.000000;1.733101
6771.000000;1.730266
6770.000000;1.727998
6769.000000;1.726008
6768.000000;1.723954
6767.000000;1.721771
6766.000000;1.719581
6765.000000;1.717485
6764.000000;1.715519
6763.000000;1.713656
6762.000000;1.711769
6761.000000;1.709680
6760.000000;1.707313
6759.000000;1.704725
6758.000000;1.702018
6757.000000;1.699301
6756.000000;1.696700
6755.000000;1.694250
6754.000000;1.691790
6753.000000;1.689069
6752.000000;1.686002
6751.000000;1.682789
6750.000000;1.679807
6749.000000;1.677403
6748.000000;1.675620
6747.000000;1.673987
6746.000000;1.671772
6745.000000;1.668678
6744.000000;1.665258
6743.000000;1.662416
6742.000000;1.660507
6741.000000;1.659052
6740.000000;1.657269
6739.000000;1.654740
6738.000000;1.651632
6737.000000;1.648498
6736.000000;1.645855
6735.000000;1.643799
6734.000000;1.641956
6733.000000;1.639856
6732.000000;1.637307
6731.000000;1.634355
6730.000000;1.631071
6729.000000;1.627608
6728.000000;1.624344
6727.000000;1.621701
6726.000000;1.619775
6725.000000;1.618280
6724.000000;1.616814
6723.000000;1.615044
6722.000000;1.612730
6721.000000;1.609849
6720.000000;1.606679
6719.000000;1.603588
6718.000000;1.600755
6717.000000;1.598164
6716.000000;1.595824
6715.000000;1.593693
6714.000000;1.591460
6713.000000;1.588759
6712.000000;1.585695
6711.000000;1.582769
6710.000000;1.580415
6709.000000;1.578488
6708.000000;1.576434
6707.000000;1.573960
6706.000000;1.571102
6705.000000;1.568135
6704.000000;1.565324
6703.000000;1.562835
6702.000000;1.560674
6701.000000;1.558688
6700.000000;1.556629
6699.000000;1.554269
6698.000000;1.551538
6697.000000;1.548597
6696.000000;1.545771
6695.000000;1.543318
6694.000000;1.541264
6693.000000;1.539414
6692.000000;1.537467
6691.000000;1.535164
6690.000000;1.532476
6689.000000;1.529709
6688.000000;1.527238
6687.000000;1.525056
6686.000000;1.522761
6685.000000;1.520097
6684.000000;1.517319
6683.000000;1.514849
6682.000000;1.512739
6681.000000;1.510709
6680.000000;1.508588
6679.000000;1.506468
6678.000000;1.504461
6677.000000;1.502532
6676.000000;1.500557
6675.000000;1.498374
6674.000000;1.495831
6673.000000;1.492980
6672.000000;1.490182
6671.000000;1.487806
6670.000000;1.485831
6669.000000;1.483919
6668.000000;1.481813
6667.000000;1.479500
6666.000000;1.477060
6665.000000;1.474612
6664.000000;1.472369
6663.000000;1.470452
6662.000000;1.468634
6661.000000;1.466510
6660.000000;1.463991
6659.000000;1.461408
6658.000000;1.459089
6657.000000;1.457028
6656.000000;1.455037
6655.000000;1.452978
6654.000000;1.450788
6653.000000;1.448472
6652.000000;1.446169
6651.000000;1.444065
6650.000000;1.442132
6649.000000;1.440121
6648.000000;1.437895
6647.000000;1.435590
6646.000000;1.433375
6645.000000;1.431194
6644.000000;1.428892
6643.000000;1.426447
6642.000000;1.423972
6641.000000;1.421584
6640.000000;1.419364
6639.000000;1.417364
6638.000000;1.415547
6637.000000;1.413794
6636.000000;1.412021
6635.000000;1.410221
6634.000000;1.408362
6633.000000;1.406372
6632.000000;1.404265
6631.000000;1.402169
6630.000000;1.400146
6629.000000;1.398099
6628.000000;1.395916
6627.000000;1.393615
6626.000000;1.391304
6625.000000;1.389101
6624.000000;1.387120
6623.000000;1.385406
6622.000000;1.383800
6621.000000;1.382016
6620.000000;1.379929
6619.000000;1.377686
6618.000000;1.375468
6617.000000;1.373295
6616.000000;1.371156
6615.000000;1.369166
6614.000000;1.367409
6613.000000;1.365729
6612.000000;1.363854
6611.000000;1.361726
6610.000000;1.359545
6609.000000;1.357526
6608.000000;1.355707
6607.000000;1.353980
6606.000000;1.352212
6605.000000;1.350328
6604.000000;1.348354
6603.000000;1.346378
6602.000000;1.344443
6601.000000;1.342498
6600.000000;1.340496
6599.000000;1.338484
6598.000000;1.336532
6597.000000;1.334633
6596.000000;1.332746
6595.000000;1.330882
6594.000000;1.329087
6593.000000;1.327356
6592.000000;1.325652
6591.000000;1.323979
6590.000000;1.322360
6589.000000;1.320758
6588.000000;1.319084
6587.000000;1.317300
6586.000000;1.315450
6585.000000;1.313604
6584.000000;1.311800
6583.000000;1.310026
6582.000000;1.308228
6581.000000;1.306358
6580.000000;1.304429
6579.000000;1.302534
6578.000000;1.300763
6577.000000;1.299125
6576.000000;1.297560
6575.000000;1.295990
6574.000000;1.294351
6573.000000;1.292615
6572.000000;1.290834
6571.000000;1.289108
6570.000000;1.287478
6569.000000;1.285866
6568.000000;1.284186
6567.000000;1.282478
6566.000000;1.280879
6565.000000;1.279473
6564.000000;1.278190
6563.000000;1.276856
6562.000000;1.275322
6561.000000;1.273575
6560.000000;1.271758
6559.000000;1.270053
6558.000000;1.268520
6557.000000;1.267050
6556.000000;1.265473
6555.000000;1.263700
6554.000000;1.261757
6553.000000;1.259757
6552.000000;1.257863
6551.000000;1.256209
6550.000000;1.254806
6549.000000;1.253525
6548.000000;1.252206
6547.000000;1.250755
6546.000000;1.249158
6545.000000;1.247463
6544.000000;1.245768
6543.000000;1.244167
6542.000000;1.242656
6541.000000;1.241150
6540.000000;1.239622
6539.000000;1.238155
6538.000000;1.236811
6537.000000;1.235513
6536.000000;1.234114
6535.000000;1.232532
6534.000000;1.230781
6533.000000;1.228921
6532.000000;1.227055
6531.000000;1.225324
6530.000000;1.223803
6529.000000;1.222432
6528.000000;1.221091
6527.000000;1.219734
6526.000000;1.218373
6525.000000;1.216986
6524.000000;1.215543
6523.000000;1.214094
6522.000000;1.212734
6521.000000;1.211460
6520.000000;1.210139
6519.000000;1.208657
6518.000000;1.207038
6517.000000;1.205411
6516.000000;1.203897
6515.000000;1.202543
6514.000000;1.201316
6513.000000;1.200126
6512.000000;1.198887
6511.000000;1.197569
6510.000000;1.196196
6509.000000;1.194796
6508.000000;1.193392
6507.000000;1.192003
6506.000000;1.190631
6505.000000;1.189236
6504.000000;1.187792
6503.000000;1.186349
6502.000000;1.184993
6501.000000;1.183739
6500.000000;1.182514
6499.000000;1.181266
6498.000000;1.180012
6497.000000;1.178776
6496.000000;1.177513
6495.000000;1.176155
6494.000000;1.174708
6493.000000;1.173269
6492.000000;1.171952
6491.000000;1.170814
6490.000000;1.169819
6489.000000;1.168859
6488.000000;1.167807
6487.000000;1.166583
6486.000000;1.165195
6485.000000;1.163725
6484.000000;1.162283
6483.000000;1.160941
6482.000000;1.159678
6481.000000;1.158419
6480.000000;1.157138
6479.000000;1.155898
6478.000000;1.154759
6477.000000;1.153690
6476.000000;1.152611
6475.000000;1.151506
6474.000000;1.150421
6473.000000;1.149349
6472.000000;1.148212
6471.000000;1.146983
6470.000000;1.145756
6469.000000;1.144629
6468.000000;1.143572
6467.000000;1.142469
6466.000000;1.141255
6465.000000;1.139972
6464.000000;1.138703
6463.000000;1.137499
6462.000000;1.136374
6461.000000;1.135296
6460.000000;1.134202
6459.000000;1.133050
6458.000000;1.131875
6457.000000;1.130749
6456.000000;1.129689
6455.000000;1.128628
6454.000000;1.127489
6453.000000;1.126274
6452.000000;1.125061
6451.000000;1.123939
6450.000000;1.122942
6449.000000;1.122034
6448.000000;1.121134
6447.000000;1.120165
6446.000000;1.119098
6445.000000;1.117942
6444.000000;1.116719
6443.000000;1.115464
6442.000000;1.114239
6441.000000;1.113115
6440.000000;1.112111
6439.000000;1.111175
6438.000000;1.110227
6437.000000;1.109222
6436.000000;1.108162
6435.000000;1.107082
6434.000000;1.106016
6433.000000;1.104986
6432.000000;1.103990
6431.000000;1.103010
6430.000000;1.102023
6429.000000;1.101013
6428.000000;1.099966
6427.000000;1.098890
6426.000000;1.097849
6425.000000;1.096932
6424.000000;1.096166
6423.000000;1.095469
6422.000000;1.094712
6421.000000;1.093821
6420.000000;1.092793
6419.000000;1.091668
6418.000000;1.090517
6417.000000;1.089434
6416.000000;1.088489
6415.000000;1.087672
6414.000000;1.086908
6413.000000;1.086135
6412.000000;1.085307
6411.000000;1.084353
6410.000000;1.083211
6409.000000;1.081947
6408.000000;1.080751
6407.000000;1.079776
6406.000000;1.079000
6405.000000;1.078299
6404.000000;1.077585
6403.000000;1.076832
6402.000000;1.075988
6401.000000;1.075002
6400.000000;1.073921
6399.000000;1.072904
6398.000000;1.072072
6397.000000;1.071391
6396.000000;1.070708
6395.000000;1.069890
6394.000000;1.068912
6393.000000;1.067861
6392.000000;1.066863
6391.000000;1.065977
6390.000000;1.065156
6389.000000;1.064328
6388.000000;1.063504
6387.000000;1.062759
6386.000000;1.062114
6385.000000;1.061484
6384.000000;1.060770
6383.000000;1.059950
6382.000000;1.059057
6381.000000;1.058120
6380.000000;1.057168
6379.000000;1.056241
6378.000000;1.055344
6377.000000;1.054438
6376.000000;1.053514
6375.000000;1.052643
6374.000000;1.051894
6373.000000;1.051223
6372.000000;1.050522
6371.000000;1.049758
6370.000000;1.048994
6369.000000;1.048277
6368.000000;1.047559
6367.000000;1.046781
6366.000000;1.045974
6365.000000;1.045234
6364.000000;1.044608
6363.000000;1.044045
6362.000000;1.043450
6361.000000;1.042767
6360.000000;1.042014
6359.000000;1.041241
6358.000000;1.040482
6357.000000;1.039727
6356.000000;1.038958
6355.000000;1.038169
6354.000000;1.037374
6353.000000;1.036590
6352.000000;1.035832
6351.000000;1.035109
6350.000000;1.034401
6349.000000;1.033666
6348.000000;1.032879
6347.000000;1.032075
6346.000000;1.031324
6345.000000;1.030650
6344.000000;1.030005
6343.000000;1.029316
6342.000000;1.028564
6341.000000;1.027803
6340.000000;1.027099
6339.000000;1.026461
6338.000000;1.025832
6337.000000;1.025150
6336.000000;1.024407
6335.000000;1.023652
6334.000000;1.022941
6333.000000;1.022282
6332.000000;1.021641
6331.000000;1.020983
6330.000000;1.020307
6329.000000;1.019657
6328.000000;1.019082
6327.000000;1.018577
6326.000000;1.018057
6325.000000;1.017427
6324.000000;1.016682
6323.000000;1.015919
6322.000000;1.015233
6321.000000;1.014625
6320.000000;1.014032
6319.000000;1.013405
6318.000000;1.012751
6317.000000;1.012106
6316.000000;1.011513
6315.000000;1.011001
6314.000000;1.010551
6313.000000;1.010090
6312.000000;1.009537
6311.000000;1.008872
6310.000000;1.008138
6309.000000;1.007387
6308.000000;1.006670
6307.000000;1.006045
6306.000000;1.005539
6305.000000;1.005093
6304.000000;1.004603
6303.000000;1.004031
6302.000000;1.003437
6301.000000;1.002892
6300.000000;1.002383
6299.000000;1.001839
6298.000000;1.001219
6297.000000;1.000551
6296.000000;0.999895
6295.000000;0.999290
6294.000000;0.998743
6293.000000;0.998232
6292.000000;0.997708
6291.000000;0.997129
6290.000000;0.996497
6289.000000;0.995877
6288.000000;0.995345
6287.000000;0.994915
6286.000000;0.994507
6285.000000;0.994022
6284.000000;0.993442
6283.000000;0.992844
6282.000000;0.992297
6281.000000;0.991785
6280.000000;0.991247
6279.000000;0.990660
6278.000000;0.990052
6277.000000;0.989462
6276.000000;0.988911
6275.000000;0.988413
6274.000000;0.987951
6273.000000;0.987462
6272.000000;0.986894
6271.000000;0.986283
6270.000000;0.985721
6269.000000;0.985240
6268.000000;0.984776
6267.000000;0.984271
6266.000000;0.983746
6265.000000;0.983246
6264.000000;0.982761
6263.000000;0.982249
6262.000000;0.981722
6261.000000;0.981239
6260.000000;0.980827
6259.000000;0.980455
6258.000000;0.980071
6257.000000;0.979641
6256.000000;0.979141
6255.000000;0.978572
6254.000000;0.977990
6253.000000;0.977481
6252.000000;0.977073
6251.000000;0.976693
6250.000000;0.976236
6249.000000;0.975675
6248.000000;0.975079
6247.000000;0.974522
6246.000000;0.974006
6245.000000;0.973480
6244.000000;0.972937
6243.000000;0.972446
6242.000000;0.972074
6241.000000;0.971788
6240.000000;0.971479
6239.000000;0.971071
6238.000000;0.970590
6237.000000;0.970104
6236.000000;0.969642
6235.000000;0.969180
6234.000000;0.968702
6233.000000;0.968229
6232.000000;0.967784
6231.000000;0.967346
6230.000000;0.966874
6229.000000;0.966365
6228.000000;0.965879
6227.000000;0.965481
6226.000000;0.965161
6225.000000;0.964830
6224.000000;0.964405
6223.000000;0.963891
6222.000000;0.963369
6221.000000;0.962906
6220.000000;0.962520
6219.000000;0.962189
6218.000000;0.961878
6217.000000;0.961544
6216.000000;0.961165
6215.000000;0.960775
6214.000000;0.960424
6213.000000;0.960106
6212.000000;0.959758
6211.000000;0.959342
6210.000000;0.958902
6209.000000;0.958502
6208.000000;0.958154
6207.000000;0.957826
6206.000000;0.957489
6205.000000;0.957128
6204.000000;0.956719
6203.000000;0.956248
6202.000000;0.955754
6201.000000;0.955296
6200.000000;0.954900
6199.000000;0.954537
6198.000000;0.954176
6197.000000;0.953818
6196.000000;0.953462
6195.000000;0.953080
6194.000000;0.952636
6193.000000;0.952137
6192.000000;0.951656
6191.000000;0.951270
6190.000000;0.950990
6189.000000;0.950729
6188.000000;0.950379
6187.000000;0.949906
6186.000000;0.949384
6185.000000;0.948920
6184.000000;0.948569
6183.000000;0.948305
6182.000000;0.948057
6181.000000;0.947759
6180.000000;0.947395
6179.000000;0.947014
6178.000000;0.946700
6177.000000;0.946482
6176.000000;0.946296
6175.000000;0.946042
6174.000000;0.945682
6173.000000;0.945252
6172.000000;0.944817
6171.000000;0.944421
6170.000000;0.944086
6169.000000;0.943810
6168.000000;0.943564
6167.000000;0.943304
6166.000000;0.943015
6165.000000;0.942703
6164.000000;0.942376
6163.000000;0.942031
6162.000000;0.941684
6161.000000;0.941361
6160.000000;0.941064
6159.000000;0.940767
6158.000000;0.940462
6157.000000;0.940176
6156.000000;0.939943
6155.000000;0.939747
6154.000000;0.939522
6153.000000;0.939209
6152.000000;0.938793
6151.000000;0.938307
6150.000000;0.937819
6149.000000;0.937408
6148.000000;0.937131
6147.000000;0.936986
6146.000000;0.936896
6145.000000;0.936744
6144.000000;0.936447
6143.000000;0.936019
6142.000000;0.935552
6141.000000;0.935143
6140.000000;0.934826
6139.000000;0.934573
6138.000000;0.934336
6137.000000;0.934071
6136.000000;0.933753
6135.000000;0.933397
6134.000000;0.933063
6133.000000;0.932806
6132.000000;0.932617
6131.000000;0.932429
6130.000000;0.932191
6129.000000;0.931911
6128.000000;0.931627
6127.000000;0.931362
6126.000000;0.931118
6125.000000;0.930896
6124.000000;0.930693
6123.000000;0.930489
6122.000000;0.930263
6121.000000;0.930019
6120.000000;0.929765
6119.000000;0.929491
6118.000000;0.929168
6117.000000;0.928793
6116.000000;0.928405
6115.000000;0.928048
6114.000000;0.927730
6113.000000;0.927436
6112.000000;0.927169
6111.000000;0.926949
6110.000000;0.926765
6109.000000;0.926565
6108.000000;0.926313
6107.000000;0.926040
6106.000000;0.925804
6105.000000;0.925606
6104.000000;0.925391
6103.000000;0.925124
6102.000000;0.924843
6101.000000;0.924612
6100.000000;0.924448
6099.000000;0.924314
6098.000000;0.924168
6097.000000;0.923987
6096.000000;0.923760
6095.000000;0.923478
6094.000000;0.923162
6093.000000;0.922867
6092.000000;0.922642
6091.000000;0.922478
6090.000000;0.922314
6089.000000;0.922090
6088.000000;0.921796
6087.000000;0.921480
6086.000000;0.921193
6085.000000;0.920953
6084.000000;0.920733
6083.000000;0.920497
6082.000000;0.920238
6081.000000;0.919986
6080.000000;0.919785
6079.000000;0.919650
6078.000000;0.919551
6077.000000;0.919436
6076.000000;0.919274
6075.000000;0.919074
6074.000000;0.918847
6073.000000;0.918584
6072.000000;0.918274
6071.000000;0.917937
6070.000000;0.917610
6069.000000;0.917321
6068.000000;0.917080
6067.000000;0.916900
6066.000000;0.916788
6065.000000;0.916708
6064.000000;0.916590
6063.000000;0.916398
6062.000000;0.916181
6061.000000;0.916019
6060.000000;0.915938
6059.000000;0.915881
6058.000000;0.915764
6057.000000;0.915541
6056.000000;0.915227
6055.000000;0.914880
6054.000000;0.914559
6053.000000;0.914299
6052.000000;0.914101
6051.000000;0.913951
6050.000000;0.913827
6049.000000;0.913702
6048.000000;0.913543
6047.000000;0.913333
6046.000000;0.913074
6045.000000;0.912790
6044.000000;0.912524
6043.000000;0.912322
6042.000000;0.912207
6041.000000;0.912155
6040.000000;0.912122
6039.000000;0.912087
6038.000000;0.912037
6037.000000;0.911940
6036.000000;0.911758
6035.000000;0.911495
6034.000000;0.911200
6033.000000;0.910912
6032.000000;0.910640
6031.000000;0.910410
6030.000000;0.910276
6029.000000;0.910257
6028.000000;0.910290
6027.000000;0.910281
6026.000000;0.910196
6025.000000;0.910054
6024.000000;0.909884
6023.000000;0.909709
6022.000000;0.909563
6021.000000;0.909469
6020.000000;0.909404
6019.000000;0.909330
6018.000000;0.909247
6017.000000;0.909179
6016.000000;0.909118
6015.000000;0.909028
6014.000000;0.908902
6013.000000;0.908781
6012.000000;0.908696
6011.000000;0.908624
6010.000000;0.908531
6009.000000;0.908419
6008.000000;0.908320
6007.000000;0.908243
6006.000000;0.908163
6005.000000;0.908041
6004.000000;0.907858
6003.000000;0.907644
6002.000000;0.907456
6001.000000;0.907331
6000.000000;0.907243
5999.000000;0.907134
5998.000000;0.906983
5997.000000;0.906824
5996.000000;0.906706
5995.000000;0.906645
5994.000000;0.906625
5993.000000;0.906622
5992.000000;0.906615
5991.000000;0.906591
5990.000000;0.906542
5989.000000;0.906467
5988.000000;0.906373
5987.000000;0.906280
5986.000000;0.906208
5985.000000;0.906152
5984.000000;0.906076
5983.000000;0.905961
5982.000000;0.905842
5981.000000;0.905783
5980.000000;0.905797
5979.000000;0.905837
5978.000000;0.905836
5977.000000;0.905760
5976.000000;0.905615
5975.000000;0.905433
5974.000000;0.905278
5973.000000;0.905218
5972.000000;0.905269
5971.000000;0.905379
5970.000000;0.905466
5969.000000;0.905489
5968.000000;0.905461
5967.000000;0.905407
5966.000000;0.905329
5965.000000;0.905206
5964.000000;0.905037
5963.000000;0.904859
5962.000000;0.904727
5961.000000;0.904663
5960.000000;0.904639
5959.000000;0.904615
5958.000000;0.904599
5957.000000;0.904627
5956.000000;0.904706
5955.000000;0.904792
5954.000000;0.904846
5953.000000;0.904886
5952.000000;0.904958
5951.000000;0.905068
5950.000000;0.905163
5949.000000;0.905195
5948.000000;0.905168
5947.000000;0.905119
5946.000000;0.905062
5945.000000;0.904976
5944.000000;0.904862
5943.000000;0.904776
5942.000000;0.904779
5941.000000;0.904860
5940.000000;0.904937
5939.000000;0.904943
5938.000000;0.904884
5937.000000;0.904821
5936.000000;0.904799
5935.000000;0.904826
5934.000000;0.904889
5933.000000;0.904969
5932.000000;0.905050
5931.000000;0.905121
5930.000000;0.905183
5929.000000;0.905232
5928.000000;0.905254
5927.000000;0.905255
5926.000000;0.905248
5925.000000;0.905228
5924.000000;0.905158
5923.000000;0.905032
5922.000000;0.904924
5921.000000;0.904934
5920.000000;0.905086
5919.000000;0.905314
5918.000000;0.905532
5917.000000;0.905698
5916.000000;0.905799
5915.000000;0.905837
5914.000000;0.905836
5913.000000;0.905843
5912.000000;0.905884
5911.000000;0.905946
5910.000000;0.906012
5909.000000;0.906087
5908.000000;0.906186
5907.000000;0.906294
5906.000000;0.906376
5905.000000;0.906411
5904.000000;0.906409
5903.000000;0.906408
5902.000000;0.906444
5901.000000;0.906529
5900.000000;0.906635
5899.000000;0.906717
5898.000000;0.906762
5897.000000;0.906797
5896.000000;0.906850
5895.000000;0.906912
5894.000000;0.906962
5893.000000;0.906996
5892.000000;0.907033
5891.000000;0.907085
5890.000000;0.907155
5889.000000;0.907241
5888.000000;0.907334
5887.000000;0.907420
5886.000000;0.907496
5885.000000;0.907594
5884.000000;0.907751
5883.000000;0.907959
5882.000000;0.908163
5881.000000;0.908318
5880.000000;0.908439
5879.000000;0.908567
5878.000000;0.908711
5877.000000;0.908836
5876.000000;0.908910
5875.000000;0.908944
5874.000000;0.908972
5873.000000;0.909009
5872.000000;0.909065
5871.000000;0.909170
5870.000000;0.909368
5869.000000;0.909669
5868.000000;0.910014
5867.000000;0.910316
5866.000000;0.910525
5865.000000;0.910655
5864.000000;0.910760
5863.000000;0.910877
5862.000000;0.910998
5861.000000;0.911093
5860.000000;0.911159
5859.000000;0.911229
5858.000000;0.911341
5857.000000;0.911499
5856.000000;0.911680
5855.000000;0.911873
5854.000000;0.912095
5853.000000;0.912354
5852.000000;0.912629
5851.000000;0.912881
5850.000000;0.913095
5849.000000;0.913281
5848.000000;0.913464
5847.000000;0.913672
5846.000000;0.913910
5845.000000;0.914158
5844.000000;0.914373
5843.000000;0.914542
5842.000000;0.914696
5841.000000;0.914889
5840.000000;0.915144
5839.000000;0.915434
5838.000000;0.915714
5837.000000;0.915964
5836.000000;0.916210
5835.000000;0.916505
5834.000000;0.916873
5833.000000;0.917277
5832.000000;0.917651
5831.000000;0.917961
5830.000000;0.918210
5829.000000;0.918411
5828.000000;0.918566
5827.000000;0.918703
5826.000000;0.918885
5825.000000;0.919152
5824.000000;0.919472
5823.000000;0.919774
5822.000000;0.920025
5821.000000;0.920255
5820.000000;0.920515
5819.000000;0.920826
5818.000000;0.921178
5817.000000;0.921543
5816.000000;0.921903
5815.000000;0.922251
5814.000000;0.922583
5813.000000;0.922888
5812.000000;0.923153
5811.000000;0.923383
5810.000000;0.923600
5809.000000;0.923827
5808.000000;0.924077
5807.000000;0.924364
5806.000000;0.924707
5805.000000;0.925116
5804.000000;0.925565
5803.000000;0.926018
5802.000000;0.926447
5801.000000;0.926841
5800.000000;0.927202
5799.000000;0.927536
5798.000000;0.927862
5797.000000;0.928200
5796.000000;0.928570
5795.000000;0.928977
5794.000000;0.929403
5793.000000;0.929808
5792.000000;0.930172
5791.000000;0.930534
5790.000000;0.930960
5789.000000;0.931453
5788.000000;0.931935
5787.000000;0.932330
5786.000000;0.932648
5785.000000;0.932964
5784.000000;0.933340
5783.000000;0.933790
5782.000000;0.934293
5781.000000;0.934815
5780.000000;0.935314
5779.000000;0.935754
5778.000000;0.936129
5777.000000;0.936484
5776.000000;0.936887
5775.000000;0.937388
5774.000000;0.937966
5773.000000;0.938548
5772.000000;0.939069
5771.000000;0.939535
5770.000000;0.939991
5769.000000;0.940445
5768.000000;0.940860
5767.000000;0.941210
5766.000000;0.941530
5765.000000;0.941877
5764.000000;0.942285
5763.000000;0.942762
5762.000000;0.943295
5761.000000;0.943851
5760.000000;0.944402
5759.000000;0.944966
5758.000000;0.945593
5757.000000;0.946290
5756.000000;0.947004
5755.000000;0.947676
5754.000000;0.948293
5753.000000;0.948856
5752.000000;0.949365
5751.000000;0.949845
5750.000000;0.950363
5749.000000;0.950957
5748.000000;0.951585
5747.000000;0.952192
5746.000000;0.952789
5745.000000;0.953420
5744.000000;0.954089
5743.000000;0.954753
5742.000000;0.955391
5741.000000;0.956017
5740.000000;0.956636
5739.000000;0.957238
5738.000000;0.957831
5737.000000;0.958446
5736.000000;0.959098
5735.000000;0.959775
5734.000000;0.960458
5733.000000;0.961133
5732.000000;0.961777
5731.000000;0.962384
5730.000000;0.962977
5729.000000;0.963581
5728.000000;0.964180
5727.000000;0.964750
5726.000000;0.965322
5725.000000;0.965961
5724.000000;0.966676
5723.000000;0.967405
5722.000000;0.968085
5721.000000;0.968722
5720.000000;0.969367
5719.000000;0.970060
5718.000000;0.970805
5717.000000;0.971578
5716.000000;0.972338
5715.000000;0.973056
5714.000000;0.973734
5713.000000;0.974397
5712.000000;0.975064
5711.000000;0.975741
5710.000000;0.976432
5709.000000;0.977147
5708.000000;0.977887
5707.000000;0.978667
5706.000000;0.979510
5705.000000;0.980435
5704.000000;0.981401
5703.000000;0.982342
5702.000000;0.983217
5701.000000;0.984009
5700.000000;0.984746
5699.000000;0.985454
5698.000000;0.986151
5697.000000;0.986842
5696.000000;0.987533
5695.000000;0.988244
5694.000000;0.989002
5693.000000;0.989802
5692.000000;0.990600
5691.000000;0.991365
5690.000000;0.992112
5689.000000;0.992871
5688.000000;0.993650
5687.000000;0.994451
5686.000000;0.995298
5685.000000;0.996204
5684.000000;0.997119
5683.000000;0.997964
5682.000000;0.998712
5681.000000;0.999416
5680.000000;1.000144
5679.000000;1.000934
5678.000000;1.001786
5677.000000;1.002673
5676.000000;1.003538
5675.000000;1.004321
5674.000000;1.005007
5673.000000;1.005652
5672.000000;1.006341
5671.000000;1.007126
5670.000000;1.007986
5669.000000;1.008838
5668.000000;1.009607
5667.000000;1.010310
5666.000000;1.011046
5665.000000;1.011885
5664.000000;1.012783
5663.000000;1.013636
5662.000000;1.014407
5661.000000;1.015138
5660.000000;1.015873
5659.000000;1.016599
5658.000000;1.017286
5657.000000;1.017942
5656.000000;1.018616
5655.000000;1.019344
5654.000000;1.020129
5653.000000;1.020938
5652.000000;1.021736
5651.000000;1.022509
5650.000000;1.023258
5649.000000;1.023971
5648.000000;1.024618
5647.000000;1.025208
5646.000000;1.025805
5645.000000;1.026466
5644.000000;1.027180
5643.000000;1.027891
5642.000000;1.028553
5641.000000;1.029160
5640.000000;1.029728
5639.000000;1.030282
5638.000000;1.030859
5637.000000;1.031484
5636.000000;1.032158
5635.000000;1.032874
5634.000000;1.033622
5633.000000;1.034362
5632.000000;1.035024
5631.000000;1.035573
5630.000000;1.036060
5629.000000;1.036560
5628.000000;1.037092
5627.000000;1.037619
5626.000000;1.038124
5625.000000;1.038628
5624.000000;1.039159
5623.000000;1.039724
5622.000000;1.040317
5621.000000;1.040908
5620.000000;1.041457
5619.000000;1.041964
5618.000000;1.042494
5617.000000;1.043096
5616.000000;1.043726
5615.000000;1.044291
5614.000000;1.044749
5613.000000;1.045127
5612.000000;1.045466
5611.000000;1.045796
5610.000000;1.046149
5609.000000;1.046534
5608.000000;1.046911
5607.000000;1.047250
5606.000000;1.047578
5605.000000;1.047928
5604.000000;1.048268
5603.000000;1.048556
5602.000000;1.048856
5601.000000;1.049278
5600.000000;1.049815
5599.000000;1.050334
5598.000000;1.050740
5597.000000;1.051070
5596.000000;1.051388
5595.000000;1.051698
5594.000000;1.051978
5593.000000;1.052238
5592.000000;1.052490
5591.000000;1.052710
5590.000000;1.052879
5589.000000;1.053029
5588.000000;1.053209
5587.000000;1.053440
5586.000000;1.053707
5585.000000;1.053979
5584.000000;1.054204
5583.000000;1.054327
5582.000000;1.054352
5581.000000;1.054344
5580.000000;1.054382
5579.000000;1.054513
5578.000000;1.054743
5577.000000;1.055032
5576.000000;1.055297
5575.000000;1.055483
5574.000000;1.055625
5573.000000;1.055801
5572.000000;1.056020
5571.000000;1.056217
5570.000000;1.056354
5569.000000;1.056450
5568.000000;1.056497
5567.000000;1.056457
5566.000000;1.056357
5565.000000;1.056323
5564.000000;1.056444
5563.000000;1.056664
5562.000000;1.056858
5561.000000;1.056969
5560.000000;1.057019
5559.000000;1.057020
5558.000000;1.056946
5557.000000;1.056779
5556.000000;1.056547
5555.000000;1.056313
5554.000000;1.056138
5553.000000;1.056056
5552.000000;1.056056
5551.000000;1.056102
5550.000000;1.056170
5549.000000;1.056254
5548.000000;1.056345
5547.000000;1.056430
5546.000000;1.056525
5545.000000;1.056655
5544.000000;1.056796
5543.000000;1.056862
5542.000000;1.056778
5541.000000;1.056565
5540.000000;1.056330
5539.000000;1.056164
5538.000000;1.056098
5537.000000;1.056144
5536.000000;1.056325
5535.000000;1.056626
5534.000000;1.056947
5533.000000;1.057145
5532.000000;1.057145
5531.000000;1.057004
5530.000000;1.056843
5529.000000;1.056739
5528.000000;1.056654
5527.000000;1.056495
5526.000000;1.056234
5525.000000;1.055936
5524.000000;1.055699
5523.000000;1.055567
5522.000000;1.055526
5521.000000;1.055584
5520.000000;1.055780
5519.000000;1.056089
5518.000000;1.056373
5517.000000;1.056481
5516.000000;1.056436
5515.000000;1.056399
5514.000000;1.056409
5513.000000;1.056293
5512.000000;1.055921
5511.000000;1.055426
5510.000000;1.055048
5509.000000;1.054863
5508.000000;1.054813
5507.000000;1.054991
5506.000000;1.055609
5505.000000;1.056575
5504.000000;1.057377
5503.000000;1.057494
5502.000000;1.056885
5501.000000;1.055973
5500.000000;1.055100
5499.000000;1.054189
5498.000000;1.053060
5497.000000;1.051852
5496.000000;1.050953
5495.000000;1.050534
5494.000000;1.050441
5493.000000;1.050631
5492.000000;1.051399
5491.000000;1.052932
5490.000000;1.054897
5489.000000;1.056765
5488.000000;1.058360
5487.000000;1.059806
5486.000000;1.060948
5485.000000;1.061186
5484.000000;1.060208
5483.000000;1.058549
5482.000000;1.056993
5481.000000;1.055747
5480.000000;1.054596
5479.000000;1.053674
5478.000000;1.053419
5477.000000;1.053834
5476.000000;1.054498
5475.000000;1.055376
5474.000000;1.056861
5473.000000;1.058861
5472.000000;1.060581
5471.000000;1.061263
5470.000000;1.060813
5469.000000;1.059791
5468.000000;1.058903
5467.000000;1.058529
5466.000000;1.058626
5465.000000;1.058956
5464.000000;1.059456
5463.000000;1.060326
5462.000000;1.061660
5461.000000;1.063237
5460.000000;1.064787
5459.000000;1.066259
5458.000000;1.067663
5457.000000;1.068792
5456.000000;1.069208
5455.000000;1.068626
5454.000000;1.067332
5453.000000;1.065978
5452.000000;1.064886
5451.000000;1.063695
5450.000000;1.062064
5449.000000;1.060602
5448.000000;1.060366
5447.000000;1.061502
5446.000000;1.063109
5445.000000;1.064501
5444.000000;1.065897
5443.000000;1.067728
5442.000000;1.069816
5441.000000;1.071630
5440.000000;1.072989
5439.000000;1.073998
5438.000000;1.074631
5437.000000;1.074844
5436.000000;1.074811
5435.000000;1.074937
5434.000000;1.075723
5433.000000;1.077445
5432.000000;1.079972
5431.000000;1.082825
5430.000000;1.085547
5429.000000;1.088295
5428.000000;1.091731
5427.000000;1.096116
5426.000000;1.100845
5425.000000;1.104880
5424.000000;1.107357
5423.000000;1.108052
5422.000000;1.107494
5421.000000;1.106327
5420.000000;1.104680
5419.000000;1.102440
5418.000000;1.100061
5417.000000;1.098582
5416.000000;1.098592
5415.000000;1.099816
5414.000000;1.102046
5413.000000;1.105760
5412.000000;1.111211
5411.000000;1.117577
5410.000000;1.123655
5409.000000;1.128954
5408.000000;1.133632
5407.000000;1.137784
5406.000000;1.141207
5405.000000;1.143835
5404.000000;1.145824
5403.000000;1.147156
5402.000000;1.147898
5401.000000;1.148529
5400.000000;1.149554
5399.000000;1.151055
5398.000000;1.152965
5397.000000;1.155524
5396.000000;1.158878
5395.000000;1.162637
5394.000000;1.166472
5393.000000;1.170672
5392.000000;1.175587
5391.000000;1.180798
5390.000000;1.185589
5389.000000;1.189927
5388.000000;1.194303
5387.000000;1.198734
5386.000000;1.202756
5385.000000;1.206483
5384.000000;1.210566
5383.000000;1.215060
5382.000000;1.219321
5381.000000;1.223152
5380.000000;1.227263
5379.000000;1.232317
5378.000000;1.238216
5377.000000;1.244828
5376.000000;1.252556
5375.000000;1.261496
5374.000000;1.270803
5373.000000;1.279435
5372.000000;1.287104
5371.000000;1.294153
5370.000000;1.300928
5369.000000;1.307591
5368.000000;1.314404
5367.000000;1.321681
5366.000000;1.329439
5365.000000;1.337439
5364.000000;1.345387
5363.000000;1.353076
5362.000000;1.360531
5361.000000;1.368029
5360.000000;1.375790
5359.000000;1.383590
5358.000000;1.391149
5357.000000;1.398846
5356.000000;1.407427
5355.000000;1.416908
5354.000000;1.426568
5353.000000;1.436223
5352.000000;1.446592
5351.000000;1.458093
5350.000000;1.470013
5349.000000;1.481347
5348.000000;1.492104
5347.000000;1.503284
5346.000000;1.515599
5345.000000;1.529022
5344.000000;1.543516
5343.000000;1.559182
5342.000000;1.575699
5341.000000;1.592490
5340.000000;1.609385
5339.000000;1.626845
5338.000000;1.645529
5337.000000;1.665322
5336.000000;1.685318
5335.000000;1.704857
5334.000000;1.723924
5333.000000;1.742706
5332.000000;1.761449
5331.000000;1.780799
5330.000000;1.801593
5329.000000;1.823990
5328.000000;1.847187
5327.000000;1.870447
5326.000000;1.893809
5325.000000;1.917508
5324.000000;1.941337
5323.000000;1.964992
5322.000000;1.988589
5321.000000;2.012414
5320.000000;2.036473
5319.000000;2.060617
5318.000000;2.084852
5317.000000;2.109063
5316.000000;2.132888
5315.000000;2.156238
5314.000000;2.179499
5313.000000;2.202963
5312.000000;2.226523
5311.000000;2.250219
5310.000000;2.274417
5309.000000;2.299025
5308.000000;2.323226
5307.000000;2.346493
5306.000000;2.369122
5305.000000;2.391278
5304.000000;2.412348
5303.000000;2.431972
5302.000000;2.450879
5301.000000;2.469857
5300.000000;2.488483
5299.000000;2.505656
5298.000000;2.520796
5297.000000;2.533983
5296.000000;2.545865
5295.000000;2.557702
5294.000000;2.570393
5293.000000;2.583068
5292.000000;2.593694
5291.000000;2.601794
5290.000000;2.609303
5289.000000;2.617840
5288.000000;2.626662
5287.000000;2.634148
5286.000000;2.639845
5285.000000;2.644581
5284.000000;2.649510
5283.000000;2.655332
5282.000000;2.661700
5281.000000;2.667074
5280.000000;2.670002
5279.000000;2.670844
5278.000000;2.671208
5277.000000;2.671763
5276.000000;2.671798
5275.000000;2.670655
5274.000000;2.668089
5273.000000;2.663883
5272.000000;2.658725
5271.000000;2.654614
5270.000000;2.652931
5269.000000;2.652662
5268.000000;2.652130
5267.000000;2.651859
5266.000000;2.653710
5265.000000;2.657691
5264.000000;2.661748
5263.000000;2.664332
5262.000000;2.665233
5261.000000;2.664524
5260.000000;2.662787
5259.000000;2.661913
5258.000000;2.663301
5257.000000;2.665502
5256.000000;2.665606
5255.000000;2.663251
5254.000000;2.661085
5253.000000;2.661006
5252.000000;2.662415
5251.000000;2.664088
5250.000000;2.665549
5249.000000;2.666488
5248.000000;2.666741
5247.000000;2.667007
5246.000000;2.668252
5245.000000;2.670511
5244.000000;2.673190
5243.000000;2.675924
5242.000000;2.677932
5241.000000;2.677695
5240.000000;2.675065
5239.000000;2.672623
5238.000000;2.672846
5237.000000;2.674748
5236.000000;2.675475
5235.000000;2.674588
5234.000000;2.674256
5233.000000;2.675585
5232.000000;2.677223
5231.000000;2.677500
5230.000000;2.676013
5229.000000;2.673114
5228.000000;2.669674
5227.000000;2.667565
5226.000000;2.668664
5225.000000;2.672719
5224.000000;2.677043
5223.000000;2.678827
5222.000000;2.677368
5221.000000;2.674176
5220.000000;2.671985
5219.000000;2.672971
5218.000000;2.676502
5217.000000;2.679016
5216.000000;2.677383
5215.000000;2.672291
5214.000000;2.667177
5213.000000;2.664444
5212.000000;2.664040
5211.000000;2.664814
5210.000000;2.665679
5209.000000;2.665973
5208.000000;2.666244
5207.000000;2.668275
5206.000000;2.672867
5205.000000;2.678047
5204.000000;2.681039
5203.000000;2.681164
5202.000000;2.679218
5201.000000;2.675778
5200.000000;2.672343
5199.000000;2.672300
5198.000000;2.677772
5197.000000;2.686043
5196.000000;2.691346
5195.000000;2.690680
5194.000000;2.685709
5193.000000;2.679222
5192.000000;2.673187
5191.000000;2.669718
5190.000000;2.670515
5189.000000;2.674752
5188.000000;2.679512
5187.000000;2.682838
5186.000000;2.684909
5185.000000;2.686223
5184.000000;2.686731
5183.000000;2.686912
5182.000000;2.687597
5181.000000;2.688419
5180.000000;2.688213
5179.000000;2.686931
5178.000000;2.685336
5177.000000;2.683186
5176.000000;2.680115
5175.000000;2.677999
5174.000000;2.679545
5173.000000;2.683993
5172.000000;2.686537
5171.000000;2.683570
5170.000000;2.677224
5169.000000;2.672915
5168.000000;2.673673
5167.000000;2.677981
5166.000000;2.682008
5165.000000;2.683473
5164.000000;2.683629
5163.000000;2.685191
5162.000000;2.688419
5161.000000;2.690429
5160.000000;2.689127
5159.000000;2.686330
5158.000000;2.685145
5157.000000;2.685626
5156.000000;2.685311
5155.000000;2.683384
5154.000000;2.681657
5153.000000;2.681359
5152.000000;2.681609
5151.000000;2.681477
5150.000000;2.681612
5149.000000;2.683040
5148.000000;2.685729
5147.000000;2.688689
5146.000000;2.690389
5145.000000;2.689321
5144.000000;2.685777
5143.000000;2.682863
5142.000000;2.683851
5141.000000;2.688202
5140.000000;2.691635
5139.000000;2.690797
5138.000000;2.686648
5137.000000;2.682436
5136.000000;2.680090
5135.000000;2.679497
5134.000000;2.679683
5133.000000;2.679634
5132.000000;2.678797
5131.000000;2.677656
5130.000000;2.677465
5129.000000;2.678810
5128.000000;2.680780
5127.000000;2.681982
5126.000000;2.681942
5125.000000;2.681199
5124.000000;2.680508
5123.000000;2.680196
5122.000000;2.680116
5121.000000;2.680135
5120.000000;2.680381
5119.000000;2.681090
5118.000000;2.682022
5117.000000;2.682133
5116.000000;2.680606
5115.000000;2.678006
5114.000000;2.675727
5113.000000;2.674561
5112.000000;2.674366
5111.000000;2.674845
5110.000000;2.676003
5109.000000;2.677958
5108.000000;2.680728
5107.000000;2.683936
5106.000000;2.686353
5105.000000;2.686401
5104.000000;2.683900
5103.000000;2.680691
5102.000000;2.678754
5101.000000;2.678414
5100.000000;2.678701
5099.000000;2.678708
5098.000000;2.678120
5097.000000;2.677169
5096.000000;2.676630
5095.000000;2.677085
5094.000000;2.677772
5093.000000;2.677206
5092.000000;2.675418
5091.000000;2.674228
5090.000000;2.674596
5089.000000;2.675157
5088.000000;2.674446
5087.000000;2.673233
5086.000000;2.673111
5085.000000;2.673872
5084.000000;2.673952
5083.000000;2.672763
5082.000000;2.671158
5081.000000;2.670098
5080.000000;2.670194
5079.000000;2.671847
5078.000000;2.674433
5077.000000;2.675951
5076.000000;2.674943
5075.000000;2.672462
5074.000000;2.670743
5073.000000;2.670346
5072.000000;2.669937
5071.000000;2.668588
5070.000000;2.666975
5069.000000;2.666196
5068.000000;2.666490
5067.000000;2.667261
5066.000000;2.667787
5065.000000;2.667913
5064.000000;2.668270
5063.000000;2.669337
5062.000000;2.670206
5061.000000;2.669356
5060.000000;2.667147
5059.000000;2.666176
5058.000000;2.668068
5057.000000;2.670987
5056.000000;2.671685
5055.000000;2.669439
5054.000000;2.666425
5053.000000;2.664549
5052.000000;2.663637
5051.000000;2.662591
5050.000000;2.660908
5049.000000;2.658870
5048.000000;2.657195
5047.000000;2.656697
5046.000000;2.657585
5045.000000;2.659018
5044.000000;2.659728
5043.000000;2.658967
5042.000000;2.656733
5041.000000;2.653638
5040.000000;2.651018
5039.000000;2.650245
5038.000000;2.651088
5037.000000;2.651586
5036.000000;2.650298
5035.000000;2.648277
5034.000000;2.647960
5033.000000;2.650234
5032.000000;2.653326
5031.000000;2.654534
5030.000000;2.652663
5029.000000;2.648855
5028.000000;2.645215
5027.000000;2.642714
5026.000000;2.640630
5025.000000;2.638133
5024.000000;2.635722
5023.000000;2.634223
5022.000000;2.633133
5021.000000;2.631349
5020.000000;2.629141
5019.000000;2.627658
5018.000000;2.626634
5017.000000;2.624627
5016.000000;2.621820
5015.000000;2.620378
5014.000000;2.621274
5013.000000;2.622837
5012.000000;2.623332
5011.000000;2.622951
5010.000000;2.622076
5009.000000;2.619663
5008.000000;2.615135
5007.000000;2.610572
5006.000000;2.608622
5005.000000;2.609412
5004.000000;2.611100
5003.000000;2.612450
5002.000000;2.613294
5001.000000;2.613080
5000.000000;2.610911
4999.000000;2.606859
4998.000000;2.602116
4997.000000;2.598118
4996.000000;2.596000
4995.000000;2.595979
4994.000000;2.596495
4993.000000;2.594972
4992.000000;2.590450
4991.000000;2.584628
4990.000000;2.579612
4989.000000;2.575948
4988.000000;2.573511
4987.000000;2.572649
4986.000000;2.573110
4985.000000;2.573032
4984.000000;2.570597
4983.000000;2.566001
4982.000000;2.560640
4981.000000;2.555490
4980.000000;2.551457
4979.000000;2.549901
4978.000000;2.551014
4977.000000;2.552491
4976.000000;2.551615
4975.000000;2.548460
4974.000000;2.545346
4973.000000;2.543534
4972.000000;2.542180
4971.000000;2.540187
4970.000000;2.537461
4969.000000;2.534222
4968.000000;2.530298
4967.000000;2.525476
4966.000000;2.519869
4965.000000;2.513817
4964.000000;2.507973
4963.000000;2.503260
4962.000000;2.500047
4961.000000;2.497583
4960.000000;2.494868
4959.000000;2.491765
4958.000000;2.488656
4957.000000;2.485540
4956.000000;2.482246
4955.000000;2.479080
4954.000000;2.476402
4953.000000;2.473942
4952.000000;2.471276
4951.000000;2.468519
4950.000000;2.465740
4949.000000;2.462176
4948.000000;2.457087
4947.000000;2.451248
4946.000000;2.446504
4945.000000;2.443708
4944.000000;2.441763
4943.000000;2.438838
4942.000000;2.434175
4941.000000;2.428671
4940.000000;2.423962
4939.000000;2.420931
4938.000000;2.418851
4937.000000;2.416060
4936.000000;2.411625
4935.000000;2.406125
4934.000000;2.400816
4933.000000;2.396529
4932.000000;2.393384
4931.000000;2.390910
4930.000000;2.388240
4929.000000;2.384761
4928.000000;2.380866
4927.000000;2.377547
4926.000000;2.375035
4925.000000;2.372423
4924.000000;2.368890
4923.000000;2.364646
4922.000000;2.360258
4921.000000;2.355697
4920.000000;2.350587
4919.000000;2.344888
4918.000000;2.338860
4917.000000;2.332773
4916.000000;2.327015
4915.000000;2.322095
4914.000000;2.318169
4913.000000;2.314856
4912.000000;2.311709
4911.000000;2.308519
4910.000000;2.305113
4909.000000;2.301396
4908.000000;2.297684
4907.000000;2.294328
4906.000000;2.290916
4905.000000;2.286620
4904.000000;2.281422
4903.000000;2.276240
4902.000000;2.271707
4901.000000;2.267601
4900.000000;2.263693
4899.000000;2.260263
4898.000000;2.257277
4897.000000;2.253874
4896.000000;2.249400
4895.000000;2.244379
4894.000000;2.239765
4893.000000;2.235676
4892.000000;2.231499
4891.000000;2.226876
4890.000000;2.222074
4889.000000;2.217617
4888.000000;2.213892
4887.000000;2.210822
4886.000000;2.207680
4885.000000;2.203653
4884.000000;2.198782
4883.000000;2.193849
4882.000000;2.189245
4881.000000;2.184657
4880.000000;2.179995
4879.000000;2.175780
4878.000000;2.172205
4877.000000;2.168653
4876.000000;2.164676
4875.000000;2.160707
4874.000000;2.157170
4873.000000;2.153602
4872.000000;2.149381
4871.000000;2.144707
4870.000000;2.140076
4869.000000;2.135300
4868.000000;2.129947
4867.000000;2.124432
4866.000000;2.119755
4865.000000;2.116197
4864.000000;2.112947
4863.000000;2.109038
4862.000000;2.104266
4861.000000;2.099209
4860.000000;2.094693
4859.000000;2.091128
4858.000000;2.088119
4857.000000;2.084861
4856.000000;2.081063
4855.000000;2.077212
4854.000000;2.073739
4853.000000;2.070347
4852.000000;2.066495
4851.000000;2.062136
4850.000000;2.057603
4849.000000;2.053118
4848.000000;2.048798
4847.000000;2.044814
4846.000000;2.041110
4845.000000;2.037271
4844.000000;2.033075
4843.000000;2.028874
4842.000000;2.024993
4841.000000;2.021110
4840.000000;2.016737
4839.000000;2.012026
4838.000000;2.007552
4837.000000;2.003453
4836.000000;1.999343
4835.000000;1.995009
4834.000000;1.990665
4833.000000;1.986502
4832.000000;1.982403
4831.000000;1.978202
4830.000000;1.973972
4829.000000;1.969974
4828.000000;1.966453
4827.000000;1.963427
4826.000000;1.960538
4825.000000;1.957239
4824.000000;1.953305
4823.000000;1.949072
4822.000000;1.944995
4821.000000;1.941140
4820.000000;1.937259
4819.000000;1.933197
4818.000000;1.929025
4817.000000;1.924897
4816.000000;1.920941
4815.000000;1.917177
4814.000000;1.913458
4813.000000;1.909633
4812.000000;1.905843
4811.000000;1.902385
4810.000000;1.899217
4809.000000;1.895904
4808.000000;1.892195
4807.000000;1.888353
4806.000000;1.884690
4805.000000;1.881144
4804.000000;1.877538
4803.000000;1.873914
4802.000000;1.870329
4801.000000;1.866585
4800.000000;1.862523
4799.000000;1.858379
4798.000000;1.854478
4797.000000;1.850755
4796.000000;1.846907
4795.000000;1.842876
4794.000000;1.838887
4793.000000;1.835150
4792.000000;1.831777
4791.000000;1.828839
4790.000000;1.826168
4789.000000;1.823246
4788.000000;1.819683
4787.000000;1.815769
4786.000000;1.812212
4785.000000;1.809309
4784.000000;1.806653
4783.000000;1.803658
4782.000000;1.800139
4781.000000;1.796326
4780.000000;1.792531
4779.000000;1.788919
4778.000000;1.785458
4777.000000;1.781999
4776.000000;1.778470
4775.000000;1.774966
4774.000000;1.771608
4773.000000;1.768361
4772.000000;1.765080
4771.000000;1.761689
4770.000000;1.758227
4769.000000;1.754791
4768.000000;1.751511
4767.000000;1.748504
4766.000000;1.745724
4765.000000;1.742911
4764.000000;1.739803
4763.000000;1.736367
4762.000000;1.732790
4761.000000;1.729292
4760.000000;1.726038
4759.000000;1.723095
4758.000000;1.720356
4757.000000;1.717532
4756.000000;1.714360
4755.000000;1.710830
4754.000000;1.707184
4753.000000;1.703714
4752.000000;1.700573
4751.000000;1.697708
4750.000000;1.694906
4749.000000;1.691954
4748.000000;1.688798
4747.000000;1.685548
4746.000000;1.682376
4745.000000;1.679434
4744.000000;1.676790
4743.000000;1.674336
4742.000000;1.671810
4741.000000;1.669037
4740.000000;1.666094
4739.000000;1.663129
4738.000000;1.660122
4737.000000;1.657015
4736.000000;1.653983
4735.000000;1.651313
4734.000000;1.648995
4733.000000;1.646691
4732.000000;1.644153
4731.000000;1.641467
4730.000000;1.638834
4729.000000;1.636314
4728.000000;1.633846
4727.000000;1.631329
4726.000000;1.628639
4725.000000;1.625753
4724.000000;1.622878
4723.000000;1.620247
4722.000000;1.617775
4721.000000;1.615158
4720.000000;1.612330
4719.000000;1.609548
4718.000000;1.606967
4717.000000;1.604444
4716.000000;1.601867
4715.000000;1.599346
4714.000000;1.596931
4713.000000;1.594439
4712.000000;1.591789
4711.000000;1.589265
4710.000000;1.587174
4709.000000;1.585396
4708.000000;1.583512
4707.000000;1.581268
4706.000000;1.578744
4705.000000;1.576158
4704.000000;1.573683
4703.000000;1.571382
4702.000000;1.569167
4701.000000;1.566900
4700.000000;1.564592
4699.000000;1.562380
4698.000000;1.560267
4697.000000;1.558074
4696.000000;1.555757
4695.000000;1.553552
4694.000000;1.551622
4693.000000;1.549780
4692.000000;1.547761
4691.000000;1.545603
4690.000000;1.543518
4689.000000;1.541523
4688.000000;1.539468
4687.000000;1.537338
4686.000000;1.535268
4685.000000;1.533291
4684.000000;1.531274
4683.000000;1.529138
4682.000000;1.526948
4681.000000;1.524791
4680.000000;1.522688
4679.000000;1.520657
4678.000000;1.518762
4677.000000;1.517065
4676.000000;1.515563
4675.000000;1.514135
4674.000000;1.512557
4673.000000;1.510667
4672.000000;1.508581
4671.000000;1.506639
4670.000000;1.505014
4669.000000;1.503515
4668.000000;1.501852
4667.000000;1.500000
4666.000000;1.498149
4665.000000;1.496375
4664.000000;1.494565
4663.000000;1.492637
4662.000000;1.490668
4661.000000;1.488793
4660.000000;1.487077
4659.000000;1.485492
4658.000000;1.483966
4657.000000;1.482412
4656.000000;1.480781
4655.000000;1.479091
4654.000000;1.477404
4653.000000;1.475798
4652.000000;1.474370
4651.000000;1.473160
4650.000000;1.472037
4649.000000;1.470744
4648.000000;1.469112
4647.000000;1.467209
4646.000000;1.465241
4645.000000;1.463386
4644.000000;1.461720
4643.000000;1.460226
4642.000000;1.458804
4641.000000;1.457337
4640.000000;1.455802
4639.000000;1.454260
4638.000000;1.452746
4637.000000;1.451257
4636.000000;1.449822
4635.000000;1.448486
4634.000000;1.447188
4633.000000;1.445809
4632.000000;1.444361
4631.000000;1.442968
4630.000000;1.441642
4629.000000;1.440238
4628.000000;1.438723
4627.000000;1.437308
4626.000000;1.436169
4625.000000;1.435198
4624.000000;1.434171
4623.000000;1.433046
4622.000000;1.431939
4621.000000;1.430881
4620.000000;1.429788
4619.000000;1.428642
4618.000000;1.427555
4617.000000;1.426619
4616.000000;1.425762
4615.000000;1.424796
4614.000000;1.423585
4613.000000;1.422208
4612.000000;1.420917
4611.000000;1.419866
4610.000000;1.418870
4609.000000;1.417575
4608.000000;1.415903
4607.000000;1.414176
4606.000000;1.412729
4605.000000;1.411540
4604.000000;1.410387
4603.000000;1.409217
4602.000000;1.408189
4601.000000;1.407379
4600.000000;1.406621
4599.000000;1.405683
4598.000000;1.404525
4597.000000;1.403352
4596.000000;1.402427
4595.000000;1.401804
4594.000000;1.401228
4593.000000;1.400353
4592.000000;1.399119
4591.000000;1.397832
4590.000000;1.396824
4589.000000;1.396104
4588.000000;1.395412
4587.000000;1.394537
4586.000000;1.393508
4585.000000;1.392470
4584.000000;1.391480
4583.000000;1.390457
4582.000000;1.389324
4581.000000;1.388177
4580.000000;1.387249
4579.000000;1.386651
4578.000000;1.386195
4577.000000;1.385570
4576.000000;1.384676
4575.000000;1.383684
4574.000000;1.382780
4573.000000;1.381991
4572.000000;1.381285
4571.000000;1.380668
4570.000000;1.380125
4569.000000;1.379572
4568.000000;1.378953
4567.000000;1.378281
4566.000000;1.377551
4565.000000;1.376713
4564.000000;1.375794
4563.000000;1.374904
4562.000000;1.374060
4561.000000;1.373130
4560.000000;1.372065
4559.000000;1.371052
4558.000000;1.370308
4557.000000;1.369802
4556.000000;1.369300
4555.000000;1.368654
4554.000000;1.367908
4553.000000;1.367153
4552.000000;1.366388
4551.000000;1.365553
4550.000000;1.364639
4549.000000;1.363733
4548.000000;1.362970
4547.000000;1.362398
4546.000000;1.361908
4545.000000;1.361344
4544.000000;1.360690
4543.000000;1.360078
4542.000000;1.359602
4541.000000;1.359203
4540.000000;1.358770
4539.000000;1.358275
4538.000000;1.357788
4537.000000;1.357397
4536.000000;1.357136
4535.000000;1.356919
4534.000000;1.356560
4533.000000;1.355929
4532.000000;1.355103
4531.000000;1.354276
4530.000000;1.353546
4529.000000;1.352907
4528.000000;1.352430
4527.000000;1.352251
4526.000000;1.352329
4525.000000;1.352371
4524.000000;1.352121
4523.000000;1.351644
4522.000000;1.351230
4521.000000;1.351085
4520.000000;1.351158
4519.000000;1.351219
4518.000000;1.351065
4517.000000;1.350718
4516.000000;1.350445
4515.000000;1.350484
4514.000000;1.350744
4513.000000;1.350877
4512.000000;1.350660
4511.000000;1.350196
4510.000000;1.349716
4509.000000;1.349339
4508.000000;1.349094
4507.000000;1.349005
4506.000000;1.349062
4505.000000;1.349173
4504.000000;1.349248
4503.000000;1.349249
4502.000000;1.349140
4501.000000;1.348899
4500.000000;1.348629
4499.000000;1.348567
4498.000000;1.348883
4497.000000;1.349493
4496.000000;1.350121
4495.000000;1.350467
4494.000000;1.350375
4493.000000;1.349954
4492.000000;1.349584
4491.000000;1.349641
4490.000000;1.350137
4489.000000;1.350710
4488.000000;1.351035
4487.000000;1.351135
4486.000000;1.351250
4485.000000;1.351526
4484.000000;1.351923
4483.000000;1.352319
4482.000000;1.352621
4481.000000;1.352832
4480.000000;1.353046
4479.000000;1.353329
4478.000000;1.353606
4477.000000;1.353769
4476.000000;1.353892
4475.000000;1.354211
4474.000000;1.354846
4473.000000;1.355663
4472.000000;1.356425
4471.000000;1.356970
4470.000000;1.357241
4469.000000;1.357320
4468.000000;1.357448
4467.000000;1.357838
4466.000000;1.358415
4465.000000;1.358895
4464.000000;1.359179
4463.000000;1.359471
4462.000000;1.359967
4461.000000;1.360618
4460.000000;1.361310
4459.000000;1.362045
4458.000000;1.362788
4457.000000;1.363318
4456.000000;1.363475
4455.000000;1.363477
4454.000000;1.363799
4453.000000;1.364726
4452.000000;1.366112
4451.000000;1.367546
4450.000000;1.368672
4449.000000;1.369411
4448.000000;1.369949
4447.000000;1.370504
4446.000000;1.371115
4445.000000;1.371694
4444.000000;1.372267
4443.000000;1.373025
4442.000000;1.374069
4441.000000;1.375247
4440.000000;1.376311
4439.000000;1.377150
4438.000000;1.377809
4437.000000;1.378377
4436.000000;1.378941
4435.000000;1.379582
4434.000000;1.380353
4433.000000;1.381285
4432.000000;1.382424
4431.000000;1.383786
4430.000000;1.385266
4429.000000;1.386680
4428.000000;1.387915
4427.000000;1.388950
4426.000000;1.389780
4425.000000;1.390467
4424.000000;1.391230
4423.000000;1.392316
4422.000000;1.393721
4421.000000;1.395178
4420.000000;1.396433
4419.000000;1.397456
4418.000000;1.398360
4417.000000;1.399253
4416.000000;1.400143
4415.000000;1.400928
4414.000000;1.401548
4413.000000;1.402263
4412.000000;1.403598
4411.000000;1.405739
4410.000000;1.408105
4409.000000;1.409852
4408.000000;1.410819
4407.000000;1.411624
4406.000000;1.412803
4405.000000;1.414234
4404.000000;1.415497
4403.000000;1.416413
4402.000000;1.417067
4401.000000;1.417591
4400.000000;1.418175
4399.000000;1.419069
4398.000000;1.420349
4397.000000;1.421810
4396.000000;1.423234
4395.000000;1.424631
4394.000000;1.426114
4393.000000;1.427706
4392.000000;1.429378
4391.000000;1.431084
4390.000000;1.432673
4389.000000;1.433918
4388.000000;1.434795
4387.000000;1.435573
4386.000000;1.436521
4385.000000;1.437660
4384.000000;1.438895
4383.000000;1.440240
4382.000000;1.441791
4381.000000;1.443540
4380.000000;1.445290
4379.000000;1.446740
4378.000000;1.447722
4377.000000;1.448451
4376.000000;1.449407
4375.000000;1.450812
4374.000000;1.452340
4373.000000;1.453572
4372.000000;1.454544
4371.000000;1.455526
4370.000000;1.456463
4369.000000;1.457096
4368.000000;1.457580
4367.000000;1.458442
4366.000000;1.459891
4365.000000;1.461601
4364.000000;1.463242
4363.000000;1.464748
4362.000000;1.466020
4361.000000;1.466876
4360.000000;1.467478
4359.000000;1.468337
4358.000000;1.469697
4357.000000;1.471269
4356.000000;1.472721
4355.000000;1.474049
4354.000000;1.475327
4353.000000;1.476544
4352.000000;1.477831
4351.000000;1.479412
4350.000000;1.481189
4349.000000;1.482782
4348.000000;1.484133
4347.000000;1.485614
4346.000000;1.487358
4345.000000;1.488969
4344.000000;1.490143
4343.000000;1.491106
4342.000000;1.492230
4341.000000;1.493639
4340.000000;1.495360
4339.000000;1.497377
4338.000000;1.499360
4337.000000;1.500862
4336.000000;1.501994
4335.000000;1.503356
4334.000000;1.505127
4333.000000;1.506809
4332.000000;1.508065
4331.000000;1.509122
4330.000000;1.510023
4329.000000;1.510300
4328.000000;1.509865
4327.000000;1.509589
4326.000000;1.510420
4325.000000;1.512405
4324.000000;1.514979
4323.000000;1.517642
4322.000000;1.519922
4321.000000;1.521382
4320.000000;1.522259
4319.000000;1.523398
4318.000000;1.525073
4317.000000;1.526604
4316.000000;1.527577
4315.000000;1.528658
4314.000000;1.530404
4313.000000;1.532073
4312.000000;1.532686
4311.000000;1.532689
4310.000000;1.533428
4309.000000;1.535335
4308.000000;1.537654
4307.000000;1.539655
4306.000000;1.541153
4305.000000;1.542020
4304.000000;1.542254
4303.000000;1.542496
4302.000000;1.543492
4301.000000;1.544949
4300.000000;1.545813
4299.000000;1.545877
4298.000000;1.546365
4297.000000;1.548569
4296.000000;1.552348
4295.000000;1.556127
4294.000000;1.558149
4293.000000;1.557850
4292.000000;1.556342
4291.000000;1.555434
4290.000000;1.555899
4289.000000;1.556809
4288.000000;1.556857
4287.000000;1.556120
4286.000000;1.556008
4285.000000;1.557588
4284.000000;1.560393
4283.000000;1.562808
4282.000000;1.563439
4281.000000;1.562174
4280.000000;1.560120
4279.000000;1.558475
4278.000000;1.557476
4277.000000;1.556729
4276.000000;1.556383
4275.000000;1.557247
4274.000000;1.559564
4273.000000;1.562395
4272.000000;1.564684
4271.000000;1.566241
4270.000000;1.567044
4269.000000;1.566468
4268.000000;1.564136
4267.000000;1.561050
4266.000000;1.558878
4265.000000;1.558066
4264.000000;1.557188
4263.000000;1.554301
4262.000000;1.548906
4261.000000;1.542627
4260.000000;1.538004
4259.000000;1.536524
4258.000000;1.537661
4257.000000;1.539811
4256.000000;1.541747
4255.000000;1.542851
4254.000000;1.542681
4253.000000;1.541407
4252.000000;1.540058
4251.000000;1.539049
4250.000000;1.537247
4249.000000;1.533478
4248.000000;1.529054
4247.000000;1.526912
4246.000000;1.527952
4245.000000;1.529767
4244.000000;1.529225
4243.000000;1.525113
4242.000000;1.518274
4241.000000;1.510617
4240.000000;1.504440
4239.000000;1.501187
4238.000000;1.499762
4237.000000;1.497492
4236.000000;1.493294
4235.000000;1.488246
4234.000000;1.483013
4233.000000;1.477170
4232.000000;1.471274
4231.000000;1.466445
4230.000000;1.461313
4229.000000;1.452715
4228.000000;1.440793
4227.000000;1.429962
4226.000000;1.422686
4225.000000;1.415493
4224.000000;1.403555
4223.000000;1.386939
4222.000000;1.369611
4221.000000;1.354822
4220.000000;1.344014
4219.000000;1.337441
4218.000000;1.333071
4217.000000;1.326614
4216.000000;1.315231
4215.000000;1.299808
4214.000000;1.281353
4213.000000;1.257723
4212.000000;1.227091
4211.000000;1.192383
4210.000000;1.158745
4209.000000;1.128168
4208.000000;1.099001
4207.000000;1.068371
4206.000000;1.032789
4205.000000;0.989202
4204.000000;0.938479
4203.000000;0.885531
4202.000000;0.833049
4201.000000;0.778684
4200.000000;0.723262
4199.000000;0.679233
4198.000000;0.663446
4197.000000;0.683589
4196.000000;0.735586
4195.000000;0.806264
4194.000000;0.881290
4193.000000;0.952866
4192.000000;1.020013
4191.000000;1.084282
4190.000000;1.145158
4189.000000;1.199479
4188.000000;1.245732
4187.000000;1.286300
4186.000000;1.323018
4185.000000;1.353989
4184.000000;1.378140
4183.000000;1.400616
4182.000000;1.429714
4181.000000;1.468999
4180.000000;1.514380
4179.000000;1.557589
4178.000000;1.591411
4177.000000;1.613751
4176.000000;1.629367
4175.000000;1.645884
4174.000000;1.666829
4173.000000;1.689944
4172.000000;1.711783
4171.000000;1.731587
4170.000000;1.751203
4169.000000;1.772360
4168.000000;1.795135
4167.000000;1.819742
4166.000000;1.845086
4165.000000;1.867061
4164.000000;1.883599
4163.000000;1.898685
4162.000000;1.917132
4161.000000;1.938738
4160.000000;1.960319
4159.000000;1.979364
4158.000000;1.993974
4157.000000;2.003951
4156.000000;2.013793
4155.000000;2.029445
4154.000000;2.050840
4153.000000;2.072058
4152.000000;2.089985
4151.000000;2.107140
4150.000000;2.124002
4149.000000;2.136621
4148.000000;2.146658
4147.000000;2.165542
4146.000000;2.198947
4145.000000;2.233747
4144.000000;2.250882
4143.000000;2.248616
4142.000000;2.238592
4141.000000;2.228916
4140.000000;2.223482
4139.000000;2.226161
4138.000000;2.237869
4137.000000;2.253065
4136.000000;2.267533
4135.000000;2.287750
4134.000000;2.321856
4133.000000;2.364960
4132.000000;2.402304
4131.000000;2.426587
4130.000000;2.441176
4129.000000;2.446804
4128.000000;2.441749
4127.000000;2.434065
4126.000000;2.437431
4125.000000;2.453021
4124.000000;2.467377
4123.000000;2.469629
4122.000000;2.461496
4121.000000;2.451016
4120.000000;2.443863
4119.000000;2.442159
4118.000000;2.447838
4117.000000;2.456417
4116.000000;2.458388
4115.000000;2.455236
4114.000000;2.459018
4113.000000;2.476977
4112.000000;2.502915
4111.000000;2.526514
4110.000000;2.545384
4109.000000;2.559517
4108.000000;2.563921
4107.000000;2.553002
4106.000000;2.533701
4105.000000;2.526375
4104.000000;2.543678
4103.000000;2.578815
4102.000000;2.609396
4101.000000;2.618573
4100.000000;2.622508
4099.000000;2.641120
4098.000000;2.662709
4097.000000;2.661103
4096.000000;2.626599
4095.000000;2.579686
4094.000000;2.553979
4093.000000;2.566789
4092.000000;2.614201
4091.000000;2.679330
4090.000000;2.735125
4089.000000;2.753581
4088.000000;2.734453
4087.000000;2.703507
4086.000000;2.686189
4085.000000;2.690860
4084.000000;2.707849
4083.000000;2.721431
4082.000000;2.723837
4081.000000;2.720492
4080.000000;2.717435
4079.000000;2.711923
4078.000000;2.703100
4077.000000;2.699269
4076.000000;2.706324
4075.000000;2.719022
4074.000000;2.721935
4073.000000;2.706397
4072.000000;2.682428
4071.000000;2.663137
4070.000000;2.649085
4069.000000;2.633246
4068.000000;2.618962
4067.000000;2.623833
4066.000000;2.664096
4065.000000;2.739342
4064.000000;2.827730
4063.000000;2.885779
4062.000000;2.878470
4061.000000;2.828594
4060.000000;2.777098
4059.000000;2.743257
4058.000000;2.728281
4057.000000;2.730667
4056.000000;2.752432
4055.000000;2.787439
4054.000000;2.815394
4053.000000;2.824981
4052.000000;2.832652
4051.000000;2.858148
4050.000000;2.897468
4049.000000;2.933567
4048.000000;2.970955
4047.000000;3.030498
4046.000000;3.101623
4045.000000;3.125353
4044.000000;3.073870
4043.000000;2.993910
4042.000000;2.921889
4041.000000;2.859899
4040.000000;2.810287
4039.000000;2.789554
4038.000000;2.806374
4037.000000;2.843166
4036.000000;2.871324
4035.000000;2.889783
4034.000000;2.916061
4033.000000;2.953031
4032.000000;2.988881
4031.000000;3.023093
4030.000000;3.078120
4029.000000;3.156943
4028.000000;3.207076
4027.000000;3.185938
4026.000000;3.121117
4025.000000;3.045796
4024.000000;2.981402
4023.000000;2.943496
4022.000000;2.935755
4021.000000;2.942334
4020.000000;2.947302
4019.000000;2.961823
4018.000000;2.997439
4017.000000;3.041176
4016.000000;3.076103
4015.000000;3.098289
4014.000000;3.097327
4013.000000;3.062104
4012.000000;3.017441
4011.000000;2.982660
4010.000000;2.955310
4009.000000;2.943947
4008.000000;2.951489
4007.000000;2.966762
4006.000000;2.984339
4005.000000;2.995841
4004.000000;2.997418
4003.000000;3.008136
4002.000000;3.027653
4001.000000;3.021887
4000.000000;2.996087
3999.000000;2.996936
3998.000000;3.033117
3997.000000;3.065828
3996.000000;3.074220
3995.000000;3.101433
3994.000000;3.193430
3993.000000;3.343800
3992.000000;3.429510
3991.000000;3.331999
3990.000000;3.231128
3989.000000;3.222331
3988.000000;3.264297
3987.000000;3.310009
3986.000000;3.339745
3985.000000;3.325511
3984.000000;3.252280
3983.000000;3.171760
3982.000000;3.128672
3981.000000;3.136805
3980.000000;3.188489
3979.000000;3.245604
3978.000000;3.273572
3977.000000;3.248726
3976.000000;3.198853
3975.000000;3.209660
3974.000000;3.296886
3973.000000;3.348400
3972.000000;3.266909
3971.000000;3.137831
3970.000000;3.048055
3969.000000;3.010451
3968.000000;2.989446
3967.000000;2.957604
3966.000000;2.928980
3965.000000;2.943343
3964.000000;3.027496
3963.000000;3.179971
3962.000000;3.366223
3961.000000;3.505372
3960.000000;3.548736
3959.000000;3.534217
3958.000000;3.494033
3957.000000;3.448276
3956.000000;3.408720
3955.000000;3.394965
3954.000000;3.433370
3953.000000;3.472720
3952.000000;3.374217
3951.000000;3.219581
3950.000000;3.138148
3949.000000;3.147968
3948.000000;3.255938
3947.000000;3.506389
3946.000000;3.831510
3945.000000;3.848014
3944.000000;3.775399
3943.000000;3.758903
3942.000000;3.698400
3941.000000;3.793941
3940.000000;4.101278
3939.000000;3.631111
3938.000000;3.339878
3937.000000;3.314575
3936.000000;3.434630
3935.000000;3.712966
3934.000000;4.049617
3933.000000;4.085369
3932.000000;3.909304
3931.000000;3.727480
3930.000000;3.550408
3929.000000;3.372473
3928.000000;3.245399
3927.000000;3.215610
3926.000000;3.300460
3925.000000;3.477797
3924.000000;3.661336
3923.000000;3.619483
3922.000000;3.423093
3921.000000;3.317351
3920.000000;3.270274
3919.000000;3.229773
3918.000000;3.189914
3917.000000;3.162819
3916.000000;3.169461
3915.000000;3.214075
3914.000000;3.273080
3913.000000;3.303468
3912.000000;3.301876
3911.000000;3.326495
3910.000000;3.413806
3909.000000;3.506969
3908.000000;3.591944
3907.000000;3.630711
3906.000000;3.656420
3905.000000;3.772839
3904.000000;3.815568
3903.000000;3.958889
3902.000000;4.026405
3901.000000;3.790095
3900.000000;3.729065
3899.000000;3.815586
3898.000000;3.982057
3897.000000;4.160925
3896.000000;3.998637
3895.000000;3.732546
3894.000000;3.619932
3893.000000;3.744382
3892.000000;3.775145
3891.000000;3.480766
3890.000000;3.420977
3889.000000;3.545874
3888.000000;3.776235
3887.000000;4.084910
3886.000000;4.173318
3885.000000;4.017369
3884.000000;3.874998
3883.000000;3.855243
3882.000000;3.728088
3881.000000;3.472769
3880.000000;3.366054
3879.000000;3.443815
3878.000000;3.683178
3877.000000;3.959356
3876.000000;3.917373
3875.000000;3.860077
3874.000000;3.882957
3873.000000;3.898743
3872.000000;3.893924
3871.000000;3.794338
3870.000000;3.655571
3869.000000;3.555152
3868.000000;3.482530
3867.000000;3.431488
3866.000000;3.463839
3865.000000;3.690359
3864.000000;4.120986
3863.000000;4.284849
3862.000000;3.889196
3861.000000;3.545322
3860.000000;3.443958
3859.000000;3.546551
3858.000000;3.665569
3857.000000;3.678788
3856.000000;3.693485
3855.000000;3.764076
3854.000000;3.925555
3853.000000;4.149106
3852.000000;4.260756
3851.000000;4.094615
3850.000000;3.908712
3849.000000;3.822325
3848.000000;3.757929
3847.000000;3.670785
3846.000000;3.651991
3845.000000;3.782005
3844.000000;4.003561
3843.000000;4.173999
3842.000000;4.253865
3841.000000;4.169263
3840.000000;4.038456
3839.000000;3.869506
3838.000000;3.633352
3837.000000;3.509187
3836.000000;3.492905
3835.000000;3.475148
3834.000000;3.423223
3833.000000;3.426760
3832.000000;3.494791
3831.000000;3.672325
3830.000000;3.881534
3829.000000;3.982224
3828.000000;4.552200
3827.000000;4.058747
3826.000000;3.775033
3825.000000;3.975971
3824.000000;4.400399
3823.000000;4.334637
3822.000000;4.233829
3821.000000;4.261017
3820.000000;4.290094
3819.000000;4.366299
3818.000000;3.956914
3817.000000;3.656295
3816.000000;3.534827
3815.000000;3.552854
3814.000000;3.673263
3813.000000;3.901716
3812.000000;4.225348
3811.000000;4.315733
3810.000000;4.266762
3809.000000;4.102162
3808.000000;4.092697
3807.000000;4.480644
3806.000000;4.555074
3805.000000;4.225845
3804.000000;4.034618
3803.000000;3.887151
3802.000000;3.773561
3801.000000;3.592173
3800.000000;3.432538
3799.000000;3.322283
3798.000000;3.255321
3797.000000;3.266721
3796.000000;3.387780
3795.000000;3.604954
3794.000000;3.706991
3793.000000;3.729919
3792.000000;3.865229
3791.000000;4.125304
3790.000000;4.608208
3789.000000;4.176432
3788.000000;3.793943
3787.000000;3.653814
3786.000000;3.621514
3785.000000;3.684162
3784.000000;3.819370
3783.000000;4.080407
3782.000000;4.363991
3781.000000;4.054848
3780.000000;3.722511
3779.000000;3.538366
3778.000000;3.477048
3777.000000;3.513424
3776.000000;3.580643
3775.000000;3.572618
3774.000000;3.486370
3773.000000;3.376354
3772.000000;3.261710
3771.000000;3.187260
3770.000000;3.194252
3769.000000;3.275663
3768.000000;3.428928
3767.000000;3.732238
3766.000000;3.902504
3765.000000;3.816697
3764.000000;3.817904
3763.000000;3.744954
3762.000000;3.670167
3761.000000;3.878287
3760.000000;4.378654
3759.000000;3.889313
3758.000000;3.786830
3757.000000;3.985884
3756.000000;4.115006
3755.000000;4.153215
3754.000000;4.147359
3753.000000;4.238165
3752.000000;4.214907
3751.000000;4.036572
3750.000000;4.187869
3749.000000;4.407561
3748.000000;3.887872
3747.000000;3.678822
3746.000000;3.722906
3745.000000;3.704086
3744.000000;3.500286
3743.000000;3.415285
3742.000000;3.438267
3741.000000;3.678621
3740.000000;4.160261
3739.000000;3.805096
3738.000000;3.660220
3737.000000;3.619253
3736.000000;3.608181
3735.000000;3.681318
3734.000000;3.979299
3733.000000;4.220997
3732.000000;3.649678
3731.000000;3.501716
3730.000000;3.552565
3729.000000;3.613887
3728.000000;3.556702
3727.000000;3.580944
3726.000000;3.852030
3725.000000;4.223046
3724.000000;4.256342
3723.000000;3.938084
3722.000000;3.792428
3721.000000;3.979522
3720.000000;4.131088
3719.000000;3.766987
3718.000000;3.752866
3717.000000;3.951432
3716.000000;3.956284
3715.000000;3.871763
3714.000000;3.802241
3713.000000;3.725196
3712.000000;3.847891
3711.000000;3.992097
3710.000000;3.571971
3709.000000;3.397100
3708.000000;3.483582
3707.000000;3.796179
3706.000000;3.936301
3705.000000;3.838276
3704.000000;4.300509
3703.000000;4.319232
3702.000000;3.808043
3701.000000;3.763203
3700.000000;3.779711
3699.000000;3.686649
3698.000000;3.695889
3697.000000;3.923068
3696.000000;4.041190
3695.000000;3.992625
3694.000000;4.158384
3693.000000;4.221068
3692.000000;4.061737
3691.000000;3.896255
3690.000000;3.848213
3689.000000;3.900522
3688.000000;3.850319
3687.000000;3.726865
3686.000000;3.623274
3685.000000;3.569903
3684.000000;3.589311
3683.000000;3.670055
3682.000000;3.744607
3681.000000;3.668255
3680.000000;3.619369
3679.000000;3.683491
3678.000000;3.888044
3677.000000;4.117309
3676.000000;3.921774
3675.000000;3.876156
3674.000000;3.936867
3673.000000;3.896746
3672.000000;3.834427
3671.000000;3.791753
3670.000000;3.669235
3669.000000;3.462740
3668.000000;3.325484
3667.000000;3.304652
3666.000000;3.378519
3665.000000;3.357524
3664.000000;3.240327
3663.000000;3.214516
3662.000000;3.296903
3661.000000;3.429074
3660.000000;3.578490
3659.000000;3.796797
3658.000000;4.186655
3657.000000;4.232734
3656.000000;4.042314
3655.000000;3.983852
3654.000000;3.910616
3653.000000;4.030569
3652.000000;4.226222
3651.000000;4.399679
3650.000000;4.072480
3649.000000;3.715672
3648.000000;3.538322
3647.000000;3.537130
3646.000000;4.109922
3645.000000;4.195835
3644.000000;3.645844
3643.000000;3.695620
3642.000000;3.725523
3641.000000;3.651843
3640.000000;3.574684
3639.000000;3.565308
3638.000000;3.667966
3637.000000;3.752949
3636.000000;3.721030
3635.000000;3.607542
3634.000000;3.607457
3633.000000;3.903744
3632.000000;3.945217
3631.000000;3.521500
3630.000000;3.352262
3629.000000;3.346554
3628.000000;3.424846
3627.000000;3.505470
3626.000000;3.649371
3625.000000;4.027472
3624.000000;3.998200
3623.000000;3.768538
3622.000000;3.758019
3621.000000;3.699079
3620.000000;3.626313
3619.000000;3.547155
3618.000000;3.456992
3617.000000;3.380675
3616.000000;3.345274
3615.000000;3.406270
3614.000000;3.699618
3613.000000;4.284889
3612.000000;4.118655
3611.000000;3.846169
3610.000000;3.599684
3609.000000;3.393568
3608.000000;3.254095
3607.000000;3.156630
3606.000000;3.122418
3605.000000;3.142979
3604.000000;3.239582
3603.000000;3.379649
3602.000000;3.721236
3601.000000;4.374618
3600.000000;3.552040
3599.000000;3.344757
3598.000000;3.386084
3597.000000;3.378552
3596.000000;3.247455
3595.000000;3.196296
3594.000000;3.323432
3593.000000;3.497625
3592.000000;3.431025
3591.000000;3.286388
3590.000000;3.248292
3589.000000;3.310369
3588.000000;3.510645
3587.000000;3.740686
3586.000000;3.765443
3585.000000;3.723185
3584.000000;3.843683
3583.000000;3.981054
3582.000000;3.757608
3581.000000;3.583086
3580.000000;3.543273
3579.000000;3.573313
3578.000000;3.683367
3577.000000;3.667467
3576.000000;3.406180
3575.000000;3.253154
3574.000000;3.243237
3573.000000;3.323037
3572.000000;3.379623
3571.000000;3.384386
3570.000000;3.437561
3569.000000;3.614576
3568.000000;4.167115
3567.000000;4.286897
3566.000000;3.872238
3565.000000;3.658276
3564.000000;3.380131
3563.000000;3.201058
3562.000000;3.132332
3561.000000;3.169818
3560.000000;3.274207
3559.000000;3.393347
3558.000000;3.526656
3557.000000;3.681067
3556.000000;3.799629
3555.000000;3.853463
3554.000000;4.310066
3553.000000;3.930583
3552.000000;3.733276
3551.000000;3.709171
3550.000000;3.284115
3549.000000;3.086584
3548.000000;3.071185
3547.000000;3.147421
3546.000000;3.268417
3545.000000;3.366371
3544.000000;3.407382
3543.000000;3.345722
3542.000000;3.227713
3541.000000;3.137974
3540.000000;3.120746
3539.000000;3.193440
3538.000000;3.378504
3537.000000;3.520538
3536.000000;3.340916
3535.000000;3.175144
3534.000000;3.115341
3533.000000;3.152833
3532.000000;3.285154
3531.000000;3.513944
3530.000000;4.263984
3529.000000;3.737620
3528.000000;3.303078
3527.000000;3.184414
3526.000000;3.289363
3525.000000;3.744484
3524.000000;3.487611
3523.000000;3.256804
3522.000000;3.333203
3521.000000;3.518671
3520.000000;3.885083
3519.000000;4.399572
3518.000000;3.554581
3517.000000;3.331578
3516.000000;3.211732
3515.000000;3.114289
3514.000000;3.106001
3513.000000;3.225871
3512.000000;3.616335
3511.000000;3.820992
3510.000000;3.636648
3509.000000;3.807675
3508.000000;4.075132
3507.000000;3.907317
3506.000000;3.583552
3505.000000;3.385854
3504.000000;3.296894
3503.000000;3.288084
3502.000000;3.325049
3501.000000;3.341000
3500.000000;3.336591
3499.000000;3.302357
3498.000000;3.249471
3497.000000;3.244935
3496.000000;3.290948
3495.000000;3.323370
3494.000000;3.390562
3493.000000;3.569195
3492.000000;3.527273
3491.000000;3.332643
3490.000000;3.300178
3489.000000;3.380073
3488.000000;3.444774
3487.000000;3.442566
3486.000000;3.653901
3485.000000;4.074489
3484.000000;3.637482
3483.000000;3.398704
3482.000000;3.396575
3481.000000;3.665210
3480.000000;4.008444
3479.000000;3.555485
3478.000000;3.358052
3477.000000;3.328213
3476.000000;3.349753
3475.000000;3.440896
3474.000000;3.557682
3473.000000;3.586187
3472.000000;3.630259
3471.000000;3.638564
3470.000000;3.490009
3469.000000;3.395452
3468.000000;3.404575
3467.000000;3.497749
3466.000000;3.623949
3465.000000;3.654183
3464.000000;3.549338
3463.000000;3.525311
3462.000000;3.622190
3461.000000;3.612779
3460.000000;3.625700
3459.000000;3.808369
3458.000000;3.839555
3457.000000;3.702021
3456.000000;3.665692
3455.000000;3.844700
3454.000000;3.932952
3453.000000;3.599711
3452.000000;3.454669
3451.000000;3.509494
3450.000000;3.688928
3449.000000;3.937478
3448.000000;4.020995
3447.000000;3.882925
3446.000000;3.649937
3445.000000;3.396952
3444.000000;3.187477
3443.000000;3.058199
3442.000000;3.031562
3441.000000;3.117759
3440.000000;3.302714
3439.000000;3.620405
3438.000000;3.798050
3437.000000;3.471877
3436.000000;3.358938
3435.000000;3.391472
3434.000000;3.491838
3433.000000;3.601208
3432.000000;3.719425
3431.000000;3.779429
3430.000000;3.728737
3429.000000;3.782287
3428.000000;3.833376
3427.000000;3.617634
3426.000000;3.424033
3425.000000;3.317380
3424.000000;3.231952
3423.000000;3.176100
3422.000000;3.199584
3421.000000;3.289986
3420.000000;3.319194
3419.000000;3.261965
3418.000000;3.279427
3417.000000;3.456201
3416.000000;3.681272
3415.000000;3.630407
3414.000000;3.510901
3413.000000;3.536260
3412.000000;3.619861
3411.000000;3.678023
3410.000000;3.676502
3409.000000;3.486946
3408.000000;3.330490
3407.000000;3.247807
3406.000000;3.235512
3405.000000;3.335787
3404.000000;3.673275
3403.000000;4.000605
3402.000000;4.142830
3401.000000;3.827396
3400.000000;3.365724
3399.000000;3.192792
3398.000000;3.205387
3397.000000;3.463991
3396.000000;4.019448
3395.000000;3.858953
3394.000000;3.689855
3393.000000;3.608992
3392.000000;3.571222
3391.000000;3.560081
3390.000000;3.455478
3389.000000;3.301480
3388.000000;3.190150
3387.000000;3.153720
3386.000000;3.208215
3385.000000;3.350863
3384.000000;3.440691
3383.000000;3.433366
3382.000000;3.508997
3381.000000;3.817179
3380.000000;4.213524
3379.000000;3.657066
3378.000000;3.416477
3377.000000;3.320621
3376.000000;3.257624
3375.000000;3.203825
3374.000000;3.178058
3373.000000;3.209866
3372.000000;3.324544
3371.000000;3.482646
3370.000000;3.405173
3369.000000;3.282901
3368.000000;3.295978
3367.000000;3.486757
3366.000000;4.002999
3365.000000;3.683808
3364.000000;3.581650
3363.000000;3.876432
3362.000000;4.231185
3361.000000;3.519616
3360.000000;3.272821
3359.000000;3.233029
3358.000000;3.362817
3357.000000;3.583603
3356.000000;3.861047
3355.000000;3.755434
3354.000000;3.344102
3353.000000;3.183846
3352.000000;3.173307
3351.000000;3.245630
3350.000000;3.236885
3349.000000;3.130972
3348.000000;3.041658
3347.000000;3.000500
3346.000000;3.007574
3345.000000;3.049341
3344.000000;3.102356
3343.000000;3.161759
3342.000000;3.275690
3341.000000;3.520515
3340.000000;3.969608
3339.000000;3.692451
3338.000000;3.416743
3337.000000;3.262729
3336.000000;3.235062
3335.000000;3.455745
3334.000000;3.997903
3333.000000;3.458468
3332.000000;3.269348
3331.000000;3.167505
3330.000000;3.143918
3329.000000;3.234655
3328.000000;3.469817
3327.000000;3.749800
3326.000000;3.830790
3325.000000;3.678612
3324.000000;3.495829
3323.000000;3.494658
3322.000000;3.689163
3321.000000;3.967608
3320.000000;4.031738
3319.000000;3.798503
3318.000000;3.583082
3317.000000;3.536221
3316.000000;3.604305
3315.000000;3.682102
3314.000000;3.648368
3313.000000;3.531884
3312.000000;3.644814
3311.000000;3.791071
3310.000000;3.328560
3309.000000;3.161576
3308.000000;3.151899
3307.000000;3.206684
3306.000000;3.295143
3305.000000;3.449587
3304.000000;3.674969
3303.000000;3.821545
3302.000000;3.634657
3301.000000;3.394256
3300.000000;3.235634
3299.000000;3.141645
3298.000000;3.129768
3297.000000;3.205811
3296.000000;3.339679
3295.000000;3.455560
3294.000000;3.421062
3293.000000;3.260034
3292.000000;3.115218
3291.000000;3.059188
3290.000000;3.136037
3289.000000;3.356823
3288.000000;3.486709
3287.000000;3.738915
3286.000000;3.821997
3285.000000;3.476633
3284.000000;3.324046
3283.000000;3.232322
3282.000000;3.238986
3281.000000;3.426692
3280.000000;3.316988
3279.000000;3.062065
3278.000000;3.012973
3277.000000;3.087229
3276.000000;3.251182
3275.000000;3.438321
3274.000000;3.333195
3273.000000;3.109682
3272.000000;2.996957
3271.000000;2.977533
3270.000000;3.027852
3269.000000;3.107858
3268.000000;3.199315
3267.000000;3.284362
3266.000000;3.313725
3265.000000;3.351471
3264.000000;3.459495
3263.000000;3.488596
3262.000000;3.425660
3261.000000;3.342850
3260.000000;3.237307
3259.000000;3.154440
3258.000000;3.133258
3257.000000;3.182988
3256.000000;3.310945
3255.000000;3.615462
3254.000000;3.471979
3253.000000;3.196427
3252.000000;3.193191
3251.000000;3.443122
3250.000000;3.662530
3249.000000;3.361701
3248.000000;3.230671
3247.000000;3.172271
3246.000000;3.194905
3245.000000;3.244663
3244.000000;3.289986
3243.000000;3.375285
3242.000000;3.471731
3241.000000;3.435790
3240.000000;3.324255
3239.000000;3.235157
3238.000000;3.214054
3237.000000;3.263102
3236.000000;3.341329
3235.000000;3.503342
3234.000000;3.850228
3233.000000;3.728068
3232.000000;3.488738
3231.000000;3.473995
3230.000000;3.891760
3229.000000;3.861657
3228.000000;3.661349
3227.000000;3.580059
3226.000000;3.424498
3225.000000;3.437479
3224.000000;3.514311
3223.000000;3.444593
3222.000000;3.620930
3221.000000;4.003308
3220.000000;3.541519
3219.000000;3.543421
3218.000000;3.488759
3217.000000;3.296250
3216.000000;3.156582
3215.000000;3.078326
3214.000000;3.095248
3213.000000;3.241359
3212.000000;3.521842
3211.000000;3.940640
3210.000000;4.066602
3209.000000;3.621045
3208.000000;3.345359
3207.000000;3.245580
3206.000000;3.276404
3205.000000;3.426692
3204.000000;3.654093
3203.000000;3.955394
3202.000000;3.978109
3201.000000;3.684808
3200.000000;3.663543
3199.000000;3.757698
3198.000000;3.466121
3197.000000;3.194147
3196.000000;3.053672
3195.000000;2.994635
3194.000000;2.989537
3193.000000;3.015780
3192.000000;3.057563
3191.000000;3.140585
3190.000000;3.304257
3189.000000;3.809995
3188.000000;3.543925
3187.000000;3.222013
3186.000000;3.312313
3185.000000;3.577835
3184.000000;3.483536
3183.000000;3.245105
3182.000000;3.132365
3181.000000;3.095519
3180.000000;3.183949
3179.000000;3.566913
3178.000000;3.635531
3177.000000;3.381037
3176.000000;3.323562
3175.000000;3.353824
3174.000000;3.460135
3173.000000;3.569321
3172.000000;3.581174
3171.000000;3.662859
3170.000000;4.091079
3169.000000;3.485322
3168.000000;3.173570
3167.000000;3.127903
3166.000000;3.304541
3165.000000;3.866147
3164.000000;4.408707
3163.000000;4.058451
3162.000000;3.739128
3161.000000;3.570480
3160.000000;3.619811
3159.000000;3.692387
3158.000000;3.701532
3157.000000;3.462383
3156.000000;3.387310
3155.000000;3.311369
3154.000000;3.203483
3153.000000;3.195902
3152.000000;3.234819
3151.000000;3.207495
3150.000000;3.108456
3149.000000;3.092447
3148.000000;3.251032
3147.000000;4.087739
3146.000000;3.291654
3145.000000;3.114690
3144.000000;3.303512
3143.000000;4.199889
3142.000000;3.148598
3141.000000;2.998964
3140.000000;2.973429
3139.000000;3.029838
3138.000000;3.059127
3137.000000;3.067488
3136.000000;3.105445
3135.000000;3.243767
3134.000000;3.440511
3133.000000;3.410397
3132.000000;3.358279
3131.000000;3.396135
3130.000000;3.462538
3129.000000;3.602415
3128.000000;3.659991
3127.000000;3.463155
3126.000000;3.363334
3125.000000;3.515261
3124.000000;4.067551
3123.000000;3.996330
3122.000000;4.032962
3121.000000;3.715245
3120.000000;3.352091
3119.000000;3.165736
3118.000000;3.127927
3117.000000;3.207450
3116.000000;3.355856
3115.000000;3.362037
3114.000000;3.287320
3113.000000;3.333960
3112.000000;3.588844
3111.000000;3.990511
3110.000000;3.719064
3109.000000;3.674309
3108.000000;3.755792
3107.000000;3.528644
3106.000000;3.367172
3105.000000;3.365700
3104.000000;3.378564
3103.000000;3.381123
3102.000000;3.431351
3101.000000;4.045601
3100.000000;3.692291
3099.000000;3.292075
3098.000000;3.168463
3097.000000;3.128108
3096.000000;3.159829
3095.000000;3.297771
3094.000000;3.680635
3093.000000;3.925737
3092.000000;3.702144
3091.000000;3.936852
3090.000000;3.476799
3089.000000;3.322229
3088.000000;3.484532
3087.000000;3.792886
3086.000000;3.555277
3085.000000;3.505013
3084.000000;3.553735
3083.000000;3.558349
3082.000000;3.479671
3081.000000;3.270458
3080.000000;3.031724
3079.000000;2.909279
3078.000000;2.924918
3077.000000;3.065702
3076.000000;3.302476
3075.000000;3.652039
3074.000000;3.729164
3073.000000;3.521966
3072.000000;3.403499
3071.000000;3.353553
3070.000000;3.390256
3069.000000;3.514643
3068.000000;3.548247
3067.000000;3.442557
3066.000000;3.368018
3065.000000;3.434683
3064.000000;3.826512
3063.000000;3.909563
3062.000000;3.538768
3061.000000;3.561731
3060.000000;3.594798
3059.000000;3.481122
3058.000000;3.331744
3057.000000;3.280670
3056.000000;3.334310
3055.000000;3.425568
3054.000000;3.425338
3053.000000;3.301463
3052.000000;3.206917
3051.000000;3.242481
3050.000000;3.411871
3049.000000;3.679602
3048.000000;3.890752
3047.000000;4.254823
3046.000000;3.806470
3045.000000;3.563050
3044.000000;3.594914
3043.000000;3.421397
3042.000000;3.178765
3041.000000;3.023488
3040.000000;2.970813
3039.000000;3.052547
3038.000000;3.315928
3037.000000;3.896594
3036.000000;4.235274
3035.000000;3.673659
3034.000000;3.526686
3033.000000;3.529543
3032.000000;3.483642
3031.000000;3.328584
3030.000000;3.201485
3029.000000;3.100373
3028.000000;3.056042
3027.000000;3.104024
3026.000000;3.254552
3025.000000;3.363379
3024.000000;3.265624
3023.000000;3.192290
3022.000000;3.205213
3021.000000;3.212672
3020.000000;3.187990
3019.000000;3.217312
3018.000000;3.630298
3017.000000;3.568683
3016.000000;3.188981
3015.000000;3.123682
3014.000000;3.189485
3013.000000;3.323707
3012.000000;3.556400
3011.000000;3.611145
3010.000000;3.312887
3009.000000;3.195255
3008.000000;3.234626
3007.000000;3.469812
3006.000000;3.657355
3005.000000;3.325152
3004.000000;3.164339
3003.000000;3.156584
3002.000000;3.492467
3001.000000;3.899448
3000.000000;3.404140
2999.000000;3.277817
2998.000000;3.204833
2997.000000;3.148406
2996.000000;3.140924
2995.000000;3.184448
2994.000000;3.253678
2993.000000;3.321909
2992.000000;3.372153
2991.000000;3.340989
2990.000000;3.283745
2989.000000;3.255968
2988.000000;3.341214
2987.000000;3.681063
2986.000000;3.283636
2985.000000;3.024189
2984.000000;2.978004
2983.000000;3.102337
2982.000000;3.450434
2981.000000;3.379603
2980.000000;3.123845
2979.000000;3.117617
2978.000000;3.190869
2977.000000;3.247956
2976.000000;3.291852
2975.000000;3.353750
2974.000000;3.397060
2973.000000;3.362904
2972.000000;3.221824
2971.000000;3.106421
2970.000000;3.120710
2969.000000;3.333588
2968.000000;3.892580
2967.000000;3.533275
2966.000000;3.284237
2965.000000;3.315977
2964.000000;3.465083
2963.000000;3.603655
2962.000000;3.501459
2961.000000;3.371042
2960.000000;3.427554
2959.000000;3.720413
2958.000000;3.592285
2957.000000;3.389872
2956.000000;3.278961
2955.000000;3.185685
2954.000000;3.161232
2953.000000;3.238728
2952.000000;3.429450
2951.000000;3.835208
2950.000000;3.960313
2949.000000;3.586424
2948.000000;3.889003
2947.000000;3.919019
2946.000000;3.415679
2945.000000;3.307634
2944.000000;3.287626
2943.000000;3.345899
2942.000000;3.568788
2941.000000;3.563041
2940.000000;3.455820
2939.000000;3.796924
2938.000000;3.434033
2937.000000;3.145092
2936.000000;3.119047
2935.000000;3.148986
2934.000000;3.098151
2933.000000;3.004667
2932.000000;2.994742
2931.000000;3.109119
2930.000000;3.335324
2929.000000;3.491056
2928.000000;3.418703
2927.000000;3.345388
2926.000000;3.311243
2925.000000;3.250691
2924.000000;3.186768
2923.000000;3.176938
2922.000000;3.226683
2921.000000;3.321625
2920.000000;3.420331
2919.000000;3.427664
2918.000000;3.363607
2917.000000;3.303128
2916.000000;3.258480
2915.000000;3.283500
2914.000000;3.417948
2913.000000;3.676851
2912.000000;3.707181
2911.000000;3.428904
2910.000000;3.290567
2909.000000;3.469435
2908.000000;3.871134
2907.000000;3.286978
2906.000000;3.118047
2905.000000;3.161719
2904.000000;3.254648
2903.000000;3.262359
2902.000000;3.199368
2901.000000;3.209001
2900.000000;3.452642
2899.000000;3.858181
2898.000000;3.393651
2897.000000;3.241622
2896.000000;3.349156
2895.000000;3.531963
2894.000000;3.464640
2893.000000;3.381455
2892.000000;3.375828
2891.000000;3.309782
2890.000000;3.225131
2889.000000;3.193034
2888.000000;3.235718
2887.000000;3.298586
2886.000000;3.265915
2885.000000;3.134830
2884.000000;3.040609
2883.000000;3.050057
2882.000000;3.148127
2881.000000;3.241947
2880.000000;3.190493
2879.000000;3.084573
2878.000000;3.045458
2877.000000;3.047756
2876.000000;3.034078
2875.000000;3.004668
2874.000000;2.973314
2873.000000;2.931292
2872.000000;2.926820
2871.000000;3.011697
2870.000000;3.209704
2869.000000;3.734891
2868.000000;3.741745
2867.000000;3.278531
2866.000000;3.224558
2865.000000;3.325027
2864.000000;3.709916
2863.000000;4.339517
2862.000000;3.782892
2861.000000;3.363300
2860.000000;3.185325
2859.000000;3.191530
2858.000000;3.366133
2857.000000;3.565486
2856.000000;3.309922
2855.000000;3.162380
2854.000000;3.206166
2853.000000;3.312372
2852.000000;3.329466
2851.000000;3.224217
2850.000000;3.138744
2849.000000;3.131020
2848.000000;3.215919
2847.000000;3.346668
2846.000000;3.409207
2845.000000;3.422791
2844.000000;3.440453
2843.000000;3.520212
2842.000000;3.569720
2841.000000;3.333497
2840.000000;3.164895
2839.000000;3.170565
2838.000000;3.231433
2837.000000;3.284648
2836.000000;3.374246
2835.000000;3.448475
2834.000000;3.482978
2833.000000;3.539946
2832.000000;3.591148
2831.000000;3.627429
2830.000000;3.719045
2829.000000;3.646507
2828.000000;3.400892
2827.000000;3.244938
2826.000000;3.193723
2825.000000;3.238934
2824.000000;3.321571
2823.000000;3.373414
2822.000000;3.429993
2821.000000;3.458578
2820.000000;3.383947
2819.000000;3.226513
2818.000000;3.135160
2817.000000;3.166252
2816.000000;3.369014
2815.000000;3.701054
2814.000000;3.547933
2813.000000;3.309385
2812.000000;3.214611
2811.000000;3.202085
2810.000000;3.269838
2809.000000;3.380081
2808.000000;3.438201
2807.000000;3.359066
2806.000000;3.308257
2805.000000;3.469406
2804.000000;3.540824
2803.000000;3.313722
2802.000000;3.301535
2801.000000;3.474518
2800.000000;3.392790
2799.000000;3.236884
2798.000000;3.238053
2797.000000;3.380103
2796.000000;3.557478
2795.000000;3.480065
2794.000000;3.273927
2793.000000;3.117808
2792.000000;3.050152
2791.000000;3.031114
2790.000000;2.970832
2789.000000;2.914844
2788.000000;2.910470
2787.000000;2.946443
2786.000000;3.020639
2785.000000;3.177693
2784.000000;3.518442
2783.000000;3.576119
2782.000000;3.323096
2781.000000;3.313672
2780.000000;3.343317
2779.000000;3.247663
2778.000000;3.169770
2777.000000;3.255137
2776.000000;3.524907
2775.000000;3.452345
2774.000000;3.286170
2773.000000;3.331315
2772.000000;3.507089
2771.000000;3.732963
2770.000000;3.878305
2769.000000;3.839464
2768.000000;3.630248
2767.000000;3.464297
2766.000000;3.358126
2765.000000;3.305567
2764.000000;3.580274
2763.000000;3.904590
2762.000000;3.456395
2761.000000;3.350412
2760.000000;3.233356
2759.000000;3.114076
2758.000000;3.099826
2757.000000;3.141996
2756.000000;3.222835
2755.000000;3.353424
2754.000000;3.552674
2753.000000;3.640556
2752.000000;3.696154
2751.000000;3.695203
2750.000000;3.460667
2749.000000;3.317108
2748.000000;3.315201
2747.000000;3.373757
2746.000000;3.442822
2745.000000;3.473460
2744.000000;3.468313
2743.000000;3.478599
2742.000000;3.556155
2741.000000;3.694351
2740.000000;3.637222
2739.000000;3.508486
2738.000000;3.406428
2737.000000;3.258780
2736.000000;3.178309
2735.000000;3.270383
2734.000000;3.544338
2733.000000;3.759464
2732.000000;3.815336
2731.000000;3.563655
2730.000000;3.282196
2729.000000;3.239078
2728.000000;3.301650
2727.000000;3.558619
2726.000000;4.025673
2725.000000;3.637250
2724.000000;3.395653
2723.000000;3.513886
2722.000000;4.146577
2721.000000;3.751552
2720.000000;3.523177
2719.000000;3.668475
2718.000000;3.812327
2717.000000;4.031161
2716.000000;4.210457
2715.000000;3.890383
2714.000000;3.786033
2713.000000;3.735809
2712.000000;3.302828
2711.000000;3.004234
2710.000000;2.870536
2709.000000;2.850950
2708.000000;2.928321
2707.000000;3.087603
2706.000000;3.331701
2705.000000;3.540382
2704.000000;3.662459
2703.000000;4.137207
2702.000000;4.052117
2701.000000;3.608669
2700.000000;3.470724
2699.000000;3.424801
2698.000000;3.499693
2697.000000;3.474183
2696.000000;3.380614
2695.000000;3.353820
2694.000000;3.463784
2693.000000;3.933103
2692.000000;3.790583
2691.000000;3.460329
2690.000000;3.432283
2689.000000;3.501903
2688.000000;3.574745
2687.000000;3.500253
2686.000000;3.394671
2685.000000;3.389949
2684.000000;3.467530
2683.000000;3.602730
2682.000000;3.714124
2681.000000;3.642688
2680.000000;3.617094
2679.000000;3.675907
2678.000000;3.529693
2677.000000;3.416682
2676.000000;3.538681
2675.000000;3.580424
2674.000000;3.340856
2673.000000;3.190508
2672.000000;3.149293
2671.000000;3.184641
2670.000000;3.299253
2669.000000;3.455297
2668.000000;3.585377
2667.000000;3.635039
2666.000000;3.725352
2665.000000;3.777346
2664.000000;3.552282
2663.000000;3.338409
2662.000000;3.386989
2661.000000;3.546942
2660.000000;3.304927
2659.000000;3.166554
2658.000000;3.176103
2657.000000;3.227384
2656.000000;3.360458
2655.000000;3.510933
2654.000000;3.527714
2653.000000;3.403624
2652.000000;3.281053
2651.000000;3.240916
2650.000000;3.420636
2649.000000;3.757263
2648.000000;3.627917
2647.000000;3.541796
2646.000000;3.772251
2645.000000;4.239603
2644.000000;3.844022
2643.000000;3.783215
2642.000000;4.024163
2641.000000;3.584279
2640.000000;3.301169
2639.000000;3.149964
2638.000000;3.048685
2637.000000;2.998255
2636.000000;2.997251
2635.000000;3.058091
2634.000000;3.158589
2633.000000;3.242041
2632.000000;3.265649
2631.000000;3.248635
2630.000000;3.232724
2629.000000;3.272475
2628.000000;3.481119
2627.000000;3.888164
2626.000000;3.692097
2625.000000;3.513092
2624.000000;3.497320
2623.000000;3.541993
2622.000000;4.036762
2621.000000;3.769154
2620.000000;3.355658
2619.000000;3.306370
2618.000000;3.279505
2617.000000;3.200736
2616.000000;3.148474
2615.000000;3.196729
2614.000000;3.384188
2613.000000;3.660013
2612.000000;3.631071
2611.000000;3.417662
2610.000000;3.298701
2609.000000;3.254063
2608.000000;3.236134
2607.000000;3.212509
2606.000000;3.241923
2605.000000;3.364246
2604.000000;3.732914
2603.000000;4.343306
2602.000000;3.840258
2601.000000;3.565407
2600.000000;3.392749
2599.000000;3.306899
2598.000000;3.331209
2597.000000;3.501906
2596.000000;3.691671
2595.000000;3.542691
2594.000000;3.469386
2593.000000;3.581502
2592.000000;3.683233
2591.000000;3.650218
2590.000000;3.524257
2589.000000;3.378893
2588.000000;3.313168
2587.000000;3.313090
2586.000000;3.333886
2585.000000;3.372777
2584.000000;3.452337
2583.000000;3.518801
2582.000000;3.485557
2581.000000;3.419087
2580.000000;3.280134
2579.000000;3.161837
2578.000000;3.163568
2577.000000;3.447808
2576.000000;4.081921
2575.000000;3.794907
2574.000000;3.735092
2573.000000;3.618769
2572.000000;3.503923
2571.000000;3.592292
2570.000000;3.857521
2569.000000;4.213015
2568.000000;4.046705
2567.000000;3.736266
2566.000000;3.373163
2565.000000;3.129415
2564.000000;3.057104
2563.000000;3.117744
2562.000000;3.282099
2561.000000;3.453856
2560.000000;3.679508
2559.000000;4.294472
2558.000000;3.708295
2557.000000;3.321600
2556.000000;3.154409
2555.000000;3.062734
2554.000000;3.050179
2553.000000;3.128679
2552.000000;3.313940
2551.000000;3.473856
2550.000000;3.457952
2549.000000;3.368648
2548.000000;3.280410
2547.000000;3.211106
2546.000000;3.171569
2545.000000;3.161239
2544.000000;3.166864
2543.000000;3.206936
2542.000000;3.286157
2541.000000;3.374062
2540.000000;3.463919
2539.000000;3.528603
2538.000000;3.603161
2537.000000;3.492015
2536.000000;3.269947
2535.000000;3.190910
2534.000000;3.227763
2533.000000;3.315347
2532.000000;3.367319
2531.000000;3.377309
2530.000000;3.363644
2529.000000;3.273349
2528.000000;3.239579
2527.000000;3.329787
2526.000000;3.428240
2525.000000;3.398123
2524.000000;3.383476
2523.000000;3.535187
2522.000000;3.731948
2521.000000;3.644885
2520.000000;3.549218
2519.000000;3.480316
2518.000000;3.370257
2517.000000;3.294568
2516.000000;3.316033
2515.000000;3.546497
2514.000000;3.768958
2513.000000;3.507182
2512.000000;3.380973
2511.000000;3.406740
2510.000000;3.517450
2509.000000;3.629954
2508.000000;3.576262
2507.000000;3.556984
2506.000000;3.452455
2505.000000;3.198184
2504.000000;3.028194
2503.000000;2.984771
2502.000000;3.041883
2501.000000;3.154421
2500.000000;3.283887
2499.000000;3.405317
2498.000000;3.447623
2497.000000;3.390538
2496.000000;3.324177
2495.000000;3.291179
2494.000000;3.275226
2493.000000;3.243255
2492.000000;3.208283
2491.000000;3.171242
2490.000000;3.158265
2489.000000;3.172812
2488.000000;3.282283
2487.000000;3.595459
2486.000000;3.541214
2485.000000;3.344070
2484.000000;3.454593
2483.000000;3.942581
2482.000000;3.983120
2481.000000;3.719582
2480.000000;3.867682
2479.000000;3.719274
2478.000000;3.449527
2477.000000;3.388914
2476.000000;3.493197
2475.000000;3.886291
2474.000000;4.332588
2473.000000;3.700342
2472.000000;3.536213
2471.000000;3.629154
2470.000000;3.775059
2469.000000;3.734986
2468.000000;3.705023
2467.000000;3.750091
2466.000000;3.979144
2465.000000;3.891456
2464.000000;3.462866
2463.000000;3.317388
2462.000000;3.339771
2461.000000;3.450975
2460.000000;3.600424
2459.000000;3.855577
2458.000000;4.122521
2457.000000;4.210923
2456.000000;3.958676
2455.000000;3.685242
2454.000000;3.631561
2453.000000;3.695111
2452.000000;3.748851
2451.000000;3.753189
2450.000000;3.698556
2449.000000;3.519451
2448.000000;3.344226
2447.000000;3.238361
2446.000000;3.185643
2445.000000;3.194209
2444.000000;3.298857
2443.000000;3.476675
2442.000000;3.566961
2441.000000;3.598558
2440.000000;3.832446
2439.000000;3.839808
2438.000000;3.463998
2437.000000;3.322262
2436.000000;3.329101
2435.000000;3.387809
2434.000000;3.338784
2433.000000;3.215807
2432.000000;3.174104
2431.000000;3.226203
2430.000000;3.392221
2429.000000;3.872735
2428.000000;3.999524
2427.000000;3.654636
2426.000000;3.578558
2425.000000;3.496382
2424.000000;3.406452
2423.000000;3.391313
2422.000000;3.481328
2421.000000;3.683676
2420.000000;3.648319
2419.000000;3.385799
2418.000000;3.264274
2417.000000;3.257777
2416.000000;3.287037
2415.000000;3.246747
2414.000000;3.194608
2413.000000;3.213421
2412.000000;3.297685
2411.000000;3.552916
2410.000000;3.808307
2409.000000;3.621791
2408.000000;3.629143
2407.000000;3.769754
2406.000000;3.824256
2405.000000;3.707198
2404.000000;3.446451
2403.000000;3.259332
2402.000000;3.170850
2401.000000;3.150106
2400.000000;3.180682
2399.000000;3.263207
2398.000000;3.398085
2397.000000;3.509657
2396.000000;3.477905
2395.000000;3.377600
2394.000000;3.324271
2393.000000;3.355595
2392.000000;3.402637
2391.000000;3.365106
2390.000000;3.343338
2389.000000;3.619951
2388.000000;4.017056
2387.000000;3.427165
2386.000000;3.265641
2385.000000;3.248053
2384.000000;3.365876
2383.000000;3.792266
2382.000000;4.482798
2381.000000;4.274931
2380.000000;3.807270
2379.000000;3.342266
2378.000000;3.087179
2377.000000;3.010972
2376.000000;3.097157
2375.000000;3.417832
2374.000000;3.984666
2373.000000;3.586414
2372.000000;3.354074
2371.000000;3.220325
2370.000000;3.156808
2369.000000;3.255044
2368.000000;3.341293
2367.000000;3.324171
2366.000000;3.429096
2365.000000;3.564324
2364.000000;3.513952
2363.000000;3.439834
2362.000000;3.399911
2361.000000;3.335101
2360.000000;3.276858
2359.000000;3.254832
2358.000000;3.226985
2357.000000;3.191948
2356.000000;3.204682
2355.000000;3.301022
2354.000000;3.460824
2353.000000;3.441009
2352.000000;3.314058
2351.000000;3.278048
2350.000000;3.339571
2349.000000;3.750458
2348.000000;3.649855
2347.000000;3.303097
2346.000000;3.237757
2345.000000;3.288108
2344.000000;3.406882
2343.000000;3.624112
2342.000000;3.960053
2341.000000;3.883822
2340.000000;3.549502
2339.000000;3.343146
2338.000000;3.284036
2337.000000;3.333618
2336.000000;3.391459
2335.000000;3.388749
2334.000000;3.341476
2333.000000;3.305617
2332.000000;3.407286
2331.000000;3.677770
2330.000000;3.588395
2329.000000;3.445924
2328.000000;3.464700
2327.000000;3.620340
2326.000000;4.010790
2325.000000;3.597462
2324.000000;3.369319
2323.000000;3.351506
2322.000000;3.327410
2321.000000;3.342916
2320.000000;3.437635
2319.000000;3.676155
2318.000000;3.546122
2317.000000;3.274047
2316.000000;3.146237
2315.000000;3.130598
2314.000000;3.238914
2313.000000;3.354858
2312.000000;3.326670
2311.000000;3.443127
2310.000000;3.806637
2309.000000;3.892217
2308.000000;3.387294
2307.000000;3.230311
2306.000000;3.200086
2305.000000;3.184596
2304.000000;3.164996
2303.000000;3.198190
2302.000000;3.275423
2301.000000;3.469874
2300.000000;3.768343
2299.000000;3.418333
2298.000000;3.210537
2297.000000;3.280462
2296.000000;3.491039
2295.000000;3.376585
2294.000000;3.175461
2293.000000;3.084174
2292.000000;3.074231
2291.000000;3.157928
2290.000000;3.322768
2289.000000;3.557596
2288.000000;3.869280
2287.000000;4.150017
2286.000000;4.344364
2285.000000;4.941497
2284.000000;4.025957
2283.000000;3.740302
2282.000000;3.589469
2281.000000;3.511900
2280.000000;3.656588
2279.000000;4.050278
2278.000000;3.638486
2277.000000;3.381477
2276.000000;3.321195
2275.000000;3.334240
2274.000000;3.399780
2273.000000;3.521869
2272.000000;3.697366
2271.000000;3.849472
2270.000000;3.954205
2269.000000;3.935950
2268.000000;3.728404
2267.000000;3.523201
2266.000000;3.426243
2265.000000;3.448291
2264.000000;3.526148
2263.000000;3.537696
2262.000000;3.504924
2261.000000;3.466522
2260.000000;3.399429
2259.000000;3.387655
2258.000000;3.604649
2257.000000;4.439308
2256.000000;3.660606
2255.000000;3.440333
2254.000000;3.325295
2253.000000;3.312163
2252.000000;3.378247
2251.000000;3.580574
2250.000000;3.965779
2249.000000;3.831675
2248.000000;3.621316
2247.000000;3.642603
2246.000000;3.869943
2245.000000;4.020422
2244.000000;3.840985
2243.000000;3.799858
2242.000000;4.218871
2241.000000;3.860342
2240.000000;3.494147
2239.000000;3.432267
2238.000000;3.561488
2237.000000;3.604772
2236.000000;3.491045
2235.000000;3.526608
2234.000000;3.699668
2233.000000;3.968584
2232.000000;3.992784
2231.000000;3.785903
2230.000000;3.814823
2229.000000;4.123409
2228.000000;4.066536
2227.000000;3.828851
2226.000000;3.792289
2225.000000;3.711562
2224.000000;3.663137
2223.000000;3.733718
2222.000000;3.916574
2221.000000;4.342559
2220.000000;4.443170
2219.000000;3.928132
2218.000000;3.739269
2217.000000;3.692278
2216.000000;3.595781
2215.000000;3.465469
2214.000000;3.418740
2213.000000;3.443874
2212.000000;3.551105
2211.000000;3.781557
2210.000000;4.186634
2209.000000;4.411132
2208.000000;3.877592
2207.000000;3.676805
2206.000000;3.619518
2205.000000;3.597492
2204.000000;3.578777
2203.000000;3.619600
2202.000000;3.784426
2201.000000;4.073436
2200.000000;4.052042
2199.000000;3.822962
2198.000000;3.758401
2197.000000;4.053585
2196.000000;4.100715
2195.000000;3.634936
2194.000000;3.496621
2193.000000;3.434447
2192.000000;3.440196
2191.000000;3.474018
2190.000000;3.533260
2189.000000;3.603182
2188.000000;3.643620
2187.000000;3.620879
2186.000000;3.617277
2185.000000;3.631588
2184.000000;3.570641
2183.000000;3.553967
2182.000000;3.900068
2181.000000;3.881764
2180.000000;3.490560
2179.000000;3.467098
2178.000000;3.744824
2177.000000;4.069556
2176.000000;3.542640
2175.000000;3.480198
2174.000000;3.565896
2173.000000;3.814450
2172.000000;4.325526
2171.000000;4.079087
2170.000000;3.736220
2169.000000;3.637882
2168.000000;3.784617
2167.000000;4.048369
2166.000000;3.654793
2165.000000;3.495704
2164.000000;3.591278
2163.000000;3.841931
2162.000000;3.855702
2161.000000;3.686182
2160.000000;3.664392
2159.000000;3.756337
2158.000000;4.636492
2157.000000;3.787303
2156.000000;3.453951
2155.000000;3.399024
2154.000000;3.541153
2153.000000;3.835575
2152.000000;3.609381
2151.000000;3.586095
2150.000000;3.716339
2149.000000;3.680560
2148.000000;3.601231
2147.000000;3.623558
2146.000000;3.613014
2145.000000;3.427490
2144.000000;3.297190
2143.000000;3.276234
2142.000000;3.346003
2141.000000;3.469285
2140.000000;3.598957
2139.000000;3.640047
2138.000000;3.560328
2137.000000;3.515796
2136.000000;3.564661
2135.000000;3.764039
2134.000000;4.124936
2133.000000;3.728745
2132.000000;3.455365
2131.000000;3.340812
2130.000000;3.308310
2129.000000;3.363434
2128.000000;3.474272
2127.000000;3.483732
2126.000000;3.370927
2125.000000;3.310691
2124.000000;3.312339
2123.000000;3.335259
2122.000000;3.365041
2121.000000;3.374296
2120.000000;3.352603
2119.000000;3.352968
2118.000000;3.375918
2117.000000;3.438309
2116.000000;3.566398
2115.000000;3.689925
2114.000000;3.721507
2113.000000;3.769632
2112.000000;3.961292
2111.000000;3.988502
2110.000000;3.732560
2109.000000;3.494587
2108.000000;3.329839
2107.000000;3.307544
2106.000000;3.495154
2105.000000;3.922988
2104.000000;3.582746
2103.000000;3.415489
2102.000000;3.421402
2101.000000;3.508343
2100.000000;3.822111
2099.000000;4.105823
2098.000000;3.644490
2097.000000;3.613794
2096.000000;3.712967
2095.000000;3.739311
2094.000000;3.662750
2093.000000;3.628918
2092.000000;3.644615
2091.000000;3.632388
2090.000000;3.594269
2089.000000;3.579224
2088.000000;3.637722
2087.000000;3.739203
2086.000000;3.775873
2085.000000;3.865023
2084.000000;4.028591
2083.000000;3.898486
2082.000000;3.672602
2081.000000;3.581479
2080.000000;3.586738
2079.000000;3.623196
2078.000000;3.657346
2077.000000;3.636174
2076.000000;3.516472
2075.000000;3.397193
2074.000000;3.337573
2073.000000;3.350817
2072.000000;3.401879
2071.000000;3.418779
2070.000000;3.373099
2069.000000;3.339137
2068.000000;3.410349
2067.000000;3.528898
2066.000000;3.476420
2065.000000;3.452685
2064.000000;3.496762
2063.000000;3.548150
2062.000000;3.631378
2061.000000;3.986090
2060.000000;4.193359
2059.000000;3.637653
2058.000000;3.426129
2057.000000;3.330065
2056.000000;3.343478
2055.000000;3.465023
2054.000000;3.669031
2053.000000;3.781170
2052.000000;3.766549
2051.000000;3.702978
2050.000000;3.573459
2049.000000;3.437236
2048.000000;3.350934
2047.000000;3.350307
2046.000000;3.429513
2045.000000;3.515683
2044.000000;3.504420
2043.000000;3.413094
2042.000000;3.329545
2041.000000;3.311640
2040.000000;3.388316
2039.000000;3.562560
2038.000000;3.827048
2037.000000;4.025690
2036.000000;3.771062
2035.000000;3.509546
2034.000000;3.368187
2033.000000;3.317749
2032.000000;3.345155
2031.000000;3.451700
2030.000000;3.670495
2029.000000;4.094031
2028.000000;4.010079
2027.000000;3.913634
2026.000000;4.172340
2025.000000;4.184506
2024.000000;4.143247
2023.000000;4.134606
2022.000000;4.122506
2021.000000;3.980331
2020.000000;3.699483
2019.000000;3.586190
2018.000000;3.598098
2017.000000;3.654400
2016.000000;3.696901
2015.000000;3.670399
2014.000000;3.595514
2013.000000;3.509914
2012.000000;3.442618
2011.000000;3.483650
2010.000000;3.710665
2009.000000;3.697346
2008.000000;3.457547
2007.000000;3.428410
2006.000000;3.522666
2005.000000;3.653572
2004.000000;3.937921
2003.000000;3.943406
2002.000000;3.618081
2001.000000;3.595099
2000.000000;3.880662
1999.000000;4.058460
1998.000000;3.748859
1997.000000;3.598312
1996.000000;3.575340
1995.000000;3.664664
1994.000000;3.788208
1993.000000;3.809861
1992.000000;3.829772
1991.000000;3.958352
1990.000000;4.001957
1989.000000;3.669672
1988.000000;3.429208
1987.000000;3.333889
1986.000000;3.373218
1985.000000;3.508532
1984.000000;3.575233
1983.000000;3.545989
1982.000000;3.565715
1981.000000;3.626847
1980.000000;3.719138
1979.000000;4.000957
1978.000000;4.386576
1977.000000;3.986598
1976.000000;3.734608
1975.000000;3.583044
1974.000000;3.490271
1973.000000;3.495874
1972.000000;3.587944
1971.000000;3.661372
1970.000000;3.570491
1969.000000;3.412619
1968.000000;3.328340
1967.000000;3.372517
1966.000000;3.598430
1965.000000;3.836146
1964.000000;3.649091
1963.000000;3.554694
1962.000000;3.516680
1961.000000;3.487097
1960.000000;3.505443
1959.000000;3.583082
1958.000000;3.637659
1957.000000;3.610808
1956.000000;3.587622
1955.000000;3.712540
1954.000000;4.072009
1953.000000;3.960356
1952.000000;3.701275
1951.000000;3.660022
1950.000000;3.793659
1949.000000;3.963402
1948.000000;3.757487
1947.000000;3.709077
1946.000000;3.902855
1945.000000;4.024944
1944.000000;3.846813
1943.000000;3.696282
1942.000000;3.662352
1941.000000;3.624262
1940.000000;3.585513
1939.000000;3.682764
1938.000000;3.710426
1937.000000;3.559717
1936.000000;3.536972
1935.000000;3.690497
1934.000000;4.044599
1933.000000;4.036583
1932.000000;3.839099
1931.000000;3.903787
1930.000000;4.292563
1929.000000;4.220511
1928.000000;3.870688
1927.000000;4.012515
1926.000000;4.472784
1925.000000;4.377075
1924.000000;4.544714
1923.000000;4.396969
1922.000000;3.924384
1921.000000;3.717896
1920.000000;3.565064
1919.000000;3.465492
1918.000000;3.379455
1917.000000;3.290381
1916.000000;3.242395
1915.000000;3.284963
1914.000000;3.409822
1913.000000;3.515050
1912.000000;3.578936
1911.000000;3.707925
1910.000000;3.887892
1909.000000;3.763725
1908.000000;3.573667
1907.000000;3.511863
1906.000000;3.534832
1905.000000;3.566966
1904.000000;3.551322
1903.000000;3.518898
1902.000000;3.533264
1901.000000;3.601079
1900.000000;3.589590
1899.000000;3.489912
1898.000000;3.461191
1897.000000;3.539608
1896.000000;3.669565
1895.000000;3.663398
1894.000000;3.518564
1893.000000;3.374268
1892.000000;3.306310
1891.000000;3.334203
1890.000000;3.499881
1889.000000;4.098888
1888.000000;3.847947
1887.000000;3.590125
1886.000000;3.660913
1885.000000;3.945508
1884.000000;3.919695
1883.000000;3.629890
1882.000000;3.539020
1881.000000;3.529194
1880.000000;3.535160
1879.000000;3.565204
1878.000000;3.664606
1877.000000;3.748848
1876.000000;3.801330
1875.000000;3.928825
1874.000000;3.848320
1873.000000;3.767903
1872.000000;3.964150
1871.000000;4.077451
1870.000000;3.841372
1869.000000;3.695043
1868.000000;3.636960
1867.000000;3.662088
1866.000000;3.722840
1865.000000;3.857198
1864.000000;4.248141
1863.000000;4.186828
1862.000000;3.985738
1861.000000;3.951542
1860.000000;3.794426
1859.000000;3.593212
1858.000000;3.461998
1857.000000;3.414943
1856.000000;3.431136
1855.000000;3.504697
1854.000000;3.654880
1853.000000;3.754808
1852.000000;3.696748
1851.000000;3.782640
1850.000000;3.934250
1849.000000;3.801299
1848.000000;3.720566
1847.000000;3.707693
1846.000000;3.679424
1845.000000;3.635292
1844.000000;3.597970
1843.000000;3.627701
1842.000000;3.684358
1841.000000;3.708836
1840.000000;3.802420
1839.000000;3.888081
1838.000000;3.751240
1837.000000;3.663016
1836.000000;3.688255
1835.000000;3.637600
1834.000000;3.482169
1833.000000;3.347407
1832.000000;3.283177
1831.000000;3.323346
1830.000000;3.464384
1829.000000;3.688834
1828.000000;3.890227
1827.000000;4.205593
1826.000000;4.871651
1825.000000;3.833761
1824.000000;3.580963
1823.000000;3.511462
1822.000000;3.507788
1821.000000;3.558508
1820.000000;3.663728
1819.000000;3.713924
1818.000000;3.601781
1817.000000;3.488978
1816.000000;3.435976
1815.000000;3.406058
1814.000000;3.421334
1813.000000;3.490696
1812.000000;3.644487
1811.000000;4.258516
1810.000000;4.193364
1809.000000;3.877651
1808.000000;3.802004
1807.000000;3.588213
1806.000000;3.472280
1805.000000;3.411105
1804.000000;3.362540
1803.000000;3.349652
1802.000000;3.380915
1801.000000;3.436253
1800.000000;3.512550
1799.000000;3.674203
1798.000000;4.117314
1797.000000;4.639084
1796.000000;4.040177
1795.000000;3.870667
1794.000000;3.830064
1793.000000;3.776899
1792.000000;3.699159
1791.000000;3.628875
1790.000000;3.590310
1789.000000;3.589459
1788.000000;3.621095
1787.000000;3.653145
1786.000000;3.619653
1785.000000;3.575979
1784.000000;3.621067
1783.000000;3.839587
1782.000000;4.103198
1781.000000;3.923311
1780.000000;3.784375
1779.000000;3.893636
1778.000000;4.217132
1777.000000;4.309706
1776.000000;4.480396
1775.000000;4.764773
1774.000000;4.496095
1773.000000;4.247872
1772.000000;4.011937
1771.000000;3.814312
1770.000000;3.700282
1769.000000;3.715630
1768.000000;3.895801
1767.000000;3.983592
1766.000000;3.760442
1765.000000;3.663003
1764.000000;3.703090
1763.000000;3.662849
1762.000000;3.532732
1761.000000;3.461612
1760.000000;3.445486
1759.000000;3.492327
1758.000000;3.552180
1757.000000;3.546908
1756.000000;3.520553
1755.000000;3.617901
1754.000000;4.018134
1753.000000;4.193616
1752.000000;3.934557
1751.000000;3.702255
1750.000000;3.518708
1749.000000;3.484688
1748.000000;3.596184
1747.000000;3.793008
1746.000000;3.941849
1745.000000;4.096947
1744.000000;4.142390
1743.000000;3.899405
1742.000000;3.737985
1741.000000;3.722124
1740.000000;3.894730
1739.000000;4.305190
1738.000000;3.881173
1737.000000;3.474096
1736.000000;3.367502
1735.000000;3.427140
1734.000000;3.570142
1733.000000;3.690290
1732.000000;3.782215
1731.000000;3.941534
1730.000000;3.890453
1729.000000;3.772936
1728.000000;3.827719
1727.000000;3.849834
1726.000000;3.736470
1725.000000;3.627506
1724.000000;3.581430
1723.000000;3.561087
1722.000000;3.512567
1721.000000;3.484514
1720.000000;3.532063
1719.000000;3.603074
1718.000000;3.561642
1717.000000;3.472434
1716.000000;3.440694
1715.000000;3.427678
1714.000000;3.383919
1713.000000;3.370339
1712.000000;3.432225
1711.000000;3.558311
1710.000000;3.743719
1709.000000;3.837689
1708.000000;3.715430
1707.000000;3.611713
1706.000000;3.582550
1705.000000;3.586731
1704.000000;3.601946
1703.000000;3.578209
1702.000000;3.507071
1701.000000;3.465537
1700.000000;3.464685
1699.000000;3.471819
1698.000000;3.504717
1697.000000;3.577875
1696.000000;3.634225
1695.000000;3.644026
1694.000000;3.683324
1693.000000;3.733323
1692.000000;3.650464
1691.000000;3.562660
1690.000000;3.548930
1689.000000;3.549599
1688.000000;3.575900
1687.000000;3.617427
1686.000000;3.607573
1685.000000;3.611304
1684.000000;3.648377
1683.000000;3.615841
1682.000000;3.532789
1681.000000;3.501420
1680.000000;3.601014
1679.000000;3.778714
1678.000000;3.665765
1677.000000;3.485434
1676.000000;3.414391
1675.000000;3.376298
1674.000000;3.376591
1673.000000;3.438046
1672.000000;3.584134
1671.000000;3.756642
1670.000000;3.969445
1669.000000;4.145691
1668.000000;3.827108
1667.000000;3.688961
1666.000000;3.916578
1665.000000;4.314265
1664.000000;4.174174
1663.000000;3.959617
1662.000000;3.669968
1661.000000;3.458612
1660.000000;3.351339
1659.000000;3.344301
1658.000000;3.440288
1657.000000;3.593058
1656.000000;3.802265
1655.000000;4.192908
1654.000000;4.066934
1653.000000;3.812319
1652.000000;3.889538
1651.000000;4.006986
1650.000000;4.063570
1649.000000;3.808225
1648.000000;3.557097
1647.000000;3.437448
1646.000000;3.494380
1645.000000;3.848224
1644.000000;3.808101
1643.000000;3.543647
1642.000000;3.519791
1641.000000;3.635756
1640.000000;3.898614
1639.000000;4.227589
1638.000000;4.232759
1637.000000;4.454239
1636.000000;4.774675
1635.000000;4.069372
1634.000000;3.951318
1633.000000;3.969819
1632.000000;3.811824
1631.000000;3.526537
1630.000000;3.352542
1629.000000;3.348299
1628.000000;3.453633
1627.000000;3.556930
1626.000000;3.617856
1625.000000;3.693261
1624.000000;3.639015
1623.000000;3.526662
1622.000000;3.457794
1621.000000;3.381930
1620.000000;3.310363
1619.000000;3.267840
1618.000000;3.292038
1617.000000;3.439640
1616.000000;3.701631
1615.000000;3.935424
1614.000000;3.911885
1613.000000;3.794228
1612.000000;3.747328
1611.000000;3.757014
1610.000000;3.806352
1609.000000;3.750732
1608.000000;3.647806
1607.000000;3.637080
1606.000000;3.695627
1605.000000;3.766732
1604.000000;3.744910
1603.000000;3.607495
1602.000000;3.549287
1601.000000;3.632976
1600.000000;3.722944
1599.000000;3.642428
1598.000000;3.553754
1597.000000;3.581861
1596.000000;3.625476
1595.000000;3.603803
1594.000000;3.631294
1593.000000;3.937405
1592.000000;4.363208
1591.000000;4.068605
1590.000000;4.107506
1589.000000;4.109105
1588.000000;3.812720
1587.000000;3.628744
1586.000000;3.546897
1585.000000;3.500250
1584.000000;3.509291
1583.000000;3.540498
1582.000000;3.546362
1581.000000;3.607194
1580.000000;3.660594
1579.000000;3.624915
1578.000000;3.552655
1577.000000;3.476948
1576.000000;3.443496
1575.000000;3.498934
1574.000000;3.624197
1573.000000;3.675395
1572.000000;3.641134
1571.000000;3.692717
1570.000000;3.957809
1569.000000;4.212299
1568.000000;3.956098
1567.000000;3.924411
1566.000000;3.943983
1565.000000;3.777975
1564.000000;3.753749
1563.000000;3.776334
1562.000000;3.735480
1561.000000;3.761332
1560.000000;3.872988
1559.000000;3.989812
1558.000000;4.108473
1557.000000;4.388554
1556.000000;4.477661
1555.000000;4.225850
1554.000000;4.092976
1553.000000;3.988657
1552.000000;3.869749
1551.000000;3.794942
1550.000000;3.824375
1549.000000;3.838313
1548.000000;3.720098
1547.000000;3.621839
1546.000000;3.586250
1545.000000;3.597281
1544.000000;3.631205
1543.000000;3.832599
1542.000000;4.459085
1541.000000;4.261101
1540.000000;4.067188
1539.000000;4.124285
1538.000000;4.101138
1537.000000;4.123938
1536.000000;4.054304
1535.000000;3.912882
1534.000000;3.741158
1533.000000;3.609833
1532.000000;3.548339
1531.000000;3.584562
1530.000000;3.690630
1529.000000;3.949429
1528.000000;4.479963
1527.000000;4.471000
1526.000000;4.502926
1525.000000;4.364359
1524.000000;4.376137
1523.000000;4.557884
1522.000000;4.258419
1521.000000;4.247545
1520.000000;4.274485
1519.000000;4.062362
1518.000000;3.967767
1517.000000;4.072426
1516.000000;4.199933
1515.000000;4.091892
1514.000000;4.020379
1513.000000;4.279444
1512.000000;4.240677
1511.000000;4.055304
1510.000000;4.153168
1509.000000;4.383575
1508.000000;4.926213
1507.000000;4.408538
1506.000000;4.065284
1505.000000;4.155783
1504.000000;4.373728
1503.000000;4.285484
1502.000000;4.069305
1501.000000;3.792098
1500.000000;3.663869
1499.000000;3.659734
1498.000000;3.700749
1497.000000;3.726731
1496.000000;3.668769
1495.000000;3.569337
1494.000000;3.500760
1493.000000;3.516436
1492.000000;3.599407
1491.000000;3.659582
1490.000000;3.628721
1489.000000;3.537137
1488.000000;3.395354
1487.000000;3.240691
1486.000000;3.153675
1485.000000;3.170487
1484.000000;3.271761
1483.000000;3.339696
1482.000000;3.295978
1481.000000;3.242422
1480.000000;3.227086
1479.000000;3.259854
1478.000000;3.333914
1477.000000;3.416193
1476.000000;3.475565
1475.000000;3.548149
1474.000000;3.614346
1473.000000;3.568714
1472.000000;3.493138
1471.000000;3.397474
1470.000000;3.284630
1469.000000;3.211359
1468.000000;3.186423
1467.000000;3.199779
1466.000000;3.227248
1465.000000;3.243282
1464.000000;3.254638
1463.000000;3.259140
1462.000000;3.230388
1461.000000;3.177896
1460.000000;3.149262
1459.000000;3.183155
1458.000000;3.244134
1457.000000;3.271432
1456.000000;3.289643
1455.000000;3.298673
1454.000000;3.287051
1453.000000;3.305747
1452.000000;3.392364
1451.000000;3.514001
1450.000000;3.633017
1449.000000;3.705434
1448.000000;3.558586
1447.000000;3.381281
1446.000000;3.343554
1445.000000;3.444721
1444.000000;3.613069
1443.000000;3.722489
1442.000000;3.764238
1441.000000;3.942052
1440.000000;4.181459
1439.000000;4.214558
1438.000000;4.582139
1437.000000;4.122937
1436.000000;3.724440
1435.000000;3.671538
1434.000000;3.747911
1433.000000;4.010069
1432.000000;4.479520
1431.000000;4.041935
1430.000000;3.954865
1429.000000;4.163725
1428.000000;4.056883
1427.000000;3.742134
1426.000000;3.557646
1425.000000;3.535962
1424.000000;3.549298
1423.000000;3.443921
1422.000000;3.361171
1421.000000;3.386377
1420.000000;3.471187
1419.000000;3.564637
1418.000000;3.616960
1417.000000;3.566461
1416.000000;3.463236
1415.000000;3.403552
1414.000000;3.380283
1413.000000;3.332513
1412.000000;3.276015
1411.000000;3.277408
1410.000000;3.368611
1409.000000;3.487550
1408.000000;3.462291
1407.000000;3.359345
1406.000000;3.311334
1405.000000;3.336373
1404.000000;3.451682
1403.000000;3.619786
1402.000000;3.679491
1401.000000;3.638589
1400.000000;3.619261
1399.000000;3.602276
1398.000000;3.578973
1397.000000;3.632357
1396.000000;3.852774
1395.000000;3.980257
1394.000000;3.682104
1393.000000;3.519334
1392.000000;3.482144
1391.000000;3.469305
1390.000000;3.437150
1389.000000;3.407631
1388.000000;3.380863
1387.000000;3.307276
1386.000000;3.221518
1385.000000;3.179004
1384.000000;3.198381
1383.000000;3.283416
1382.000000;3.420314
1381.000000;3.537045
1380.000000;3.543321
1379.000000;3.452934
1378.000000;3.336203
1377.000000;3.245604
1376.000000;3.206962
1375.000000;3.228217
1374.000000;3.281503
1373.000000;3.307883
1372.000000;3.334135
1371.000000;3.449462
1370.000000;3.696933
1369.000000;4.116785
1368.000000;4.144446
1367.000000;3.747092
1366.000000;3.592315
1365.000000;3.584151
1364.000000;3.717908
1363.000000;3.871094
1362.000000;3.737298
1361.000000;3.593732
1360.000000;3.550047
1359.000000;3.536105
1358.000000;3.521357
1357.000000;3.535014
1356.000000;3.632302
1355.000000;3.725829
1354.000000;3.680417
1353.000000;3.634058
1352.000000;3.633976
1351.000000;3.636342
1350.000000;3.701060
1349.000000;4.021839
1348.000000;4.037771
1347.000000;3.781788
1346.000000;4.020302
1345.000000;3.967280
1344.000000;3.511653
1343.000000;3.377387
1342.000000;3.373950
1341.000000;3.428242
1340.000000;3.497267
1339.000000;3.550116
1338.000000;3.653315
1337.000000;3.988317
1336.000000;4.075334
1335.000000;3.844585
1334.000000;4.184443
1333.000000;4.444342
1332.000000;4.037430
1331.000000;3.879222
1330.000000;3.786405
1329.000000;3.731964
1328.000000;3.579134
1327.000000;3.396428
1326.000000;3.258119
1325.000000;3.168143
1324.000000;3.118735
1323.000000;3.116226
1322.000000;3.185702
1321.000000;3.356240
1320.000000;3.556125
1319.000000;3.568255
1318.000000;3.562112
1317.000000;3.651323
1316.000000;3.686766
1315.000000;3.629263
1314.000000;3.624695
1313.000000;3.664873
1312.000000;3.684681
1311.000000;3.621510
1310.000000;3.503430
1309.000000;3.447229
1308.000000;3.504198
1307.000000;3.647767
1306.000000;3.737555
1305.000000;3.641602
1304.000000;3.531835
1303.000000;3.520468
1302.000000;3.573008
1301.000000;3.591699
1300.000000;3.530087
1299.000000;3.447161
1298.000000;3.383630
1297.000000;3.375526
1296.000000;3.390639
1295.000000;3.286715
1294.000000;3.171622
1293.000000;3.149808
1292.000000;3.194530
1291.000000;3.231317
1290.000000;3.213727
1289.000000;3.191962
1288.000000;3.195132
1287.000000;3.203763
1286.000000;3.222165
1285.000000;3.281560
1284.000000;3.372506
1283.000000;3.433776
1282.000000;3.491408
1281.000000;3.698682
1280.000000;4.043337
1279.000000;3.921413
1278.000000;3.812139
1277.000000;3.866053
1276.000000;3.666780
1275.000000;3.416708
1274.000000;3.347268
1273.000000;3.469431
1272.000000;3.708609
1271.000000;3.921956
1270.000000;3.691812
1269.000000;3.400550
1268.000000;3.280952
1267.000000;3.264465
1266.000000;3.286557
1265.000000;3.323701
1264.000000;3.415309
1263.000000;3.600934
1262.000000;3.629849
1261.000000;3.382869
1260.000000;3.180338
1259.000000;3.079149
1258.000000;3.079572
1257.000000;3.157396
1256.000000;3.237014
1255.000000;3.208106
1254.000000;3.128350
1253.000000;3.132621
1252.000000;3.271733
1251.000000;3.539441
1250.000000;3.807246
1249.000000;4.007449
1248.000000;4.055402
1247.000000;3.649473
1246.000000;3.399266
1245.000000;3.311625
1244.000000;3.320439
1243.000000;3.370538
1242.000000;3.454147
1241.000000;3.680849
1240.000000;3.963983
1239.000000;3.894048
1238.000000;3.767684
1237.000000;4.023721
1236.000000;3.852598
1235.000000;3.456767
1234.000000;3.420733
1233.000000;3.571105
1232.000000;3.820512
1231.000000;3.973663
1230.000000;3.897663
1229.000000;3.671583
1228.000000;3.441885
1227.000000;3.304018
1226.000000;3.258328
1225.000000;3.256600
1224.000000;3.261258
1223.000000;3.274035
1222.000000;3.301055
1221.000000;3.347432
1220.000000;3.394533
1219.000000;3.444383
1218.000000;3.541372
1217.000000;3.691407
1216.000000;3.863913
1215.000000;3.779298
1214.000000;3.515208
1213.000000;3.365724
1212.000000;3.330266
1211.000000;3.355369
1210.000000;3.405674
1209.000000;3.466512
1208.000000;3.536719
1207.000000;3.586180
1206.000000;3.546309
1205.000000;3.412193
1204.000000;3.298953
1203.000000;3.320694
1202.000000;3.497933
1201.000000;3.850779
1200.000000;8.000000
