Criado como novo conjunto de dados;"1909daniel.spp","-4260223.5 Secs"
cm-1;Abs
10000.000000;1.841537
9999.000000;1.842331
9998.000000;1.843040
9997.000000;1.843925
9996.000000;1.844021
9995.000000;1.843863
9994.000000;1.845010
9993.000000;1.846636
9992.000000;1.846060
9991.000000;1.841374
9990.000000;1.834203
9989.000000;1.828061
9988.000000;1.824749
9987.000000;1.823226
9986.000000;1.821732
9985.000000;1.819898
9984.000000;1.818496
9983.000000;1.818212
9982.000000;1.819399
9981.000000;1.822076
9980.000000;1.825282
9979.000000;1.827034
9978.000000;1.825883
9977.000000;1.822289
9976.000000;1.817970
9975.000000;1.814429
9974.000000;1.812490
9973.000000;1.812453
9972.000000;1.813872
9971.000000;1.815579
9970.000000;1.816685
9969.000000;1.817242
9968.000000;1.817334
9967.000000;1.816207
9966.000000;1.813191
9965.000000;1.808930
9964.000000;1.804813
9963.000000;1.801666
9962.000000;1.799813
9961.000000;1.799766
9960.000000;1.801704
9959.000000;1.804464
9958.000000;1.806163
9957.000000;1.805989
9956.000000;1.804564
9955.000000;1.802790
9954.000000;1.801577
9953.000000;1.802144
9952.000000;1.804964
9951.000000;1.808568
9950.000000;1.810481
9949.000000;1.809522
9948.000000;1.806458
9947.000000;1.802641
9946.000000;1.799266
9945.000000;1.797646
9944.000000;1.798460
9943.000000;1.800364
9942.000000;1.800818
9941.000000;1.798910
9940.000000;1.796139
9939.000000;1.793971
9938.000000;1.792117
9937.000000;1.790023
9936.000000;1.788381
9935.000000;1.787672
9934.000000;1.786730
9933.000000;1.784484
9932.000000;1.782107
9931.000000;1.781796
9930.000000;1.783906
9929.000000;1.786646
9928.000000;1.788270
9927.000000;1.788181
9926.000000;1.786251
9925.000000;1.782884
9924.000000;1.779826
9923.000000;1.779084
9922.000000;1.780500
9921.000000;1.781641
9920.000000;1.780790
9919.000000;1.778910
9918.000000;1.777823
9917.000000;1.777774
9916.000000;1.777770
9915.000000;1.777311
9914.000000;1.776628
9913.000000;1.775686
9912.000000;1.774218
9911.000000;1.772571
9910.000000;1.771443
9909.000000;1.770823
9908.000000;1.770123
9907.000000;1.769414
9906.000000;1.769664
9905.000000;1.771520
9904.000000;1.774438
9903.000000;1.777196
9902.000000;1.778749
9901.000000;1.778327
9900.000000;1.775427
9899.000000;1.770464
9898.000000;1.765126
9897.000000;1.761444
9896.000000;1.760358
9895.000000;1.761271
9894.000000;1.762718
9893.000000;1.763391
9892.000000;1.762861
9891.000000;1.761662
9890.000000;1.760570
9889.000000;1.759804
9888.000000;1.759172
9887.000000;1.758846
9886.000000;1.759290
9885.000000;1.760132
9884.000000;1.759850
9883.000000;1.757330
9882.000000;1.753380
9881.000000;1.749940
9880.000000;1.748134
9879.000000;1.747734
9878.000000;1.748114
9877.000000;1.748848
9876.000000;1.749326
9875.000000;1.748725
9874.000000;1.746843
9873.000000;1.744431
9872.000000;1.742346
9871.000000;1.740876
9870.000000;1.740059
9869.000000;1.740012
9868.000000;1.740572
9867.000000;1.741176
9866.000000;1.741562
9865.000000;1.742124
9864.000000;1.743056
9863.000000;1.743638
9862.000000;1.743086
9861.000000;1.741843
9860.000000;1.741149
9859.000000;1.741391
9858.000000;1.741592
9857.000000;1.740638
9856.000000;1.738497
9855.000000;1.736074
9854.000000;1.734343
9853.000000;1.733835
9852.000000;1.734469
9851.000000;1.735613
9850.000000;1.736605
9849.000000;1.737269
9848.000000;1.737494
9847.000000;1.736544
9846.000000;1.733639
9845.000000;1.729445
9844.000000;1.726124
9843.000000;1.725248
9842.000000;1.726071
9841.000000;1.726475
9840.000000;1.725478
9839.000000;1.724073
9838.000000;1.723583
9837.000000;1.724186
9836.000000;1.725447
9835.000000;1.727440
9834.000000;1.730357
9833.000000;1.733184
9832.000000;1.733833
9831.000000;1.731141
9830.000000;1.726266
9829.000000;1.721733
9828.000000;1.719449
9827.000000;1.719657
9826.000000;1.721190
9825.000000;1.722398
9824.000000;1.722181
9823.000000;1.720660
9822.000000;1.718800
9821.000000;1.717293
9820.000000;1.716133
9819.000000;1.715399
9818.000000;1.715671
9817.000000;1.716881
9816.000000;1.717353
9815.000000;1.715217
9814.000000;1.710864
9813.000000;1.706866
9812.000000;1.705122
9811.000000;1.705037
9810.000000;1.704836
9809.000000;1.703813
9808.000000;1.702651
9807.000000;1.702151
9806.000000;1.702486
9805.000000;1.703351
9804.000000;1.704059
9803.000000;1.703741
9802.000000;1.702238
9801.000000;1.700638
9800.000000;1.700148
9799.000000;1.700556
9798.000000;1.700472
9797.000000;1.699052
9796.000000;1.696720
9795.000000;1.694200
9794.000000;1.691824
9793.000000;1.690142
9792.000000;1.690193
9791.000000;1.692257
9790.000000;1.694774
9789.000000;1.695541
9788.000000;1.694082
9787.000000;1.692025
9786.000000;1.690964
9785.000000;1.690830
9784.000000;1.690729
9783.000000;1.690598
9782.000000;1.691089
9781.000000;1.691982
9780.000000;1.691793
9779.000000;1.689445
9778.000000;1.685696
9777.000000;1.682193
9776.000000;1.679614
9775.000000;1.677614
9774.000000;1.676268
9773.000000;1.676338
9772.000000;1.677724
9771.000000;1.678745
9770.000000;1.677886
9769.000000;1.675683
9768.000000;1.673862
9767.000000;1.673147
9766.000000;1.673026
9765.000000;1.673421
9764.000000;1.675181
9763.000000;1.678399
9762.000000;1.681348
9761.000000;1.681915
9760.000000;1.679543
9759.000000;1.675235
9758.000000;1.670446
9757.000000;1.666659
9756.000000;1.665274
9755.000000;1.666711
9754.000000;1.669670
9753.000000;1.672029
9752.000000;1.672563
9751.000000;1.671297
9750.000000;1.668501
9749.000000;1.664558
9748.000000;1.660937
9747.000000;1.659769
9746.000000;1.661600
9745.000000;1.664337
9744.000000;1.665206
9743.000000;1.663611
9742.000000;1.661341
9741.000000;1.660067
9740.000000;1.659659
9739.000000;1.659168
9738.000000;1.658581
9737.000000;1.658866
9736.000000;1.660526
9735.000000;1.662735
9734.000000;1.663981
9733.000000;1.663351
9732.000000;1.661162
9731.000000;1.658510
9730.000000;1.656371
9729.000000;1.655025
9728.000000;1.654035
9727.000000;1.652654
9726.000000;1.650466
9725.000000;1.647819
9724.000000;1.645626
9723.000000;1.644581
9722.000000;1.644509
9721.000000;1.644637
9720.000000;1.644600
9719.000000;1.644849
9718.000000;1.645735
9717.000000;1.646489
9716.000000;1.645761
9715.000000;1.643342
9714.000000;1.640814
9713.000000;1.639989
9712.000000;1.641010
9711.000000;1.642420
9710.000000;1.642917
9709.000000;1.642444
9708.000000;1.641528
9707.000000;1.640318
9706.000000;1.638806
9705.000000;1.637568
9704.000000;1.637479
9703.000000;1.638534
9702.000000;1.639574
9701.000000;1.639655
9700.000000;1.639301
9699.000000;1.639708
9698.000000;1.640853
9697.000000;1.641049
9696.000000;1.638658
9695.000000;1.633912
9694.000000;1.628641
9693.000000;1.624645
9692.000000;1.622841
9691.000000;1.623370
9690.000000;1.625434
9689.000000;1.627091
9688.000000;1.626403
9687.000000;1.623432
9686.000000;1.620471
9685.000000;1.619659
9684.000000;1.620755
9683.000000;1.621689
9682.000000;1.620990
9681.000000;1.619140
9680.000000;1.617683
9679.000000;1.617634
9678.000000;1.618748
9677.000000;1.619843
9676.000000;1.619828
9675.000000;1.618734
9674.000000;1.617616
9673.000000;1.617196
9672.000000;1.616972
9671.000000;1.616167
9670.000000;1.615126
9669.000000;1.614859
9668.000000;1.615229
9667.000000;1.614639
9666.000000;1.612039
9665.000000;1.608534
9664.000000;1.606318
9663.000000;1.606430
9662.000000;1.608090
9661.000000;1.609891
9660.000000;1.611082
9659.000000;1.611662
9658.000000;1.611600
9657.000000;1.610414
9656.000000;1.607758
9655.000000;1.604289
9654.000000;1.601510
9653.000000;1.600437
9652.000000;1.600609
9651.000000;1.600778
9650.000000;1.600423
9649.000000;1.600132
9648.000000;1.600476
9647.000000;1.601122
9646.000000;1.601255
9645.000000;1.600463
9644.000000;1.598979
9643.000000;1.597413
9642.000000;1.596479
9641.000000;1.596587
9640.000000;1.597443
9639.000000;1.598246
9638.000000;1.598492
9637.000000;1.598356
9636.000000;1.598228
9635.000000;1.598172
9634.000000;1.597954
9633.000000;1.597340
9632.000000;1.596215
9631.000000;1.594686
9630.000000;1.593193
9629.000000;1.592153
9628.000000;1.591359
9627.000000;1.590297
9626.000000;1.589287
9625.000000;1.589447
9624.000000;1.591085
9623.000000;1.592806
9622.000000;1.592887
9621.000000;1.591284
9620.000000;1.589520
9619.000000;1.588717
9618.000000;1.588507
9617.000000;1.587832
9616.000000;1.586216
9615.000000;1.584064
9614.000000;1.582100
9613.000000;1.580729
9612.000000;1.579799
9611.000000;1.578857
9610.000000;1.577626
9609.000000;1.576186
9608.000000;1.574754
9607.000000;1.573568
9606.000000;1.573002
9605.000000;1.573374
9604.000000;1.574337
9603.000000;1.574736
9602.000000;1.573564
9601.000000;1.570977
9600.000000;1.568026
9599.000000;1.565619
9598.000000;1.564125
9597.000000;1.563639
9596.000000;1.564005
9595.000000;1.564596
9594.000000;1.564662
9593.000000;1.564122
9592.000000;1.563671
9591.000000;1.563910
9590.000000;1.564592
9589.000000;1.564974
9588.000000;1.564753
9587.000000;1.564408
9586.000000;1.564512
9585.000000;1.564846
9584.000000;1.564477
9583.000000;1.562855
9582.000000;1.560574
9581.000000;1.558678
9580.000000;1.557486
9579.000000;1.556511
9578.000000;1.555279
9577.000000;1.553689
9576.000000;1.551773
9575.000000;1.549822
9574.000000;1.548695
9573.000000;1.549256
9572.000000;1.551249
9571.000000;1.553317
9570.000000;1.554443
9569.000000;1.554778
9568.000000;1.554676
9567.000000;1.553740
9566.000000;1.551567
9565.000000;1.548840
9564.000000;1.546853
9563.000000;1.546236
9562.000000;1.546675
9561.000000;1.547450
9560.000000;1.547802
9559.000000;1.547245
9558.000000;1.546138
9557.000000;1.545501
9556.000000;1.545648
9555.000000;1.545495
9554.000000;1.544045
9553.000000;1.542107
9552.000000;1.541334
9551.000000;1.541929
9550.000000;1.542580
9549.000000;1.542566
9548.000000;1.542503
9547.000000;1.542698
9546.000000;1.542207
9545.000000;1.540304
9544.000000;1.537741
9543.000000;1.535712
9542.000000;1.534400
9541.000000;1.533362
9540.000000;1.532690
9539.000000;1.532841
9538.000000;1.533613
9537.000000;1.534173
9536.000000;1.534082
9535.000000;1.533662
9534.000000;1.533298
9533.000000;1.532863
9532.000000;1.531894
9531.000000;1.530064
9530.000000;1.527551
9529.000000;1.525100
9528.000000;1.523597
9527.000000;1.523348
9526.000000;1.523848
9525.000000;1.524307
9524.000000;1.524159
9523.000000;1.523049
9522.000000;1.520940
9521.000000;1.518565
9520.000000;1.517205
9519.000000;1.517435
9518.000000;1.518431
9517.000000;1.518988
9516.000000;1.518959
9515.000000;1.519045
9514.000000;1.519430
9513.000000;1.519439
9512.000000;1.518531
9511.000000;1.516930
9510.000000;1.515155
9509.000000;1.513519
9508.000000;1.512226
9507.000000;1.511479
9506.000000;1.511245
9505.000000;1.511201
9504.000000;1.511145
9503.000000;1.511205
9502.000000;1.511500
9501.000000;1.511816
9500.000000;1.511805
9499.000000;1.511343
9498.000000;1.510628
9497.000000;1.510092
9496.000000;1.510142
9495.000000;1.510669
9494.000000;1.510805
9493.000000;1.509688
9492.000000;1.507641
9491.000000;1.506150
9490.000000;1.506350
9489.000000;1.507771
9488.000000;1.508768
9487.000000;1.508037
9486.000000;1.505657
9485.000000;1.502932
9484.000000;1.501558
9483.000000;1.502547
9482.000000;1.505209
9481.000000;1.507215
9480.000000;1.506496
9479.000000;1.503338
9478.000000;1.500098
9477.000000;1.498804
9476.000000;1.499451
9475.000000;1.500574
9474.000000;1.500886
9473.000000;1.500065
9472.000000;1.498396
9471.000000;1.496331
9470.000000;1.494408
9469.000000;1.493038
9468.000000;1.492187
9467.000000;1.491525
9466.000000;1.491016
9465.000000;1.491068
9464.000000;1.491851
9463.000000;1.492708
9462.000000;1.492669
9461.000000;1.491564
9460.000000;1.490259
9459.000000;1.489687
9458.000000;1.489824
9457.000000;1.489776
9456.000000;1.488836
9455.000000;1.487174
9454.000000;1.485444
9453.000000;1.484085
9452.000000;1.483117
9451.000000;1.482248
9450.000000;1.481027
9449.000000;1.479233
9448.000000;1.477336
9447.000000;1.476287
9446.000000;1.476623
9445.000000;1.477946
9444.000000;1.479374
9443.000000;1.480242
9442.000000;1.480200
9441.000000;1.479123
9440.000000;1.477498
9439.000000;1.476563
9438.000000;1.477291
9437.000000;1.479221
9436.000000;1.480860
9435.000000;1.481318
9434.000000;1.480854
9433.000000;1.479750
9432.000000;1.477677
9431.000000;1.474711
9430.000000;1.472090
9429.000000;1.471125
9428.000000;1.471654
9427.000000;1.472143
9426.000000;1.471201
9425.000000;1.468640
9424.000000;1.465345
9423.000000;1.462673
9422.000000;1.461744
9421.000000;1.462623
9420.000000;1.464081
9419.000000;1.464661
9418.000000;1.464194
9417.000000;1.463893
9416.000000;1.464876
9415.000000;1.466992
9414.000000;1.469021
9413.000000;1.469627
9412.000000;1.468154
9411.000000;1.465005
9410.000000;1.461393
9409.000000;1.458493
9408.000000;1.456723
9407.000000;1.455909
9406.000000;1.455904
9405.000000;1.456697
9404.000000;1.458028
9403.000000;1.459355
9402.000000;1.460245
9401.000000;1.460451
9400.000000;1.459736
9399.000000;1.458162
9398.000000;1.456495
9397.000000;1.455694
9396.000000;1.455894
9395.000000;1.456374
9394.000000;1.456569
9393.000000;1.456469
9392.000000;1.455947
9391.000000;1.454457
9390.000000;1.451885
9389.000000;1.449241
9388.000000;1.447932
9387.000000;1.448444
9386.000000;1.449985
9385.000000;1.451270
9384.000000;1.451444
9383.000000;1.450476
9382.000000;1.448945
9381.000000;1.447455
9380.000000;1.446253
9379.000000;1.445417
9378.000000;1.445157
9377.000000;1.445554
9376.000000;1.446091
9375.000000;1.445952
9374.000000;1.444951
9373.000000;1.443862
9372.000000;1.443626
9371.000000;1.444392
9370.000000;1.445374
9369.000000;1.445543
9368.000000;1.444593
9367.000000;1.443389
9366.000000;1.443117
9365.000000;1.443714
9364.000000;1.443605
9363.000000;1.441711
9362.000000;1.439306
9361.000000;1.438725
9360.000000;1.440367
9359.000000;1.442148
9358.000000;1.442144
9357.000000;1.440739
9356.000000;1.439551
9355.000000;1.439187
9354.000000;1.438929
9353.000000;1.437978
9352.000000;1.436190
9351.000000;1.434016
9350.000000;1.432411
9349.000000;1.432389
9348.000000;1.433932
9347.000000;1.435595
9346.000000;1.435855
9345.000000;1.434768
9344.000000;1.433636
9343.000000;1.433229
9342.000000;1.432992
9341.000000;1.431925
9340.000000;1.429731
9339.000000;1.427089
9338.000000;1.425221
9337.000000;1.425129
9336.000000;1.426764
9335.000000;1.428840
9334.000000;1.429856
9333.000000;1.429416
9332.000000;1.428302
9331.000000;1.427394
9330.000000;1.426846
9329.000000;1.426207
9328.000000;1.425009
9327.000000;1.423337
9326.000000;1.422027
9325.000000;1.422119
9324.000000;1.423761
9323.000000;1.425787
9322.000000;1.426680
9321.000000;1.425899
9320.000000;1.424017
9319.000000;1.421849
9318.000000;1.419877
9317.000000;1.418375
9316.000000;1.417602
9315.000000;1.417712
9314.000000;1.418622
9313.000000;1.419908
9312.000000;1.420795
9311.000000;1.420538
9310.000000;1.419144
9309.000000;1.417484
9308.000000;1.416431
9307.000000;1.416097
9306.000000;1.416052
9305.000000;1.415973
9304.000000;1.415831
9303.000000;1.415740
9302.000000;1.415953
9301.000000;1.416723
9300.000000;1.417745
9299.000000;1.418011
9298.000000;1.416730
9297.000000;1.414240
9296.000000;1.411600
9295.000000;1.409511
9294.000000;1.408091
9293.000000;1.407317
9292.000000;1.407092
9291.000000;1.407105
9290.000000;1.407186
9289.000000;1.407658
9288.000000;1.408857
9287.000000;1.410450
9286.000000;1.411755
9285.000000;1.412490
9284.000000;1.412677
9283.000000;1.412159
9282.000000;1.410956
9281.000000;1.409821
9280.000000;1.409586
9279.000000;1.409989
9278.000000;1.409892
9277.000000;1.408800
9276.000000;1.407417
9275.000000;1.406492
9274.000000;1.405844
9273.000000;1.404879
9272.000000;1.403462
9271.000000;1.401903
9270.000000;1.400583
9269.000000;1.399966
9268.000000;1.400503
9267.000000;1.402041
9266.000000;1.403605
9265.000000;1.404194
9264.000000;1.403661
9263.000000;1.402495
9262.000000;1.400998
9261.000000;1.399107
9260.000000;1.396946
9259.000000;1.395116
9258.000000;1.394239
9257.000000;1.394280
9256.000000;1.394444
9255.000000;1.393923
9254.000000;1.392823
9253.000000;1.392164
9252.000000;1.392790
9251.000000;1.394442
9250.000000;1.396108
9249.000000;1.397081
9248.000000;1.397268
9247.000000;1.396575
9246.000000;1.394703
9245.000000;1.391867
9244.000000;1.389222
9243.000000;1.388035
9242.000000;1.388520
9241.000000;1.389762
9240.000000;1.390715
9239.000000;1.391035
9238.000000;1.390945
9237.000000;1.390659
9236.000000;1.390180
9235.000000;1.389464
9234.000000;1.388492
9233.000000;1.387165
9232.000000;1.385433
9231.000000;1.383680
9230.000000;1.382684
9229.000000;1.382917
9228.000000;1.383992
9227.000000;1.385093
9226.000000;1.385857
9225.000000;1.386408
9224.000000;1.386643
9223.000000;1.386122
9222.000000;1.384829
9221.000000;1.383391
9220.000000;1.382257
9219.000000;1.381246
9218.000000;1.380245
9217.000000;1.379742
9216.000000;1.380106
9215.000000;1.380767
9214.000000;1.380782
9213.000000;1.380031
9212.000000;1.379258
9211.000000;1.379074
9210.000000;1.379489
9209.000000;1.380204
9208.000000;1.380770
9207.000000;1.380531
9206.000000;1.379088
9205.000000;1.376904
9204.000000;1.374996
9203.000000;1.374014
9202.000000;1.374061
9201.000000;1.375234
9200.000000;1.377592
9199.000000;1.380453
9198.000000;1.382332
9197.000000;1.382022
9196.000000;1.379615
9195.000000;1.376386
9194.000000;1.373924
9193.000000;1.373270
9192.000000;1.374332
9191.000000;1.375978
9190.000000;1.377089
9189.000000;1.377575
9188.000000;1.378003
9187.000000;1.378412
9186.000000;1.378151
9185.000000;1.376899
9184.000000;1.375230
9183.000000;1.373855
9182.000000;1.372811
9181.000000;1.371787
9180.000000;1.370841
9179.000000;1.370318
9178.000000;1.370265
9177.000000;1.370362
9176.000000;1.370365
9175.000000;1.370294
9174.000000;1.370151
9173.000000;1.369767
9172.000000;1.369034
9171.000000;1.368152
9170.000000;1.367524
9169.000000;1.367342
9168.000000;1.367300
9167.000000;1.366897
9166.000000;1.366033
9165.000000;1.365125
9164.000000;1.364561
9163.000000;1.364283
9162.000000;1.364055
9161.000000;1.363840
9160.000000;1.363654
9159.000000;1.363294
9158.000000;1.362578
9157.000000;1.361682
9156.000000;1.360931
9155.000000;1.360381
9154.000000;1.359924
9153.000000;1.359537
9152.000000;1.359106
9151.000000;1.358347
9150.000000;1.357370
9149.000000;1.356983
9148.000000;1.357736
9147.000000;1.358883
9146.000000;1.359089
9145.000000;1.358216
9144.000000;1.357580
9143.000000;1.358198
9142.000000;1.359529
9141.000000;1.360307
9140.000000;1.360039
9139.000000;1.359159
9138.000000;1.358143
9137.000000;1.357071
9136.000000;1.355889
9135.000000;1.354663
9134.000000;1.353577
9133.000000;1.352914
9132.000000;1.352995
9131.000000;1.353996
9130.000000;1.355755
9129.000000;1.357674
9128.000000;1.358803
9127.000000;1.358354
9126.000000;1.356522
9125.000000;1.354596
9124.000000;1.353770
9123.000000;1.353924
9122.000000;1.354041
9121.000000;1.353715
9120.000000;1.353569
9119.000000;1.354114
9118.000000;1.354950
9117.000000;1.355411
9116.000000;1.355393
9115.000000;1.355095
9114.000000;1.354409
9113.000000;1.353101
9112.000000;1.351385
9111.000000;1.349886
9110.000000;1.349119
9109.000000;1.349265
9108.000000;1.350267
9107.000000;1.351831
9106.000000;1.353438
9105.000000;1.354539
9104.000000;1.354718
9103.000000;1.353726
9102.000000;1.351702
9101.000000;1.349380
9100.000000;1.347678
9099.000000;1.346892
9098.000000;1.346626
9097.000000;1.346559
9096.000000;1.346806
9095.000000;1.347333
9094.000000;1.347607
9093.000000;1.347124
9092.000000;1.345968
9091.000000;1.344584
9090.000000;1.343242
9089.000000;1.342159
9088.000000;1.341764
9087.000000;1.342210
9086.000000;1.342969
9085.000000;1.343313
9084.000000;1.343082
9083.000000;1.342674
9082.000000;1.342345
9081.000000;1.341945
9080.000000;1.341303
9079.000000;1.340441
9078.000000;1.339398
9077.000000;1.338225
9076.000000;1.337181
9075.000000;1.336623
9074.000000;1.336630
9073.000000;1.336938
9072.000000;1.337272
9071.000000;1.337627
9070.000000;1.338157
9069.000000;1.338846
9068.000000;1.339377
9067.000000;1.339386
9066.000000;1.338901
9065.000000;1.338433
9064.000000;1.338443
9063.000000;1.338740
9062.000000;1.338704
9061.000000;1.338176
9060.000000;1.337709
9059.000000;1.337801
9058.000000;1.338270
9057.000000;1.338635
9056.000000;1.338759
9055.000000;1.338798
9054.000000;1.338774
9053.000000;1.338564
9052.000000;1.338095
9051.000000;1.337265
9050.000000;1.335933
9049.000000;1.334334
9048.000000;1.333205
9047.000000;1.333086
9046.000000;1.333626
9045.000000;1.334022
9044.000000;1.333993
9043.000000;1.333909
9042.000000;1.334009
9041.000000;1.333942
9040.000000;1.333184
9039.000000;1.331592
9038.000000;1.329513
9037.000000;1.327648
9036.000000;1.326770
9035.000000;1.327155
9034.000000;1.328217
9033.000000;1.329011
9032.000000;1.329172
9031.000000;1.329066
9030.000000;1.329070
9029.000000;1.329183
9028.000000;1.329402
9027.000000;1.329962
9026.000000;1.330896
9025.000000;1.331763
9024.000000;1.332139
9023.000000;1.332158
9022.000000;1.332272
9021.000000;1.332676
9020.000000;1.333113
9019.000000;1.333165
9018.000000;1.332565
9017.000000;1.331368
9016.000000;1.329997
9015.000000;1.328965
9014.000000;1.328309
9013.000000;1.327499
9012.000000;1.326219
9011.000000;1.325078
9010.000000;1.325097
9009.000000;1.326465
9008.000000;1.328140
9007.000000;1.328874
9006.000000;1.328465
9005.000000;1.327875
9004.000000;1.328190
9003.000000;1.329561
9002.000000;1.331058
9001.000000;1.331474
9000.000000;1.330313
8999.000000;1.328087
8998.000000;1.325735
8997.000000;1.323876
8996.000000;1.322669
8995.000000;1.322192
8994.000000;1.322618
8993.000000;1.323923
8992.000000;1.325623
8991.000000;1.326951
8990.000000;1.327310
8989.000000;1.326555
8988.000000;1.324980
8987.000000;1.323125
8986.000000;1.321559
8985.000000;1.320697
8984.000000;1.320692
8983.000000;1.321346
8982.000000;1.322085
8981.000000;1.322226
8980.000000;1.321574
8979.000000;1.320710
8978.000000;1.320439
8977.000000;1.320941
8976.000000;1.321676
8975.000000;1.322125
8974.000000;1.322344
8973.000000;1.322620
8972.000000;1.322856
8971.000000;1.322601
8970.000000;1.321588
8969.000000;1.320048
8968.000000;1.318555
8967.000000;1.317658
8966.000000;1.317539
8965.000000;1.317921
8964.000000;1.318375
8963.000000;1.318755
8962.000000;1.319175
8961.000000;1.319523
8960.000000;1.319334
8959.000000;1.318346
8958.000000;1.316884
8957.000000;1.315456
8956.000000;1.314260
8955.000000;1.313367
8954.000000;1.313046
8953.000000;1.313383
8952.000000;1.313841
8951.000000;1.313819
8950.000000;1.313520
8949.000000;1.313622
8948.000000;1.314111
8947.000000;1.314150
8946.000000;1.313317
8945.000000;1.312293
8944.000000;1.311896
8943.000000;1.312005
8942.000000;1.311920
8941.000000;1.311452
8940.000000;1.311112
8939.000000;1.311348
8938.000000;1.312054
8937.000000;1.312844
8936.000000;1.313537
8935.000000;1.314273
8934.000000;1.315201
8933.000000;1.316096
8932.000000;1.316371
8931.000000;1.315599
8930.000000;1.314030
8929.000000;1.312411
8928.000000;1.311318
8927.000000;1.310865
8926.000000;1.310957
8925.000000;1.311418
8924.000000;1.311838
8923.000000;1.311772
8922.000000;1.311315
8921.000000;1.311157
8920.000000;1.311779
8919.000000;1.312855
8918.000000;1.313569
8917.000000;1.313270
8916.000000;1.311743
8915.000000;1.309354
8914.000000;1.307181
8913.000000;1.306497
8912.000000;1.307627
8911.000000;1.309483
8910.000000;1.310576
8909.000000;1.310358
8908.000000;1.309385
8907.000000;1.308563
8906.000000;1.308579
8905.000000;1.309645
8904.000000;1.311299
8903.000000;1.312658
8902.000000;1.313294
8901.000000;1.313606
8900.000000;1.314010
8899.000000;1.314162
8898.000000;1.313549
8897.000000;1.312492
8896.000000;1.311833
8895.000000;1.311770
8894.000000;1.311652
8893.000000;1.310946
8892.000000;1.309825
8891.000000;1.308776
8890.000000;1.308126
8889.000000;1.308043
8888.000000;1.308489
8887.000000;1.308992
8886.000000;1.308876
8885.000000;1.307994
8884.000000;1.306986
8883.000000;1.306699
8882.000000;1.307456
8881.000000;1.308805
8880.000000;1.309820
8879.000000;1.309796
8878.000000;1.308925
8877.000000;1.308172
8876.000000;1.308254
8875.000000;1.308996
8874.000000;1.309864
8873.000000;1.310713
8872.000000;1.311540
8871.000000;1.311831
8870.000000;1.310945
8869.000000;1.309041
8868.000000;1.306993
8867.000000;1.305433
8866.000000;1.304470
8865.000000;1.304254
8864.000000;1.304995
8863.000000;1.306281
8862.000000;1.307142
8861.000000;1.307172
8860.000000;1.307077
8859.000000;1.307706
8858.000000;1.308947
8857.000000;1.309897
8856.000000;1.309819
8855.000000;1.308699
8854.000000;1.307125
8853.000000;1.305857
8852.000000;1.305277
8851.000000;1.305111
8850.000000;1.304872
8849.000000;1.304575
8848.000000;1.304639
8847.000000;1.305059
8846.000000;1.305219
8845.000000;1.304740
8844.000000;1.303987
8843.000000;1.303458
8842.000000;1.303144
8841.000000;1.302862
8840.000000;1.302833
8839.000000;1.303418
8838.000000;1.304479
8837.000000;1.305399
8836.000000;1.305681
8835.000000;1.305264
8834.000000;1.304409
8833.000000;1.303555
8832.000000;1.303189
8831.000000;1.303559
8830.000000;1.304506
8829.000000;1.305687
8828.000000;1.306867
8827.000000;1.307898
8826.000000;1.308549
8825.000000;1.308536
8824.000000;1.307730
8823.000000;1.306338
8822.000000;1.304892
8821.000000;1.303926
8820.000000;1.303501
8819.000000;1.303202
8818.000000;1.302819
8817.000000;1.302767
8816.000000;1.303418
8815.000000;1.304238
8814.000000;1.304293
8813.000000;1.303618
8812.000000;1.303324
8811.000000;1.304082
8810.000000;1.305181
8809.000000;1.305533
8808.000000;1.305059
8807.000000;1.304534
8806.000000;1.304520
8805.000000;1.304980
8804.000000;1.305619
8803.000000;1.306125
8802.000000;1.306336
8801.000000;1.306516
8800.000000;1.307200
8799.000000;1.308358
8798.000000;1.309095
8797.000000;1.308697
8796.000000;1.307611
8795.000000;1.306778
8794.000000;1.306294
8793.000000;1.305495
8792.000000;1.304275
8791.000000;1.303494
8790.000000;1.303947
8789.000000;1.305507
8788.000000;1.307469
8787.000000;1.309243
8786.000000;1.310534
8785.000000;1.311267
8784.000000;1.311617
8783.000000;1.311858
8782.000000;1.311987
8781.000000;1.311740
8780.000000;1.311102
8779.000000;1.310510
8778.000000;1.310347
8777.000000;1.310468
8776.000000;1.310394
8775.000000;1.309817
8774.000000;1.308819
8773.000000;1.307799
8772.000000;1.307314
8771.000000;1.307731
8770.000000;1.308821
8769.000000;1.309845
8768.000000;1.310199
8767.000000;1.309874
8766.000000;1.309246
8765.000000;1.308656
8764.000000;1.308404
8763.000000;1.308871
8762.000000;1.310277
8761.000000;1.312304
8760.000000;1.314159
8759.000000;1.315100
8758.000000;1.314857
8757.000000;1.313723
8756.000000;1.312415
8755.000000;1.311738
8754.000000;1.312056
8753.000000;1.312986
8752.000000;1.313772
8751.000000;1.314032
8750.000000;1.313979
8749.000000;1.313906
8748.000000;1.313765
8747.000000;1.313431
8746.000000;1.313121
8745.000000;1.313190
8744.000000;1.313552
8743.000000;1.313704
8742.000000;1.313447
8741.000000;1.313246
8740.000000;1.313606
8739.000000;1.314327
8738.000000;1.314774
8737.000000;1.314767
8736.000000;1.314754
8735.000000;1.315019
8734.000000;1.315181
8733.000000;1.314776
8732.000000;1.314005
8731.000000;1.313559
8730.000000;1.313829
8729.000000;1.314668
8728.000000;1.315845
8727.000000;1.317272
8726.000000;1.318696
8725.000000;1.319581
8724.000000;1.319614
8723.000000;1.319106
8722.000000;1.318592
8721.000000;1.318201
8720.000000;1.317699
8719.000000;1.317065
8718.000000;1.316676
8717.000000;1.316846
8716.000000;1.317428
8715.000000;1.317974
8714.000000;1.318120
8713.000000;1.317767
8712.000000;1.317066
8711.000000;1.316399
8710.000000;1.316241
8709.000000;1.316801
8708.000000;1.317818
8707.000000;1.318855
8706.000000;1.319688
8705.000000;1.320254
8704.000000;1.320333
8703.000000;1.319680
8702.000000;1.318506
8701.000000;1.317456
8700.000000;1.316927
8699.000000;1.316680
8698.000000;1.316364
8697.000000;1.316207
8696.000000;1.316775
8695.000000;1.318106
8694.000000;1.319485
8693.000000;1.320201
8692.000000;1.320251
8691.000000;1.320083
8690.000000;1.319805
8689.000000;1.319017
8688.000000;1.317509
8687.000000;1.315878
8686.000000;1.315167
8685.000000;1.315819
8684.000000;1.317191
8683.000000;1.318234
8682.000000;1.318524
8681.000000;1.318456
8680.000000;1.318540
8679.000000;1.318897
8678.000000;1.319458
8677.000000;1.320255
8676.000000;1.321195
8675.000000;1.321825
8674.000000;1.321755
8673.000000;1.321257
8672.000000;1.321084
8671.000000;1.321604
8670.000000;1.322369
8669.000000;1.322582
8668.000000;1.321899
8667.000000;1.320759
8666.000000;1.320039
8665.000000;1.320383
8664.000000;1.321691
8663.000000;1.323128
8662.000000;1.323757
8661.000000;1.323255
8660.000000;1.322050
8659.000000;1.320830
8658.000000;1.320017
8657.000000;1.319660
8656.000000;1.319611
8655.000000;1.319772
8654.000000;1.320176
8653.000000;1.320794
8652.000000;1.321305
8651.000000;1.321286
8650.000000;1.320725
8649.000000;1.320164
8648.000000;1.320160
8647.000000;1.320706
8646.000000;1.321339
8645.000000;1.321641
8644.000000;1.321457
8643.000000;1.320806
8642.000000;1.319940
8641.000000;1.319425
8640.000000;1.319790
8639.000000;1.321024
8638.000000;1.322559
8637.000000;1.323750
8636.000000;1.324206
8635.000000;1.323776
8634.000000;1.322619
8633.000000;1.321306
8632.000000;1.320471
8631.000000;1.320174
8630.000000;1.319894
8629.000000;1.319283
8628.000000;1.318664
8627.000000;1.318599
8626.000000;1.319187
8625.000000;1.320037
8624.000000;1.320717
8623.000000;1.321043
8622.000000;1.321109
8621.000000;1.321234
8620.000000;1.321734
8619.000000;1.322523
8618.000000;1.322978
8617.000000;1.322408
8616.000000;1.320740
8615.000000;1.318664
8614.000000;1.317103
8613.000000;1.316542
8612.000000;1.316779
8611.000000;1.317222
8610.000000;1.317449
8609.000000;1.317474
8608.000000;1.317476
8607.000000;1.317402
8606.000000;1.317029
8605.000000;1.316388
8604.000000;1.315871
8603.000000;1.315766
8602.000000;1.315897
8601.000000;1.315903
8600.000000;1.315731
8599.000000;1.315680
8598.000000;1.316083
8597.000000;1.317039
8596.000000;1.318325
8595.000000;1.319379
8594.000000;1.319524
8593.000000;1.318495
8592.000000;1.316776
8591.000000;1.315231
8590.000000;1.314377
8589.000000;1.314137
8588.000000;1.314297
8587.000000;1.314929
8586.000000;1.316149
8585.000000;1.317568
8584.000000;1.318385
8583.000000;1.318238
8582.000000;1.317771
8581.000000;1.318000
8580.000000;1.319124
8579.000000;1.320242
8578.000000;1.320382
8577.000000;1.319523
8576.000000;1.318346
8575.000000;1.317300
8574.000000;1.316378
8573.000000;1.315629
8572.000000;1.315328
8571.000000;1.315484
8570.000000;1.315595
8569.000000;1.315229
8568.000000;1.314614
8567.000000;1.314380
8566.000000;1.314850
8565.000000;1.315765
8564.000000;1.316628
8563.000000;1.317124
8562.000000;1.317314
8561.000000;1.317551
8560.000000;1.318089
8559.000000;1.318632
8558.000000;1.318453
8557.000000;1.317217
8556.000000;1.315537
8555.000000;1.314434
8554.000000;1.314315
8553.000000;1.314780
8552.000000;1.315329
8551.000000;1.315869
8550.000000;1.316443
8549.000000;1.316824
8548.000000;1.316710
8547.000000;1.316151
8546.000000;1.315495
8545.000000;1.314971
8544.000000;1.314599
8543.000000;1.314463
8542.000000;1.314707
8541.000000;1.315108
8540.000000;1.314981
8539.000000;1.313840
8538.000000;1.312097
8537.000000;1.310766
8536.000000;1.310475
8535.000000;1.310977
8534.000000;1.311589
8533.000000;1.311843
8532.000000;1.311708
8531.000000;1.311517
8530.000000;1.311838
8529.000000;1.313079
8528.000000;1.314895
8527.000000;1.316181
8526.000000;1.316066
8525.000000;1.314866
8524.000000;1.313757
8523.000000;1.313500
8522.000000;1.313811
8521.000000;1.313922
8520.000000;1.313459
8519.000000;1.312693
8518.000000;1.312185
8517.000000;1.312293
8516.000000;1.312831
8515.000000;1.313176
8514.000000;1.312929
8513.000000;1.312416
8512.000000;1.312287
8511.000000;1.312644
8510.000000;1.312934
8509.000000;1.312735
8508.000000;1.312261
8507.000000;1.311928
8506.000000;1.311822
8505.000000;1.311870
8504.000000;1.312174
8503.000000;1.312769
8502.000000;1.313252
8501.000000;1.313092
8500.000000;1.312300
8499.000000;1.311416
8498.000000;1.310786
8497.000000;1.310160
8496.000000;1.309144
8495.000000;1.307838
8494.000000;1.306862
8493.000000;1.306762
8492.000000;1.307468
8491.000000;1.308399
8490.000000;1.309093
8489.000000;1.309651
8488.000000;1.310400
8487.000000;1.311258
8486.000000;1.311780
8485.000000;1.311891
8484.000000;1.312134
8483.000000;1.312925
8482.000000;1.313833
8481.000000;1.314000
8480.000000;1.313117
8479.000000;1.311601
8478.000000;1.309999
8477.000000;1.308693
8476.000000;1.308112
8475.000000;1.308593
8474.000000;1.309826
8473.000000;1.310828
8472.000000;1.310834
8471.000000;1.310026
8470.000000;1.309129
8469.000000;1.308544
8468.000000;1.308186
8467.000000;1.307981
8466.000000;1.308114
8465.000000;1.308723
8464.000000;1.309593
8463.000000;1.310271
8462.000000;1.310385
8461.000000;1.309842
8460.000000;1.308884
8459.000000;1.307999
8458.000000;1.307650
8457.000000;1.307937
8456.000000;1.308506
8455.000000;1.308834
8454.000000;1.308625
8453.000000;1.308010
8452.000000;1.307424
8451.000000;1.307274
8450.000000;1.307585
8449.000000;1.307940
8448.000000;1.307860
8447.000000;1.307319
8446.000000;1.306779
8445.000000;1.306655
8444.000000;1.306824
8443.000000;1.306819
8442.000000;1.306430
8441.000000;1.305962
8440.000000;1.305848
8439.000000;1.306199
8438.000000;1.306805
8437.000000;1.307412
8436.000000;1.307811
8435.000000;1.307761
8434.000000;1.307144
8433.000000;1.306244
8432.000000;1.305653
8431.000000;1.305744
8430.000000;1.306299
8429.000000;1.306755
8428.000000;1.306741
8427.000000;1.306284
8426.000000;1.305587
8425.000000;1.304837
8424.000000;1.304256
8423.000000;1.304130
8422.000000;1.304606
8421.000000;1.305457
8420.000000;1.306183
8419.000000;1.306411
8418.000000;1.306166
8417.000000;1.305750
8416.000000;1.305460
8415.000000;1.305494
8414.000000;1.305995
8413.000000;1.306958
8412.000000;1.307982
8411.000000;1.308330
8410.000000;1.307502
8409.000000;1.305817
8408.000000;1.304276
8407.000000;1.303716
8406.000000;1.304117
8405.000000;1.304713
8404.000000;1.304781
8403.000000;1.304305
8402.000000;1.303888
8401.000000;1.304070
8400.000000;1.304767
8399.000000;1.305404
8398.000000;1.305519
8397.000000;1.305149
8396.000000;1.304685
8395.000000;1.304533
8394.000000;1.304972
8393.000000;1.306076
8392.000000;1.307478
8391.000000;1.308322
8390.000000;1.307830
8389.000000;1.306094
8388.000000;1.304151
8387.000000;1.303110
8386.000000;1.303254
8385.000000;1.304018
8384.000000;1.304664
8383.000000;1.304858
8382.000000;1.304732
8381.000000;1.304621
8380.000000;1.304792
8379.000000;1.305275
8378.000000;1.305784
8377.000000;1.305821
8376.000000;1.305023
8375.000000;1.303563
8374.000000;1.302187
8373.000000;1.301711
8372.000000;1.302320
8371.000000;1.303363
8370.000000;1.303922
8369.000000;1.303597
8368.000000;1.302740
8367.000000;1.301974
8366.000000;1.301650
8365.000000;1.301703
8364.000000;1.301870
8363.000000;1.302001
8362.000000;1.302238
8361.000000;1.302885
8360.000000;1.303959
8359.000000;1.304922
8358.000000;1.305081
8357.000000;1.304346
8356.000000;1.303379
8355.000000;1.302902
8354.000000;1.303017
8353.000000;1.303313
8352.000000;1.303475
8351.000000;1.303626
8350.000000;1.304118
8349.000000;1.305092
8348.000000;1.306148
8347.000000;1.306439
8346.000000;1.305359
8345.000000;1.303309
8344.000000;1.301544
8343.000000;1.300971
8342.000000;1.301246
8341.000000;1.301292
8340.000000;1.300614
8339.000000;1.299806
8338.000000;1.299793
8337.000000;1.300846
8336.000000;1.302359
8335.000000;1.303292
8334.000000;1.302873
8333.000000;1.301263
8332.000000;1.299677
8331.000000;1.299490
8330.000000;1.300908
8329.000000;1.302641
8328.000000;1.303153
8327.000000;1.302179
8326.000000;1.300748
8325.000000;1.299899
8324.000000;1.299779
8323.000000;1.299959
8322.000000;1.300165
8321.000000;1.300450
8320.000000;1.300875
8319.000000;1.301300
8318.000000;1.301487
8317.000000;1.301327
8316.000000;1.300914
8315.000000;1.300423
8314.000000;1.299969
8313.000000;1.299583
8312.000000;1.299313
8311.000000;1.299248
8310.000000;1.299366
8309.000000;1.299445
8308.000000;1.299262
8307.000000;1.298868
8306.000000;1.298527
8305.000000;1.298418
8304.000000;1.298569
8303.000000;1.299009
8302.000000;1.299694
8301.000000;1.300201
8300.000000;1.299850
8299.000000;1.298451
8298.000000;1.296782
8297.000000;1.295982
8296.000000;1.296444
8295.000000;1.297489
8294.000000;1.298137
8293.000000;1.298027
8292.000000;1.297530
8291.000000;1.297218
8290.000000;1.297395
8289.000000;1.298036
8288.000000;1.298948
8287.000000;1.299945
8286.000000;1.300866
8285.000000;1.301460
8284.000000;1.301389
8283.000000;1.300539
8282.000000;1.299354
8281.000000;1.298603
8280.000000;1.298665
8279.000000;1.299145
8278.000000;1.299336
8277.000000;1.298935
8276.000000;1.298169
8275.000000;1.297360
8274.000000;1.296688
8273.000000;1.296356
8272.000000;1.296600
8271.000000;1.297350
8270.000000;1.298087
8269.000000;1.298251
8268.000000;1.297760
8267.000000;1.296994
8266.000000;1.296395
8265.000000;1.296225
8264.000000;1.296536
8263.000000;1.297111
8262.000000;1.297479
8261.000000;1.297273
8260.000000;1.296655
8259.000000;1.296203
8258.000000;1.296316
8257.000000;1.296858
8256.000000;1.297410
8255.000000;1.297648
8254.000000;1.297404
8253.000000;1.296608
8252.000000;1.295444
8251.000000;1.294405
8250.000000;1.293912
8249.000000;1.293913
8248.000000;1.294015
8247.000000;1.293980
8246.000000;1.293879
8245.000000;1.293785
8244.000000;1.293619
8243.000000;1.293331
8242.000000;1.293008
8241.000000;1.292718
8240.000000;1.292484
8239.000000;1.292477
8238.000000;1.292947
8237.000000;1.293820
8236.000000;1.294621
8235.000000;1.295014
8234.000000;1.295183
8233.000000;1.295407
8232.000000;1.295518
8231.000000;1.295162
8230.000000;1.294487
8229.000000;1.294110
8228.000000;1.294335
8227.000000;1.294771
8226.000000;1.294862
8225.000000;1.294498
8224.000000;1.293942
8223.000000;1.293423
8222.000000;1.293024
8221.000000;1.292768
8220.000000;1.292599
8219.000000;1.292384
8218.000000;1.292159
8217.000000;1.292242
8216.000000;1.292827
8215.000000;1.293566
8214.000000;1.293855
8213.000000;1.293529
8212.000000;1.292994
8211.000000;1.292647
8210.000000;1.292449
8209.000000;1.292240
8208.000000;1.292173
8207.000000;1.292549
8206.000000;1.293328
8205.000000;1.294080
8204.000000;1.294463
8203.000000;1.294526
8202.000000;1.294455
8201.000000;1.294236
8200.000000;1.293731
8199.000000;1.292992
8198.000000;1.292302
8197.000000;1.291894
8196.000000;1.291725
8195.000000;1.291566
8194.000000;1.291274
8193.000000;1.290963
8192.000000;1.290939
8191.000000;1.291398
8190.000000;1.292137
8189.000000;1.292650
8188.000000;1.292624
8187.000000;1.292291
8186.000000;1.292115
8185.000000;1.292190
8184.000000;1.292154
8183.000000;1.291776
8182.000000;1.291348
8181.000000;1.291311
8180.000000;1.291661
8179.000000;1.291963
8178.000000;1.291900
8177.000000;1.291533
8176.000000;1.291062
8175.000000;1.290564
8174.000000;1.290067
8173.000000;1.289664
8172.000000;1.289454
8171.000000;1.289437
8170.000000;1.289571
8169.000000;1.289832
8168.000000;1.290162
8167.000000;1.290404
8166.000000;1.290332
8165.000000;1.289765
8164.000000;1.288740
8163.000000;1.287687
8162.000000;1.287300
8161.000000;1.287971
8160.000000;1.289295
8159.000000;1.290371
8158.000000;1.290697
8157.000000;1.290568
8156.000000;1.290518
8155.000000;1.290663
8154.000000;1.290794
8153.000000;1.290851
8152.000000;1.290960
8151.000000;1.291115
8150.000000;1.291195
8149.000000;1.291266
8148.000000;1.291521
8147.000000;1.291910
8146.000000;1.292137
8145.000000;1.292117
8144.000000;1.292118
8143.000000;1.292252
8142.000000;1.292165
8141.000000;1.291495
8140.000000;1.290467
8139.000000;1.289670
8138.000000;1.289357
8137.000000;1.289294
8136.000000;1.289256
8135.000000;1.289318
8134.000000;1.289580
8133.000000;1.289929
8132.000000;1.290242
8131.000000;1.290556
8130.000000;1.290839
8129.000000;1.290805
8128.000000;1.290261
8127.000000;1.289497
8126.000000;1.289009
8125.000000;1.288877
8124.000000;1.288730
8123.000000;1.288374
8122.000000;1.288153
8121.000000;1.288525
8120.000000;1.289440
8119.000000;1.290305
8118.000000;1.290515
8117.000000;1.289952
8116.000000;1.289084
8115.000000;1.288622
8114.000000;1.288952
8113.000000;1.289748
8112.000000;1.290213
8111.000000;1.289821
8110.000000;1.288763
8109.000000;1.287634
8108.000000;1.286830
8107.000000;1.286394
8106.000000;1.286308
8105.000000;1.286647
8104.000000;1.287375
8103.000000;1.288168
8102.000000;1.288574
8101.000000;1.288359
8100.000000;1.287703
8099.000000;1.287033
8098.000000;1.286678
8097.000000;1.286656
8096.000000;1.286739
8095.000000;1.286661
8094.000000;1.286267
8093.000000;1.285596
8092.000000;1.284934
8091.000000;1.284695
8090.000000;1.285057
8089.000000;1.285749
8088.000000;1.286372
8087.000000;1.286898
8086.000000;1.287558
8085.000000;1.288265
8084.000000;1.288537
8083.000000;1.288155
8082.000000;1.287525
8081.000000;1.287148
8080.000000;1.287052
8079.000000;1.287035
8078.000000;1.287120
8077.000000;1.287334
8076.000000;1.287311
8075.000000;1.286657
8074.000000;1.285676
8073.000000;1.285191
8072.000000;1.285579
8071.000000;1.286404
8070.000000;1.287083
8069.000000;1.287492
8068.000000;1.287772
8067.000000;1.287909
8066.000000;1.287829
8065.000000;1.287645
8064.000000;1.287506
8063.000000;1.287359
8062.000000;1.287075
8061.000000;1.286722
8060.000000;1.286528
8059.000000;1.286591
8058.000000;1.286765
8057.000000;1.286794
8056.000000;1.286531
8055.000000;1.286088
8054.000000;1.285755
8053.000000;1.285670
8052.000000;1.285598
8051.000000;1.285247
8050.000000;1.284738
8049.000000;1.284486
8048.000000;1.284585
8047.000000;1.284651
8046.000000;1.284395
8045.000000;1.284028
8044.000000;1.283895
8043.000000;1.284007
8042.000000;1.284162
8041.000000;1.284293
8040.000000;1.284397
8039.000000;1.284339
8038.000000;1.284073
8037.000000;1.283945
8036.000000;1.284393
8035.000000;1.285322
8034.000000;1.286078
8033.000000;1.286143
8032.000000;1.285657
8031.000000;1.285154
8030.000000;1.284958
8029.000000;1.284937
8028.000000;1.284758
8027.000000;1.284310
8026.000000;1.283879
8025.000000;1.283891
8024.000000;1.284454
8023.000000;1.285230
8022.000000;1.285789
8021.000000;1.286040
8020.000000;1.286160
8019.000000;1.286200
8018.000000;1.285949
8017.000000;1.285286
8016.000000;1.284487
8015.000000;1.284027
8014.000000;1.284068
8013.000000;1.284291
8012.000000;1.284317
8011.000000;1.284223
8010.000000;1.284424
8009.000000;1.285023
8008.000000;1.285537
8007.000000;1.285498
8006.000000;1.285146
8005.000000;1.285193
8004.000000;1.285879
8003.000000;1.286661
8002.000000;1.286935
8001.000000;1.286730
8000.000000;1.286504
7999.000000;1.286467
7998.000000;1.286413
7997.000000;1.286094
7996.000000;1.285482
7995.000000;1.284710
7994.000000;1.283962
7993.000000;1.283400
7992.000000;1.283062
7991.000000;1.282865
7990.000000;1.282772
7989.000000;1.282870
7988.000000;1.283195
7987.000000;1.283579
7986.000000;1.283826
7985.000000;1.283937
7984.000000;1.284049
7983.000000;1.284240
7982.000000;1.284533
7981.000000;1.284936
7980.000000;1.285329
7979.000000;1.285463
7978.000000;1.285252
7977.000000;1.284973
7976.000000;1.284926
7975.000000;1.285008
7974.000000;1.284873
7973.000000;1.284480
7972.000000;1.284190
7971.000000;1.284285
7970.000000;1.284596
7969.000000;1.284689
7968.000000;1.284280
7967.000000;1.283471
7966.000000;1.282710
7965.000000;1.282487
7964.000000;1.282894
7963.000000;1.283445
7962.000000;1.283543
7961.000000;1.283152
7960.000000;1.282825
7959.000000;1.283024
7958.000000;1.283622
7957.000000;1.284146
7956.000000;1.284301
7955.000000;1.284127
7954.000000;1.283807
7953.000000;1.283547
7952.000000;1.283539
7951.000000;1.283855
7950.000000;1.284346
7949.000000;1.284726
7948.000000;1.284793
7947.000000;1.284544
7946.000000;1.284124
7945.000000;1.283729
7944.000000;1.283519
7943.000000;1.283552
7942.000000;1.283774
7941.000000;1.284060
7940.000000;1.284230
7939.000000;1.284081
7938.000000;1.283551
7937.000000;1.282895
7936.000000;1.282557
7935.000000;1.282770
7934.000000;1.283303
7933.000000;1.283700
7932.000000;1.283744
7931.000000;1.283596
7930.000000;1.283528
7929.000000;1.283622
7928.000000;1.283761
7927.000000;1.283784
7926.000000;1.283612
7925.000000;1.283304
7924.000000;1.283052
7923.000000;1.283054
7922.000000;1.283303
7921.000000;1.283553
7920.000000;1.283599
7919.000000;1.283526
7918.000000;1.283557
7917.000000;1.283678
7916.000000;1.283604
7915.000000;1.283172
7914.000000;1.282633
7913.000000;1.282395
7912.000000;1.282588
7911.000000;1.282994
7910.000000;1.283339
7909.000000;1.283500
7908.000000;1.283492
7907.000000;1.283424
7906.000000;1.283474
7905.000000;1.283738
7904.000000;1.284086
7903.000000;1.284255
7902.000000;1.284107
7901.000000;1.283723
7900.000000;1.283303
7899.000000;1.283093
7898.000000;1.283325
7897.000000;1.284019
7896.000000;1.284832
7895.000000;1.285304
7894.000000;1.285285
7893.000000;1.284949
7892.000000;1.284434
7891.000000;1.283734
7890.000000;1.283008
7889.000000;1.282658
7888.000000;1.282907
7887.000000;1.283478
7886.000000;1.283884
7885.000000;1.283908
7884.000000;1.283664
7883.000000;1.283359
7882.000000;1.283221
7881.000000;1.283479
7880.000000;1.284155
7879.000000;1.284897
7878.000000;1.285242
7877.000000;1.285057
7876.000000;1.284605
7875.000000;1.284253
7874.000000;1.284246
7873.000000;1.284628
7872.000000;1.285177
7871.000000;1.285450
7870.000000;1.285139
7869.000000;1.284413
7868.000000;1.283770
7867.000000;1.283575
7866.000000;1.283859
7865.000000;1.284455
7864.000000;1.285128
7863.000000;1.285585
7862.000000;1.285599
7861.000000;1.285213
7860.000000;1.284704
7859.000000;1.284321
7858.000000;1.284155
7857.000000;1.284229
7856.000000;1.284529
7855.000000;1.284920
7854.000000;1.285191
7853.000000;1.285250
7852.000000;1.285153
7851.000000;1.284933
7850.000000;1.284562
7849.000000;1.284127
7848.000000;1.283876
7847.000000;1.283975
7846.000000;1.284311
7845.000000;1.284637
7844.000000;1.284824
7843.000000;1.284908
7842.000000;1.284955
7841.000000;1.284984
7840.000000;1.284988
7839.000000;1.284942
7838.000000;1.284800
7837.000000;1.284525
7836.000000;1.284149
7835.000000;1.283789
7834.000000;1.283618
7833.000000;1.283765
7832.000000;1.284199
7831.000000;1.284723
7830.000000;1.285159
7829.000000;1.285508
7828.000000;1.285848
7827.000000;1.286120
7826.000000;1.286140
7825.000000;1.285866
7824.000000;1.285530
7823.000000;1.285439
7822.000000;1.285703
7821.000000;1.286178
7820.000000;1.286613
7819.000000;1.286783
7818.000000;1.286602
7817.000000;1.286206
7816.000000;1.285881
7815.000000;1.285786
7814.000000;1.285770
7813.000000;1.285564
7812.000000;1.285149
7811.000000;1.284841
7810.000000;1.284988
7809.000000;1.285645
7808.000000;1.286560
7807.000000;1.287379
7806.000000;1.287836
7805.000000;1.287843
7804.000000;1.287548
7803.000000;1.287273
7802.000000;1.287282
7801.000000;1.287542
7800.000000;1.287797
7799.000000;1.287891
7798.000000;1.287921
7797.000000;1.288013
7796.000000;1.288081
7795.000000;1.287936
7794.000000;1.287557
7793.000000;1.287100
7792.000000;1.286664
7791.000000;1.286247
7790.000000;1.285939
7789.000000;1.285949
7788.000000;1.286347
7787.000000;1.286886
7786.000000;1.287209
7785.000000;1.287173
7784.000000;1.286866
7783.000000;1.286421
7782.000000;1.285930
7781.000000;1.285525
7780.000000;1.285381
7779.000000;1.285628
7778.000000;1.286289
7777.000000;1.287252
7776.000000;1.288226
7775.000000;1.288797
7774.000000;1.288738
7773.000000;1.288305
7772.000000;1.288055
7771.000000;1.288270
7770.000000;1.288665
7769.000000;1.288758
7768.000000;1.288433
7767.000000;1.288009
7766.000000;1.287834
7765.000000;1.287995
7764.000000;1.288421
7763.000000;1.289024
7762.000000;1.289637
7761.000000;1.289976
7760.000000;1.289863
7759.000000;1.289419
7758.000000;1.288920
7757.000000;1.288522
7756.000000;1.288257
7755.000000;1.288195
7754.000000;1.288363
7753.000000;1.288569
7752.000000;1.288557
7751.000000;1.288407
7750.000000;1.288522
7749.000000;1.289111
7748.000000;1.289929
7747.000000;1.290599
7746.000000;1.290994
7745.000000;1.291133
7744.000000;1.290986
7743.000000;1.290600
7742.000000;1.290225
7741.000000;1.290026
7740.000000;1.289850
7739.000000;1.289538
7738.000000;1.289315
7737.000000;1.289539
7736.000000;1.290183
7735.000000;1.290884
7734.000000;1.291424
7733.000000;1.291825
7732.000000;1.292020
7731.000000;1.291858
7730.000000;1.291465
7729.000000;1.291227
7728.000000;1.291300
7727.000000;1.291445
7726.000000;1.291434
7725.000000;1.291317
7724.000000;1.291211
7723.000000;1.291129
7722.000000;1.291140
7721.000000;1.291377
7720.000000;1.291764
7719.000000;1.292012
7718.000000;1.292049
7717.000000;1.292157
7716.000000;1.292502
7715.000000;1.292828
7714.000000;1.292850
7713.000000;1.292650
7712.000000;1.292467
7711.000000;1.292334
7710.000000;1.292196
7709.000000;1.292130
7708.000000;1.292188
7707.000000;1.292240
7706.000000;1.292222
7705.000000;1.292333
7704.000000;1.292698
7703.000000;1.293057
7702.000000;1.293145
7701.000000;1.293176
7700.000000;1.293556
7699.000000;1.294258
7698.000000;1.294898
7697.000000;1.295333
7696.000000;1.295750
7695.000000;1.296132
7694.000000;1.296118
7693.000000;1.295567
7692.000000;1.294914
7691.000000;1.294733
7690.000000;1.295135
7689.000000;1.295767
7688.000000;1.296248
7687.000000;1.296449
7686.000000;1.296464
7685.000000;1.296464
7684.000000;1.296564
7683.000000;1.296734
7682.000000;1.296822
7681.000000;1.296687
7680.000000;1.296335
7679.000000;1.295951
7678.000000;1.295820
7677.000000;1.296110
7676.000000;1.296681
7675.000000;1.297161
7674.000000;1.297293
7673.000000;1.297151
7672.000000;1.296979
7671.000000;1.296940
7670.000000;1.297083
7669.000000;1.297428
7668.000000;1.297946
7667.000000;1.298537
7666.000000;1.299107
7665.000000;1.299565
7664.000000;1.299730
7663.000000;1.299438
7662.000000;1.298840
7661.000000;1.298394
7660.000000;1.298391
7659.000000;1.298673
7658.000000;1.298965
7657.000000;1.299260
7656.000000;1.299663
7655.000000;1.300079
7654.000000;1.300346
7653.000000;1.300529
7652.000000;1.300755
7651.000000;1.300903
7650.000000;1.300809
7649.000000;1.300659
7648.000000;1.300830
7647.000000;1.301347
7646.000000;1.301858
7645.000000;1.302114
7644.000000;1.302175
7643.000000;1.302158
7642.000000;1.302107
7641.000000;1.302169
7640.000000;1.302542
7639.000000;1.303175
7638.000000;1.303784
7637.000000;1.304225
7636.000000;1.304597
7635.000000;1.304935
7634.000000;1.305077
7633.000000;1.304937
7632.000000;1.304595
7631.000000;1.304082
7630.000000;1.303390
7629.000000;1.302793
7628.000000;1.302796
7627.000000;1.303519
7626.000000;1.304425
7625.000000;1.304902
7624.000000;1.304934
7623.000000;1.304950
7622.000000;1.305208
7621.000000;1.305595
7620.000000;1.305924
7619.000000;1.306150
7618.000000;1.306304
7617.000000;1.306417
7616.000000;1.306553
7615.000000;1.306793
7614.000000;1.307166
7613.000000;1.307614
7612.000000;1.308020
7611.000000;1.308238
7610.000000;1.308209
7609.000000;1.308081
7608.000000;1.308141
7607.000000;1.308540
7606.000000;1.309180
7605.000000;1.309883
7604.000000;1.310554
7603.000000;1.311121
7602.000000;1.311442
7601.000000;1.311408
7600.000000;1.311080
7599.000000;1.310665
7598.000000;1.310385
7597.000000;1.310388
7596.000000;1.310680
7595.000000;1.311102
7594.000000;1.311447
7593.000000;1.311651
7592.000000;1.311798
7591.000000;1.311958
7590.000000;1.312126
7589.000000;1.312325
7588.000000;1.312620
7587.000000;1.313003
7586.000000;1.313410
7585.000000;1.313855
7584.000000;1.314373
7583.000000;1.314805
7582.000000;1.314865
7581.000000;1.314560
7580.000000;1.314326
7579.000000;1.314587
7578.000000;1.315302
7577.000000;1.316067
7576.000000;1.316564
7575.000000;1.316755
7574.000000;1.316787
7573.000000;1.316882
7572.000000;1.317228
7571.000000;1.317767
7570.000000;1.318140
7569.000000;1.318064
7568.000000;1.317756
7567.000000;1.317769
7566.000000;1.318363
7565.000000;1.319205
7564.000000;1.319768
7563.000000;1.319913
7562.000000;1.319950
7561.000000;1.320200
7560.000000;1.320660
7559.000000;1.321104
7558.000000;1.321395
7557.000000;1.321605
7556.000000;1.321864
7555.000000;1.322211
7554.000000;1.322579
7553.000000;1.322867
7552.000000;1.322983
7551.000000;1.322917
7550.000000;1.322814
7549.000000;1.322909
7548.000000;1.323289
7547.000000;1.323781
7546.000000;1.324149
7545.000000;1.324362
7544.000000;1.324562
7543.000000;1.324832
7542.000000;1.325130
7541.000000;1.325408
7540.000000;1.325679
7539.000000;1.325973
7538.000000;1.326346
7537.000000;1.326902
7536.000000;1.327653
7535.000000;1.328383
7534.000000;1.328838
7533.000000;1.329078
7532.000000;1.329426
7531.000000;1.330014
7530.000000;1.330541
7529.000000;1.330641
7528.000000;1.330349
7527.000000;1.330046
7526.000000;1.330029
7525.000000;1.330259
7524.000000;1.330534
7523.000000;1.330795
7522.000000;1.331221
7521.000000;1.332009
7520.000000;1.333063
7519.000000;1.333943
7518.000000;1.334242
7517.000000;1.334026
7516.000000;1.333809
7515.000000;1.334058
7514.000000;1.334805
7513.000000;1.335723
7512.000000;1.336459
7511.000000;1.336825
7510.000000;1.336825
7509.000000;1.336606
7508.000000;1.336386
7507.000000;1.336356
7506.000000;1.336610
7505.000000;1.337141
7504.000000;1.337818
7503.000000;1.338411
7502.000000;1.338766
7501.000000;1.338984
7500.000000;1.339333
7499.000000;1.339947
7498.000000;1.340726
7497.000000;1.341473
7496.000000;1.342112
7495.000000;1.342583
7494.000000;1.342740
7493.000000;1.342732
7492.000000;1.342776
7491.000000;1.343031
7490.000000;1.343384
7489.000000;1.343658
7488.000000;1.343911
7487.000000;1.344413
7486.000000;1.345308
7485.000000;1.346405
7484.000000;1.347358
7483.000000;1.347964
7482.000000;1.348239
7481.000000;1.348289
7480.000000;1.348219
7479.000000;1.348204
7478.000000;1.348485
7477.000000;1.349160
7476.000000;1.349999
7475.000000;1.350615
7474.000000;1.350866
7473.000000;1.350976
7472.000000;1.351207
7471.000000;1.351558
7470.000000;1.351863
7469.000000;1.352035
7468.000000;1.352109
7467.000000;1.352157
7466.000000;1.352291
7465.000000;1.352628
7464.000000;1.353120
7463.000000;1.353544
7462.000000;1.353824
7461.000000;1.354204
7460.000000;1.354909
7459.000000;1.355760
7458.000000;1.356391
7457.000000;1.356733
7456.000000;1.356968
7455.000000;1.357113
7454.000000;1.357040
7453.000000;1.356909
7452.000000;1.357168
7451.000000;1.357996
7450.000000;1.359047
7449.000000;1.359893
7448.000000;1.360454
7447.000000;1.360845
7446.000000;1.361102
7445.000000;1.361283
7444.000000;1.361606
7443.000000;1.362193
7442.000000;1.362807
7441.000000;1.363082
7440.000000;1.362954
7439.000000;1.362717
7438.000000;1.362706
7437.000000;1.363061
7436.000000;1.363726
7435.000000;1.364525
7434.000000;1.365254
7433.000000;1.365818
7432.000000;1.366243
7431.000000;1.366543
7430.000000;1.366669
7429.000000;1.366653
7428.000000;1.366679
7427.000000;1.366947
7426.000000;1.367548
7425.000000;1.368494
7424.000000;1.369685
7423.000000;1.370787
7422.000000;1.371391
7421.000000;1.371428
7420.000000;1.371309
7419.000000;1.371444
7418.000000;1.371747
7417.000000;1.371822
7416.000000;1.371576
7415.000000;1.371419
7414.000000;1.371793
7413.000000;1.372642
7412.000000;1.373456
7411.000000;1.373830
7410.000000;1.373877
7409.000000;1.374028
7408.000000;1.374469
7407.000000;1.374943
7406.000000;1.375185
7405.000000;1.375379
7404.000000;1.375928
7403.000000;1.376896
7402.000000;1.377916
7401.000000;1.378594
7400.000000;1.378797
7399.000000;1.378607
7398.000000;1.378282
7397.000000;1.378220
7396.000000;1.378658
7395.000000;1.379358
7394.000000;1.379869
7393.000000;1.380093
7392.000000;1.380259
7391.000000;1.380450
7390.000000;1.380582
7389.000000;1.380799
7388.000000;1.381395
7387.000000;1.382287
7386.000000;1.383031
7385.000000;1.383456
7384.000000;1.383778
7383.000000;1.384008
7382.000000;1.383898
7381.000000;1.383676
7380.000000;1.384086
7379.000000;1.385196
7378.000000;1.385831
7377.000000;1.384936
7376.000000;1.383164
7375.000000;1.382390
7374.000000;1.383670
7373.000000;1.386194
7372.000000;1.388258
7371.000000;1.388702
7370.000000;1.387494
7369.000000;1.385617
7368.000000;1.384538
7367.000000;1.385181
7366.000000;1.387147
7365.000000;1.389211
7364.000000;1.390446
7363.000000;1.390683
7362.000000;1.390325
7361.000000;1.390117
7360.000000;1.390707
7359.000000;1.391901
7358.000000;1.392543
7357.000000;1.391716
7356.000000;1.390087
7355.000000;1.389498
7354.000000;1.391008
7353.000000;1.393776
7352.000000;1.396022
7351.000000;1.396544
7350.000000;1.395365
7349.000000;1.393660
7348.000000;1.393056
7347.000000;1.394266
7346.000000;1.396215
7345.000000;1.397178
7344.000000;1.396661
7343.000000;1.395429
7342.000000;1.393956
7341.000000;1.392093
7340.000000;1.390515
7339.000000;1.390936
7338.000000;1.393938
7337.000000;1.397766
7336.000000;1.400267
7335.000000;1.401135
7334.000000;1.401678
7333.000000;1.403017
7332.000000;1.405009
7331.000000;1.406487
7330.000000;1.406076
7329.000000;1.403451
7328.000000;1.400417
7327.000000;1.399833
7326.000000;1.402431
7325.000000;1.405710
7324.000000;1.407046
7323.000000;1.406774
7322.000000;1.407072
7321.000000;1.408759
7320.000000;1.410654
7319.000000;1.411638
7318.000000;1.411895
7317.000000;1.412139
7316.000000;1.412717
7315.000000;1.413552
7314.000000;1.414224
7313.000000;1.414168
7312.000000;1.413490
7311.000000;1.413367
7310.000000;1.414626
7309.000000;1.416148
7308.000000;1.416102
7307.000000;1.414738
7306.000000;1.414462
7305.000000;1.416661
7304.000000;1.419826
7303.000000;1.421616
7302.000000;1.421511
7301.000000;1.420787
7300.000000;1.420990
7299.000000;1.422923
7298.000000;1.426115
7297.000000;1.428681
7296.000000;1.428578
7295.000000;1.425914
7294.000000;1.423487
7293.000000;1.424086
7292.000000;1.427423
7291.000000;1.430757
7290.000000;1.432232
7289.000000;1.432375
7288.000000;1.432720
7287.000000;1.434126
7286.000000;1.436435
7285.000000;1.438921
7284.000000;1.440760
7283.000000;1.441599
7282.000000;1.441868
7281.000000;1.442318
7280.000000;1.443278
7279.000000;1.444538
7278.000000;1.445828
7277.000000;1.447084
7276.000000;1.448249
7275.000000;1.449244
7274.000000;1.450237
7273.000000;1.451554
7272.000000;1.453209
7271.000000;1.454781
7270.000000;1.455880
7269.000000;1.456611
7268.000000;1.457547
7267.000000;1.459253
7266.000000;1.461711
7265.000000;1.464139
7264.000000;1.465603
7263.000000;1.466018
7262.000000;1.466405
7261.000000;1.467866
7260.000000;1.470410
7259.000000;1.473112
7258.000000;1.475266
7257.000000;1.476875
7256.000000;1.478087
7255.000000;1.478780
7254.000000;1.479077
7253.000000;1.479858
7252.000000;1.482145
7251.000000;1.485845
7250.000000;1.489562
7249.000000;1.491974
7248.000000;1.493110
7247.000000;1.493924
7246.000000;1.494802
7245.000000;1.494939
7244.000000;1.493643
7243.000000;1.492059
7242.000000;1.492687
7241.000000;1.496622
7240.000000;1.502091
7239.000000;1.506592
7238.000000;1.509662
7237.000000;1.512667
7236.000000;1.516349
7235.000000;1.519548
7234.000000;1.520648
7233.000000;1.519957
7232.000000;1.520182
7231.000000;1.523924
7230.000000;1.530676
7229.000000;1.537180
7228.000000;1.540745
7227.000000;1.541666
7226.000000;1.542564
7225.000000;1.545581
7224.000000;1.550429
7223.000000;1.555161
7222.000000;1.558316
7221.000000;1.560101
7220.000000;1.561943
7219.000000;1.565151
7218.000000;1.569738
7217.000000;1.574419
7216.000000;1.577945
7215.000000;1.580399
7214.000000;1.582945
7213.000000;1.586426
7212.000000;1.590608
7211.000000;1.594847
7210.000000;1.598945
7209.000000;1.602986
7208.000000;1.606700
7207.000000;1.609571
7206.000000;1.611614
7205.000000;1.613675
7204.000000;1.616824
7203.000000;1.621514
7202.000000;1.627238
7201.000000;1.632884
7200.000000;1.637583
7199.000000;1.641412
7198.000000;1.645194
7197.000000;1.649571
7196.000000;1.654478
7195.000000;1.659599
7194.000000;1.664852
7193.000000;1.670074
7192.000000;1.674684
7191.000000;1.678319
7190.000000;1.681612
7189.000000;1.685636
7188.000000;1.690647
7187.000000;1.695954
7186.000000;1.700952
7185.000000;1.705551
7184.000000;1.709621
7183.000000;1.712942
7182.000000;1.716119
7181.000000;1.720650
7180.000000;1.727223
7179.000000;1.734519
7178.000000;1.740572
7177.000000;1.744884
7176.000000;1.748617
7175.000000;1.753208
7174.000000;1.759248
7173.000000;1.766210
7172.000000;1.772734
7171.000000;1.777516
7170.000000;1.780516
7169.000000;1.783125
7168.000000;1.786731
7167.000000;1.791480
7166.000000;1.796818
7165.000000;1.802595
7164.000000;1.808794
7163.000000;1.814694
7162.000000;1.819577
7161.000000;1.824124
7160.000000;1.829783
7159.000000;1.836637
7158.000000;1.843194
7157.000000;1.848658
7156.000000;1.854025
7155.000000;1.860401
7154.000000;1.867277
7153.000000;1.873284
7152.000000;1.878071
7151.000000;1.882607
7150.000000;1.887855
7149.000000;1.893818
7148.000000;1.899752
7147.000000;1.904868
7146.000000;1.909024
7145.000000;1.913002
7144.000000;1.917853
7143.000000;1.923708
7142.000000;1.929537
7141.000000;1.934322
7140.000000;1.938255
7139.000000;1.942511
7138.000000;1.947868
7137.000000;1.953858
7136.000000;1.959488
7135.000000;1.964563
7134.000000;1.969902
7133.000000;1.976183
7132.000000;1.982873
7131.000000;1.988707
7130.000000;1.993149
7129.000000;1.997013
7128.000000;2.001501
7127.000000;2.006957
7126.000000;2.012819
7125.000000;2.018368
7124.000000;2.023223
7123.000000;2.027427
7122.000000;2.031367
7121.000000;2.035291
7120.000000;2.038705
7119.000000;2.040910
7118.000000;2.042559
7117.000000;2.045818
7116.000000;2.051876
7115.000000;2.058905
7114.000000;2.063961
7113.000000;2.066616
7112.000000;2.069339
7111.000000;2.074297
7110.000000;2.080990
7109.000000;2.087226
7108.000000;2.091408
7107.000000;2.093561
7106.000000;2.094981
7105.000000;2.097375
7104.000000;2.101783
7103.000000;2.107783
7102.000000;2.113967
7101.000000;2.119391
7100.000000;2.124003
7099.000000;2.127725
7098.000000;2.130191
7097.000000;2.131777
7096.000000;2.133969
7095.000000;2.137975
7094.000000;2.143227
7093.000000;2.147762
7092.000000;2.150057
7091.000000;2.150245
7090.000000;2.149846
7089.000000;2.150636
7088.000000;2.153416
7087.000000;2.157498
7086.000000;2.161529
7085.000000;2.164900
7084.000000;2.168091
7083.000000;2.171659
7082.000000;2.175512
7081.000000;2.179386
7080.000000;2.183439
7079.000000;2.187886
7078.000000;2.192281
7077.000000;2.195521
7076.000000;2.196642
7075.000000;2.195778
7074.000000;2.194490
7073.000000;2.194857
7072.000000;2.197793
7071.000000;2.202197
7070.000000;2.206112
7069.000000;2.208812
7068.000000;2.211182
7067.000000;2.214073
7066.000000;2.217208
7065.000000;2.219973
7064.000000;2.222562
7063.000000;2.225685
7062.000000;2.229440
7061.000000;2.233097
7060.000000;2.235959
7059.000000;2.238167
7058.000000;2.240573
7057.000000;2.243697
7056.000000;2.246652
7055.000000;2.247438
7054.000000;2.244834
7053.000000;2.240050
7052.000000;2.236033
7051.000000;2.235009
7050.000000;2.236999
7049.000000;2.240478
7048.000000;2.243908
7047.000000;2.246684
7046.000000;2.249137
7045.000000;2.251822
7044.000000;2.254669
7043.000000;2.256934
7042.000000;2.258144
7041.000000;2.258801
7040.000000;2.259724
7039.000000;2.260979
7038.000000;2.261934
7037.000000;2.262201
7036.000000;2.262081
7035.000000;2.262325
7034.000000;2.263908
7033.000000;2.267519
7032.000000;2.272504
7031.000000;2.276781
7030.000000;2.278787
7029.000000;2.279295
7028.000000;2.280187
7027.000000;2.281732
7026.000000;2.282360
7025.000000;2.281178
7024.000000;2.279368
7023.000000;2.278622
7022.000000;2.279210
7021.000000;2.280147
7020.000000;2.280631
7019.000000;2.280789
7018.000000;2.281376
7017.000000;2.283112
7016.000000;2.285926
7015.000000;2.288656
7014.000000;2.289972
7013.000000;2.289745
7012.000000;2.289084
7011.000000;2.289061
7010.000000;2.289867
7009.000000;2.291066
7008.000000;2.292152
7007.000000;2.292976
7006.000000;2.293913
7005.000000;2.295365
7004.000000;2.296792
7003.000000;2.296979
7002.000000;2.295986
7001.000000;2.295931
7000.000000;2.298499
6999.000000;2.302231
6998.000000;2.303850
6997.000000;2.302253
6996.000000;2.299473
6995.000000;2.297489
6994.000000;2.296116
6993.000000;2.294469
6992.000000;2.292820
6991.000000;2.292123
6990.000000;2.292787
6989.000000;2.294655
6988.000000;2.297358
6987.000000;2.300052
6986.000000;2.301642
6985.000000;2.301890
6984.000000;2.301596
6983.000000;2.301421
6982.000000;2.301564
6981.000000;2.302658
6980.000000;2.305321
6979.000000;2.308252
6978.000000;2.308636
6977.000000;2.305883
6976.000000;2.303318
6975.000000;2.304274
6974.000000;2.307759
6973.000000;2.309689
6972.000000;2.308053
6971.000000;2.305137
6970.000000;2.304106
6969.000000;2.305153
6968.000000;2.305928
6967.000000;2.304848
6966.000000;2.302898
6965.000000;2.302220
6964.000000;2.303732
6963.000000;2.306517
6962.000000;2.309214
6961.000000;2.311413
6960.000000;2.313383
6959.000000;2.314935
6958.000000;2.315363
6957.000000;2.314434
6956.000000;2.312741
6955.000000;2.310973
6954.000000;2.309465
6953.000000;2.308474
6952.000000;2.308240
6951.000000;2.308642
6950.000000;2.309321
6949.000000;2.310165
6948.000000;2.310931
6947.000000;2.310438
6946.000000;2.307411
6945.000000;2.302531
6944.000000;2.298400
6943.000000;2.296918
6942.000000;2.297593
6941.000000;2.298759
6940.000000;2.299562
6939.000000;2.300154
6938.000000;2.300589
6937.000000;2.300466
6936.000000;2.299691
6935.000000;2.298792
6934.000000;2.298379
6933.000000;2.298886
6932.000000;2.300568
6931.000000;2.303225
6930.000000;2.306180
6929.000000;2.308795
6928.000000;2.310684
6927.000000;2.311371
6926.000000;2.310545
6925.000000;2.309054
6924.000000;2.308642
6923.000000;2.309870
6922.000000;2.310887
6921.000000;2.309202
6920.000000;2.304692
6919.000000;2.300012
6918.000000;2.297916
6917.000000;2.298835
6916.000000;2.301031
6915.000000;2.302581
6914.000000;2.302998
6913.000000;2.303025
6912.000000;2.303293
6911.000000;2.303485
6910.000000;2.302857
6909.000000;2.301281
6908.000000;2.299378
6907.000000;2.297827
6906.000000;2.297000
6905.000000;2.297043
6904.000000;2.297583
6903.000000;2.297479
6902.000000;2.295845
6901.000000;2.293541
6900.000000;2.292606
6899.000000;2.293805
6898.000000;2.295607
6897.000000;2.296009
6896.000000;2.294747
6895.000000;2.293093
6894.000000;2.292003
6893.000000;2.291327
6892.000000;2.290584
6891.000000;2.289755
6890.000000;2.289238
6889.000000;2.289420
6888.000000;2.290325
6887.000000;2.291466
6886.000000;2.292294
6885.000000;2.292975
6884.000000;2.294214
6883.000000;2.296080
6882.000000;2.297545
6881.000000;2.297580
6880.000000;2.296313
6879.000000;2.294547
6878.000000;2.292607
6877.000000;2.290311
6876.000000;2.287747
6875.000000;2.285456
6874.000000;2.283970
6873.000000;2.283523
6872.000000;2.284046
6871.000000;2.285015
6870.000000;2.285473
6869.000000;2.284760
6868.000000;2.283259
6867.000000;2.282072
6866.000000;2.282023
6865.000000;2.283107
6864.000000;2.284629
6863.000000;2.285607
6862.000000;2.285361
6861.000000;2.284067
6860.000000;2.282670
6859.000000;2.282034
6858.000000;2.282193
6857.000000;2.282421
6856.000000;2.281902
6855.000000;2.280362
6854.000000;2.278292
6853.000000;2.276533
6852.000000;2.275402
6851.000000;2.274295
6850.000000;2.272591
6849.000000;2.270778
6848.000000;2.269960
6847.000000;2.270271
6846.000000;2.270606
6845.000000;2.270212
6844.000000;2.269616
6843.000000;2.269309
6842.000000;2.268525
6841.000000;2.266352
6840.000000;2.263422
6839.000000;2.261423
6838.000000;2.261168
6837.000000;2.261983
6836.000000;2.262834
6835.000000;2.263232
6834.000000;2.262950
6833.000000;2.261716
6832.000000;2.259677
6831.000000;2.257769
6830.000000;2.257068
6829.000000;2.257717
6828.000000;2.258620
6827.000000;2.258290
6826.000000;2.256136
6825.000000;2.253067
6824.000000;2.250732
6823.000000;2.249974
6822.000000;2.250091
6821.000000;2.249632
6820.000000;2.247797
6819.000000;2.245006
6818.000000;2.242426
6817.000000;2.241298
6816.000000;2.242149
6815.000000;2.244000
6814.000000;2.244711
6813.000000;2.242716
6812.000000;2.238341
6811.000000;2.233122
6810.000000;2.228181
6809.000000;2.223872
6808.000000;2.220613
6807.000000;2.219004
6806.000000;2.218941
6805.000000;2.219382
6804.000000;2.219442
6803.000000;2.219287
6802.000000;2.219457
6801.000000;2.219649
6800.000000;2.218813
6799.000000;2.216420
6798.000000;2.213248
6797.000000;2.210719
6796.000000;2.209637
6795.000000;2.209573
6794.000000;2.209287
6793.000000;2.207754
6792.000000;2.205022
6791.000000;2.202142
6790.000000;2.200114
6789.000000;2.198879
6788.000000;2.197488
6787.000000;2.195251
6786.000000;2.192443
6785.000000;2.189754
6784.000000;2.187399
6783.000000;2.185181
6782.000000;2.183155
6781.000000;2.181609
6780.000000;2.180295
6779.000000;2.178370
6778.000000;2.175535
6777.000000;2.172751
6776.000000;2.171179
6775.000000;2.170655
6774.000000;2.169787
6773.000000;2.167614
6772.000000;2.164694
6771.000000;2.162298
6770.000000;2.160933
6769.000000;2.159993
6768.000000;2.158622
6767.000000;2.156578
6766.000000;2.154156
6765.000000;2.151543
6764.000000;2.148584
6763.000000;2.145298
6762.000000;2.142361
6761.000000;2.140689
6760.000000;2.140468
6759.000000;2.140903
6758.000000;2.141025
6757.000000;2.140442
6756.000000;2.139083
6755.000000;2.136708
6754.000000;2.133234
6753.000000;2.129371
6752.000000;2.126316
6751.000000;2.124673
6750.000000;2.123912
6749.000000;2.122899
6748.000000;2.120815
6747.000000;2.117696
6746.000000;2.114362
6745.000000;2.111780
6744.000000;2.110199
6743.000000;2.108869
6742.000000;2.106808
6741.000000;2.103862
6740.000000;2.100809
6739.000000;2.098454
6738.000000;2.096914
6737.000000;2.095722
6736.000000;2.094358
6735.000000;2.092643
6734.000000;2.090823
6733.000000;2.089271
6732.000000;2.087974
6731.000000;2.086436
6730.000000;2.084343
6729.000000;2.082098
6728.000000;2.080321
6727.000000;2.078936
6726.000000;2.077192
6725.000000;2.074587
6724.000000;2.071371
6723.000000;2.068150
6722.000000;2.065414
6721.000000;2.063494
6720.000000;2.062409
6719.000000;2.061502
6718.000000;2.059679
6717.000000;2.056431
6716.000000;2.052487
6715.000000;2.049198
6714.000000;2.047420
6713.000000;2.046970
6712.000000;2.046820
6711.000000;2.045810
6710.000000;2.043486
6709.000000;2.040392
6708.000000;2.037440
6707.000000;2.035057
6706.000000;2.033029
6705.000000;2.031108
6704.000000;2.029265
6703.000000;2.027513
6702.000000;2.025599
6701.000000;2.023722
6700.000000;2.022327
6699.000000;2.021126
6698.000000;2.019329
6697.000000;2.016282
6696.000000;2.012562
6695.000000;2.009520
6694.000000;2.007924
6693.000000;2.007199
6692.000000;2.006105
6691.000000;2.003992
6690.000000;2.001314
6689.000000;1.998967
6688.000000;1.997286
6687.000000;1.995803
6686.000000;1.993965
6685.000000;1.991852
6684.000000;1.989962
6683.000000;1.988456
6682.000000;1.986971
6681.000000;1.985191
6680.000000;1.983244
6679.000000;1.981401
6678.000000;1.979699
6677.000000;1.978020
6676.000000;1.976293
6675.000000;1.974409
6674.000000;1.972168
6673.000000;1.969548
6672.000000;1.966882
6671.000000;1.964547
6670.000000;1.962572
6669.000000;1.960721
6668.000000;1.958856
6667.000000;1.957005
6666.000000;1.955178
6665.000000;1.953341
6664.000000;1.951536
6663.000000;1.949833
6662.000000;1.948166
6661.000000;1.946420
6660.000000;1.944692
6659.000000;1.943177
6658.000000;1.941730
6657.000000;1.939789
6656.000000;1.936979
6655.000000;1.933725
6654.000000;1.930958
6653.000000;1.929173
6652.000000;1.927909
6651.000000;1.926302
6650.000000;1.923992
6649.000000;1.921329
6648.000000;1.918826
6647.000000;1.916711
6646.000000;1.914999
6645.000000;1.913649
6644.000000;1.912479
6643.000000;1.911174
6642.000000;1.909601
6641.000000;1.907973
6640.000000;1.906514
6639.000000;1.905141
6638.000000;1.903695
6637.000000;1.902272
6636.000000;1.901035
6635.000000;1.899826
6634.000000;1.898254
6633.000000;1.896126
6632.000000;1.893520
6631.000000;1.890506
6630.000000;1.887167
6629.000000;1.883914
6628.000000;1.881389
6627.000000;1.879889
6626.000000;1.879017
6625.000000;1.878020
6624.000000;1.876414
6623.000000;1.874322
6622.000000;1.872333
6621.000000;1.870977
6620.000000;1.870147
6619.000000;1.869068
6618.000000;1.867093
6617.000000;1.864475
6616.000000;1.862094
6615.000000;1.860467
6614.000000;1.859324
6613.000000;1.858165
6612.000000;1.856836
6611.000000;1.855426
6610.000000;1.853950
6609.000000;1.852400
6608.000000;1.850909
6607.000000;1.849589
6606.000000;1.848285
6605.000000;1.846676
6604.000000;1.844602
6603.000000;1.842231
6602.000000;1.839940
6601.000000;1.838045
6600.000000;1.836516
6599.000000;1.834970
6598.000000;1.833135
6597.000000;1.831291
6596.000000;1.829972
6595.000000;1.829191
6594.000000;1.828260
6593.000000;1.826573
6592.000000;1.824298
6591.000000;1.822056
6590.000000;1.820157
6589.000000;1.818450
6588.000000;1.816798
6587.000000;1.815387
6586.000000;1.814504
6585.000000;1.814144
6584.000000;1.813845
6583.000000;1.812866
6582.000000;1.810668
6581.000000;1.807412
6580.000000;1.803925
6579.000000;1.801072
6578.000000;1.799167
6577.000000;1.797980
6576.000000;1.797156
6575.000000;1.796458
6574.000000;1.795684
6573.000000;1.794594
6572.000000;1.793031
6571.000000;1.791047
6570.000000;1.788888
6569.000000;1.786826
6568.000000;1.785005
6567.000000;1.783400
6566.000000;1.781947
6565.000000;1.780684
6564.000000;1.779670
6563.000000;1.778804
6562.000000;1.777828
6561.000000;1.776552
6560.000000;1.774961
6559.000000;1.773116
6558.000000;1.771105
6557.000000;1.769120
6556.000000;1.767423
6555.000000;1.766117
6554.000000;1.765034
6553.000000;1.763922
6552.000000;1.762641
6551.000000;1.761147
6550.000000;1.759442
6549.000000;1.757652
6548.000000;1.756032
6547.000000;1.754734
6546.000000;1.753652
6545.000000;1.752580
6544.000000;1.751455
6543.000000;1.750337
6542.000000;1.749228
6541.000000;1.748039
6540.000000;1.746674
6539.000000;1.745119
6538.000000;1.743488
6537.000000;1.741991
6536.000000;1.740719
6535.000000;1.739439
6534.000000;1.737789
6533.000000;1.735771
6532.000000;1.733848
6531.000000;1.732405
6530.000000;1.731321
6529.000000;1.730239
6528.000000;1.729053
6527.000000;1.727855
6526.000000;1.726577
6525.000000;1.725056
6524.000000;1.723444
6523.000000;1.722175
6522.000000;1.721421
6521.000000;1.720830
6520.000000;1.719931
6519.000000;1.718625
6518.000000;1.717155
6517.000000;1.715789
6516.000000;1.714646
6515.000000;1.713681
6514.000000;1.712665
6513.000000;1.711313
6512.000000;1.709596
6511.000000;1.707873
6510.000000;1.706565
6509.000000;1.705708
6508.000000;1.704929
6507.000000;1.703835
6506.000000;1.702342
6505.000000;1.700644
6504.000000;1.698996
6503.000000;1.697549
6502.000000;1.696307
6501.000000;1.695183
6500.000000;1.694133
6499.000000;1.693237
6498.000000;1.692591
6497.000000;1.692093
6496.000000;1.691395
6495.000000;1.690174
6494.000000;1.688453
6493.000000;1.686601
6492.000000;1.684995
6491.000000;1.683694
6490.000000;1.682482
6489.000000;1.681166
6488.000000;1.679780
6487.000000;1.678482
6486.000000;1.677339
6485.000000;1.676258
6484.000000;1.675093
6483.000000;1.673765
6482.000000;1.672310
6481.000000;1.670872
6480.000000;1.669642
6479.000000;1.668737
6478.000000;1.668102
6477.000000;1.667562
6476.000000;1.666975
6475.000000;1.666300
6474.000000;1.665529
6473.000000;1.664605
6472.000000;1.663471
6471.000000;1.662151
6470.000000;1.660740
6469.000000;1.659334
6468.000000;1.658005
6467.000000;1.656808
6466.000000;1.655737
6465.000000;1.654697
6464.000000;1.653596
6463.000000;1.652477
6462.000000;1.651478
6461.000000;1.650611
6460.000000;1.649690
6459.000000;1.648553
6458.000000;1.647289
6457.000000;1.646130
6456.000000;1.645142
6455.000000;1.644167
6454.000000;1.643102
6453.000000;1.642087
6452.000000;1.641328
6451.000000;1.640812
6450.000000;1.640278
6449.000000;1.639462
6448.000000;1.638300
6447.000000;1.636941
6446.000000;1.635660
6445.000000;1.634717
6444.000000;1.634164
6443.000000;1.633749
6442.000000;1.633083
6441.000000;1.631987
6440.000000;1.630632
6439.000000;1.629320
6438.000000;1.628192
6437.000000;1.627186
6436.000000;1.626211
6435.000000;1.625248
6434.000000;1.624278
6433.000000;1.623208
6432.000000;1.621969
6431.000000;1.620675
6430.000000;1.619589
6429.000000;1.618892
6428.000000;1.618460
6427.000000;1.617932
6426.000000;1.617026
6425.000000;1.615801
6424.000000;1.614598
6423.000000;1.613717
6422.000000;1.613135
6421.000000;1.612541
6420.000000;1.611665
6419.000000;1.610529
6418.000000;1.609383
6417.000000;1.608410
6416.000000;1.607592
6415.000000;1.606852
6414.000000;1.606190
6413.000000;1.605579
6412.000000;1.604817
6411.000000;1.603676
6410.000000;1.602208
6409.000000;1.600747
6408.000000;1.599574
6407.000000;1.598709
6406.000000;1.598080
6405.000000;1.597685
6404.000000;1.597459
6403.000000;1.597132
6402.000000;1.596443
6401.000000;1.595459
6400.000000;1.594485
6399.000000;1.593677
6398.000000;1.592902
6397.000000;1.592010
6396.000000;1.591068
6395.000000;1.590256
6394.000000;1.589638
6393.000000;1.589123
6392.000000;1.588558
6391.000000;1.587789
6390.000000;1.586724
6389.000000;1.585449
6388.000000;1.584236
6387.000000;1.583347
6386.000000;1.582829
6385.000000;1.582532
6384.000000;1.582266
6383.000000;1.581892
6382.000000;1.581314
6381.000000;1.580510
6380.000000;1.579570
6379.000000;1.578637
6378.000000;1.577791
6377.000000;1.577008
6376.000000;1.576232
6375.000000;1.575419
6374.000000;1.574517
6373.000000;1.573493
6372.000000;1.572415
6371.000000;1.571454
6370.000000;1.570738
6369.000000;1.570238
6368.000000;1.569806
6367.000000;1.569322
6366.000000;1.568741
6365.000000;1.568040
6364.000000;1.567214
6363.000000;1.566341
6362.000000;1.565570
6361.000000;1.564986
6360.000000;1.564517
6359.000000;1.563998
6358.000000;1.563315
6357.000000;1.562458
6356.000000;1.561496
6355.000000;1.560573
6354.000000;1.559858
6353.000000;1.559403
6352.000000;1.559036
6351.000000;1.558507
6350.000000;1.557756
6349.000000;1.556963
6348.000000;1.556301
6347.000000;1.555721
6346.000000;1.555055
6345.000000;1.554249
6344.000000;1.553419
6343.000000;1.552705
6342.000000;1.552137
6341.000000;1.551625
6340.000000;1.551019
6339.000000;1.550213
6338.000000;1.549259
6337.000000;1.548384
6336.000000;1.547811
6335.000000;1.547561
6334.000000;1.547447
6333.000000;1.547239
6332.000000;1.546797
6331.000000;1.546090
6330.000000;1.545178
6329.000000;1.544210
6328.000000;1.543378
6327.000000;1.542801
6326.000000;1.542469
6325.000000;1.542257
6324.000000;1.541981
6323.000000;1.541458
6322.000000;1.540630
6321.000000;1.539653
6320.000000;1.538795
6319.000000;1.538188
6318.000000;1.537703
6317.000000;1.537118
6316.000000;1.536387
6315.000000;1.535686
6314.000000;1.535192
6313.000000;1.534900
6312.000000;1.534655
6311.000000;1.534323
6310.000000;1.533873
6309.000000;1.533324
6308.000000;1.532688
6307.000000;1.531977
6306.000000;1.531216
6305.000000;1.530427
6304.000000;1.529609
6303.000000;1.528772
6302.000000;1.527973
6301.000000;1.527295
6300.000000;1.526782
6299.000000;1.526412
6298.000000;1.526108
6297.000000;1.525755
6296.000000;1.525251
6295.000000;1.524577
6294.000000;1.523830
6293.000000;1.523138
6292.000000;1.522554
6291.000000;1.522058
6290.000000;1.521652
6289.000000;1.521383
6288.000000;1.521252
6287.000000;1.521132
6286.000000;1.520839
6285.000000;1.520279
6284.000000;1.519524
6283.000000;1.518754
6282.000000;1.518108
6281.000000;1.517570
6280.000000;1.517027
6279.000000;1.516428
6278.000000;1.515865
6277.000000;1.515446
6276.000000;1.515128
6275.000000;1.514759
6274.000000;1.514250
6273.000000;1.513651
6272.000000;1.513058
6271.000000;1.512540
6270.000000;1.512151
6269.000000;1.511899
6268.000000;1.511687
6267.000000;1.511355
6266.000000;1.510823
6265.000000;1.510132
6264.000000;1.509345
6263.000000;1.508521
6262.000000;1.507791
6261.000000;1.507315
6260.000000;1.507068
6259.000000;1.506796
6258.000000;1.506304
6257.000000;1.505694
6256.000000;1.505186
6255.000000;1.504807
6254.000000;1.504388
6253.000000;1.503841
6252.000000;1.503246
6251.000000;1.502687
6250.000000;1.502175
6249.000000;1.501737
6248.000000;1.501445
6247.000000;1.501267
6246.000000;1.501021
6245.000000;1.500587
6244.000000;1.500079
6243.000000;1.499702
6242.000000;1.499470
6241.000000;1.499178
6240.000000;1.498648
6239.000000;1.497932
6238.000000;1.497241
6237.000000;1.496728
6236.000000;1.496375
6235.000000;1.496064
6234.000000;1.495728
6233.000000;1.495394
6232.000000;1.495125
6231.000000;1.494933
6230.000000;1.494756
6229.000000;1.494510
6228.000000;1.494132
6227.000000;1.493623
6226.000000;1.493058
6225.000000;1.492540
6224.000000;1.492108
6223.000000;1.491701
6222.000000;1.491217
6221.000000;1.490610
6220.000000;1.489916
6219.000000;1.489231
6218.000000;1.488662
6217.000000;1.488271
6216.000000;1.488025
6215.000000;1.487811
6214.000000;1.487511
6213.000000;1.487084
6212.000000;1.486576
6211.000000;1.486098
6210.000000;1.485779
6209.000000;1.485673
6208.000000;1.485675
6207.000000;1.485579
6206.000000;1.485260
6205.000000;1.484776
6204.000000;1.484271
6203.000000;1.483809
6202.000000;1.483354
6201.000000;1.482856
6200.000000;1.482309
6199.000000;1.481757
6198.000000;1.481304
6197.000000;1.481054
6196.000000;1.480987
6195.000000;1.480912
6194.000000;1.480644
6193.000000;1.480201
6192.000000;1.479766
6191.000000;1.479449
6190.000000;1.479195
6189.000000;1.478913
6188.000000;1.478577
6187.000000;1.478174
6186.000000;1.477634
6185.000000;1.476913
6184.000000;1.476129
6183.000000;1.475507
6182.000000;1.475180
6181.000000;1.475048
6180.000000;1.474865
6179.000000;1.474473
6178.000000;1.473966
6177.000000;1.473593
6176.000000;1.473501
6175.000000;1.473575
6174.000000;1.473577
6173.000000;1.473381
6172.000000;1.473038
6171.000000;1.472649
6170.000000;1.472274
6169.000000;1.471976
6168.000000;1.471846
6167.000000;1.471880
6166.000000;1.471902
6165.000000;1.471695
6164.000000;1.471228
6163.000000;1.470686
6162.000000;1.470267
6161.000000;1.470004
6160.000000;1.469793
6159.000000;1.469533
6158.000000;1.469189
6157.000000;1.468757
6156.000000;1.468267
6155.000000;1.467812
6154.000000;1.467503
6153.000000;1.467329
6152.000000;1.467124
6151.000000;1.466755
6150.000000;1.466291
6149.000000;1.465926
6148.000000;1.465723
6147.000000;1.465538
6146.000000;1.465230
6145.000000;1.464840
6144.000000;1.464520
6143.000000;1.464331
6142.000000;1.464207
6141.000000;1.464075
6140.000000;1.463921
6139.000000;1.463750
6138.000000;1.463550
6137.000000;1.463301
6136.000000;1.462996
6135.000000;1.462645
6134.000000;1.462295
6133.000000;1.462006
6132.000000;1.461788
6131.000000;1.461561
6130.000000;1.461241
6129.000000;1.460851
6128.000000;1.460490
6127.000000;1.460212
6126.000000;1.460007
6125.000000;1.459880
6124.000000;1.459858
6123.000000;1.459900
6122.000000;1.459878
6121.000000;1.459707
6120.000000;1.459450
6119.000000;1.459210
6118.000000;1.458983
6117.000000;1.458666
6116.000000;1.458197
6115.000000;1.457620
6114.000000;1.457029
6113.000000;1.456502
6112.000000;1.456110
6111.000000;1.455907
6110.000000;1.455876
6109.000000;1.455911
6108.000000;1.455904
6107.000000;1.455820
6106.000000;1.455680
6105.000000;1.455493
6104.000000;1.455244
6103.000000;1.454948
6102.000000;1.454645
6101.000000;1.454359
6100.000000;1.454094
6099.000000;1.453879
6098.000000;1.453748
6097.000000;1.453661
6096.000000;1.453493
6095.000000;1.453160
6094.000000;1.452720
6093.000000;1.452316
6092.000000;1.452024
6091.000000;1.451827
6090.000000;1.451678
6089.000000;1.451553
6088.000000;1.451433
6087.000000;1.451304
6086.000000;1.451181
6085.000000;1.451086
6084.000000;1.450983
6083.000000;1.450779
6082.000000;1.450424
6081.000000;1.449980
6080.000000;1.449582
6079.000000;1.449335
6078.000000;1.449244
6077.000000;1.449209
6076.000000;1.449101
6075.000000;1.448853
6074.000000;1.448513
6073.000000;1.448177
6072.000000;1.447889
6071.000000;1.447636
6070.000000;1.447396
6069.000000;1.447158
6068.000000;1.446904
6067.000000;1.446641
6066.000000;1.446431
6065.000000;1.446327
6064.000000;1.446285
6063.000000;1.446212
6062.000000;1.446100
6061.000000;1.446021
6060.000000;1.445956
6059.000000;1.445758
6058.000000;1.445338
6057.000000;1.444828
6056.000000;1.444456
6055.000000;1.444317
6054.000000;1.444328
6053.000000;1.444370
6052.000000;1.444384
6051.000000;1.444361
6050.000000;1.444316
6049.000000;1.444283
6048.000000;1.444272
6047.000000;1.444227
6046.000000;1.444076
6045.000000;1.443821
6044.000000;1.443533
6043.000000;1.443254
6042.000000;1.442963
6041.000000;1.442642
6040.000000;1.442334
6039.000000;1.442105
6038.000000;1.441990
6037.000000;1.441968
6036.000000;1.441991
6035.000000;1.442008
6034.000000;1.441975
6033.000000;1.441844
6032.000000;1.441580
6031.000000;1.441202
6030.000000;1.440809
6029.000000;1.440505
6028.000000;1.440304
6027.000000;1.440130
6026.000000;1.439936
6025.000000;1.439775
6024.000000;1.439728
6023.000000;1.439795
6022.000000;1.439900
6021.000000;1.439968
6020.000000;1.439962
6019.000000;1.439870
6018.000000;1.439705
6017.000000;1.439514
6016.000000;1.439353
6015.000000;1.439241
6014.000000;1.439150
6013.000000;1.439036
6012.000000;1.438890
6011.000000;1.438749
6010.000000;1.438668
6009.000000;1.438660
6008.000000;1.438655
6007.000000;1.438556
6006.000000;1.438356
6005.000000;1.438163
6004.000000;1.438080
6003.000000;1.438102
6002.000000;1.438149
6001.000000;1.438183
6000.000000;1.438232
5999.000000;1.438311
5998.000000;1.438362
5997.000000;1.438296
5996.000000;1.438103
5995.000000;1.437885
5994.000000;1.437750
5993.000000;1.437667
5992.000000;1.437476
5991.000000;1.437087
5990.000000;1.436625
5989.000000;1.436313
5988.000000;1.436231
5987.000000;1.436285
5986.000000;1.436395
5985.000000;1.436586
5984.000000;1.436843
5983.000000;1.437031
5982.000000;1.437049
5981.000000;1.436984
5980.000000;1.436989
5979.000000;1.437054
5978.000000;1.437011
5977.000000;1.436774
5976.000000;1.436465
5975.000000;1.436275
5974.000000;1.436284
5973.000000;1.436413
5972.000000;1.436516
5971.000000;1.436495
5970.000000;1.436390
5969.000000;1.436348
5968.000000;1.436464
5967.000000;1.436655
5966.000000;1.436750
5965.000000;1.436684
5964.000000;1.436553
5963.000000;1.436471
5962.000000;1.436427
5961.000000;1.436332
5960.000000;1.436135
5959.000000;1.435873
5958.000000;1.435626
5957.000000;1.435459
5956.000000;1.435385
5955.000000;1.435363
5954.000000;1.435343
5953.000000;1.435327
5952.000000;1.435361
5951.000000;1.435461
5950.000000;1.435564
5949.000000;1.435585
5948.000000;1.435508
5947.000000;1.435414
5946.000000;1.435407
5945.000000;1.435518
5944.000000;1.435678
5943.000000;1.435762
5942.000000;1.435685
5941.000000;1.435456
5940.000000;1.435181
5939.000000;1.435016
5938.000000;1.435086
5937.000000;1.435402
5936.000000;1.435816
5935.000000;1.436108
5934.000000;1.436159
5933.000000;1.436041
5932.000000;1.435929
5931.000000;1.435932
5930.000000;1.436040
5929.000000;1.436185
5928.000000;1.436333
5927.000000;1.436468
5926.000000;1.436545
5925.000000;1.436487
5924.000000;1.436262
5923.000000;1.435947
5922.000000;1.435693
5921.000000;1.435624
5920.000000;1.435765
5919.000000;1.436061
5918.000000;1.436423
5917.000000;1.436723
5916.000000;1.436807
5915.000000;1.436620
5914.000000;1.436296
5913.000000;1.436060
5912.000000;1.436009
5911.000000;1.436059
5910.000000;1.436119
5909.000000;1.436225
5908.000000;1.436445
5907.000000;1.436718
5906.000000;1.436887
5905.000000;1.436891
5904.000000;1.436836
5903.000000;1.436877
5902.000000;1.437066
5901.000000;1.437317
5900.000000;1.437507
5899.000000;1.437584
5898.000000;1.437606
5897.000000;1.437673
5896.000000;1.437831
5895.000000;1.438046
5894.000000;1.438267
5893.000000;1.438469
5892.000000;1.438641
5891.000000;1.438763
5890.000000;1.438833
5889.000000;1.438873
5888.000000;1.438894
5887.000000;1.438881
5886.000000;1.438834
5885.000000;1.438770
5884.000000;1.438690
5883.000000;1.438586
5882.000000;1.438520
5881.000000;1.438629
5880.000000;1.438982
5879.000000;1.439469
5878.000000;1.439887
5877.000000;1.440099
5876.000000;1.440102
5875.000000;1.439973
5874.000000;1.439828
5873.000000;1.439792
5872.000000;1.439943
5871.000000;1.440255
5870.000000;1.440631
5869.000000;1.440978
5868.000000;1.441224
5867.000000;1.441324
5866.000000;1.441307
5865.000000;1.441289
5864.000000;1.441379
5863.000000;1.441570
5862.000000;1.441791
5861.000000;1.442006
5860.000000;1.442228
5859.000000;1.442449
5858.000000;1.442660
5857.000000;1.442904
5856.000000;1.443234
5855.000000;1.443583
5854.000000;1.443796
5853.000000;1.443798
5852.000000;1.443671
5851.000000;1.443545
5850.000000;1.443478
5849.000000;1.443485
5848.000000;1.443601
5847.000000;1.443851
5846.000000;1.444185
5845.000000;1.444523
5844.000000;1.444817
5843.000000;1.445056
5842.000000;1.445223
5841.000000;1.445312
5840.000000;1.445364
5839.000000;1.445444
5838.000000;1.445597
5837.000000;1.445828
5836.000000;1.446123
5835.000000;1.446451
5834.000000;1.446765
5833.000000;1.447045
5832.000000;1.447318
5831.000000;1.447610
5830.000000;1.447914
5829.000000;1.448229
5828.000000;1.448596
5827.000000;1.449049
5826.000000;1.449540
5825.000000;1.449954
5824.000000;1.450228
5823.000000;1.450399
5822.000000;1.450549
5821.000000;1.450729
5820.000000;1.450967
5819.000000;1.451274
5818.000000;1.451615
5817.000000;1.451909
5816.000000;1.452113
5815.000000;1.452291
5814.000000;1.452559
5813.000000;1.452953
5812.000000;1.453380
5811.000000;1.453705
5810.000000;1.453867
5809.000000;1.453923
5808.000000;1.454028
5807.000000;1.454340
5806.000000;1.454899
5805.000000;1.455579
5804.000000;1.456189
5803.000000;1.456630
5802.000000;1.456945
5801.000000;1.457213
5800.000000;1.457466
5799.000000;1.457705
5798.000000;1.457939
5797.000000;1.458183
5796.000000;1.458466
5795.000000;1.458857
5794.000000;1.459419
5793.000000;1.460103
5792.000000;1.460737
5791.000000;1.461189
5790.000000;1.461499
5789.000000;1.461783
5788.000000;1.462071
5787.000000;1.462305
5786.000000;1.462473
5785.000000;1.462646
5784.000000;1.462892
5783.000000;1.463235
5782.000000;1.463682
5781.000000;1.464226
5780.000000;1.464802
5779.000000;1.465319
5778.000000;1.465755
5777.000000;1.466183
5776.000000;1.466661
5775.000000;1.467177
5774.000000;1.467695
5773.000000;1.468205
5772.000000;1.468695
5771.000000;1.469136
5770.000000;1.469505
5769.000000;1.469813
5768.000000;1.470096
5767.000000;1.470412
5766.000000;1.470840
5765.000000;1.471424
5764.000000;1.472100
5763.000000;1.472747
5762.000000;1.473320
5761.000000;1.473869
5760.000000;1.474405
5759.000000;1.474854
5758.000000;1.475183
5757.000000;1.475494
5756.000000;1.475922
5755.000000;1.476482
5754.000000;1.477086
5753.000000;1.477679
5752.000000;1.478302
5751.000000;1.478995
5750.000000;1.479725
5749.000000;1.480406
5748.000000;1.480978
5747.000000;1.481438
5746.000000;1.481802
5745.000000;1.482090
5744.000000;1.482352
5743.000000;1.482704
5742.000000;1.483266
5741.000000;1.484030
5740.000000;1.484833
5739.000000;1.485503
5738.000000;1.486021
5737.000000;1.486481
5736.000000;1.486939
5735.000000;1.487392
5734.000000;1.487870
5733.000000;1.488440
5732.000000;1.489089
5731.000000;1.489722
5730.000000;1.490312
5729.000000;1.490962
5728.000000;1.491743
5727.000000;1.492566
5726.000000;1.493300
5725.000000;1.493947
5724.000000;1.494603
5723.000000;1.495285
5722.000000;1.495901
5721.000000;1.496400
5720.000000;1.496863
5719.000000;1.497419
5718.000000;1.498108
5717.000000;1.498853
5716.000000;1.499550
5715.000000;1.500164
5714.000000;1.500736
5713.000000;1.501292
5712.000000;1.501799
5711.000000;1.502264
5710.000000;1.502804
5709.000000;1.503551
5708.000000;1.504476
5707.000000;1.505418
5706.000000;1.506280
5705.000000;1.507112
5704.000000;1.507975
5703.000000;1.508841
5702.000000;1.509672
5701.000000;1.510474
5700.000000;1.511216
5699.000000;1.511823
5698.000000;1.512306
5697.000000;1.512939
5696.000000;1.513840
5695.000000;1.514875
5694.000000;1.515776
5693.000000;1.516408
5692.000000;1.516969
5691.000000;1.517720
5690.000000;1.518727
5689.000000;1.519827
5688.000000;1.520796
5687.000000;1.521534
5686.000000;1.522126
5685.000000;1.522759
5684.000000;1.523528
5683.000000;1.524354
5682.000000;1.525105
5681.000000;1.525762
5680.000000;1.526408
5679.000000;1.527097
5678.000000;1.527812
5677.000000;1.528540
5676.000000;1.529286
5675.000000;1.530031
5674.000000;1.530723
5673.000000;1.531336
5672.000000;1.531896
5671.000000;1.532463
5670.000000;1.533101
5669.000000;1.533842
5668.000000;1.534625
5667.000000;1.535324
5666.000000;1.535908
5665.000000;1.536501
5664.000000;1.537226
5663.000000;1.538042
5662.000000;1.538825
5661.000000;1.539576
5660.000000;1.540400
5659.000000;1.541302
5658.000000;1.542145
5657.000000;1.542846
5656.000000;1.543490
5655.000000;1.544192
5654.000000;1.544972
5653.000000;1.545810
5652.000000;1.546713
5651.000000;1.547627
5650.000000;1.548390
5649.000000;1.548897
5648.000000;1.549259
5647.000000;1.549708
5646.000000;1.550345
5645.000000;1.551107
5644.000000;1.551916
5643.000000;1.552759
5642.000000;1.553580
5641.000000;1.554220
5640.000000;1.554564
5639.000000;1.554711
5638.000000;1.554943
5637.000000;1.555479
5636.000000;1.556282
5635.000000;1.557101
5634.000000;1.557697
5633.000000;1.558061
5632.000000;1.558405
5631.000000;1.558946
5630.000000;1.559687
5629.000000;1.560424
5628.000000;1.560980
5627.000000;1.561379
5626.000000;1.561775
5625.000000;1.562245
5624.000000;1.562728
5623.000000;1.563176
5622.000000;1.563654
5621.000000;1.564239
5620.000000;1.564896
5619.000000;1.565535
5618.000000;1.566149
5617.000000;1.566774
5616.000000;1.567346
5615.000000;1.567741
5614.000000;1.567985
5613.000000;1.568290
5612.000000;1.568801
5611.000000;1.569400
5610.000000;1.569867
5609.000000;1.570145
5608.000000;1.570340
5607.000000;1.570531
5606.000000;1.570705
5605.000000;1.570865
5604.000000;1.571074
5603.000000;1.571360
5602.000000;1.571671
5601.000000;1.571963
5600.000000;1.572246
5599.000000;1.572520
5598.000000;1.572748
5597.000000;1.572938
5596.000000;1.573166
5595.000000;1.573491
5594.000000;1.573864
5593.000000;1.574197
5592.000000;1.574459
5591.000000;1.574667
5590.000000;1.574844
5589.000000;1.575041
5588.000000;1.575338
5587.000000;1.575765
5586.000000;1.576225
5585.000000;1.576565
5584.000000;1.576735
5583.000000;1.576797
5582.000000;1.576817
5581.000000;1.576816
5580.000000;1.576817
5579.000000;1.576880
5578.000000;1.577026
5577.000000;1.577223
5576.000000;1.577453
5575.000000;1.577733
5574.000000;1.578016
5573.000000;1.578152
5572.000000;1.578049
5571.000000;1.577837
5570.000000;1.577764
5569.000000;1.577935
5568.000000;1.578222
5567.000000;1.578439
5566.000000;1.578532
5565.000000;1.578554
5564.000000;1.578564
5563.000000;1.578614
5562.000000;1.578769
5561.000000;1.579038
5560.000000;1.579331
5559.000000;1.579552
5558.000000;1.579719
5557.000000;1.579904
5556.000000;1.580074
5555.000000;1.580083
5554.000000;1.579850
5553.000000;1.579508
5552.000000;1.579305
5551.000000;1.579380
5550.000000;1.579642
5549.000000;1.579891
5548.000000;1.580006
5547.000000;1.580031
5546.000000;1.580055
5545.000000;1.580053
5544.000000;1.579898
5543.000000;1.579551
5542.000000;1.579176
5541.000000;1.579005
5540.000000;1.579116
5539.000000;1.579381
5538.000000;1.579622
5537.000000;1.579757
5536.000000;1.579781
5535.000000;1.579707
5534.000000;1.579577
5533.000000;1.579494
5532.000000;1.579544
5531.000000;1.579686
5530.000000;1.579770
5529.000000;1.579696
5528.000000;1.579517
5527.000000;1.579397
5526.000000;1.579478
5525.000000;1.579749
5524.000000;1.580077
5523.000000;1.580374
5522.000000;1.580704
5521.000000;1.581146
5520.000000;1.581616
5519.000000;1.581899
5518.000000;1.581914
5517.000000;1.581808
5516.000000;1.581729
5515.000000;1.581614
5514.000000;1.581345
5513.000000;1.581010
5512.000000;1.580883
5511.000000;1.581092
5510.000000;1.581483
5509.000000;1.581866
5508.000000;1.582242
5507.000000;1.582667
5506.000000;1.582995
5505.000000;1.582960
5504.000000;1.582533
5503.000000;1.582032
5502.000000;1.581760
5501.000000;1.581678
5500.000000;1.581586
5499.000000;1.581531
5498.000000;1.581841
5497.000000;1.582656
5496.000000;1.583574
5495.000000;1.584065
5494.000000;1.584176
5493.000000;1.584471
5492.000000;1.585198
5491.000000;1.585809
5490.000000;1.585674
5489.000000;1.584983
5488.000000;1.584492
5487.000000;1.584517
5486.000000;1.584634
5485.000000;1.584412
5484.000000;1.584025
5483.000000;1.583931
5482.000000;1.584237
5481.000000;1.584741
5480.000000;1.585391
5479.000000;1.586216
5478.000000;1.586903
5477.000000;1.587051
5476.000000;1.586861
5475.000000;1.587115
5474.000000;1.588140
5473.000000;1.589187
5472.000000;1.589449
5471.000000;1.589160
5470.000000;1.589181
5469.000000;1.589869
5468.000000;1.590771
5467.000000;1.591335
5466.000000;1.591605
5465.000000;1.592010
5464.000000;1.592673
5463.000000;1.593295
5462.000000;1.593659
5461.000000;1.593940
5460.000000;1.594429
5459.000000;1.595071
5458.000000;1.595501
5457.000000;1.595590
5456.000000;1.595704
5455.000000;1.596304
5454.000000;1.597394
5453.000000;1.598451
5452.000000;1.598995
5451.000000;1.599232
5450.000000;1.599907
5449.000000;1.601299
5448.000000;1.602649
5447.000000;1.603094
5446.000000;1.602979
5445.000000;1.603488
5444.000000;1.604810
5443.000000;1.605767
5442.000000;1.605636
5441.000000;1.605375
5440.000000;1.606400
5439.000000;1.608624
5438.000000;1.610537
5437.000000;1.611142
5436.000000;1.610969
5435.000000;1.611306
5434.000000;1.612873
5433.000000;1.615146
5432.000000;1.616904
5431.000000;1.617489
5430.000000;1.617426
5429.000000;1.617884
5428.000000;1.619454
5427.000000;1.621511
5426.000000;1.623103
5425.000000;1.624156
5424.000000;1.625350
5423.000000;1.627211
5422.000000;1.629606
5421.000000;1.631938
5420.000000;1.633828
5419.000000;1.635550
5418.000000;1.637540
5417.000000;1.639575
5416.000000;1.640972
5415.000000;1.641704
5414.000000;1.642698
5413.000000;1.644606
5412.000000;1.646728
5411.000000;1.648036
5410.000000;1.648847
5409.000000;1.650423
5408.000000;1.653183
5407.000000;1.656273
5406.000000;1.658916
5405.000000;1.661313
5404.000000;1.664019
5403.000000;1.667117
5402.000000;1.670336
5401.000000;1.673469
5400.000000;1.676338
5399.000000;1.678867
5398.000000;1.681413
5397.000000;1.684364
5396.000000;1.687462
5395.000000;1.690102
5394.000000;1.692265
5393.000000;1.694638
5392.000000;1.697631
5391.000000;1.700995
5390.000000;1.704556
5389.000000;1.708467
5388.000000;1.712652
5387.000000;1.716698
5386.000000;1.720545
5385.000000;1.724679
5384.000000;1.729250
5383.000000;1.733724
5382.000000;1.737922
5381.000000;1.742489
5380.000000;1.747680
5379.000000;1.752743
5378.000000;1.757137
5377.000000;1.761566
5376.000000;1.766975
5375.000000;1.773046
5374.000000;1.778750
5373.000000;1.784028
5372.000000;1.789754
5371.000000;1.796318
5370.000000;1.803277
5369.000000;1.810246
5368.000000;1.817338
5367.000000;1.824570
5366.000000;1.831586
5365.000000;1.838298
5364.000000;1.845194
5363.000000;1.852667
5362.000000;1.860482
5361.000000;1.868226
5360.000000;1.875904
5359.000000;1.883949
5358.000000;1.892741
5357.000000;1.902144
5356.000000;1.911562
5355.000000;1.920555
5354.000000;1.929456
5353.000000;1.939105
5352.000000;1.949621
5351.000000;1.960018
5350.000000;1.969669
5349.000000;1.979403
5348.000000;1.990267
5347.000000;2.001929
5346.000000;2.013269
5345.000000;2.024308
5344.000000;2.036405
5343.000000;2.050056
5342.000000;2.063697
5341.000000;2.075765
5340.000000;2.086753
5339.000000;2.098431
5338.000000;2.111806
5337.000000;2.126248
5336.000000;2.140599
5335.000000;2.154497
5334.000000;2.168214
5333.000000;2.181972
5332.000000;2.195966
5331.000000;2.210421
5330.000000;2.225238
5329.000000;2.240051
5328.000000;2.254763
5327.000000;2.269776
5326.000000;2.285398
5325.000000;2.301289
5324.000000;2.317023
5323.000000;2.332898
5322.000000;2.349550
5321.000000;2.366964
5320.000000;2.384316
5319.000000;2.400729
5318.000000;2.415928
5317.000000;2.430155
5316.000000;2.443823
5315.000000;2.457315
5314.000000;2.470751
5313.000000;2.483815
5312.000000;2.496186
5311.000000;2.508213
5310.000000;2.520785
5309.000000;2.534358
5308.000000;2.548355
5307.000000;2.561649
5306.000000;2.573436
5305.000000;2.583530
5304.000000;2.592224
5303.000000;2.600232
5302.000000;2.608299
5301.000000;2.616198
5300.000000;2.622480
5299.000000;2.626156
5298.000000;2.628454
5297.000000;2.631958
5296.000000;2.638152
5295.000000;2.646405
5294.000000;2.654795
5293.000000;2.661284
5292.000000;2.664575
5291.000000;2.664827
5290.000000;2.663884
5289.000000;2.664021
5288.000000;2.666034
5287.000000;2.669058
5286.000000;2.671996
5285.000000;2.674411
5284.000000;2.676229
5283.000000;2.677419
5282.000000;2.678208
5281.000000;2.678967
5280.000000;2.679583
5279.000000;2.679556
5278.000000;2.679076
5277.000000;2.679346
5276.000000;2.681164
5275.000000;2.683677
5274.000000;2.685384
5273.000000;2.685992
5272.000000;2.686460
5271.000000;2.687607
5270.000000;2.689387
5269.000000;2.691348
5268.000000;2.693028
5267.000000;2.693762
5266.000000;2.692912
5265.000000;2.690737
5264.000000;2.688620
5263.000000;2.687822
5262.000000;2.688108
5261.000000;2.688215
5260.000000;2.687624
5259.000000;2.687031
5258.000000;2.687146
5257.000000;2.688094
5256.000000;2.689903
5255.000000;2.692496
5254.000000;2.694869
5253.000000;2.695490
5252.000000;2.694242
5251.000000;2.692965
5250.000000;2.693336
5249.000000;2.694896
5248.000000;2.695669
5247.000000;2.694303
5246.000000;2.691223
5245.000000;2.687959
5244.000000;2.686031
5243.000000;2.686274
5242.000000;2.688348
5241.000000;2.690887
5240.000000;2.692801
5239.000000;2.694264
5238.000000;2.695780
5237.000000;2.696688
5236.000000;2.695701
5235.000000;2.692961
5234.000000;2.690427
5233.000000;2.689839
5232.000000;2.691109
5231.000000;2.692984
5230.000000;2.694458
5229.000000;2.694963
5228.000000;2.693955
5227.000000;2.691466
5226.000000;2.688874
5225.000000;2.688012
5224.000000;2.689273
5223.000000;2.691337
5222.000000;2.692625
5221.000000;2.692466
5220.000000;2.691285
5219.000000;2.690132
5218.000000;2.689910
5217.000000;2.690623
5216.000000;2.691361
5215.000000;2.691382
5214.000000;2.690872
5213.000000;2.690132
5212.000000;2.688622
5211.000000;2.685905
5210.000000;2.683188
5209.000000;2.682476
5208.000000;2.684163
5207.000000;2.686570
5206.000000;2.687936
5205.000000;2.688074
5204.000000;2.687899
5203.000000;2.688266
5202.000000;2.689635
5201.000000;2.691903
5200.000000;2.694081
5199.000000;2.694933
5198.000000;2.694461
5197.000000;2.694052
5196.000000;2.694455
5195.000000;2.694332
5194.000000;2.692005
5193.000000;2.688106
5192.000000;2.685198
5191.000000;2.685032
5190.000000;2.687087
5189.000000;2.689575
5188.000000;2.691083
5187.000000;2.691237
5186.000000;2.690639
5185.000000;2.690414
5184.000000;2.691050
5183.000000;2.691538
5182.000000;2.690414
5181.000000;2.687918
5180.000000;2.686253
5179.000000;2.687184
5178.000000;2.689907
5177.000000;2.691966
5176.000000;2.692004
5175.000000;2.690793
5174.000000;2.689643
5173.000000;2.688827
5172.000000;2.687855
5171.000000;2.686592
5170.000000;2.685537
5169.000000;2.685215
5168.000000;2.685690
5167.000000;2.686622
5166.000000;2.687595
5165.000000;2.688437
5164.000000;2.689285
5163.000000;2.690272
5162.000000;2.691218
5161.000000;2.691783
5160.000000;2.691875
5159.000000;2.691546
5158.000000;2.690463
5157.000000;2.687972
5156.000000;2.684207
5155.000000;2.680983
5154.000000;2.680696
5153.000000;2.683966
5152.000000;2.688774
5151.000000;2.692155
5150.000000;2.692697
5149.000000;2.691174
5148.000000;2.689060
5147.000000;2.687149
5146.000000;2.685695
5145.000000;2.685031
5144.000000;2.685386
5143.000000;2.686353
5142.000000;2.687169
5141.000000;2.687482
5140.000000;2.687403
5139.000000;2.686938
5138.000000;2.685984
5137.000000;2.684944
5136.000000;2.684707
5135.000000;2.685658
5134.000000;2.687093
5133.000000;2.687942
5132.000000;2.687837
5131.000000;2.687244
5130.000000;2.686867
5129.000000;2.687245
5128.000000;2.688758
5127.000000;2.691504
5126.000000;2.694929
5125.000000;2.697768
5124.000000;2.698682
5123.000000;2.697212
5122.000000;2.694352
5121.000000;2.692039
5120.000000;2.691557
5119.000000;2.692166
5118.000000;2.691724
5117.000000;2.689163
5116.000000;2.685955
5115.000000;2.684343
5114.000000;2.684532
5113.000000;2.684538
5112.000000;2.682847
5111.000000;2.680290
5110.000000;2.678760
5109.000000;2.678852
5108.000000;2.679547
5107.000000;2.679844
5106.000000;2.679864
5105.000000;2.680226
5104.000000;2.681022
5103.000000;2.681826
5102.000000;2.682356
5101.000000;2.682646
5100.000000;2.682586
5099.000000;2.681762
5098.000000;2.680121
5097.000000;2.678574
5096.000000;2.678510
5095.000000;2.680542
5094.000000;2.683822
5093.000000;2.686682
5092.000000;2.687828
5091.000000;2.686887
5090.000000;2.684166
5089.000000;2.680465
5088.000000;2.677140
5087.000000;2.675694
5086.000000;2.676733
5085.000000;2.679261
5084.000000;2.681270
5083.000000;2.681345
5082.000000;2.679770
5081.000000;2.677972
5080.000000;2.677012
5079.000000;2.676864
5078.000000;2.677097
5077.000000;2.677784
5076.000000;2.679295
5075.000000;2.681307
5074.000000;2.682704
5073.000000;2.682769
5072.000000;2.681967
5071.000000;2.681227
5070.000000;2.680915
5069.000000;2.680867
5068.000000;2.680875
5067.000000;2.680508
5066.000000;2.679015
5065.000000;2.676324
5064.000000;2.673983
5063.000000;2.674021
5062.000000;2.676622
5061.000000;2.679676
5060.000000;2.680992
5059.000000;2.680409
5058.000000;2.679264
5057.000000;2.678470
5056.000000;2.677830
5055.000000;2.676837
5054.000000;2.675508
5053.000000;2.674522
5052.000000;2.674749
5051.000000;2.676349
5050.000000;2.678186
5049.000000;2.678586
5048.000000;2.677023
5047.000000;2.674668
5046.000000;2.672974
5045.000000;2.672135
5044.000000;2.671243
5043.000000;2.669476
5042.000000;2.666726
5041.000000;2.663487
5040.000000;2.660779
5039.000000;2.659883
5038.000000;2.661356
5037.000000;2.664210
5036.000000;2.666605
5035.000000;2.667494
5034.000000;2.667389
5033.000000;2.667575
5032.000000;2.668772
5031.000000;2.670668
5030.000000;2.672318
5029.000000;2.672769
5028.000000;2.671849
5027.000000;2.670357
5026.000000;2.669099
5025.000000;2.667944
5024.000000;2.666280
5023.000000;2.664145
5022.000000;2.662341
5021.000000;2.661535
5020.000000;2.661769
5019.000000;2.662884
5018.000000;2.664753
5017.000000;2.666744
5016.000000;2.667542
5015.000000;2.666184
5014.000000;2.663181
5013.000000;2.660116
5012.000000;2.658228
5011.000000;2.657679
5010.000000;2.657853
5009.000000;2.657887
5008.000000;2.657087
5007.000000;2.655373
5006.000000;2.653369
5005.000000;2.651744
5004.000000;2.650587
5003.000000;2.649645
5002.000000;2.648857
5001.000000;2.648171
5000.000000;2.647299
4999.000000;2.646067
4998.000000;2.645063
4997.000000;2.645147
4996.000000;2.646323
4995.000000;2.647397
4994.000000;2.646960
4993.000000;2.644723
4992.000000;2.641785
4991.000000;2.639652
4990.000000;2.638975
4989.000000;2.639041
4988.000000;2.638328
4987.000000;2.635861
4986.000000;2.632361
4985.000000;2.629774
4984.000000;2.629467
4983.000000;2.630939
4982.000000;2.632320
4981.000000;2.632259
4980.000000;2.631258
4979.000000;2.630949
4978.000000;2.632193
4977.000000;2.634083
4976.000000;2.634853
4975.000000;2.633651
4974.000000;2.631209
4973.000000;2.628693
4972.000000;2.626406
4971.000000;2.623951
4970.000000;2.621349
4969.000000;2.619415
4968.000000;2.618797
4967.000000;2.619172
4966.000000;2.619643
4965.000000;2.619569
4964.000000;2.618579
4963.000000;2.616240
4962.000000;2.612502
4961.000000;2.608461
4960.000000;2.605825
4959.000000;2.605258
4958.000000;2.605641
4957.000000;2.605254
4956.000000;2.603358
4955.000000;2.600339
4954.000000;2.596993
4953.000000;2.594214
4952.000000;2.592829
4951.000000;2.592888
4950.000000;2.593124
4949.000000;2.591872
4948.000000;2.588781
4947.000000;2.585244
4946.000000;2.582927
4945.000000;2.582346
4944.000000;2.582858
4943.000000;2.583393
4942.000000;2.583032
4941.000000;2.581353
4940.000000;2.578605
4939.000000;2.575616
4938.000000;2.573209
4937.000000;2.571636
4936.000000;2.570739
4935.000000;2.570393
4934.000000;2.570460
4933.000000;2.570460
4932.000000;2.569770
4931.000000;2.568327
4930.000000;2.566696
4929.000000;2.565199
4928.000000;2.563353
4927.000000;2.560591
4926.000000;2.557276
4925.000000;2.554488
4924.000000;2.552717
4923.000000;2.551195
4922.000000;2.548825
4921.000000;2.545502
4920.000000;2.542099
4919.000000;2.539341
4918.000000;2.537206
4917.000000;2.535385
4916.000000;2.533831
4915.000000;2.532574
4914.000000;2.531329
4913.000000;2.529710
4912.000000;2.527725
4911.000000;2.525704
4910.000000;2.523855
4909.000000;2.522151
4908.000000;2.520552
4907.000000;2.519006
4906.000000;2.517335
4905.000000;2.515481
4904.000000;2.513839
4903.000000;2.512831
4902.000000;2.512006
4901.000000;2.510075
4900.000000;2.506279
4899.000000;2.501461
4898.000000;2.497350
4897.000000;2.494912
4896.000000;2.493577
4895.000000;2.491995
4894.000000;2.489425
4893.000000;2.486392
4892.000000;2.484074
4891.000000;2.483021
4890.000000;2.482409
4889.000000;2.480746
4888.000000;2.477468
4887.000000;2.473550
4886.000000;2.470324
4885.000000;2.468073
4884.000000;2.466198
4883.000000;2.464389
4882.000000;2.462824
4881.000000;2.461162
4880.000000;2.458232
4879.000000;2.453455
4878.000000;2.448127
4877.000000;2.444434
4876.000000;2.443163
4875.000000;2.442814
4874.000000;2.441108
4873.000000;2.437188
4872.000000;2.432257
4871.000000;2.428282
4870.000000;2.426309
4869.000000;2.425817
4868.000000;2.425423
4867.000000;2.424160
4866.000000;2.422097
4865.000000;2.419764
4864.000000;2.417193
4863.000000;2.413854
4862.000000;2.409529
4861.000000;2.404928
4860.000000;2.401215
4859.000000;2.399070
4858.000000;2.398241
4857.000000;2.397799
4856.000000;2.396731
4855.000000;2.394593
4854.000000;2.391829
4853.000000;2.389241
4852.000000;2.386971
4851.000000;2.384205
4850.000000;2.380207
4849.000000;2.375423
4848.000000;2.371107
4847.000000;2.368032
4846.000000;2.366041
4845.000000;2.364795
4844.000000;2.364257
4843.000000;2.364164
4842.000000;2.363570
4841.000000;2.361477
4840.000000;2.357845
4839.000000;2.353573
4838.000000;2.349558
4837.000000;2.346135
4836.000000;2.343296
4835.000000;2.340921
4834.000000;2.338706
4833.000000;2.336193
4832.000000;2.333048
4831.000000;2.329319
4830.000000;2.325420
4829.000000;2.321897
4828.000000;2.319134
4827.000000;2.317165
4826.000000;2.315694
4825.000000;2.314344
4824.000000;2.312853
4823.000000;2.311017
4822.000000;2.308591
4821.000000;2.305450
4820.000000;2.301822
4819.000000;2.298197
4818.000000;2.294964
4817.000000;2.292169
4816.000000;2.289559
4815.000000;2.286830
4814.000000;2.283918
4813.000000;2.281115
4812.000000;2.278836
4811.000000;2.277175
4810.000000;2.275682
4809.000000;2.273732
4808.000000;2.271095
4807.000000;2.268185
4806.000000;2.265693
4805.000000;2.263959
4804.000000;2.262571
4803.000000;2.260605
4802.000000;2.257505
4801.000000;2.253760
4800.000000;2.250398
4799.000000;2.247774
4798.000000;2.245153
4797.000000;2.241713
4796.000000;2.237626
4795.000000;2.233811
4794.000000;2.230872
4793.000000;2.228689
4792.000000;2.226844
4791.000000;2.224964
4790.000000;2.222739
4789.000000;2.220051
4788.000000;2.217186
4787.000000;2.214594
4786.000000;2.212409
4785.000000;2.210462
4784.000000;2.208667
4783.000000;2.206949
4782.000000;2.204793
4781.000000;2.201460
4780.000000;2.196952
4779.000000;2.192309
4778.000000;2.188649
4777.000000;2.186239
4776.000000;2.184716
4775.000000;2.183773
4774.000000;2.183140
4773.000000;2.182197
4772.000000;2.180254
4771.000000;2.177297
4770.000000;2.174028
4769.000000;2.171037
4768.000000;2.168259
4767.000000;2.165352
4766.000000;2.162281
4765.000000;2.159341
4764.000000;2.156748
4763.000000;2.154422
4762.000000;2.152123
4761.000000;2.149732
4760.000000;2.147386
4759.000000;2.145354
4758.000000;2.143707
4757.000000;2.142040
4756.000000;2.139664
4755.000000;2.136191
4754.000000;2.131969
4753.000000;2.127943
4752.000000;2.124987
4751.000000;2.123240
4750.000000;2.122049
4749.000000;2.120580
4748.000000;2.118508
4747.000000;2.116107
4746.000000;2.113754
4745.000000;2.111511
4744.000000;2.109200
4743.000000;2.106685
4742.000000;2.103939
4741.000000;2.100978
4740.000000;2.097891
4739.000000;2.094892
4738.000000;2.092224
4737.000000;2.089992
4736.000000;2.088161
4735.000000;2.086651
4734.000000;2.085316
4733.000000;2.083885
4732.000000;2.082010
4731.000000;2.079473
4730.000000;2.076359
4729.000000;2.073094
4728.000000;2.070273
4727.000000;2.068252
4726.000000;2.066864
4725.000000;2.065621
4724.000000;2.064251
4723.000000;2.062863
4722.000000;2.061507
4721.000000;2.059830
4720.000000;2.057447
4719.000000;2.054545
4718.000000;2.051802
4717.000000;2.049653
4716.000000;2.047841
4715.000000;2.045728
4714.000000;2.042949
4713.000000;2.039743
4712.000000;2.036764
4711.000000;2.034578
4710.000000;2.033234
4709.000000;2.032256
4708.000000;2.031106
4707.000000;2.029597
4706.000000;2.027806
4705.000000;2.025756
4704.000000;2.023428
4703.000000;2.021022
4702.000000;2.018913
4701.000000;2.017251
4700.000000;2.015785
4699.000000;2.014153
4698.000000;2.012225
4697.000000;2.010165
4696.000000;2.008295
4695.000000;2.006852
4694.000000;2.005681
4693.000000;2.004195
4692.000000;2.001927
4691.000000;1.999194
4690.000000;1.996898
4689.000000;1.995515
4688.000000;1.994560
4687.000000;1.993215
4686.000000;1.991260
4685.000000;1.989142
4684.000000;1.987313
4683.000000;1.985819
4682.000000;1.984445
4681.000000;1.982947
4680.000000;1.981146
4679.000000;1.979056
4678.000000;1.976960
4677.000000;1.975165
4676.000000;1.973630
4675.000000;1.972011
4674.000000;1.970060
4673.000000;1.967864
4672.000000;1.965717
4671.000000;1.963902
4670.000000;1.962559
4669.000000;1.961549
4668.000000;1.960467
4667.000000;1.958979
4666.000000;1.957184
4665.000000;1.955469
4664.000000;1.954020
4663.000000;1.952696
4662.000000;1.951381
4661.000000;1.950180
4660.000000;1.949119
4659.000000;1.947936
4658.000000;1.946383
4657.000000;1.944596
4656.000000;1.942923
4655.000000;1.941494
4654.000000;1.940166
4653.000000;1.938855
4652.000000;1.937674
4651.000000;1.936684
4650.000000;1.935684
4649.000000;1.934384
4648.000000;1.932740
4647.000000;1.931038
4646.000000;1.929609
4645.000000;1.928471
4644.000000;1.927266
4643.000000;1.925608
4642.000000;1.923501
4641.000000;1.921391
4640.000000;1.919784
4639.000000;1.918851
4638.000000;1.918396
4637.000000;1.918085
4636.000000;1.917618
4635.000000;1.916780
4634.000000;1.915459
4633.000000;1.913693
4632.000000;1.911666
4631.000000;1.909641
4630.000000;1.907856
4629.000000;1.906428
4628.000000;1.905302
4627.000000;1.904297
4626.000000;1.903219
4625.000000;1.901962
4624.000000;1.900555
4623.000000;1.899143
4622.000000;1.897904
4621.000000;1.896888
4620.000000;1.895969
4619.000000;1.895019
4618.000000;1.894088
4617.000000;1.893305
4616.000000;1.892611
4615.000000;1.891757
4614.000000;1.890610
4613.000000;1.889319
4612.000000;1.888089
4611.000000;1.886920
4610.000000;1.885663
4609.000000;1.884271
4608.000000;1.882898
4607.000000;1.881776
4606.000000;1.881039
4605.000000;1.880570
4604.000000;1.879991
4603.000000;1.878914
4602.000000;1.877323
4601.000000;1.875631
4600.000000;1.874303
4599.000000;1.873484
4598.000000;1.873006
4597.000000;1.872598
4596.000000;1.872017
4595.000000;1.871106
4594.000000;1.869887
4593.000000;1.868524
4592.000000;1.867147
4591.000000;1.865848
4590.000000;1.864866
4589.000000;1.864510
4588.000000;1.864697
4587.000000;1.864770
4586.000000;1.864103
4585.000000;1.862789
4584.000000;1.861431
4583.000000;1.860329
4582.000000;1.859263
4581.000000;1.858068
4580.000000;1.857005
4579.000000;1.856377
4578.000000;1.856051
4577.000000;1.855641
4576.000000;1.855024
4575.000000;1.854388
4574.000000;1.853842
4573.000000;1.853244
4572.000000;1.852455
4571.000000;1.851588
4570.000000;1.850875
4569.000000;1.850385
4568.000000;1.849973
4567.000000;1.849507
4566.000000;1.848996
4565.000000;1.848447
4564.000000;1.847716
4563.000000;1.846656
4562.000000;1.845369
4561.000000;1.844153
4560.000000;1.843145
4559.000000;1.842219
4558.000000;1.841283
4557.000000;1.840475
4556.000000;1.839908
4555.000000;1.839395
4554.000000;1.838671
4553.000000;1.837797
4552.000000;1.837061
4551.000000;1.836537
4550.000000;1.835971
4549.000000;1.835162
4548.000000;1.834221
4547.000000;1.833363
4546.000000;1.832626
4545.000000;1.831917
4544.000000;1.831232
4543.000000;1.830693
4542.000000;1.830352
4541.000000;1.830048
4540.000000;1.829512
4539.000000;1.828653
4538.000000;1.827742
4537.000000;1.827204
4536.000000;1.827141
4535.000000;1.827150
4534.000000;1.826698
4533.000000;1.825649
4532.000000;1.824358
4531.000000;1.823368
4530.000000;1.823096
4529.000000;1.823624
4528.000000;1.824553
4527.000000;1.825158
4526.000000;1.824959
4525.000000;1.824158
4524.000000;1.823359
4523.000000;1.822925
4522.000000;1.822784
4521.000000;1.822724
4520.000000;1.822610
4519.000000;1.822347
4518.000000;1.821948
4517.000000;1.821640
4516.000000;1.821607
4515.000000;1.821569
4514.000000;1.820950
4513.000000;1.819609
4512.000000;1.818139
4511.000000;1.817274
4510.000000;1.817179
4509.000000;1.817442
4508.000000;1.817620
4507.000000;1.817582
4506.000000;1.817461
4505.000000;1.817443
4504.000000;1.817616
4503.000000;1.817907
4502.000000;1.818149
4501.000000;1.818197
4500.000000;1.817953
4499.000000;1.817393
4498.000000;1.816714
4497.000000;1.816356
4496.000000;1.816590
4495.000000;1.817041
4494.000000;1.816939
4493.000000;1.816005
4492.000000;1.814857
4491.000000;1.814381
4490.000000;1.814878
4489.000000;1.815982
4488.000000;1.817193
4487.000000;1.818211
4486.000000;1.818860
4485.000000;1.819008
4484.000000;1.818694
4483.000000;1.818199
4482.000000;1.817863
4481.000000;1.817828
4480.000000;1.818015
4479.000000;1.818309
4478.000000;1.818708
4477.000000;1.819214
4476.000000;1.819695
4475.000000;1.820033
4474.000000;1.820396
4473.000000;1.821116
4472.000000;1.822166
4471.000000;1.823037
4470.000000;1.823307
4469.000000;1.823095
4468.000000;1.822695
4467.000000;1.822097
4466.000000;1.821290
4465.000000;1.820774
4464.000000;1.821134
4463.000000;1.822141
4462.000000;1.822860
4461.000000;1.822817
4460.000000;1.822527
4459.000000;1.822688
4458.000000;1.823355
4457.000000;1.824181
4456.000000;1.824987
4455.000000;1.825718
4454.000000;1.826164
4453.000000;1.826206
4452.000000;1.826191
4451.000000;1.826693
4450.000000;1.827928
4449.000000;1.829568
4448.000000;1.831029
4447.000000;1.831831
4446.000000;1.831881
4445.000000;1.831565
4444.000000;1.831447
4443.000000;1.831804
4442.000000;1.832565
4441.000000;1.833646
4440.000000;1.834939
4439.000000;1.835990
4438.000000;1.836228
4437.000000;1.835742
4436.000000;1.835367
4435.000000;1.835707
4434.000000;1.836515
4433.000000;1.837326
4432.000000;1.838200
4431.000000;1.839352
4430.000000;1.840443
4429.000000;1.840866
4428.000000;1.840610
4427.000000;1.840307
4426.000000;1.840499
4425.000000;1.841275
4424.000000;1.842521
4423.000000;1.844096
4422.000000;1.845781
4421.000000;1.847340
4420.000000;1.848622
4419.000000;1.849441
4418.000000;1.849662
4417.000000;1.849636
4416.000000;1.850176
4415.000000;1.851665
4414.000000;1.853496
4413.000000;1.854924
4412.000000;1.856172
4411.000000;1.857994
4410.000000;1.860324
4409.000000;1.862165
4408.000000;1.862896
4407.000000;1.862966
4406.000000;1.863023
4405.000000;1.863051
4404.000000;1.862729
4403.000000;1.862173
4402.000000;1.861911
4401.000000;1.862327
4400.000000;1.863352
4399.000000;1.864501
4398.000000;1.865144
4397.000000;1.865087
4396.000000;1.864998
4395.000000;1.865864
4394.000000;1.867826
4393.000000;1.869891
4392.000000;1.871068
4391.000000;1.871481
4390.000000;1.872009
4389.000000;1.873075
4388.000000;1.874262
4387.000000;1.875060
4386.000000;1.875602
4385.000000;1.876485
4384.000000;1.878030
4383.000000;1.879911
4382.000000;1.881547
4381.000000;1.882758
4380.000000;1.883827
4379.000000;1.884920
4378.000000;1.885720
4377.000000;1.885793
4376.000000;1.885170
4375.000000;1.884346
4374.000000;1.883841
4373.000000;1.883971
4372.000000;1.884843
4371.000000;1.886192
4370.000000;1.887339
4369.000000;1.887763
4368.000000;1.887837
4367.000000;1.888536
4366.000000;1.890208
4365.000000;1.892022
4364.000000;1.892926
4363.000000;1.892915
4362.000000;1.892986
4361.000000;1.893951
4360.000000;1.895686
4359.000000;1.897507
4358.000000;1.898885
4357.000000;1.899619
4356.000000;1.899588
4355.000000;1.898755
4354.000000;1.897563
4353.000000;1.897014
4352.000000;1.898036
4351.000000;1.900680
4350.000000;1.903987
4349.000000;1.906662
4348.000000;1.907912
4347.000000;1.907833
4346.000000;1.907205
4345.000000;1.906915
4344.000000;1.907329
4343.000000;1.908160
4342.000000;1.909087
4341.000000;1.910287
4340.000000;1.911949
4339.000000;1.913463
4338.000000;1.913860
4337.000000;1.913266
4336.000000;1.913131
4335.000000;1.914512
4334.000000;1.916748
4333.000000;1.918437
4332.000000;1.919262
4331.000000;1.920033
4330.000000;1.921161
4329.000000;1.921954
4328.000000;1.921520
4327.000000;1.919832
4326.000000;1.917797
4325.000000;1.916592
4324.000000;1.916960
4323.000000;1.918694
4322.000000;1.920683
4321.000000;1.921737
4320.000000;1.921537
4319.000000;1.920749
4318.000000;1.920431
4317.000000;1.921426
4316.000000;1.923915
4315.000000;1.927128
4314.000000;1.929721
4313.000000;1.930736
4312.000000;1.929923
4311.000000;1.927214
4310.000000;1.922916
4309.000000;1.918671
4308.000000;1.916828
4307.000000;1.917809
4306.000000;1.919054
4305.000000;1.918050
4304.000000;1.915914
4303.000000;1.916158
4302.000000;1.920223
4301.000000;1.925796
4300.000000;1.929459
4299.000000;1.929773
4298.000000;1.927646
4297.000000;1.925249
4296.000000;1.925064
4295.000000;1.928316
4294.000000;1.933269
4293.000000;1.936195
4292.000000;1.935134
4291.000000;1.931672
4290.000000;1.928237
4289.000000;1.925386
4288.000000;1.922678
4287.000000;1.920363
4286.000000;1.918795
4285.000000;1.917355
4284.000000;1.915495
4283.000000;1.914156
4282.000000;1.914661
4281.000000;1.916490
4280.000000;1.917468
4279.000000;1.916108
4278.000000;1.912808
4277.000000;1.908912
4276.000000;1.905686
4275.000000;1.904090
4274.000000;1.904378
4273.000000;1.905420
4272.000000;1.905308
4271.000000;1.903245
4270.000000;1.900099
4269.000000;1.897062
4268.000000;1.894706
4267.000000;1.893270
4266.000000;1.893028
4265.000000;1.893839
4264.000000;1.894690
4263.000000;1.894421
4262.000000;1.892712
4261.000000;1.889808
4260.000000;1.885624
4259.000000;1.879794
4258.000000;1.872737
4257.000000;1.866173
4256.000000;1.861878
4255.000000;1.859558
4254.000000;1.856598
4253.000000;1.851056
4252.000000;1.844682
4251.000000;1.841316
4250.000000;1.842176
4249.000000;1.843969
4248.000000;1.842383
4247.000000;1.836777
4246.000000;1.829646
4245.000000;1.822218
4244.000000;1.813518
4243.000000;1.803614
4242.000000;1.794850
4241.000000;1.789135
4240.000000;1.785951
4239.000000;1.783920
4238.000000;1.783130
4237.000000;1.784404
4236.000000;1.786502
4235.000000;1.785466
4234.000000;1.777873
4233.000000;1.763852
4232.000000;1.746429
4231.000000;1.729549
4230.000000;1.716924
4229.000000;1.710736
4228.000000;1.709487
4227.000000;1.707176
4226.000000;1.697697
4225.000000;1.681597
4224.000000;1.665438
4223.000000;1.654159
4222.000000;1.646179
4221.000000;1.635898
4220.000000;1.620127
4219.000000;1.600934
4218.000000;1.581678
4217.000000;1.562306
4216.000000;1.540776
4215.000000;1.517413
4214.000000;1.494765
4213.000000;1.473575
4212.000000;1.451226
4211.000000;1.424567
4210.000000;1.393311
4209.000000;1.360248
4208.000000;1.328985
4207.000000;1.301003
4206.000000;1.273789
4205.000000;1.241952
4204.000000;1.200432
4203.000000;1.146874
4202.000000;1.081472
4201.000000;1.007408
4200.000000;0.934656
4199.000000;0.881818
4198.000000;0.867191
4197.000000;0.896040
4196.000000;0.957559
4195.000000;1.029615
4194.000000;1.093796
4193.000000;1.147654
4192.000000;1.199567
4191.000000;1.256056
4190.000000;1.316694
4189.000000;1.377450
4188.000000;1.434681
4187.000000;1.485257
4186.000000;1.525172
4185.000000;1.551805
4184.000000;1.568970
4183.000000;1.586348
4182.000000;1.611778
4181.000000;1.645756
4180.000000;1.683590
4179.000000;1.721635
4178.000000;1.759070
4177.000000;1.793656
4176.000000;1.821412
4175.000000;1.841745
4174.000000;1.859128
4173.000000;1.877804
4172.000000;1.897073
4171.000000;1.914894
4170.000000;1.931909
4169.000000;1.949537
4168.000000;1.966924
4167.000000;1.983124
4166.000000;2.001499
4165.000000;2.027175
4164.000000;2.058962
4163.000000;2.086591
4162.000000;2.102389
4161.000000;2.111632
4160.000000;2.121916
4159.000000;2.132788
4158.000000;2.141071
4157.000000;2.147957
4156.000000;2.157755
4155.000000;2.173640
4154.000000;2.195973
4153.000000;2.221612
4152.000000;2.242535
4151.000000;2.248192
4150.000000;2.234444
4149.000000;2.212812
4148.000000;2.204727
4147.000000;2.223183
4146.000000;2.263677
4145.000000;2.308931
4144.000000;2.341047
4143.000000;2.352991
4142.000000;2.350697
4141.000000;2.345556
4140.000000;2.344899
4139.000000;2.347360
4138.000000;2.345354
4137.000000;2.334992
4136.000000;2.323787
4135.000000;2.324357
4134.000000;2.343358
4133.000000;2.376766
4132.000000;2.412361
4131.000000;2.437061
4130.000000;2.443517
4129.000000;2.432851
4128.000000;2.415254
4127.000000;2.406539
4126.000000;2.419731
4125.000000;2.455542
4124.000000;2.496207
4123.000000;2.514332
4122.000000;2.500905
4121.000000;2.476695
4120.000000;2.466319
4119.000000;2.475910
4118.000000;2.497496
4117.000000;2.521817
4116.000000;2.542164
4115.000000;2.553645
4114.000000;2.553508
4113.000000;2.546171
4112.000000;2.541404
4111.000000;2.540310
4110.000000;2.533964
4109.000000;2.518436
4108.000000;2.502985
4107.000000;2.499529
4106.000000;2.510146
4105.000000;2.527046
4104.000000;2.542616
4103.000000;2.557322
4102.000000;2.577166
4101.000000;2.605887
4100.000000;2.639347
4099.000000;2.666745
4098.000000;2.679013
4097.000000;2.676892
4096.000000;2.670928
4095.000000;2.669900
4094.000000;2.670070
4093.000000;2.663631
4092.000000;2.654952
4091.000000;2.657230
4090.000000;2.676639
4089.000000;2.703652
4088.000000;2.719967
4087.000000;2.721089
4086.000000;2.720214
4085.000000;2.726615
4084.000000;2.740124
4083.000000;2.756388
4082.000000;2.765502
4081.000000;2.758048
4080.000000;2.739947
4079.000000;2.728832
4078.000000;2.733378
4077.000000;2.743397
4076.000000;2.742892
4075.000000;2.733623
4074.000000;2.733101
4073.000000;2.747989
4072.000000;2.761985
4071.000000;2.760513
4070.000000;2.755002
4069.000000;2.761601
4068.000000;2.781530
4067.000000;2.808753
4066.000000;2.839464
4065.000000;2.864325
4064.000000;2.864029
4063.000000;2.836403
4062.000000;2.809890
4061.000000;2.809918
4060.000000;2.834299
4059.000000;2.862302
4058.000000;2.871538
4057.000000;2.867761
4056.000000;2.883735
4055.000000;2.921167
4054.000000;2.952434
4053.000000;2.967291
4052.000000;2.980612
4051.000000;3.001975
4050.000000;3.019515
4049.000000;3.011108
4048.000000;2.968397
4047.000000;2.910603
4046.000000;2.869710
4045.000000;2.864628
4044.000000;2.889135
4043.000000;2.917309
4042.000000;2.926778
4041.000000;2.917926
4040.000000;2.909372
4039.000000;2.916520
4038.000000;2.940696
4037.000000;2.972581
4036.000000;2.992071
4035.000000;2.980439
4034.000000;2.937406
4033.000000;2.883694
4032.000000;2.846818
4031.000000;2.839093
4030.000000;2.857544
4029.000000;2.891768
4028.000000;2.926546
4027.000000;2.945020
4026.000000;2.940838
4025.000000;2.924718
4024.000000;2.913000
4023.000000;2.917082
4022.000000;2.941690
4021.000000;2.983171
4020.000000;3.026122
4019.000000;3.048003
4018.000000;3.040967
4017.000000;3.024179
4016.000000;3.015216
4015.000000;3.007438
4014.000000;2.989757
4013.000000;2.972399
4012.000000;2.977854
4011.000000;3.006465
4010.000000;3.023425
4009.000000;3.009202
4008.000000;2.985291
4007.000000;2.969453
4006.000000;2.960364
4005.000000;2.958391
4004.000000;2.975646
4003.000000;3.009940
4002.000000;3.031132
4001.000000;3.020402
4000.000000;3.006462
3999.000000;3.023948
3998.000000;3.072793
3997.000000;3.124783
3996.000000;3.161773
3995.000000;3.178355
3994.000000;3.162666
3993.000000;3.122138
3992.000000;3.076059
3991.000000;3.038256
3990.000000;3.024459
3989.000000;3.040844
3988.000000;3.072079
3987.000000;3.096218
3986.000000;3.107165
3985.000000;3.114051
3984.000000;3.126339
3983.000000;3.147616
3982.000000;3.187561
3981.000000;3.273031
3980.000000;3.429628
3979.000000;3.594165
3978.000000;3.527147
3977.000000;3.309520
3976.000000;3.149010
3975.000000;3.086330
3974.000000;3.112095
3973.000000;3.201649
3972.000000;3.325092
3971.000000;3.415539
3970.000000;3.382432
3969.000000;3.311111
3968.000000;3.279922
3967.000000;3.268179
3966.000000;3.249569
3965.000000;3.216388
3964.000000;3.183613
3963.000000;3.178831
3962.000000;3.215752
3961.000000;3.286089
3960.000000;3.398022
3959.000000;3.573516
3958.000000;3.554005
3957.000000;3.419382
3956.000000;3.349459
3955.000000;3.310609
3954.000000;3.285117
3953.000000;3.274046
3952.000000;3.259752
3951.000000;3.215738
3950.000000;3.165388
3949.000000;3.154047
3948.000000;3.203730
3947.000000;3.305836
3946.000000;3.394326
3945.000000;3.395745
3944.000000;3.354194
3943.000000;3.334219
3942.000000;3.350596
3941.000000;3.378915
3940.000000;3.374228
3939.000000;3.323608
3938.000000;3.265939
3937.000000;3.249858
3936.000000;3.300847
3935.000000;3.408312
3934.000000;3.523550
3933.000000;3.575139
3932.000000;3.498817
3931.000000;3.383166
3930.000000;3.315570
3929.000000;3.306215
3928.000000;3.341917
3927.000000;3.380011
3926.000000;3.352700
3925.000000;3.257009
3924.000000;3.174562
3923.000000;3.172161
3922.000000;3.268876
3921.000000;3.425270
3920.000000;3.509159
3919.000000;3.492651
3918.000000;3.431709
3917.000000;3.316145
3916.000000;3.247098
3915.000000;3.293491
3914.000000;3.448298
3913.000000;3.642777
3912.000000;3.787992
3911.000000;4.042657
3910.000000;3.787773
3909.000000;3.461232
3908.000000;3.339225
3907.000000;3.343635
3906.000000;3.439048
3905.000000;3.532162
3904.000000;3.556315
3903.000000;3.601827
3902.000000;3.668716
3901.000000;3.652747
3900.000000;3.547742
3899.000000;3.432551
3898.000000;3.421821
3897.000000;3.535050
3896.000000;3.660223
3895.000000;3.668981
3894.000000;3.603972
3893.000000;3.524775
3892.000000;3.493620
3891.000000;3.534787
3890.000000;3.589118
3889.000000;3.582642
3888.000000;3.564600
3887.000000;3.526375
3886.000000;3.432769
3885.000000;3.312347
3884.000000;3.277898
3883.000000;3.404299
3882.000000;3.835441
3881.000000;4.049147
3880.000000;4.708318
3879.000000;3.703535
3878.000000;3.371249
3877.000000;3.352358
3876.000000;3.439494
3875.000000;3.535282
3874.000000;3.617582
3873.000000;3.759138
3872.000000;3.723944
3871.000000;3.636694
3870.000000;3.703471
3869.000000;4.078517
3868.000000;4.318176
3867.000000;3.793060
3866.000000;3.711768
3865.000000;3.666562
3864.000000;3.677776
3863.000000;3.663106
3862.000000;3.635363
3861.000000;3.540821
3860.000000;3.386270
3859.000000;3.334874
3858.000000;3.426729
3857.000000;3.671394
3856.000000;3.917435
3855.000000;3.893735
3854.000000;3.821462
3853.000000;3.821942
3852.000000;4.023233
3851.000000;4.285856
3850.000000;4.504218
3849.000000;3.837705
3848.000000;3.579758
3847.000000;3.535107
3846.000000;3.667458
3845.000000;3.885563
3844.000000;3.689961
3843.000000;3.534562
3842.000000;3.450682
3841.000000;3.384781
3840.000000;3.442949
3839.000000;3.692624
3838.000000;3.702805
3837.000000;3.498181
3836.000000;3.511835
3835.000000;3.659725
3834.000000;3.855203
3833.000000;4.013854
3832.000000;3.925708
3831.000000;3.783588
3830.000000;3.859116
3829.000000;3.907741
3828.000000;3.872916
3827.000000;3.942309
3826.000000;3.900719
3825.000000;3.653237
3824.000000;3.513886
3823.000000;3.497350
3822.000000;3.535139
3821.000000;3.590676
3820.000000;3.641014
3819.000000;3.570996
3818.000000;3.475146
3817.000000;3.442252
3816.000000;3.434986
3815.000000;3.425972
3814.000000;3.426229
3813.000000;3.488510
3812.000000;3.660942
3811.000000;3.992703
3810.000000;4.343734
3809.000000;4.226443
3808.000000;4.081868
3807.000000;4.001329
3806.000000;3.845905
3805.000000;3.718110
3804.000000;3.792711
3803.000000;4.037107
3802.000000;3.827163
3801.000000;3.577698
3800.000000;3.513211
3799.000000;3.606164
3798.000000;3.954610
3797.000000;4.153864
3796.000000;3.853168
3795.000000;3.835736
3794.000000;4.041813
3793.000000;4.173266
3792.000000;4.134448
3791.000000;4.166134
3790.000000;3.991406
3789.000000;3.843335
3788.000000;3.821106
3787.000000;3.809148
3786.000000;3.792328
3785.000000;3.753209
3784.000000;3.651648
3783.000000;3.623035
3782.000000;3.787681
3781.000000;4.035257
3780.000000;3.793595
3779.000000;3.552620
3778.000000;3.446959
3777.000000;3.412186
3776.000000;3.437990
3775.000000;3.490607
3774.000000;3.521088
3773.000000;3.559788
3772.000000;3.691219
3771.000000;3.964502
3770.000000;4.134780
3769.000000;4.069210
3768.000000;4.089451
3767.000000;4.293310
3766.000000;4.309052
3765.000000;3.637067
3764.000000;3.388434
3763.000000;3.347136
3762.000000;3.459787
3761.000000;3.674872
3760.000000;3.793546
3759.000000;3.631174
3758.000000;3.478246
3757.000000;3.425422
3756.000000;3.475319
3755.000000;3.579394
3754.000000;3.667332
3753.000000;3.716751
3752.000000;3.763413
3751.000000;3.883381
3750.000000;4.029614
3749.000000;4.349788
3748.000000;4.059981
3747.000000;3.655244
3746.000000;3.515711
3745.000000;3.495858
3744.000000;3.465754
3743.000000;3.325507
3742.000000;3.273868
3741.000000;3.286782
3740.000000;3.275247
3739.000000;3.320687
3738.000000;3.510166
3737.000000;4.003958
3736.000000;3.786803
3735.000000;3.423669
3734.000000;3.286004
3733.000000;3.296605
3732.000000;3.363386
3731.000000;3.358795
3730.000000;3.372540
3729.000000;3.620472
3728.000000;4.033309
3727.000000;3.583791
3726.000000;3.342010
3725.000000;3.306132
3724.000000;3.356962
3723.000000;3.358247
3722.000000;3.323480
3721.000000;3.395596
3720.000000;3.578680
3719.000000;3.742482
3718.000000;3.715023
3717.000000;3.641627
3716.000000;3.629949
3715.000000;3.662675
3714.000000;3.715671
3713.000000;3.780126
3712.000000;3.734739
3711.000000;3.626795
3710.000000;3.727982
3709.000000;3.753683
3708.000000;3.454943
3707.000000;3.404449
3706.000000;3.482778
3705.000000;3.589779
3704.000000;3.604813
3703.000000;3.524521
3702.000000;3.412358
3701.000000;3.343301
3700.000000;3.379966
3699.000000;3.483499
3698.000000;3.505931
3697.000000;3.511370
3696.000000;3.614261
3695.000000;3.789171
3694.000000;3.907927
3693.000000;3.909414
3692.000000;3.852759
3691.000000;3.782517
3690.000000;3.597431
3689.000000;3.452606
3688.000000;3.474988
3687.000000;3.751539
3686.000000;4.518018
3685.000000;3.849003
3684.000000;3.743519
3683.000000;3.779986
3682.000000;3.889657
3681.000000;4.202492
3680.000000;4.656424
3679.000000;4.017515
3678.000000;3.914522
3677.000000;3.992569
3676.000000;4.022015
3675.000000;3.892239
3674.000000;3.822634
3673.000000;3.655139
3672.000000;3.582696
3671.000000;3.679376
3670.000000;3.642517
3669.000000;3.442765
3668.000000;3.335542
3667.000000;3.351574
3666.000000;3.494794
3665.000000;3.769587
3664.000000;4.254792
3663.000000;4.143178
3662.000000;3.740766
3661.000000;3.612729
3660.000000;3.639501
3659.000000;3.754678
3658.000000;3.853984
3657.000000;3.604923
3656.000000;3.437900
3655.000000;3.442493
3654.000000;3.507868
3653.000000;3.583334
3652.000000;3.567782
3651.000000;3.333865
3650.000000;3.112450
3649.000000;2.995535
3648.000000;3.012587
3647.000000;3.108025
3646.000000;3.134079
3645.000000;3.141390
3644.000000;3.206152
3643.000000;3.308415
3642.000000;3.468246
3641.000000;3.760781
3640.000000;4.248664
3639.000000;3.734930
3638.000000;3.447533
3637.000000;3.403142
3636.000000;3.521827
3635.000000;3.831002
3634.000000;3.884180
3633.000000;3.624234
3632.000000;3.433175
3631.000000;3.348123
3630.000000;3.336442
3629.000000;3.338550
3628.000000;3.305317
3627.000000;3.272037
3626.000000;3.322180
3625.000000;3.453413
3624.000000;3.619166
3623.000000;3.843254
3622.000000;4.036681
3621.000000;4.001634
3620.000000;4.018997
3619.000000;4.137494
3618.000000;4.272200
3617.000000;4.097550
3616.000000;3.687838
3615.000000;3.442738
3614.000000;3.336698
3613.000000;3.318667
3612.000000;3.349938
3611.000000;3.414824
3610.000000;3.524087
3609.000000;3.681462
3608.000000;3.857790
3607.000000;3.720520
3606.000000;3.488856
3605.000000;3.343625
3604.000000;3.277103
3603.000000;3.291019
3602.000000;3.384818
3601.000000;3.530442
3600.000000;3.610901
3599.000000;3.688093
3598.000000;3.767789
3597.000000;3.575166
3596.000000;3.463790
3595.000000;3.513049
3594.000000;3.805985
3593.000000;3.754342
3592.000000;3.374656
3591.000000;3.280070
3590.000000;3.339106
3589.000000;3.649692
3588.000000;4.034962
3587.000000;3.723444
3586.000000;3.684711
3585.000000;4.531679
3584.000000;3.822650
3583.000000;3.562603
3582.000000;3.618903
3581.000000;3.544397
3580.000000;3.377094
3579.000000;3.366426
3578.000000;3.574009
3577.000000;3.936472
3576.000000;3.837770
3575.000000;4.049321
3574.000000;4.304287
3573.000000;3.649053
3572.000000;3.497154
3571.000000;3.471653
3570.000000;3.552767
3569.000000;3.742960
3568.000000;3.726065
3567.000000;3.537399
3566.000000;3.659071
3565.000000;3.605976
3564.000000;3.297365
3563.000000;3.196980
3562.000000;3.240306
3561.000000;3.434060
3560.000000;3.623118
3559.000000;3.589264
3558.000000;3.640807
3557.000000;3.673350
3556.000000;3.520261
3555.000000;3.427795
3554.000000;3.423992
3553.000000;3.462433
3552.000000;3.507952
3551.000000;3.555981
3550.000000;3.626159
3549.000000;3.740620
3548.000000;3.754256
3547.000000;3.666687
3546.000000;3.842490
3545.000000;4.310523
3544.000000;3.991313
3543.000000;3.743927
3542.000000;3.450540
3541.000000;3.301403
3540.000000;3.285591
3539.000000;3.379236
3538.000000;3.584060
3537.000000;3.792430
3536.000000;3.724348
3535.000000;3.608670
3534.000000;3.638766
3533.000000;4.138817
3532.000000;3.841484
3531.000000;3.503281
3530.000000;3.443000
3529.000000;3.458837
3528.000000;3.524499
3527.000000;3.581665
3526.000000;3.628466
3525.000000;3.727704
3524.000000;3.937961
3523.000000;4.189492
3522.000000;4.154670
3521.000000;3.941856
3520.000000;3.725477
3519.000000;3.574434
3518.000000;3.474969
3517.000000;3.403611
3516.000000;3.353074
3515.000000;3.342196
3514.000000;3.387530
3513.000000;3.456523
3512.000000;3.430019
3511.000000;3.309686
3510.000000;3.219178
3509.000000;3.228824
3508.000000;3.360599
3507.000000;3.363868
3506.000000;3.221219
3505.000000;3.167875
3504.000000;3.207914
3503.000000;3.321666
3502.000000;3.480695
3501.000000;3.621231
3500.000000;3.716613
3499.000000;3.973551
3498.000000;4.190840
3497.000000;3.688326
3496.000000;3.463462
3495.000000;3.344691
3494.000000;3.346736
3493.000000;3.510293
3492.000000;3.753295
3491.000000;3.883273
3490.000000;4.018318
3489.000000;3.913419
3488.000000;3.730658
3487.000000;3.742633
3486.000000;3.702741
3485.000000;3.472169
3484.000000;3.320364
3483.000000;3.250909
3482.000000;3.247315
3481.000000;3.340847
3480.000000;3.567025
3479.000000;3.833971
3478.000000;3.845239
3477.000000;3.692405
3476.000000;3.586782
3475.000000;3.561077
3474.000000;3.503663
3473.000000;3.386328
3472.000000;3.321227
3471.000000;3.349643
3470.000000;3.440820
3469.000000;3.497575
3468.000000;3.446538
3467.000000;3.371265
3466.000000;3.374327
3465.000000;3.488695
3464.000000;3.924916
3463.000000;4.333045
3462.000000;3.609733
3461.000000;3.490866
3460.000000;3.525733
3459.000000;3.783791
3458.000000;4.366482
3457.000000;4.599567
3456.000000;4.647115
3455.000000;4.378183
3454.000000;3.955849
3453.000000;3.828956
3452.000000;3.904559
3451.000000;3.773730
3450.000000;3.475379
3449.000000;3.286510
3448.000000;3.200809
3447.000000;3.197825
3446.000000;3.261866
3445.000000;3.350613
3444.000000;3.406627
3443.000000;3.451723
3442.000000;3.502884
3441.000000;3.504602
3440.000000;3.492043
3439.000000;3.564134
3438.000000;3.720283
3437.000000;3.713096
3436.000000;3.626104
3435.000000;3.681036
3434.000000;3.757690
3433.000000;3.710329
3432.000000;3.635428
3431.000000;3.612109
3430.000000;3.624409
3429.000000;3.616696
3428.000000;3.528435
3427.000000;3.396882
3426.000000;3.308937
3425.000000;3.264325
3424.000000;3.237565
3423.000000;3.241377
3422.000000;3.301506
3421.000000;3.413593
3420.000000;3.514769
3419.000000;3.574897
3418.000000;3.606363
3417.000000;3.581381
3416.000000;3.579354
3415.000000;3.703972
3414.000000;3.936034
3413.000000;3.791418
3412.000000;3.590723
3411.000000;3.490536
3410.000000;3.407291
3409.000000;3.294528
3408.000000;3.164192
3407.000000;3.087678
3406.000000;3.119561
3405.000000;3.296784
3404.000000;3.597290
3403.000000;3.760945
3402.000000;3.767812
3401.000000;3.741893
3400.000000;3.668903
3399.000000;3.682320
3398.000000;3.795896
3397.000000;3.883902
3396.000000;3.740706
3395.000000;3.443103
3394.000000;3.245717
3393.000000;3.192505
3392.000000;3.271324
3391.000000;3.474989
3390.000000;3.715861
3389.000000;3.782473
3388.000000;3.739598
3387.000000;3.797837
3386.000000;4.148839
3385.000000;3.793179
3384.000000;3.435487
3383.000000;3.355763
3382.000000;3.588528
3381.000000;4.076972
3380.000000;3.596152
3379.000000;3.462289
3378.000000;3.529939
3377.000000;3.615187
3376.000000;3.811176
3375.000000;4.110107
3374.000000;3.581716
3373.000000;3.261468
3372.000000;3.133860
3371.000000;3.075107
3370.000000;3.062323
3369.000000;3.087962
3368.000000;3.176192
3367.000000;3.323869
3366.000000;3.364824
3365.000000;3.284192
3364.000000;3.235957
3363.000000;3.249367
3362.000000;3.378244
3361.000000;3.631759
3360.000000;3.610953
3359.000000;3.502181
3358.000000;3.578721
3357.000000;3.874888
3356.000000;3.977906
3355.000000;3.659927
3354.000000;3.545728
3353.000000;3.516869
3352.000000;3.562651
3351.000000;3.558097
3350.000000;3.391698
3349.000000;3.268885
3348.000000;3.253509
3347.000000;3.294061
3346.000000;3.369028
3345.000000;3.516725
3344.000000;3.628551
3343.000000;3.560486
3342.000000;3.421963
3341.000000;3.301617
3340.000000;3.271559
3339.000000;3.353261
3338.000000;3.552293
3337.000000;3.607372
3336.000000;3.636172
3335.000000;3.873318
3334.000000;3.422130
3333.000000;3.220817
3332.000000;3.243713
3331.000000;3.465326
3330.000000;3.989728
3329.000000;4.123320
3328.000000;4.031005
3327.000000;3.947845
3326.000000;3.620413
3325.000000;3.488046
3324.000000;3.463303
3323.000000;3.589627
3322.000000;4.008319
3321.000000;4.137661
3320.000000;4.111672
3319.000000;3.795442
3318.000000;3.533964
3317.000000;3.602795
3316.000000;3.960382
3315.000000;4.628399
3314.000000;4.433397
3313.000000;4.162425
3312.000000;4.465908
3311.000000;3.797110
3310.000000;3.446613
3309.000000;3.339419
3308.000000;3.492154
3307.000000;4.024900
3306.000000;3.536417
3305.000000;3.368634
3304.000000;3.516345
3303.000000;3.997941
3302.000000;3.776645
3301.000000;3.469581
3300.000000;3.393969
3299.000000;3.385681
3298.000000;3.478650
3297.000000;3.659711
3296.000000;3.762124
3295.000000;3.592055
3294.000000;3.413463
3293.000000;3.337912
3292.000000;3.357695
3291.000000;3.480335
3290.000000;3.774468
3289.000000;4.119345
3288.000000;3.676453
3287.000000;3.389249
3286.000000;3.295090
3285.000000;3.378227
3284.000000;3.700654
3283.000000;3.570902
3282.000000;3.360225
3281.000000;3.318102
3280.000000;3.312416
3279.000000;3.357073
3278.000000;3.608804
3277.000000;4.050972
3276.000000;3.650169
3275.000000;3.502976
3274.000000;3.615743
3273.000000;3.758513
3272.000000;3.462700
3271.000000;3.219453
3270.000000;3.123188
3269.000000;3.129854
3268.000000;3.228915
3267.000000;3.404924
3266.000000;3.769848
3265.000000;4.184455
3264.000000;3.850520
3263.000000;3.707592
3262.000000;3.606723
3261.000000;3.490064
3260.000000;3.475303
3259.000000;3.595584
3258.000000;3.778924
3257.000000;3.790020
3256.000000;3.724020
3255.000000;3.645146
3254.000000;3.611643
3253.000000;3.625654
3252.000000;3.589948
3251.000000;3.477346
3250.000000;3.368071
3249.000000;3.330755
3248.000000;3.396767
3247.000000;3.577312
3246.000000;3.745951
3245.000000;3.642841
3244.000000;3.517145
3243.000000;3.601478
3242.000000;3.725966
3241.000000;3.532683
3240.000000;3.409157
3239.000000;3.425164
3238.000000;3.478539
3237.000000;3.480372
3236.000000;3.378770
3235.000000;3.306576
3234.000000;3.351435
3233.000000;3.567777
3232.000000;3.949226
3231.000000;3.976532
3230.000000;3.823119
3229.000000;3.556819
3228.000000;3.421632
3227.000000;3.438733
3226.000000;3.487370
3225.000000;3.530677
3224.000000;3.673278
3223.000000;3.871973
3222.000000;3.855262
3221.000000;3.759948
3220.000000;3.682235
3219.000000;3.657506
3218.000000;3.769927
3217.000000;3.818427
3216.000000;3.549179
3215.000000;3.356006
3214.000000;3.300045
3213.000000;3.344055
3212.000000;3.446781
3211.000000;3.513036
3210.000000;3.458896
3209.000000;3.353529
3208.000000;3.259478
3207.000000;3.218625
3206.000000;3.248932
3205.000000;3.407864
3204.000000;3.872885
3203.000000;3.713032
3202.000000;3.484145
3201.000000;3.598261
3200.000000;3.992425
3199.000000;4.169804
3198.000000;3.984538
3197.000000;3.786409
3196.000000;3.614833
3195.000000;3.529868
3194.000000;3.594560
3193.000000;3.696175
3192.000000;3.589002
3191.000000;3.527332
3190.000000;3.571630
3189.000000;3.627831
3188.000000;3.681117
3187.000000;3.769171
3186.000000;4.239178
3185.000000;4.203528
3184.000000;3.672013
3183.000000;3.506512
3182.000000;3.473486
3181.000000;3.493890
3180.000000;3.494746
3179.000000;3.519143
3178.000000;3.620400
3177.000000;3.691298
3176.000000;3.590337
3175.000000;3.448320
3174.000000;3.358739
3173.000000;3.295858
3172.000000;3.216120
3171.000000;3.134473
3170.000000;3.109492
3169.000000;3.185236
3168.000000;3.388296
3167.000000;3.659662
3166.000000;3.805195
3165.000000;3.802623
3164.000000;3.614896
3163.000000;3.387933
3162.000000;3.229655
3161.000000;3.156218
3160.000000;3.142892
3159.000000;3.170394
3158.000000;3.241128
3157.000000;3.245108
3156.000000;3.166085
3155.000000;3.124250
3154.000000;3.132106
3153.000000;3.190430
3152.000000;3.308328
3151.000000;3.423093
3150.000000;3.500373
3149.000000;3.616024
3148.000000;3.780627
3147.000000;3.967203
3146.000000;4.053920
3145.000000;3.809115
3144.000000;3.580589
3143.000000;3.537997
3142.000000;3.568280
3141.000000;3.494535
3140.000000;3.396060
3139.000000;3.359746
3138.000000;3.368483
3137.000000;3.378992
3136.000000;3.554762
3135.000000;3.947403
3134.000000;3.600544
3133.000000;3.390783
3132.000000;3.429588
3131.000000;3.462127
3130.000000;3.403399
3129.000000;3.289857
3128.000000;3.211129
3127.000000;3.224322
3126.000000;3.346036
3125.000000;3.584615
3124.000000;3.766817
3123.000000;3.685581
3122.000000;3.643237
3121.000000;3.666733
3120.000000;3.695992
3119.000000;3.732691
3118.000000;3.882698
3117.000000;4.329342
3116.000000;4.107197
3115.000000;3.664641
3114.000000;3.495388
3113.000000;3.418976
3112.000000;3.398159
3111.000000;3.393173
3110.000000;3.292201
3109.000000;3.201908
3108.000000;3.228208
3107.000000;3.358707
3106.000000;3.467861
3105.000000;3.476475
3104.000000;3.662857
3103.000000;3.767330
3102.000000;3.437838
3101.000000;3.247936
3100.000000;3.189589
3099.000000;3.206558
3098.000000;3.385096
3097.000000;3.860837
3096.000000;3.534719
3095.000000;3.376063
3094.000000;3.545300
3093.000000;4.065044
3092.000000;5.149209
3091.000000;3.770122
3090.000000;3.370431
3089.000000;3.226225
3088.000000;3.200771
3087.000000;3.187462
3086.000000;3.147215
3085.000000;3.123169
3084.000000;3.145676
3083.000000;3.221136
3082.000000;3.348774
3081.000000;3.378627
3080.000000;3.241527
3079.000000;3.150286
3078.000000;3.162719
3077.000000;3.244575
3076.000000;3.321790
3075.000000;3.299514
3074.000000;3.278238
3073.000000;3.345984
3072.000000;3.603542
3071.000000;4.428834
3070.000000;4.322284
3069.000000;4.671010
3068.000000;4.070527
3067.000000;3.763956
3066.000000;3.724582
3065.000000;3.683543
3064.000000;3.627223
3063.000000;3.536623
3062.000000;3.471992
3061.000000;3.466818
3060.000000;3.551915
3059.000000;3.700084
3058.000000;3.799386
3057.000000;3.804555
3056.000000;3.811769
3055.000000;3.946734
3054.000000;3.843131
3053.000000;3.547255
3052.000000;3.421140
3051.000000;3.386389
3050.000000;3.338676
3049.000000;3.287289
3048.000000;3.279656
3047.000000;3.318020
3046.000000;3.435546
3045.000000;3.549596
3044.000000;3.554374
3043.000000;3.707113
3042.000000;3.703024
3041.000000;3.395079
3040.000000;3.268707
3039.000000;3.270464
3038.000000;3.318684
3037.000000;3.363861
3036.000000;3.421023
3035.000000;3.500347
3034.000000;3.531414
3033.000000;3.501607
3032.000000;3.471854
3031.000000;3.504054
3030.000000;3.648295
3029.000000;3.871185
3028.000000;3.820401
3027.000000;3.568567
3026.000000;3.390911
3025.000000;3.333615
3024.000000;3.390442
3023.000000;3.499616
3022.000000;3.565692
3021.000000;3.475470
3020.000000;3.356275
3019.000000;3.320301
3018.000000;3.331936
3017.000000;3.351843
3016.000000;3.408949
3015.000000;3.521189
3014.000000;3.717311
3013.000000;3.775361
3012.000000;3.584922
3011.000000;3.642046
3010.000000;3.631239
3009.000000;3.385501
3008.000000;3.325176
3007.000000;3.490380
3006.000000;3.731349
3005.000000;3.539319
3004.000000;3.478997
3003.000000;3.837955
3002.000000;3.961435
3001.000000;3.569752
3000.000000;3.510829
2999.000000;3.521311
2998.000000;3.613228
2997.000000;3.880497
2996.000000;4.174526
2995.000000;4.104671
2994.000000;4.133944
2993.000000;4.076049
2992.000000;3.733198
2991.000000;3.506220
2990.000000;3.283993
2989.000000;3.130256
2988.000000;3.092335
2987.000000;3.151585
2986.000000;3.279628
2985.000000;3.414090
2984.000000;3.474527
2983.000000;3.452678
2982.000000;3.378328
2981.000000;3.309926
2980.000000;3.302256
2979.000000;3.372949
2978.000000;3.537975
2977.000000;3.809460
2976.000000;3.853395
2975.000000;3.744986
2974.000000;3.781336
2973.000000;3.598622
2972.000000;3.324937
2971.000000;3.187766
2970.000000;3.180936
2969.000000;3.333938
2968.000000;3.794083
2967.000000;4.189516
2966.000000;3.783290
2965.000000;3.536825
2964.000000;3.428176
2963.000000;3.507967
2962.000000;3.545976
2961.000000;3.653675
2960.000000;4.213786
2959.000000;3.481850
2958.000000;3.204946
2957.000000;3.165610
2956.000000;3.202169
2955.000000;3.222974
2954.000000;3.218165
2953.000000;3.295421
2952.000000;3.387790
2951.000000;3.392066
2950.000000;3.373041
2949.000000;3.455242
2948.000000;3.604686
2947.000000;3.491695
2946.000000;3.321757
2945.000000;3.252681
2944.000000;3.230338
2943.000000;3.268823
2942.000000;3.318232
2941.000000;3.276553
2940.000000;3.207400
2939.000000;3.211403
2938.000000;3.317291
2937.000000;3.446282
2936.000000;3.456974
2935.000000;3.482211
2934.000000;3.572585
2933.000000;3.553080
2932.000000;3.538277
2931.000000;3.630059
2930.000000;3.832018
2929.000000;4.058145
2928.000000;3.793095
2927.000000;3.629421
2926.000000;3.930598
2925.000000;4.237904
2924.000000;3.594376
2923.000000;3.358662
2922.000000;3.234047
2921.000000;3.213695
2920.000000;3.281060
2919.000000;3.347707
2918.000000;3.366088
2917.000000;3.363851
2916.000000;3.392687
2915.000000;3.424609
2914.000000;3.428070
2913.000000;3.457264
2912.000000;3.632669
2911.000000;3.833721
2910.000000;3.739541
2909.000000;3.717342
2908.000000;3.872919
2907.000000;4.190965
2906.000000;4.009926
2905.000000;3.599660
2904.000000;3.420131
2903.000000;3.415625
2902.000000;3.587802
2901.000000;3.776263
2900.000000;3.769606
2899.000000;3.934514
2898.000000;4.142688
2897.000000;3.874024
2896.000000;3.627380
2895.000000;3.493364
2894.000000;3.457052
2893.000000;3.504144
2892.000000;3.578359
2891.000000;3.671400
2890.000000;3.901605
2889.000000;3.860346
2888.000000;3.545736
2887.000000;3.352469
2886.000000;3.234020
2885.000000;3.170256
2884.000000;3.140559
2883.000000;3.124830
2882.000000;3.124817
2881.000000;3.170184
2880.000000;3.291095
2879.000000;3.514738
2878.000000;3.950304
2877.000000;4.105094
2876.000000;3.708422
2875.000000;3.515747
2874.000000;3.416028
2873.000000;3.428924
2872.000000;3.619393
2871.000000;3.856523
2870.000000;3.791663
2869.000000;3.755441
2868.000000;3.786512
2867.000000;3.804668
2866.000000;3.755230
2865.000000;3.609827
2864.000000;3.522066
2863.000000;3.465597
2862.000000;3.403076
2861.000000;3.367999
2860.000000;3.438104
2859.000000;3.757361
2858.000000;3.917234
2857.000000;3.663137
2856.000000;3.622784
2855.000000;3.635187
2854.000000;3.423771
2853.000000;3.257504
2852.000000;3.198749
2851.000000;3.369581
2850.000000;3.785196
2849.000000;3.332119
2848.000000;3.135991
2847.000000;3.156371
2846.000000;3.298604
2845.000000;3.652733
2844.000000;4.109401
2843.000000;4.229004
2842.000000;4.070896
2841.000000;3.779644
2840.000000;3.749148
2839.000000;4.073935
2838.000000;3.751864
2837.000000;3.417442
2836.000000;3.395022
2835.000000;3.535845
2834.000000;3.805016
2833.000000;4.043976
2832.000000;4.106122
2831.000000;3.922136
2830.000000;3.713133
2829.000000;3.696756
2828.000000;3.911543
2827.000000;4.366158
2826.000000;4.251506
2825.000000;3.866583
2824.000000;3.625232
2823.000000;3.590473
2822.000000;3.603749
2821.000000;3.514742
2820.000000;3.525267
2819.000000;3.478314
2818.000000;3.281187
2817.000000;3.165072
2816.000000;3.158921
2815.000000;3.253026
2814.000000;3.437435
2813.000000;3.856356
2812.000000;4.115274
2811.000000;3.776916
2810.000000;3.845334
2809.000000;3.751568
2808.000000;3.528423
2807.000000;3.422938
2806.000000;3.408362
2805.000000;3.463717
2804.000000;3.661120
2803.000000;4.249585
2802.000000;3.919293
2801.000000;3.659235
2800.000000;3.621566
2799.000000;3.549286
2798.000000;3.466210
2797.000000;3.413988
2796.000000;3.465583
2795.000000;3.637920
2794.000000;4.023284
2793.000000;4.031419
2792.000000;3.567451
2791.000000;3.423102
2790.000000;3.434772
2789.000000;3.574587
2788.000000;4.048352
2787.000000;4.000064
2786.000000;3.671071
2785.000000;3.803096
2784.000000;3.805796
2783.000000;3.647424
2782.000000;3.748713
2781.000000;3.803641
2780.000000;3.534488
2779.000000;3.403383
2778.000000;3.455910
2777.000000;3.582542
2776.000000;3.737081
2775.000000;3.876327
2774.000000;4.058876
2773.000000;4.112588
2772.000000;3.667855
2771.000000;3.393188
2770.000000;3.288105
2769.000000;3.285354
2768.000000;3.326320
2767.000000;3.299398
2766.000000;3.214793
2765.000000;3.187862
2764.000000;3.314580
2763.000000;3.805753
2762.000000;4.030248
2761.000000;3.589947
2760.000000;3.485376
2759.000000;3.376120
2758.000000;3.427610
2757.000000;3.607829
2756.000000;3.509546
2755.000000;3.333623
2754.000000;3.266225
2753.000000;3.273384
2752.000000;3.338778
2751.000000;3.450389
2750.000000;3.602596
2749.000000;3.972805
2748.000000;4.387585
2747.000000;4.114665
2746.000000;3.746078
2745.000000;3.461588
2744.000000;3.345613
2743.000000;3.483297
2742.000000;3.812817
2741.000000;3.510095
2740.000000;3.444430
2739.000000;3.593947
2738.000000;3.419334
2737.000000;3.263332
2736.000000;3.251523
2735.000000;3.332414
2734.000000;3.474315
2733.000000;3.593411
2732.000000;3.624074
2731.000000;3.643361
2730.000000;3.674497
2729.000000;3.713070
2728.000000;3.706150
2727.000000;3.645547
2726.000000;3.585439
2725.000000;3.526641
2724.000000;3.566767
2723.000000;3.553299
2722.000000;3.330856
2721.000000;3.248166
2720.000000;3.334114
2719.000000;3.547037
2718.000000;3.868242
2717.000000;3.714164
2716.000000;3.507782
2715.000000;3.441000
2714.000000;3.419357
2713.000000;3.469589
2712.000000;3.602555
2711.000000;3.798001
2710.000000;3.809739
2709.000000;3.605914
2708.000000;3.426623
2707.000000;3.349772
2706.000000;3.366738
2705.000000;3.477894
2704.000000;3.663839
2703.000000;3.843661
2702.000000;4.544907
2701.000000;4.015737
2700.000000;3.488231
2699.000000;3.390055
2698.000000;3.461825
2697.000000;3.672559
2696.000000;4.036074
2695.000000;4.463346
2694.000000;4.075979
2693.000000;3.681741
2692.000000;3.586298
2691.000000;3.671807
2690.000000;3.930465
2689.000000;4.439410
2688.000000;3.831478
2687.000000;3.490112
2686.000000;3.424309
2685.000000;3.502486
2684.000000;3.788076
2683.000000;4.059575
2682.000000;3.796144
2681.000000;3.664761
2680.000000;3.742970
2679.000000;4.108711
2678.000000;3.897795
2677.000000;3.545749
2676.000000;3.493008
2675.000000;3.551216
2674.000000;3.614650
2673.000000;3.600255
2672.000000;3.590442
2671.000000;3.637318
2670.000000;3.662200
2669.000000;3.629503
2668.000000;3.609308
2667.000000;3.580481
2666.000000;3.508410
2665.000000;3.507502
2664.000000;3.601586
2663.000000;3.886491
2662.000000;4.416822
2661.000000;4.088686
2660.000000;4.099790
2659.000000;4.040545
2658.000000;3.609637
2657.000000;3.374643
2656.000000;3.248410
2655.000000;3.209293
2654.000000;3.247792
2653.000000;3.347020
2652.000000;3.688205
2651.000000;4.076286
2650.000000;3.602894
2649.000000;3.482318
2648.000000;3.708495
2647.000000;3.906731
2646.000000;3.611092
2645.000000;3.487647
2644.000000;3.507484
2643.000000;3.502592
2642.000000;3.455360
2641.000000;3.518777
2640.000000;3.708494
2639.000000;3.591722
2638.000000;3.459397
2637.000000;3.496768
2636.000000;3.679300
2635.000000;3.966052
2634.000000;3.897751
2633.000000;3.696165
2632.000000;3.585610
2631.000000;3.562832
2630.000000;3.614019
2629.000000;3.862035
2628.000000;4.338171
2627.000000;3.891584
2626.000000;3.636601
2625.000000;3.527080
2624.000000;3.414245
2623.000000;3.358236
2622.000000;3.390398
2621.000000;3.494063
2620.000000;3.695012
2619.000000;4.169438
2618.000000;4.220415
2617.000000;3.767559
2616.000000;3.687988
2615.000000;3.843506
2614.000000;3.751390
2613.000000;3.577605
2612.000000;3.631775
2611.000000;3.767235
2610.000000;3.648576
2609.000000;3.533633
2608.000000;3.549018
2607.000000;3.590883
2606.000000;3.558026
2605.000000;3.477089
2604.000000;3.452210
2603.000000;3.504075
2602.000000;3.535479
2601.000000;3.445862
2600.000000;3.377099
2599.000000;3.403268
2598.000000;3.586954
2597.000000;4.041902
2596.000000;3.818210
2595.000000;3.492760
2594.000000;3.410712
2593.000000;3.381605
2592.000000;3.370652
2591.000000;3.347906
2590.000000;3.324436
2589.000000;3.334161
2588.000000;3.379169
2587.000000;3.464691
2586.000000;3.574051
2585.000000;3.781283
2584.000000;4.102557
2583.000000;3.957559
2582.000000;3.853826
2581.000000;3.948628
2580.000000;3.986862
2579.000000;4.168938
2578.000000;4.295203
2577.000000;3.889485
2576.000000;3.664165
2575.000000;3.533923
2574.000000;3.478752
2573.000000;3.539809
2572.000000;3.734195
2571.000000;4.175786
2570.000000;4.270968
2569.000000;4.015267
2568.000000;3.874267
2567.000000;3.750611
2566.000000;3.877006
2565.000000;3.666424
2564.000000;3.310614
2563.000000;3.172553
2562.000000;3.167233
2561.000000;3.260468
2560.000000;3.416622
2559.000000;3.472423
2558.000000;3.453521
2557.000000;3.376837
2556.000000;3.487319
2555.000000;3.908467
2554.000000;3.531012
2553.000000;3.333435
2552.000000;3.338535
2551.000000;3.345959
2550.000000;3.355964
2549.000000;3.391649
2548.000000;3.615069
2547.000000;4.021124
2546.000000;3.797676
2545.000000;3.525779
2544.000000;3.398709
2543.000000;3.306449
2542.000000;3.264409
2541.000000;3.267731
2540.000000;3.303615
2539.000000;3.336913
2538.000000;3.334006
2537.000000;3.327743
2536.000000;3.369508
2535.000000;3.481442
2534.000000;3.588955
2533.000000;3.501616
2532.000000;3.357688
2531.000000;3.300230
2530.000000;3.337352
2529.000000;3.441542
2528.000000;3.484279
2527.000000;3.465500
2526.000000;3.484721
2525.000000;3.425145
2524.000000;3.318983
2523.000000;3.301851
2522.000000;3.402788
2521.000000;3.615032
2520.000000;3.842704
2519.000000;4.127776
2518.000000;4.164411
2517.000000;3.805513
2516.000000;3.621013
2515.000000;3.551251
2514.000000;3.559712
2513.000000;3.768468
2512.000000;4.157704
2511.000000;3.717143
2510.000000;3.517271
2509.000000;3.665681
2508.000000;3.735262
2507.000000;3.528269
2506.000000;3.506295
2505.000000;3.800739
2504.000000;3.916352
2503.000000;3.685894
2502.000000;3.610308
2501.000000;3.566429
2500.000000;3.578934
2499.000000;3.572133
2498.000000;3.436646
2497.000000;3.306829
2496.000000;3.263807
2495.000000;3.322893
2494.000000;3.485076
2493.000000;3.770131
2492.000000;4.089438
2491.000000;4.045535
2490.000000;3.818723
2489.000000;3.714389
2488.000000;3.761806
2487.000000;3.815644
2486.000000;3.735930
2485.000000;3.814461
2484.000000;4.149506
2483.000000;3.964287
2482.000000;3.806051
2481.000000;3.863297
2480.000000;3.745197
2479.000000;3.622274
2478.000000;3.624815
2477.000000;3.896232
2476.000000;4.615884
2475.000000;4.237574
2474.000000;4.041258
2473.000000;3.854317
2472.000000;3.800097
2471.000000;3.951396
2470.000000;3.876350
2469.000000;3.711921
2468.000000;3.604930
2467.000000;3.525779
2466.000000;3.484486
2465.000000;3.576009
2464.000000;4.067958
2463.000000;4.257448
2462.000000;3.938839
2461.000000;3.944084
2460.000000;3.783196
2459.000000;3.766190
2458.000000;3.767093
2457.000000;3.623393
2456.000000;3.490562
2455.000000;3.463843
2454.000000;3.538365
2453.000000;3.552330
2452.000000;3.445009
2451.000000;3.370862
2450.000000;3.400972
2449.000000;3.553298
2448.000000;3.836032
2447.000000;3.853083
2446.000000;3.671803
2445.000000;3.662588
2444.000000;3.916442
2443.000000;4.179050
2442.000000;4.259669
2441.000000;4.564438
2440.000000;4.103287
2439.000000;3.852528
2438.000000;3.715495
2437.000000;3.573834
2436.000000;3.542969
2435.000000;3.976923
2434.000000;4.142880
2433.000000;3.634748
2432.000000;3.642999
2431.000000;3.751596
2430.000000;3.851614
2429.000000;3.659442
2428.000000;3.476885
2427.000000;3.504747
2426.000000;3.693692
2425.000000;3.973542
2424.000000;3.860338
2423.000000;3.576801
2422.000000;3.382885
2421.000000;3.277531
2420.000000;3.239779
2419.000000;3.249695
2418.000000;3.313744
2417.000000;3.435591
2416.000000;3.694437
2415.000000;3.856527
2414.000000;3.614097
2413.000000;3.545883
2412.000000;3.722468
2411.000000;4.003369
2410.000000;3.780228
2409.000000;3.518380
2408.000000;3.366343
2407.000000;3.261767
2406.000000;3.235188
2405.000000;3.276148
2404.000000;3.361075
2403.000000;3.472347
2402.000000;3.641702
2401.000000;3.907753
2400.000000;4.135060
2399.000000;4.118733
2398.000000;4.135139
2397.000000;4.200250
2396.000000;3.954475
2395.000000;3.712425
2394.000000;3.609293
2393.000000;3.625033
2392.000000;3.705122
2391.000000;3.882491
2390.000000;4.161985
2389.000000;3.949818
2388.000000;3.757463
2387.000000;3.743862
2386.000000;3.717928
2385.000000;3.565239
2384.000000;3.363025
2383.000000;3.231915
2382.000000;3.212832
2381.000000;3.294936
2380.000000;3.395709
2379.000000;3.401611
2378.000000;3.307524
2377.000000;3.100667
2376.000000;3.017100
2375.000000;3.014338
2374.000000;3.286332
2373.000000;3.817204
2372.000000;3.584790
2371.000000;3.737260
2370.000000;3.741671
2369.000000;3.743714
2368.000000;3.639993
2367.000000;3.605706
2366.000000;3.610936
2365.000000;3.613604
2364.000000;3.573126
2363.000000;3.570274
2362.000000;3.678417
2361.000000;3.856287
2360.000000;3.874050
2359.000000;3.741956
2358.000000;3.615245
2357.000000;3.510914
2356.000000;3.434616
2355.000000;3.426466
2354.000000;3.502054
2353.000000;3.756737
2352.000000;4.215250
2351.000000;3.808038
2350.000000;3.482588
2349.000000;3.429358
2348.000000;3.421314
2347.000000;3.665449
2346.000000;3.523215
2345.000000;3.236265
2344.000000;3.160839
2343.000000;3.116897
2342.000000;3.129287
2341.000000;3.099428
2340.000000;3.098599
2339.000000;3.136859
2338.000000;3.160991
2337.000000;3.108295
2336.000000;3.068835
2335.000000;3.108988
2334.000000;3.186910
2333.000000;3.281578
2332.000000;3.354199
2331.000000;3.238833
2330.000000;3.068747
2329.000000;3.074403
2328.000000;3.505754
2327.000000;3.865233
2326.000000;3.379404
2325.000000;3.355569
2324.000000;3.380855
2323.000000;3.346631
2322.000000;3.442221
2321.000000;3.605978
2320.000000;3.506807
2319.000000;3.453869
2318.000000;3.783685
2317.000000;4.371058
2316.000000;3.763245
2315.000000;3.919304
2314.000000;3.381832
2313.000000;3.198836
2312.000000;3.383178
2311.000000;3.295071
2310.000000;3.262310
2309.000000;3.272235
2308.000000;3.290102
2307.000000;3.350763
2306.000000;3.440879
2305.000000;3.472973
2304.000000;3.471522
2303.000000;3.376840
2302.000000;3.263304
2301.000000;3.224892
2300.000000;3.286568
2299.000000;3.421622
2298.000000;3.447843
2297.000000;3.314163
2296.000000;3.222343
2295.000000;3.224661
2294.000000;3.319390
2293.000000;3.481323
2292.000000;3.714812
2291.000000;3.969801
2290.000000;3.803163
2289.000000;3.598709
2288.000000;3.504662
2287.000000;3.448652
2286.000000;3.426344
2285.000000;3.402640
2284.000000;3.365293
2283.000000;3.342856
2282.000000;3.377116
2281.000000;3.496736
2280.000000;3.768046
2279.000000;4.346241
2278.000000;4.285070
2277.000000;3.933727
2276.000000;3.853748
2275.000000;3.834881
2274.000000;3.858382
2273.000000;3.786936
2272.000000;3.648749
2271.000000;3.574809
2270.000000;3.602174
2269.000000;3.692530
2268.000000;3.632302
2267.000000;3.506355
2266.000000;3.491528
2265.000000;3.681445
2264.000000;3.914741
2263.000000;3.859268
2262.000000;3.756312
2261.000000;3.533733
2260.000000;3.426469
2259.000000;3.526305
2258.000000;3.753952
2257.000000;3.813467
2256.000000;3.753782
2255.000000;3.873657
2254.000000;4.151719
2253.000000;4.077838
2252.000000;3.752470
2251.000000;3.563973
2250.000000;3.467527
2249.000000;3.489611
2248.000000;3.671339
2247.000000;3.746073
2246.000000;3.597971
2245.000000;3.554590
2244.000000;3.597248
2243.000000;3.641268
2242.000000;3.610540
2241.000000;3.585147
2240.000000;3.621865
2239.000000;3.691599
2238.000000;3.728577
2237.000000;3.873763
2236.000000;4.400001
2235.000000;4.147561
2234.000000;3.882067
2233.000000;3.868397
2232.000000;3.888209
2231.000000;3.955643
2230.000000;3.888637
2229.000000;3.684275
2228.000000;3.519185
2227.000000;3.440204
2226.000000;3.430703
2225.000000;3.481775
2224.000000;3.638834
2223.000000;3.711706
2222.000000;3.514063
2221.000000;3.386815
2220.000000;3.370477
2219.000000;3.458787
2218.000000;3.598244
2217.000000;3.632119
2216.000000;3.684713
2215.000000;3.769180
2214.000000;3.745090
2213.000000;3.741347
2212.000000;3.738331
2211.000000;3.727934
2210.000000;3.696158
2209.000000;3.608158
2208.000000;3.569178
2207.000000;3.690925
2206.000000;4.023714
2205.000000;4.066051
2204.000000;4.055484
2203.000000;4.375781
2202.000000;4.229939
2201.000000;3.911955
2200.000000;3.724969
2199.000000;3.662535
2198.000000;3.687914
2197.000000;3.655365
2196.000000;3.568330
2195.000000;3.571083
2194.000000;3.595539
2193.000000;3.505062
2192.000000;3.427267
2191.000000;3.499618
2190.000000;3.662609
2189.000000;3.611772
2188.000000;3.473042
2187.000000;3.424836
2186.000000;3.433298
2185.000000;3.568754
2184.000000;3.874046
2183.000000;3.815175
2182.000000;3.733320
2181.000000;3.985068
2180.000000;4.076135
2179.000000;3.868880
2178.000000;4.093652
2177.000000;4.514197
2176.000000;3.938744
2175.000000;3.717708
2174.000000;3.592226
2173.000000;3.578093
2172.000000;3.679654
2171.000000;3.916696
2170.000000;4.269881
2169.000000;4.028892
2168.000000;3.859710
2167.000000;3.912362
2166.000000;4.224671
2165.000000;4.309878
2164.000000;3.926064
2163.000000;3.788721
2162.000000;3.838136
2161.000000;3.931329
2160.000000;3.798962
2159.000000;3.721992
2158.000000;3.797889
2157.000000;3.741657
2156.000000;3.599709
2155.000000;3.522740
2154.000000;3.489768
2153.000000;3.487315
2152.000000;3.519658
2151.000000;3.602763
2150.000000;3.689314
2149.000000;3.705116
2148.000000;3.728965
2147.000000;3.760995
2146.000000;3.650922
2145.000000;3.525535
2144.000000;3.502309
2143.000000;3.601499
2142.000000;4.151163
2141.000000;4.545567
2140.000000;3.982940
2139.000000;4.143594
2138.000000;3.910584
2137.000000;3.716316
2136.000000;3.754895
2135.000000;3.862334
2134.000000;3.879036
2133.000000;3.695415
2132.000000;3.549479
2131.000000;3.482505
2130.000000;3.501814
2129.000000;3.581363
2128.000000;3.764958
2127.000000;3.984312
2126.000000;4.016705
2125.000000;4.125333
2124.000000;3.901714
2123.000000;3.638481
2122.000000;3.563666
2121.000000;3.580626
2120.000000;3.645884
2119.000000;3.719487
2118.000000;3.811225
2117.000000;3.904426
2116.000000;3.951971
2115.000000;3.941880
2114.000000;3.917674
2113.000000;3.968520
2112.000000;4.054769
2111.000000;3.980941
2110.000000;3.795542
2109.000000;3.703495
2108.000000;3.749304
2107.000000;3.908924
2106.000000;3.978690
2105.000000;4.062982
2104.000000;4.411277
2103.000000;4.012194
2102.000000;3.761838
2101.000000;3.734385
2100.000000;3.889576
2099.000000;4.355747
2098.000000;4.134387
2097.000000;3.884689
2096.000000;3.737132
2095.000000;3.596773
2094.000000;3.545062
2093.000000;3.562297
2092.000000;3.635264
2091.000000;3.733512
2090.000000;3.806269
2089.000000;3.840207
2088.000000;3.934253
2087.000000;4.134958
2086.000000;4.369809
2085.000000;4.288392
2084.000000;3.988997
2083.000000;3.793245
2082.000000;3.698110
2081.000000;3.676030
2080.000000;3.703215
2079.000000;3.745946
2078.000000;3.757933
2077.000000;3.678076
2076.000000;3.614693
2075.000000;3.635815
2074.000000;3.842974
2073.000000;4.126233
2072.000000;4.128880
2071.000000;4.304051
2070.000000;4.013483
2069.000000;3.759746
2068.000000;3.705536
2067.000000;3.654505
2066.000000;3.564991
2065.000000;3.511061
2064.000000;3.597243
2063.000000;3.793280
2062.000000;3.870613
2061.000000;3.822718
2060.000000;3.968626
2059.000000;4.188357
2058.000000;3.818959
2057.000000;3.549191
2056.000000;3.462623
2055.000000;3.473304
2054.000000;3.559181
2053.000000;3.693943
2052.000000;3.796102
2051.000000;3.716115
2050.000000;3.598262
2049.000000;3.567611
2048.000000;3.593586
2047.000000;3.636849
2046.000000;3.717205
2045.000000;3.891309
2044.000000;4.227180
2043.000000;4.601837
2042.000000;4.270521
2041.000000;3.852435
2040.000000;3.559194
2039.000000;3.407172
2038.000000;3.400580
2037.000000;3.533655
2036.000000;3.871359
2035.000000;4.349841
2034.000000;4.138911
2033.000000;3.874557
2032.000000;3.875939
2031.000000;4.001500
2030.000000;4.109971
2029.000000;4.564633
2028.000000;4.053304
2027.000000;3.651165
2026.000000;3.540157
2025.000000;3.471438
2024.000000;3.426985
2023.000000;3.413070
2022.000000;3.432310
2021.000000;3.460162
2020.000000;3.468017
2019.000000;3.510538
2018.000000;3.585422
2017.000000;3.631509
2016.000000;3.635342
2015.000000;3.849420
2014.000000;4.357204
2013.000000;3.954778
2012.000000;3.769252
2011.000000;3.725330
2010.000000;3.660567
2009.000000;3.587743
2008.000000;3.490918
2007.000000;3.433288
2006.000000;3.444108
2005.000000;3.544774
2004.000000;3.721431
2003.000000;3.912660
2002.000000;3.796007
2001.000000;3.576201
2000.000000;3.473777
1999.000000;3.514850
1998.000000;3.737157
1997.000000;3.826899
1996.000000;3.687154
1995.000000;3.580130
1994.000000;3.485795
1993.000000;3.474735
1992.000000;3.587182
1991.000000;3.770204
1990.000000;3.823763
1989.000000;3.808354
1988.000000;3.863515
1987.000000;3.899256
1986.000000;3.878691
1985.000000;3.949715
1984.000000;4.131602
1983.000000;4.223860
1982.000000;4.635358
1981.000000;4.639002
1980.000000;4.121909
1979.000000;3.976581
1978.000000;3.864335
1977.000000;4.019647
1976.000000;4.032004
1975.000000;3.605312
1974.000000;3.419796
1973.000000;3.414815
1972.000000;3.535291
1971.000000;3.786463
1970.000000;4.011367
1969.000000;3.867285
1968.000000;3.750942
1967.000000;3.782883
1966.000000;3.857018
1965.000000;3.903487
1964.000000;3.916945
1963.000000;3.968895
1962.000000;4.071349
1961.000000;4.440477
1960.000000;4.524694
1959.000000;3.930494
1958.000000;3.715421
1957.000000;3.627263
1956.000000;3.585832
1955.000000;3.579198
1954.000000;3.625961
1953.000000;3.789812
1952.000000;3.908679
1951.000000;3.843128
1950.000000;3.838373
1949.000000;3.901589
1948.000000;3.883818
1947.000000;3.798594
1946.000000;3.741738
1945.000000;3.753463
1944.000000;3.831092
1943.000000;3.980470
1942.000000;4.087632
1941.000000;3.985935
1940.000000;3.872439
1939.000000;3.915405
1938.000000;3.999823
1937.000000;3.887927
1936.000000;3.813322
1935.000000;3.852331
1934.000000;3.889057
1933.000000;3.893578
1932.000000;3.923145
1931.000000;4.153821
1930.000000;4.244839
1929.000000;3.868094
1928.000000;3.704078
1927.000000;3.697575
1926.000000;3.787691
1925.000000;3.795167
1924.000000;3.686116
1923.000000;3.659711
1922.000000;3.760815
1921.000000;4.059755
1920.000000;4.265095
1919.000000;4.037242
1918.000000;3.883908
1917.000000;3.793500
1916.000000;3.743317
1915.000000;3.734463
1914.000000;3.772002
1913.000000;3.865187
1912.000000;3.998481
1911.000000;4.029942
1910.000000;3.849670
1909.000000;3.684815
1908.000000;3.626593
1907.000000;3.697028
1906.000000;3.924490
1905.000000;4.058357
1904.000000;3.992096
1903.000000;4.183189
1902.000000;4.505677
1901.000000;4.420398
1900.000000;4.515937
1899.000000;4.860504
1898.000000;4.701375
1897.000000;4.445497
1896.000000;4.400125
1895.000000;3.975249
1894.000000;3.653748
1893.000000;3.549795
1892.000000;3.590775
1891.000000;3.841185
1890.000000;3.922074
1889.000000;3.716717
1888.000000;3.685291
1887.000000;3.806190
1886.000000;4.155039
1885.000000;3.943469
1884.000000;3.589831
1883.000000;3.475849
1882.000000;3.486688
1881.000000;3.604282
1880.000000;3.780716
1879.000000;3.780285
1878.000000;3.594899
1877.000000;3.480164
1876.000000;3.492930
1875.000000;3.649950
1874.000000;3.796278
1873.000000;3.731913
1872.000000;3.729595
1871.000000;3.876271
1870.000000;3.917909
1869.000000;3.789815
1868.000000;3.737894
1867.000000;3.870349
1866.000000;3.906252
1865.000000;3.665327
1864.000000;3.548799
1863.000000;3.664894
1862.000000;4.141343
1861.000000;4.402318
1860.000000;4.063440
1859.000000;3.993273
1858.000000;3.859489
1857.000000;3.998055
1856.000000;4.396143
1855.000000;3.925342
1854.000000;3.734474
1853.000000;3.907873
1852.000000;4.335418
1851.000000;3.927497
1850.000000;3.691651
1849.000000;3.676441
1848.000000;3.603520
1847.000000;3.498294
1846.000000;3.481936
1845.000000;3.558883
1844.000000;3.629750
1843.000000;3.680202
1842.000000;3.822086
1841.000000;4.078577
1840.000000;3.986342
1839.000000;3.755434
1838.000000;3.669155
1837.000000;3.670554
1836.000000;3.677542
1835.000000;3.688233
1834.000000;3.760042
1833.000000;3.824145
1832.000000;3.823997
1831.000000;3.847424
1830.000000;3.940990
1829.000000;4.125175
1828.000000;4.327883
1827.000000;4.650145
1826.000000;5.066166
1825.000000;4.381033
1824.000000;4.163490
1823.000000;4.147281
1822.000000;3.937055
1821.000000;3.713575
1820.000000;3.603173
1819.000000;3.566417
1818.000000;3.601152
1817.000000;3.743970
1816.000000;4.002342
1815.000000;4.168004
1814.000000;4.074127
1813.000000;4.015434
1812.000000;4.039920
1811.000000;4.017045
1810.000000;3.916167
1809.000000;3.812196
1808.000000;3.733785
1807.000000;3.641192
1806.000000;3.560000
1805.000000;3.552413
1804.000000;3.641153
1803.000000;3.769357
1802.000000;3.807539
1801.000000;3.750253
1800.000000;3.941290
1799.000000;4.479521
1798.000000;4.091994
1797.000000;4.035798
1796.000000;4.187043
1795.000000;4.052171
1794.000000;4.062823
1793.000000;4.358122
1792.000000;4.290480
1791.000000;4.427036
1790.000000;4.366987
1789.000000;3.867585
1788.000000;3.736775
1787.000000;3.785200
1786.000000;4.121594
1785.000000;4.149823
1784.000000;3.877474
1783.000000;4.028966
1782.000000;4.180568
1781.000000;3.924243
1780.000000;3.776261
1779.000000;3.816235
1778.000000;3.999028
1777.000000;3.991644
1776.000000;3.904054
1775.000000;4.002339
1774.000000;4.121555
1773.000000;4.074870
1772.000000;3.922262
1771.000000;3.804884
1770.000000;3.793708
1769.000000;3.890376
1768.000000;4.010983
1767.000000;3.962921
1766.000000;3.848218
1765.000000;3.794759
1764.000000;3.784115
1763.000000;3.836791
1762.000000;3.907596
1761.000000;3.799310
1760.000000;3.688320
1759.000000;3.712315
1758.000000;3.752860
1757.000000;3.668337
1756.000000;3.584493
1755.000000;3.605281
1754.000000;3.728331
1753.000000;3.910952
1752.000000;4.118093
1751.000000;4.373807
1750.000000;4.092858
1749.000000;3.855126
1748.000000;3.871162
1747.000000;3.930568
1746.000000;3.878129
1745.000000;3.989085
1744.000000;4.319548
1743.000000;4.153387
1742.000000;3.978453
1741.000000;3.819094
1740.000000;3.637548
1739.000000;3.525478
1738.000000;3.539171
1737.000000;3.697147
1736.000000;3.944710
1735.000000;4.565642
1734.000000;4.440375
1733.000000;3.980290
1732.000000;3.949664
1731.000000;3.951524
1730.000000;3.917369
1729.000000;3.868723
1728.000000;3.875876
1727.000000;4.025259
1726.000000;4.149449
1725.000000;4.001544
1724.000000;3.844753
1723.000000;3.735775
1722.000000;3.704706
1721.000000;3.803332
1720.000000;3.994909
1719.000000;4.207001
1718.000000;4.425337
1717.000000;4.256310
1716.000000;3.970742
1715.000000;3.831051
1714.000000;3.809220
1713.000000;3.902967
1712.000000;4.050926
1711.000000;4.540934
1710.000000;4.680971
1709.000000;4.053591
1708.000000;3.899402
1707.000000;3.791635
1706.000000;3.706421
1705.000000;3.737236
1704.000000;3.875870
1703.000000;3.983019
1702.000000;3.926030
1701.000000;3.840731
1700.000000;3.766118
1699.000000;3.634913
1698.000000;3.567108
1697.000000;3.579991
1696.000000;3.590210
1695.000000;3.632423
1694.000000;3.778961
1693.000000;3.950378
1692.000000;3.997669
1691.000000;4.079840
1690.000000;4.397577
1689.000000;4.505250
1688.000000;4.278557
1687.000000;4.267881
1686.000000;4.246362
1685.000000;4.276104
1684.000000;4.444318
1683.000000;4.334205
1682.000000;4.214944
1681.000000;4.647613
1680.000000;4.436843
1679.000000;3.916500
1678.000000;3.767244
1677.000000;3.716297
1676.000000;3.807540
1675.000000;4.035417
1674.000000;4.077855
1673.000000;4.131223
1672.000000;4.190271
1671.000000;4.168618
1670.000000;4.105254
1669.000000;3.928048
1668.000000;3.872523
1667.000000;3.936068
1666.000000;3.950299
1665.000000;3.897005
1664.000000;3.935083
1663.000000;4.284571
1662.000000;4.538642
1661.000000;4.144102
1660.000000;4.208189
1659.000000;4.241789
1658.000000;3.980757
1657.000000;3.831450
1656.000000;3.784032
1655.000000;3.781973
1654.000000;3.767649
1653.000000;3.746584
1652.000000;3.803255
1651.000000;4.120535
1650.000000;4.501240
1649.000000;4.445876
1648.000000;4.521410
1647.000000;4.328883
1646.000000;4.148221
1645.000000;4.147737
1644.000000;4.228597
1643.000000;4.280831
1642.000000;4.177172
1641.000000;4.002299
1640.000000;3.929711
1639.000000;4.047092
1638.000000;4.479580
1637.000000;5.064432
1636.000000;4.646737
1635.000000;4.260525
1634.000000;4.008902
1633.000000;3.906828
1632.000000;3.803828
1631.000000;3.703904
1630.000000;3.678065
1629.000000;3.708339
1628.000000;3.735161
1627.000000;3.708115
1626.000000;3.674574
1625.000000;3.681921
1624.000000;3.749511
1623.000000;3.871378
1622.000000;4.058003
1621.000000;4.405832
1620.000000;4.407493
1619.000000;4.071039
1618.000000;3.927283
1617.000000;3.935474
1616.000000;4.188285
1615.000000;4.454319
1614.000000;4.077716
1613.000000;3.835704
1612.000000;3.705473
1611.000000;3.685577
1610.000000;3.788280
1609.000000;3.965471
1608.000000;4.044676
1607.000000;3.964232
1606.000000;3.984121
1605.000000;4.191505
1604.000000;4.329049
1603.000000;4.312990
1602.000000;4.312239
1601.000000;3.978117
1600.000000;3.708890
1599.000000;3.607026
1598.000000;3.635053
1597.000000;3.801726
1596.000000;4.068071
1595.000000;4.191728
1594.000000;4.088812
1593.000000;3.950553
1592.000000;3.814708
1591.000000;3.695736
1590.000000;3.641963
1589.000000;3.702214
1588.000000;3.907121
1587.000000;4.242176
1586.000000;4.547358
1585.000000;4.389504
1584.000000;4.138771
1583.000000;4.105612
1582.000000;4.284402
1581.000000;4.612885
1580.000000;4.668843
1579.000000;4.391896
1578.000000;4.231049
1577.000000;4.308057
1576.000000;4.192288
1575.000000;3.868323
1574.000000;3.771162
1573.000000;3.903976
1572.000000;4.055201
1571.000000;3.964682
1570.000000;3.889449
1569.000000;3.854965
1568.000000;3.838689
1567.000000;3.933708
1566.000000;4.080555
1565.000000;3.969525
1564.000000;3.776816
1563.000000;3.687345
1562.000000;3.688723
1561.000000;3.773946
1560.000000;3.983544
1559.000000;4.213897
1558.000000;4.087474
1557.000000;3.861637
1556.000000;3.753197
1555.000000;3.750113
1554.000000;3.818637
1553.000000;3.907150
1552.000000;3.918069
1551.000000;3.882392
1550.000000;3.884976
1549.000000;3.919570
1548.000000;4.029631
1547.000000;4.375513
1546.000000;4.638700
1545.000000;4.263117
1544.000000;4.191256
1543.000000;4.147571
1542.000000;3.993712
1541.000000;3.944795
1540.000000;3.972754
1539.000000;3.970374
1538.000000;3.941608
1537.000000;3.933542
1536.000000;3.893576
1535.000000;3.820255
1534.000000;3.794706
1533.000000;3.850115
1532.000000;3.911715
1531.000000;4.004886
1530.000000;4.207322
1529.000000;4.620582
1528.000000;4.605595
1527.000000;4.055737
1526.000000;4.000360
1525.000000;4.377568
1524.000000;4.383393
1523.000000;3.979834
1522.000000;3.830203
1521.000000;3.735365
1520.000000;3.722980
1519.000000;3.759069
1518.000000;3.729726
1517.000000;3.681129
1516.000000;3.704001
1515.000000;3.938217
1514.000000;4.302924
1513.000000;4.078575
1512.000000;3.915577
1511.000000;3.891334
1510.000000;3.975882
1509.000000;4.131887
1508.000000;4.414847
1507.000000;5.280097
1506.000000;4.282642
1505.000000;3.986428
1504.000000;3.978680
1503.000000;4.062388
1502.000000;4.336689
1501.000000;4.504347
1500.000000;4.037936
1499.000000;3.813759
1498.000000;3.711848
1497.000000;3.670870
1496.000000;3.698859
1495.000000;3.791139
1494.000000;3.933899
1493.000000;3.948001
1492.000000;3.823594
1491.000000;3.742393
1490.000000;3.779845
1489.000000;3.935832
1488.000000;3.972672
1487.000000;3.827222
1486.000000;3.704644
1485.000000;3.663231
1484.000000;3.723111
1483.000000;3.929781
1482.000000;4.224447
1481.000000;4.069697
1480.000000;3.947588
1479.000000;4.023516
1478.000000;4.204827
1477.000000;4.205128
1476.000000;3.941729
1475.000000;3.775562
1474.000000;3.721461
1473.000000;3.771712
1472.000000;3.945107
1471.000000;4.297235
1470.000000;4.962402
1469.000000;4.887286
1468.000000;4.448747
1467.000000;4.271179
1466.000000;4.216023
1465.000000;4.163228
1464.000000;4.079732
1463.000000;4.056307
1462.000000;4.137047
1461.000000;4.264711
1460.000000;4.441858
1459.000000;4.801037
1458.000000;4.310556
1457.000000;3.975846
1456.000000;3.872460
1455.000000;3.835742
1454.000000;3.814331
1453.000000;3.778357
1452.000000;3.759882
1451.000000;3.803539
1450.000000;3.946171
1449.000000;4.186892
1448.000000;4.086769
1447.000000;3.855672
1446.000000;3.830045
1445.000000;4.018988
1444.000000;4.402834
1443.000000;4.230956
1442.000000;4.003292
1441.000000;4.001389
1440.000000;3.978297
1439.000000;3.841216
1438.000000;3.722654
1437.000000;3.738519
1436.000000;3.693081
1435.000000;3.642583
1434.000000;3.811607
1433.000000;4.067762
1432.000000;4.088715
1431.000000;4.127335
1430.000000;4.321788
1429.000000;4.571857
1428.000000;4.176639
1427.000000;3.774992
1426.000000;3.589656
1425.000000;3.531085
1424.000000;3.556173
1423.000000;3.634327
1422.000000;3.732430
1421.000000;3.801532
1420.000000;3.764715
1419.000000;3.708299
1418.000000;3.752471
1417.000000;3.793501
1416.000000;3.725622
1415.000000;3.652314
1414.000000;3.631828
1413.000000;3.669822
1412.000000;3.741194
1411.000000;3.897089
1410.000000;4.042785
1409.000000;3.945339
1408.000000;3.882398
1407.000000;4.045020
1406.000000;4.452202
1405.000000;4.113499
1404.000000;3.870465
1403.000000;3.927398
1402.000000;4.217415
1401.000000;4.370853
1400.000000;4.215536
1399.000000;4.431540
1398.000000;4.366743
1397.000000;3.989517
1396.000000;3.839592
1395.000000;3.943006
1394.000000;4.113132
1393.000000;3.855558
1392.000000;3.764892
1391.000000;3.865331
1390.000000;4.280274
1389.000000;4.521776
1388.000000;3.977420
1387.000000;3.961148
1386.000000;4.276096
1385.000000;4.728129
1384.000000;4.384602
1383.000000;4.145085
1382.000000;4.004673
1381.000000;3.937231
1380.000000;4.001910
1379.000000;4.264600
1378.000000;4.498801
1377.000000;4.093584
1376.000000;3.858898
1375.000000;3.781397
1374.000000;3.799307
1373.000000;3.795657
1372.000000;3.705625
1371.000000;3.661193
1370.000000;3.695146
1369.000000;3.812450
1368.000000;4.080106
1367.000000;4.256412
1366.000000;4.006957
1365.000000;3.821159
1364.000000;3.701050
1363.000000;3.687323
1362.000000;3.816371
1361.000000;3.813533
1360.000000;3.668282
1359.000000;3.645388
1358.000000;3.728049
1357.000000;3.906258
1356.000000;4.113911
1355.000000;4.203584
1354.000000;4.332284
1353.000000;4.285663
1352.000000;4.059198
1351.000000;3.911641
1350.000000;3.827005
1349.000000;3.781637
1348.000000;3.771590
1347.000000;3.807546
1346.000000;3.919303
1345.000000;4.142234
1344.000000;4.300075
1343.000000;4.160209
1342.000000;3.994498
1341.000000;3.825237
1340.000000;3.660018
1339.000000;3.530174
1338.000000;3.493358
1337.000000;3.570337
1336.000000;3.796428
1335.000000;4.361493
1334.000000;4.428994
1333.000000;4.289686
1332.000000;4.419089
1331.000000;4.029106
1330.000000;3.914489
1329.000000;3.953533
1328.000000;3.991807
1327.000000;4.236630
1326.000000;4.321900
1325.000000;3.893098
1324.000000;3.703268
1323.000000;3.686369
1322.000000;3.784711
1321.000000;4.010714
1320.000000;4.073905
1319.000000;3.973924
1318.000000;3.914732
1317.000000;3.784247
1316.000000;3.730372
1315.000000;3.889197
1314.000000;4.136957
1313.000000;4.018118
1312.000000;3.903285
1311.000000;3.854650
1310.000000;3.816314
1309.000000;3.759055
1308.000000;3.682390
1307.000000;3.634539
1306.000000;3.660525
1305.000000;3.758833
1304.000000;3.851477
1303.000000;3.914841
1302.000000;4.027150
1301.000000;4.414954
1300.000000;4.309420
1299.000000;3.958042
1298.000000;3.904487
1297.000000;4.100093
1296.000000;4.886397
1295.000000;4.443908
1294.000000;4.246632
1293.000000;4.568273
1292.000000;4.413777
1291.000000;4.177302
1290.000000;4.220833
1289.000000;4.151101
1288.000000;4.044379
1287.000000;4.065051
1286.000000;3.994185
1285.000000;3.934236
1284.000000;3.917175
1283.000000;3.835522
1282.000000;3.774309
1281.000000;3.821872
1280.000000;4.009875
1279.000000;4.159221
1278.000000;4.051472
1277.000000;3.910583
1276.000000;3.824125
1275.000000;3.830434
1274.000000;4.023547
1273.000000;4.360362
1272.000000;4.156973
1271.000000;4.044088
1270.000000;4.236057
1269.000000;4.383843
1268.000000;4.232132
1267.000000;4.264185
1266.000000;4.426025
1265.000000;4.586734
1264.000000;4.562270
1263.000000;4.061290
1262.000000;3.844994
1261.000000;3.812912
1260.000000;3.844091
1259.000000;3.823605
1258.000000;3.814817
1257.000000;3.968271
1256.000000;4.399025
1255.000000;4.402803
1254.000000;4.048509
1253.000000;3.907292
1252.000000;3.830672
1251.000000;3.826597
1250.000000;3.963425
1249.000000;4.371869
1248.000000;4.166810
1247.000000;3.910606
1246.000000;4.121495
1245.000000;4.373710
1244.000000;3.866732
1243.000000;3.618190
1242.000000;3.549014
1241.000000;3.574686
1240.000000;3.671132
1239.000000;3.764844
1238.000000;3.792797
1237.000000;3.738347
1236.000000;3.648121
1235.000000;3.598201
1234.000000;3.637115
1233.000000;3.786038
1232.000000;4.018451
1231.000000;4.337573
1230.000000;4.692580
1229.000000;4.360879
1228.000000;4.097551
1227.000000;4.020398
1226.000000;4.049693
1225.000000;4.035660
1224.000000;3.964823
1223.000000;3.980425
1222.000000;4.001035
1221.000000;3.893455
1220.000000;3.760193
1219.000000;3.718872
1218.000000;3.781091
1217.000000;3.892821
1216.000000;4.002448
1215.000000;4.027935
1214.000000;3.904669
1213.000000;3.826548
1212.000000;3.867661
1211.000000;4.066513
1210.000000;4.333284
1209.000000;4.209633
1208.000000;4.123191
1207.000000;4.056277
1206.000000;3.962962
1205.000000;3.958100
1204.000000;4.036149
1203.000000;4.099140
1202.000000;4.045058
1201.000000;3.985178
1200.000000;3.975828
