Criado como novo conjunto de dados;"1909daniel.spp","-4257163.3 Secs"
cm-1;Abs
10000.000000;1.851915
9999.000000;1.850726
9998.000000;1.851164
9997.000000;1.852151
9996.000000;1.850891
9995.000000;1.846615
9994.000000;1.841444
9993.000000;1.838084
9992.000000;1.836916
9991.000000;1.836621
9990.000000;1.836008
9989.000000;1.834766
9988.000000;1.833216
9987.000000;1.832340
9986.000000;1.833265
9985.000000;1.835801
9984.000000;1.838012
9983.000000;1.838261
9982.000000;1.837179
9981.000000;1.836566
9980.000000;1.837130
9979.000000;1.838434
9978.000000;1.840047
9977.000000;1.841253
9976.000000;1.840470
9975.000000;1.836904
9974.000000;1.832320
9973.000000;1.829368
9972.000000;1.828393
9971.000000;1.827216
9970.000000;1.824114
9969.000000;1.819815
9968.000000;1.816265
9967.000000;1.814720
9966.000000;1.815335
9965.000000;1.817473
9964.000000;1.819888
9963.000000;1.821377
9962.000000;1.821825
9961.000000;1.822227
9960.000000;1.823321
9959.000000;1.824544
9958.000000;1.824599
9957.000000;1.822784
9956.000000;1.819737
9955.000000;1.817273
9954.000000;1.817074
9953.000000;1.818907
9952.000000;1.820595
9951.000000;1.820326
9950.000000;1.818399
9949.000000;1.816055
9948.000000;1.813493
9947.000000;1.810244
9946.000000;1.806748
9945.000000;1.804039
9944.000000;1.802126
9943.000000;1.800148
9942.000000;1.798059
9941.000000;1.796745
9940.000000;1.796383
9939.000000;1.796033
9938.000000;1.795238
9937.000000;1.794919
9936.000000;1.796109
9935.000000;1.798563
9934.000000;1.800937
9933.000000;1.801679
9932.000000;1.799759
9931.000000;1.795636
9930.000000;1.791635
9929.000000;1.790095
9928.000000;1.790768
9927.000000;1.791070
9926.000000;1.789513
9925.000000;1.787607
9924.000000;1.787313
9923.000000;1.788149
9922.000000;1.788262
9921.000000;1.787496
9920.000000;1.787776
9919.000000;1.790489
9918.000000;1.794552
9917.000000;1.797196
9916.000000;1.796230
9915.000000;1.791664
9914.000000;1.785649
9913.000000;1.780898
9912.000000;1.778854
9911.000000;1.779194
9910.000000;1.780887
9909.000000;1.783250
9908.000000;1.785714
9907.000000;1.787231
9906.000000;1.786807
9905.000000;1.784584
9904.000000;1.781714
9903.000000;1.779149
9902.000000;1.777075
9901.000000;1.775394
9900.000000;1.774033
9899.000000;1.772696
9898.000000;1.771014
9897.000000;1.769248
9896.000000;1.768336
9895.000000;1.768842
9894.000000;1.770113
9893.000000;1.770808
9892.000000;1.770153
9891.000000;1.768479
9890.000000;1.766844
9889.000000;1.766454
9888.000000;1.768052
9887.000000;1.771110
9886.000000;1.773589
9885.000000;1.773219
9884.000000;1.769538
9883.000000;1.764381
9882.000000;1.760121
9881.000000;1.757798
9880.000000;1.757003
9879.000000;1.756878
9878.000000;1.756818
9877.000000;1.756576
9876.000000;1.756304
9875.000000;1.756460
9874.000000;1.757252
9873.000000;1.758188
9872.000000;1.758523
9871.000000;1.758088
9870.000000;1.757238
9869.000000;1.756208
9868.000000;1.755042
9867.000000;1.754057
9866.000000;1.753710
9865.000000;1.753927
9864.000000;1.754154
9863.000000;1.754145
9862.000000;1.754040
9861.000000;1.753457
9860.000000;1.751282
9859.000000;1.747046
9858.000000;1.742077
9857.000000;1.738624
9856.000000;1.737905
9855.000000;1.739180
9854.000000;1.740546
9853.000000;1.740601
9852.000000;1.739614
9851.000000;1.739066
9850.000000;1.739737
9849.000000;1.740377
9848.000000;1.738978
9847.000000;1.735582
9846.000000;1.732836
9845.000000;1.733188
9844.000000;1.736240
9843.000000;1.739321
9842.000000;1.740112
9841.000000;1.738197
9840.000000;1.734520
9839.000000;1.730445
9838.000000;1.727318
9837.000000;1.725937
9836.000000;1.726084
9835.000000;1.726875
9834.000000;1.727546
9833.000000;1.727734
9832.000000;1.727233
9831.000000;1.725995
9830.000000;1.724502
9829.000000;1.723610
9828.000000;1.723815
9827.000000;1.724787
9826.000000;1.725589
9825.000000;1.725264
9824.000000;1.723458
9823.000000;1.720760
9822.000000;1.718254
9821.000000;1.716489
9820.000000;1.715174
9819.000000;1.713976
9818.000000;1.713152
9817.000000;1.713029
9816.000000;1.713370
9815.000000;1.713850
9814.000000;1.714835
9813.000000;1.716947
9812.000000;1.719958
9811.000000;1.722659
9810.000000;1.723799
9809.000000;1.722898
9808.000000;1.720309
9807.000000;1.716938
9806.000000;1.713790
9805.000000;1.711403
9804.000000;1.709770
9803.000000;1.709002
9802.000000;1.709598
9801.000000;1.711567
9800.000000;1.713703
9799.000000;1.714485
9798.000000;1.713581
9797.000000;1.711881
9796.000000;1.710185
9795.000000;1.708452
9794.000000;1.706253
9793.000000;1.703439
9792.000000;1.700412
9791.000000;1.698099
9790.000000;1.697364
9789.000000;1.697915
9788.000000;1.698133
9787.000000;1.696721
9786.000000;1.694264
9785.000000;1.692453
9784.000000;1.692071
9783.000000;1.692442
9782.000000;1.692593
9781.000000;1.692179
9780.000000;1.691359
9779.000000;1.690630
9778.000000;1.690766
9777.000000;1.691993
9776.000000;1.693167
9775.000000;1.692767
9774.000000;1.690896
9773.000000;1.689215
9772.000000;1.688752
9771.000000;1.688897
9770.000000;1.688783
9769.000000;1.688453
9768.000000;1.687988
9767.000000;1.686591
9766.000000;1.683622
9765.000000;1.679889
9764.000000;1.676860
9763.000000;1.675010
9762.000000;1.673806
9761.000000;1.673115
9760.000000;1.673742
9759.000000;1.676275
9758.000000;1.679674
9757.000000;1.681400
9756.000000;1.679564
9755.000000;1.675140
9754.000000;1.671435
9753.000000;1.670883
9752.000000;1.672659
9751.000000;1.673820
9750.000000;1.672751
9749.000000;1.670716
9748.000000;1.669780
9747.000000;1.670336
9746.000000;1.671240
9745.000000;1.671474
9744.000000;1.670920
9743.000000;1.670049
9742.000000;1.669517
9741.000000;1.669570
9740.000000;1.669341
9739.000000;1.667389
9738.000000;1.663607
9737.000000;1.660018
9736.000000;1.658776
9735.000000;1.659774
9734.000000;1.660993
9733.000000;1.661065
9732.000000;1.660642
9731.000000;1.660998
9730.000000;1.662128
9729.000000;1.662811
9728.000000;1.662107
9727.000000;1.660271
9726.000000;1.658334
9725.000000;1.657227
9724.000000;1.657246
9723.000000;1.657969
9722.000000;1.658596
9721.000000;1.658576
9720.000000;1.658051
9719.000000;1.657651
9718.000000;1.657648
9717.000000;1.657394
9716.000000;1.656025
9715.000000;1.653898
9714.000000;1.652705
9713.000000;1.653508
9712.000000;1.654929
9711.000000;1.654147
9710.000000;1.649899
9709.000000;1.643834
9708.000000;1.638702
9707.000000;1.636153
9706.000000;1.636389
9705.000000;1.638679
9704.000000;1.641402
9703.000000;1.642447
9702.000000;1.640876
9701.000000;1.638105
9700.000000;1.636480
9699.000000;1.636750
9698.000000;1.637553
9697.000000;1.637275
9696.000000;1.635749
9695.000000;1.634056
9694.000000;1.633334
9693.000000;1.633974
9692.000000;1.635491
9691.000000;1.636726
9690.000000;1.636395
9689.000000;1.633990
9688.000000;1.630289
9687.000000;1.626850
9686.000000;1.625003
9685.000000;1.625150
9684.000000;1.626692
9683.000000;1.628475
9682.000000;1.629532
9681.000000;1.629569
9680.000000;1.628849
9679.000000;1.627752
9678.000000;1.626589
9677.000000;1.625666
9676.000000;1.625164
9675.000000;1.624924
9674.000000;1.624591
9673.000000;1.624087
9672.000000;1.623714
9671.000000;1.623655
9670.000000;1.623485
9669.000000;1.622370
9668.000000;1.619886
9667.000000;1.616687
9666.000000;1.614191
9665.000000;1.613418
9664.000000;1.614101
9663.000000;1.614964
9662.000000;1.614919
9661.000000;1.613832
9660.000000;1.612151
9659.000000;1.610310
9658.000000;1.608792
9657.000000;1.608114
9656.000000;1.608268
9655.000000;1.608400
9654.000000;1.607465
9653.000000;1.605387
9652.000000;1.603367
9651.000000;1.602812
9650.000000;1.604009
9649.000000;1.605830
9648.000000;1.606689
9647.000000;1.605968
9646.000000;1.604631
9645.000000;1.604345
9644.000000;1.605866
9643.000000;1.608232
9642.000000;1.609564
9641.000000;1.608685
9640.000000;1.605928
9639.000000;1.602516
9638.000000;1.599472
9637.000000;1.597097
9636.000000;1.595182
9635.000000;1.593541
9634.000000;1.592401
9633.000000;1.592263
9632.000000;1.593240
9631.000000;1.594551
9630.000000;1.594960
9629.000000;1.593855
9628.000000;1.591805
9627.000000;1.589987
9626.000000;1.589213
9625.000000;1.589508
9624.000000;1.590269
9623.000000;1.590511
9622.000000;1.589209
9621.000000;1.586024
9620.000000;1.581929
9619.000000;1.578798
9618.000000;1.578016
9617.000000;1.579391
9616.000000;1.581461
9615.000000;1.582777
9614.000000;1.582758
9613.000000;1.581520
9612.000000;1.579527
9611.000000;1.577636
9610.000000;1.576920
9609.000000;1.577829
9608.000000;1.579501
9607.000000;1.580285
9606.000000;1.579179
9605.000000;1.576683
9604.000000;1.574280
9603.000000;1.573318
9602.000000;1.574227
9601.000000;1.576416
9600.000000;1.578768
9599.000000;1.580325
9598.000000;1.580559
9597.000000;1.579192
9596.000000;1.576265
9595.000000;1.572589
9594.000000;1.569600
9593.000000;1.568237
9592.000000;1.568151
9591.000000;1.568418
9590.000000;1.568760
9589.000000;1.569321
9588.000000;1.569417
9587.000000;1.567642
9586.000000;1.563783
9585.000000;1.559762
9584.000000;1.557903
9583.000000;1.558725
9582.000000;1.560782
9581.000000;1.562217
9580.000000;1.562066
9579.000000;1.560432
9578.000000;1.558163
9577.000000;1.556420
9576.000000;1.555912
9575.000000;1.556309
9574.000000;1.556652
9573.000000;1.556424
9572.000000;1.555902
9571.000000;1.555525
9570.000000;1.555335
9569.000000;1.555137
9568.000000;1.554907
9567.000000;1.554775
9566.000000;1.554713
9565.000000;1.554462
9564.000000;1.553789
9563.000000;1.552746
9562.000000;1.551559
9561.000000;1.550247
9560.000000;1.548498
9559.000000;1.546142
9558.000000;1.543669
9557.000000;1.541936
9556.000000;1.541319
9555.000000;1.541526
9554.000000;1.542306
9553.000000;1.543895
9552.000000;1.546365
9551.000000;1.548895
9550.000000;1.550204
9549.000000;1.549618
9548.000000;1.547368
9547.000000;1.544161
9546.000000;1.540972
9545.000000;1.538987
9544.000000;1.538934
9543.000000;1.540328
9542.000000;1.541859
9541.000000;1.542696
9540.000000;1.543029
9539.000000;1.543271
9538.000000;1.543241
9537.000000;1.542433
9536.000000;1.540767
9535.000000;1.538862
9534.000000;1.537595
9533.000000;1.537300
9532.000000;1.537241
9531.000000;1.536021
9530.000000;1.532912
9529.000000;1.528844
9528.000000;1.525684
9527.000000;1.524493
9526.000000;1.524884
9525.000000;1.525851
9524.000000;1.526600
9523.000000;1.526545
9522.000000;1.525305
9521.000000;1.523190
9520.000000;1.521210
9519.000000;1.520139
9518.000000;1.519923
9517.000000;1.520310
9516.000000;1.521454
9515.000000;1.523334
9514.000000;1.524982
9513.000000;1.525224
9512.000000;1.524277
9511.000000;1.523747
9510.000000;1.524629
9509.000000;1.525843
9508.000000;1.525298
9507.000000;1.522358
9506.000000;1.518660
9505.000000;1.516336
9504.000000;1.516019
9503.000000;1.516858
9502.000000;1.517943
9501.000000;1.518996
9500.000000;1.519661
9499.000000;1.519124
9498.000000;1.517176
9497.000000;1.515064
9496.000000;1.514288
9495.000000;1.514715
9494.000000;1.514712
9493.000000;1.513233
9492.000000;1.510969
9491.000000;1.509159
9490.000000;1.508193
9489.000000;1.507809
9488.000000;1.507867
9487.000000;1.508267
9486.000000;1.508640
9485.000000;1.508820
9484.000000;1.509152
9483.000000;1.509757
9482.000000;1.509898
9481.000000;1.508750
9480.000000;1.506502
9479.000000;1.504007
9478.000000;1.501632
9477.000000;1.499189
9476.000000;1.496787
9475.000000;1.494968
9474.000000;1.494045
9473.000000;1.493982
9472.000000;1.494919
9471.000000;1.497015
9470.000000;1.499511
9469.000000;1.500675
9468.000000;1.499304
9467.000000;1.496039
9466.000000;1.492790
9465.000000;1.491054
9464.000000;1.490993
9463.000000;1.491760
9462.000000;1.492346
9461.000000;1.492229
9460.000000;1.491508
9459.000000;1.490605
9458.000000;1.489953
9457.000000;1.489899
9456.000000;1.490517
9455.000000;1.491286
9454.000000;1.491326
9453.000000;1.490375
9452.000000;1.489256
9451.000000;1.488846
9450.000000;1.488773
9449.000000;1.487867
9448.000000;1.485887
9447.000000;1.484036
9446.000000;1.483561
9445.000000;1.484508
9444.000000;1.486035
9443.000000;1.487345
9442.000000;1.488016
9441.000000;1.487974
9440.000000;1.487556
9439.000000;1.487226
9438.000000;1.486891
9437.000000;1.485833
9436.000000;1.483690
9435.000000;1.481209
9434.000000;1.479563
9433.000000;1.479158
9432.000000;1.479394
9431.000000;1.479373
9430.000000;1.478537
9429.000000;1.476791
9428.000000;1.474447
9427.000000;1.472130
9426.000000;1.470517
9425.000000;1.470055
9424.000000;1.470776
9423.000000;1.472087
9422.000000;1.472898
9421.000000;1.472471
9420.000000;1.471232
9419.000000;1.470268
9418.000000;1.469934
9417.000000;1.469588
9416.000000;1.468831
9415.000000;1.468195
9414.000000;1.468143
9413.000000;1.468118
9412.000000;1.467313
9411.000000;1.465929
9410.000000;1.464828
9409.000000;1.464244
9408.000000;1.463805
9407.000000;1.463646
9406.000000;1.464420
9405.000000;1.465998
9404.000000;1.467044
9403.000000;1.466364
9402.000000;1.464213
9401.000000;1.461916
9400.000000;1.460629
9399.000000;1.460751
9398.000000;1.462035
9397.000000;1.463750
9396.000000;1.464858
9395.000000;1.464519
9394.000000;1.462586
9393.000000;1.459635
9392.000000;1.456627
9391.000000;1.454454
9390.000000;1.453460
9389.000000;1.453227
9388.000000;1.452976
9387.000000;1.452298
9386.000000;1.451433
9385.000000;1.450882
9384.000000;1.450954
9383.000000;1.451662
9382.000000;1.452733
9381.000000;1.453607
9380.000000;1.453701
9379.000000;1.452872
9378.000000;1.451557
9377.000000;1.450422
9376.000000;1.449948
9375.000000;1.450233
9374.000000;1.450871
9373.000000;1.451053
9372.000000;1.450253
9371.000000;1.448950
9370.000000;1.448220
9369.000000;1.448371
9368.000000;1.448387
9367.000000;1.447200
9366.000000;1.445284
9365.000000;1.444301
9364.000000;1.445026
9363.000000;1.446190
9362.000000;1.445768
9361.000000;1.443207
9360.000000;1.439873
9359.000000;1.437432
9358.000000;1.436508
9357.000000;1.437047
9356.000000;1.439082
9355.000000;1.442334
9354.000000;1.445365
9353.000000;1.446275
9352.000000;1.444672
9351.000000;1.442196
9350.000000;1.440608
9349.000000;1.440063
9348.000000;1.439698
9347.000000;1.439116
9346.000000;1.438415
9345.000000;1.437364
9344.000000;1.435716
9343.000000;1.434137
9342.000000;1.433702
9341.000000;1.434352
9340.000000;1.434851
9339.000000;1.434519
9338.000000;1.434028
9337.000000;1.433987
9336.000000;1.433730
9335.000000;1.432361
9334.000000;1.430290
9333.000000;1.428819
9332.000000;1.428609
9331.000000;1.429277
9330.000000;1.430200
9329.000000;1.430975
9328.000000;1.431282
9327.000000;1.431044
9326.000000;1.430635
9325.000000;1.430266
9324.000000;1.429282
9323.000000;1.426849
9322.000000;1.423457
9321.000000;1.420914
9320.000000;1.420540
9319.000000;1.421866
9318.000000;1.423385
9317.000000;1.424173
9316.000000;1.424403
9315.000000;1.424552
9314.000000;1.424590
9313.000000;1.424025
9312.000000;1.422575
9311.000000;1.420654
9310.000000;1.419107
9309.000000;1.418363
9308.000000;1.418002
9307.000000;1.417347
9306.000000;1.416377
9305.000000;1.415738
9304.000000;1.415868
9303.000000;1.416501
9302.000000;1.417116
9301.000000;1.417536
9300.000000;1.417840
9299.000000;1.417904
9298.000000;1.417268
9297.000000;1.415404
9296.000000;1.412186
9295.000000;1.408314
9294.000000;1.405214
9293.000000;1.404150
9292.000000;1.405191
9291.000000;1.407166
9290.000000;1.408741
9289.000000;1.409309
9288.000000;1.408913
9287.000000;1.407913
9286.000000;1.407037
9285.000000;1.407135
9284.000000;1.408267
9283.000000;1.409295
9282.000000;1.408923
9281.000000;1.407063
9280.000000;1.404756
9279.000000;1.403042
9278.000000;1.402333
9277.000000;1.402612
9276.000000;1.403544
9275.000000;1.404336
9274.000000;1.404157
9273.000000;1.403001
9272.000000;1.401791
9271.000000;1.401451
9270.000000;1.402212
9269.000000;1.403834
9268.000000;1.405888
9267.000000;1.407538
9266.000000;1.407692
9265.000000;1.405992
9264.000000;1.403431
9263.000000;1.401407
9262.000000;1.400318
9261.000000;1.399573
9260.000000;1.398802
9259.000000;1.398436
9258.000000;1.398937
9257.000000;1.399945
9256.000000;1.400527
9255.000000;1.400121
9254.000000;1.399069
9253.000000;1.398291
9252.000000;1.398455
9251.000000;1.399289
9250.000000;1.399571
9249.000000;1.398079
9248.000000;1.394835
9247.000000;1.391326
9246.000000;1.389316
9245.000000;1.389413
9244.000000;1.390684
9243.000000;1.391595
9242.000000;1.391381
9241.000000;1.390540
9240.000000;1.390057
9239.000000;1.390356
9238.000000;1.391077
9237.000000;1.391666
9236.000000;1.391860
9235.000000;1.391553
9234.000000;1.390609
9233.000000;1.389128
9232.000000;1.387631
9231.000000;1.386622
9230.000000;1.386119
9229.000000;1.385873
9228.000000;1.385858
9227.000000;1.386175
9226.000000;1.386592
9225.000000;1.386643
9224.000000;1.386181
9223.000000;1.385450
9222.000000;1.384628
9221.000000;1.383754
9220.000000;1.383163
9219.000000;1.383378
9218.000000;1.384266
9217.000000;1.384787
9216.000000;1.384081
9215.000000;1.382479
9214.000000;1.380967
9213.000000;1.379950
9212.000000;1.379174
9211.000000;1.378667
9210.000000;1.378999
9209.000000;1.380367
9208.000000;1.381963
9207.000000;1.382639
9206.000000;1.381989
9205.000000;1.380495
9204.000000;1.378848
9203.000000;1.377482
9202.000000;1.376643
9201.000000;1.376459
9200.000000;1.376715
9199.000000;1.376814
9198.000000;1.376347
9197.000000;1.375703
9196.000000;1.375720
9195.000000;1.376518
9194.000000;1.376962
9193.000000;1.375787
9192.000000;1.373312
9191.000000;1.371450
9190.000000;1.371707
9189.000000;1.373551
9188.000000;1.375000
9187.000000;1.374590
9186.000000;1.372439
9185.000000;1.369685
9184.000000;1.367489
9183.000000;1.366546
9182.000000;1.366926
9181.000000;1.368137
9180.000000;1.369558
9179.000000;1.370848
9178.000000;1.371779
9177.000000;1.371894
9176.000000;1.370908
9175.000000;1.369451
9174.000000;1.368657
9173.000000;1.368738
9172.000000;1.368657
9171.000000;1.367719
9170.000000;1.366865
9169.000000;1.367513
9168.000000;1.369434
9167.000000;1.370718
9166.000000;1.370029
9165.000000;1.368197
9164.000000;1.367022
9163.000000;1.367006
9162.000000;1.366914
9161.000000;1.365481
9160.000000;1.363059
9159.000000;1.361334
9158.000000;1.361607
9157.000000;1.363561
9156.000000;1.365642
9155.000000;1.366526
9154.000000;1.366097
9153.000000;1.365014
9152.000000;1.363761
9151.000000;1.362415
9150.000000;1.361098
9149.000000;1.360160
9148.000000;1.359818
9147.000000;1.359907
9146.000000;1.360106
9145.000000;1.360236
9144.000000;1.360291
9143.000000;1.360331
9142.000000;1.360371
9141.000000;1.360206
9140.000000;1.359484
9139.000000;1.358248
9138.000000;1.357325
9137.000000;1.357690
9136.000000;1.359236
9135.000000;1.360580
9134.000000;1.360401
9133.000000;1.358709
9132.000000;1.356530
9131.000000;1.354761
9130.000000;1.353726
9129.000000;1.353450
9128.000000;1.353694
9127.000000;1.353794
9126.000000;1.353156
9125.000000;1.352040
9124.000000;1.351434
9123.000000;1.351974
9122.000000;1.353252
9121.000000;1.354266
9120.000000;1.354324
9119.000000;1.353477
9118.000000;1.352384
9117.000000;1.351834
9116.000000;1.352149
9115.000000;1.352879
9114.000000;1.353183
9113.000000;1.352587
9112.000000;1.351326
9111.000000;1.350047
9110.000000;1.349416
9109.000000;1.349754
9108.000000;1.350644
9107.000000;1.350999
9106.000000;1.350107
9105.000000;1.348645
9104.000000;1.348032
9103.000000;1.348577
9102.000000;1.348940
9101.000000;1.347851
9100.000000;1.345785
9099.000000;1.344273
9098.000000;1.344063
9097.000000;1.344713
9096.000000;1.345640
9095.000000;1.346658
9094.000000;1.347485
9093.000000;1.347576
9092.000000;1.346788
9091.000000;1.345681
9090.000000;1.344871
9089.000000;1.344458
9088.000000;1.344264
9087.000000;1.344258
9086.000000;1.344487
9085.000000;1.344820
9084.000000;1.344955
9083.000000;1.344620
9082.000000;1.343768
9081.000000;1.342770
9080.000000;1.342322
9079.000000;1.342754
9078.000000;1.343374
9077.000000;1.342916
9076.000000;1.340948
9075.000000;1.338497
9074.000000;1.336966
9073.000000;1.336689
9072.000000;1.336923
9071.000000;1.336998
9070.000000;1.337009
9069.000000;1.337332
9068.000000;1.337822
9067.000000;1.337837
9066.000000;1.337020
9065.000000;1.335880
9064.000000;1.335393
9063.000000;1.336048
9062.000000;1.337421
9061.000000;1.338689
9060.000000;1.339332
9059.000000;1.339231
9058.000000;1.338328
9057.000000;1.336657
9056.000000;1.334710
9055.000000;1.333291
9054.000000;1.332848
9053.000000;1.333196
9052.000000;1.333926
9051.000000;1.334805
9050.000000;1.335668
9049.000000;1.336232
9048.000000;1.336276
9047.000000;1.335882
9046.000000;1.335307
9045.000000;1.334697
9044.000000;1.334035
9043.000000;1.333248
9042.000000;1.332370
9041.000000;1.331780
9040.000000;1.332219
9039.000000;1.334116
9038.000000;1.336676
9037.000000;1.338063
9036.000000;1.336989
9035.000000;1.334026
9034.000000;1.330958
9033.000000;1.329037
9032.000000;1.328309
9031.000000;1.328319
9030.000000;1.328799
9029.000000;1.329529
9028.000000;1.330088
9027.000000;1.330193
9026.000000;1.330043
9025.000000;1.330016
9024.000000;1.330181
9023.000000;1.330361
9022.000000;1.330551
9021.000000;1.330894
9020.000000;1.331198
9019.000000;1.330860
9018.000000;1.329557
9017.000000;1.327818
9016.000000;1.326601
9015.000000;1.326362
9014.000000;1.326785
9013.000000;1.327341
9012.000000;1.327789
9011.000000;1.328084
9010.000000;1.328140
9009.000000;1.327965
9008.000000;1.327868
9007.000000;1.328133
9006.000000;1.328478
9005.000000;1.328122
9004.000000;1.326630
9003.000000;1.324598
9002.000000;1.323253
9001.000000;1.323209
9000.000000;1.323658
8999.000000;1.323072
8998.000000;1.320979
8997.000000;1.318875
8996.000000;1.318827
8995.000000;1.321127
8994.000000;1.323757
8993.000000;1.324510
8992.000000;1.323310
8991.000000;1.321896
8990.000000;1.321571
8989.000000;1.322092
8988.000000;1.322625
8987.000000;1.322864
8986.000000;1.322904
8985.000000;1.322738
8984.000000;1.322397
8983.000000;1.322250
8982.000000;1.322717
8981.000000;1.323705
8980.000000;1.324575
8979.000000;1.324641
8978.000000;1.323693
8977.000000;1.322221
8976.000000;1.321115
8975.000000;1.320908
8974.000000;1.321264
8973.000000;1.321458
8972.000000;1.321284
8971.000000;1.321072
8970.000000;1.320905
8969.000000;1.320489
8968.000000;1.319916
8967.000000;1.319836
8966.000000;1.320458
8965.000000;1.320961
8964.000000;1.320498
8963.000000;1.319340
8962.000000;1.318455
8961.000000;1.318287
8960.000000;1.318526
8959.000000;1.318790
8958.000000;1.318899
8957.000000;1.318651
8956.000000;1.317941
8955.000000;1.317125
8954.000000;1.316780
8953.000000;1.316994
8952.000000;1.317219
8951.000000;1.316932
8950.000000;1.316162
8949.000000;1.315296
8948.000000;1.314653
8947.000000;1.314335
8946.000000;1.314314
8945.000000;1.314510
8944.000000;1.314813
8943.000000;1.315031
8942.000000;1.314884
8941.000000;1.314255
8940.000000;1.313503
8939.000000;1.313248
8938.000000;1.313684
8937.000000;1.314391
8936.000000;1.315000
8935.000000;1.315627
8934.000000;1.316299
8933.000000;1.316408
8932.000000;1.315324
8931.000000;1.313312
8930.000000;1.311292
8929.000000;1.309796
8928.000000;1.308690
8927.000000;1.307871
8926.000000;1.307636
8925.000000;1.308256
8924.000000;1.309648
8923.000000;1.311515
8922.000000;1.313375
8921.000000;1.314465
8920.000000;1.314190
8919.000000;1.312902
8918.000000;1.311722
8917.000000;1.311330
8916.000000;1.311303
8915.000000;1.310889
8914.000000;1.310110
8913.000000;1.309733
8912.000000;1.310338
8911.000000;1.311716
8910.000000;1.313080
8909.000000;1.313638
8908.000000;1.313063
8907.000000;1.311696
8906.000000;1.310300
8905.000000;1.309448
8904.000000;1.309102
8903.000000;1.308800
8902.000000;1.308163
8901.000000;1.307247
8900.000000;1.306463
8899.000000;1.306185
8898.000000;1.306419
8897.000000;1.306868
8896.000000;1.307323
8895.000000;1.307837
8894.000000;1.308467
8893.000000;1.309080
8892.000000;1.309560
8891.000000;1.309933
8890.000000;1.310026
8889.000000;1.309285
8888.000000;1.307441
8887.000000;1.305190
8886.000000;1.303584
8885.000000;1.302752
8884.000000;1.301861
8883.000000;1.300531
8882.000000;1.299634
8881.000000;1.300227
8880.000000;1.302103
8879.000000;1.303914
8878.000000;1.304595
8877.000000;1.304272
8876.000000;1.303783
8875.000000;1.303715
8874.000000;1.304014
8873.000000;1.304209
8872.000000;1.303877
8871.000000;1.303003
8870.000000;1.302049
8869.000000;1.301710
8868.000000;1.302526
8867.000000;1.304502
8866.000000;1.306903
8865.000000;1.308525
8864.000000;1.308550
8863.000000;1.307303
8862.000000;1.305949
8861.000000;1.305292
8860.000000;1.305072
8859.000000;1.304638
8858.000000;1.304056
8857.000000;1.304096
8856.000000;1.305105
8855.000000;1.306313
8854.000000;1.306531
8853.000000;1.305436
8852.000000;1.303862
8851.000000;1.302819
8850.000000;1.302534
8849.000000;1.302579
8848.000000;1.302606
8847.000000;1.302649
8846.000000;1.302784
8845.000000;1.302896
8844.000000;1.302930
8843.000000;1.303049
8842.000000;1.303335
8841.000000;1.303549
8840.000000;1.303435
8839.000000;1.303099
8838.000000;1.302831
8837.000000;1.302694
8836.000000;1.302567
8835.000000;1.302446
8834.000000;1.302369
8833.000000;1.302120
8832.000000;1.301410
8831.000000;1.300410
8830.000000;1.299817
8829.000000;1.300277
8828.000000;1.301876
8827.000000;1.304153
8826.000000;1.306348
8825.000000;1.307626
8824.000000;1.307490
8823.000000;1.306233
8822.000000;1.304805
8821.000000;1.304005
8820.000000;1.303839
8819.000000;1.303679
8818.000000;1.302972
8817.000000;1.301761
8816.000000;1.300633
8815.000000;1.300211
8814.000000;1.300574
8813.000000;1.301084
8812.000000;1.300938
8811.000000;1.300045
8810.000000;1.299288
8809.000000;1.299753
8808.000000;1.301672
8807.000000;1.304130
8806.000000;1.305794
8805.000000;1.305953
8804.000000;1.304928
8803.000000;1.303601
8802.000000;1.302680
8801.000000;1.302405
8800.000000;1.302678
8799.000000;1.303160
8798.000000;1.303305
8797.000000;1.302753
8796.000000;1.301866
8795.000000;1.301573
8794.000000;1.302388
8793.000000;1.303759
8792.000000;1.304634
8791.000000;1.304598
8790.000000;1.304161
8789.000000;1.304071
8788.000000;1.304650
8787.000000;1.305688
8786.000000;1.306563
8785.000000;1.306574
8784.000000;1.305603
8783.000000;1.304482
8782.000000;1.304263
8781.000000;1.305117
8780.000000;1.306248
8779.000000;1.306835
8778.000000;1.306679
8777.000000;1.306012
8776.000000;1.305217
8775.000000;1.304794
8774.000000;1.305105
8773.000000;1.305939
8772.000000;1.306708
8771.000000;1.307162
8770.000000;1.307542
8769.000000;1.307881
8768.000000;1.307712
8767.000000;1.306778
8766.000000;1.305595
8765.000000;1.304952
8764.000000;1.305137
8763.000000;1.305992
8762.000000;1.307353
8761.000000;1.308988
8760.000000;1.310334
8759.000000;1.310881
8758.000000;1.310772
8757.000000;1.310614
8756.000000;1.310687
8755.000000;1.310671
8754.000000;1.310206
8753.000000;1.309427
8752.000000;1.308825
8751.000000;1.308724
8750.000000;1.309013
8749.000000;1.309336
8748.000000;1.309489
8747.000000;1.309623
8746.000000;1.310028
8745.000000;1.310677
8744.000000;1.311112
8743.000000;1.310851
8742.000000;1.309845
8741.000000;1.308496
8740.000000;1.307376
8739.000000;1.306986
8738.000000;1.307530
8737.000000;1.308758
8736.000000;1.310124
8735.000000;1.311218
8734.000000;1.311970
8733.000000;1.312377
8732.000000;1.312268
8731.000000;1.311543
8730.000000;1.310473
8729.000000;1.309570
8728.000000;1.309229
8727.000000;1.309606
8726.000000;1.310629
8725.000000;1.311895
8724.000000;1.312711
8723.000000;1.312624
8722.000000;1.311959
8721.000000;1.311595
8720.000000;1.312114
8719.000000;1.313253
8718.000000;1.314228
8717.000000;1.314532
8716.000000;1.314363
8715.000000;1.314326
8714.000000;1.314760
8713.000000;1.315426
8712.000000;1.315858
8711.000000;1.315871
8710.000000;1.315531
8709.000000;1.314807
8708.000000;1.313626
8707.000000;1.312273
8706.000000;1.311376
8705.000000;1.311263
8704.000000;1.311605
8703.000000;1.311878
8702.000000;1.311944
8701.000000;1.311978
8700.000000;1.312053
8699.000000;1.312085
8698.000000;1.312048
8697.000000;1.311982
8696.000000;1.311946
8695.000000;1.312195
8694.000000;1.313144
8693.000000;1.314815
8692.000000;1.316467
8691.000000;1.317201
8690.000000;1.316950
8689.000000;1.316528
8688.000000;1.316615
8687.000000;1.317067
8686.000000;1.317329
8685.000000;1.317204
8684.000000;1.316948
8683.000000;1.316784
8682.000000;1.316606
8681.000000;1.316178
8680.000000;1.315436
8679.000000;1.314559
8678.000000;1.313819
8677.000000;1.313413
8676.000000;1.313467
8675.000000;1.314117
8674.000000;1.315424
8673.000000;1.317079
8672.000000;1.318351
8671.000000;1.318585
8670.000000;1.317856
8669.000000;1.316965
8668.000000;1.316702
8667.000000;1.317173
8666.000000;1.317849
8665.000000;1.318137
8664.000000;1.317816
8663.000000;1.317043
8662.000000;1.316149
8661.000000;1.315484
8660.000000;1.315295
8659.000000;1.315553
8658.000000;1.315899
8657.000000;1.315884
8656.000000;1.315398
8655.000000;1.314798
8654.000000;1.314552
8653.000000;1.314757
8652.000000;1.315051
8651.000000;1.315023
8650.000000;1.314625
8649.000000;1.314168
8648.000000;1.314005
8647.000000;1.314211
8646.000000;1.314480
8645.000000;1.314388
8644.000000;1.313818
8643.000000;1.313108
8642.000000;1.312773
8641.000000;1.313053
8640.000000;1.313747
8639.000000;1.314439
8638.000000;1.314865
8637.000000;1.315096
8636.000000;1.315418
8635.000000;1.315967
8634.000000;1.316457
8633.000000;1.316404
8632.000000;1.315713
8631.000000;1.314881
8630.000000;1.314466
8629.000000;1.314505
8628.000000;1.314696
8627.000000;1.314990
8626.000000;1.315610
8625.000000;1.316512
8624.000000;1.317221
8623.000000;1.317324
8622.000000;1.316794
8621.000000;1.315788
8620.000000;1.314550
8619.000000;1.313673
8618.000000;1.313883
8617.000000;1.315174
8616.000000;1.316486
8615.000000;1.316681
8614.000000;1.315728
8613.000000;1.314577
8612.000000;1.314055
8611.000000;1.314294
8610.000000;1.315050
8609.000000;1.316030
8608.000000;1.316831
8607.000000;1.317009
8606.000000;1.316525
8605.000000;1.315888
8604.000000;1.315628
8603.000000;1.315713
8602.000000;1.315585
8601.000000;1.314744
8600.000000;1.313218
8599.000000;1.311492
8598.000000;1.310066
8597.000000;1.309207
8596.000000;1.309138
8595.000000;1.310172
8594.000000;1.312268
8593.000000;1.314476
8592.000000;1.315418
8591.000000;1.314686
8590.000000;1.313369
8589.000000;1.312796
8588.000000;1.313087
8587.000000;1.313348
8586.000000;1.312920
8585.000000;1.311852
8584.000000;1.310347
8583.000000;1.308580
8582.000000;1.307171
8581.000000;1.307054
8580.000000;1.308433
8579.000000;1.310279
8578.000000;1.311251
8577.000000;1.310927
8576.000000;1.309921
8575.000000;1.309067
8574.000000;1.308813
8573.000000;1.309130
8572.000000;1.309628
8571.000000;1.309860
8570.000000;1.309747
8569.000000;1.309620
8568.000000;1.309746
8567.000000;1.310032
8566.000000;1.310330
8565.000000;1.310697
8564.000000;1.311060
8563.000000;1.310925
8562.000000;1.309870
8561.000000;1.308218
8560.000000;1.306858
8559.000000;1.306459
8558.000000;1.307121
8557.000000;1.308570
8556.000000;1.310283
8555.000000;1.311504
8554.000000;1.311688
8553.000000;1.311096
8552.000000;1.310579
8551.000000;1.310595
8550.000000;1.310718
8549.000000;1.310304
8548.000000;1.309382
8547.000000;1.308606
8546.000000;1.308489
8545.000000;1.308927
8544.000000;1.309445
8543.000000;1.309722
8542.000000;1.309766
8541.000000;1.309624
8540.000000;1.309139
8539.000000;1.308157
8538.000000;1.306956
8537.000000;1.306137
8536.000000;1.305937
8535.000000;1.305917
8534.000000;1.305607
8533.000000;1.305192
8532.000000;1.305167
8531.000000;1.305488
8530.000000;1.305672
8529.000000;1.305665
8528.000000;1.305914
8527.000000;1.306423
8526.000000;1.306472
8525.000000;1.305732
8524.000000;1.305031
8523.000000;1.305333
8522.000000;1.306346
8521.000000;1.306917
8520.000000;1.306601
8519.000000;1.306082
8518.000000;1.305996
8517.000000;1.306104
8516.000000;1.305919
8515.000000;1.305530
8514.000000;1.305400
8513.000000;1.305716
8512.000000;1.306267
8511.000000;1.306728
8510.000000;1.306802
8509.000000;1.306331
8508.000000;1.305554
8507.000000;1.305052
8506.000000;1.305172
8505.000000;1.305615
8504.000000;1.305820
8503.000000;1.305651
8502.000000;1.305448
8501.000000;1.305521
8500.000000;1.305844
8499.000000;1.306202
8498.000000;1.306407
8497.000000;1.306373
8496.000000;1.306099
8495.000000;1.305580
8494.000000;1.304715
8493.000000;1.303504
8492.000000;1.302427
8491.000000;1.302347
8490.000000;1.303645
8489.000000;1.305541
8488.000000;1.306651
8487.000000;1.306357
8486.000000;1.305332
8485.000000;1.304603
8484.000000;1.304418
8483.000000;1.304236
8482.000000;1.303593
8481.000000;1.302651
8480.000000;1.301908
8479.000000;1.301655
8478.000000;1.301808
8477.000000;1.302123
8476.000000;1.302452
8475.000000;1.302797
8474.000000;1.303172
8473.000000;1.303474
8472.000000;1.303545
8471.000000;1.303400
8470.000000;1.303334
8469.000000;1.303681
8468.000000;1.304379
8467.000000;1.304901
8466.000000;1.304750
8465.000000;1.304036
8464.000000;1.303382
8463.000000;1.303216
8462.000000;1.303306
8461.000000;1.303110
8460.000000;1.302509
8459.000000;1.301982
8458.000000;1.302078
8457.000000;1.302840
8456.000000;1.303737
8455.000000;1.304019
8454.000000;1.303200
8453.000000;1.301424
8452.000000;1.299476
8451.000000;1.298273
8450.000000;1.298233
8449.000000;1.299107
8448.000000;1.300339
8447.000000;1.301462
8446.000000;1.302199
8445.000000;1.302467
8444.000000;1.302429
8443.000000;1.302429
8442.000000;1.302693
8441.000000;1.303092
8440.000000;1.303237
8439.000000;1.302789
8438.000000;1.301754
8437.000000;1.300601
8436.000000;1.300018
8435.000000;1.300274
8434.000000;1.300827
8433.000000;1.300843
8432.000000;1.300178
8431.000000;1.299568
8430.000000;1.299677
8429.000000;1.300272
8428.000000;1.300590
8427.000000;1.300269
8426.000000;1.299591
8425.000000;1.298959
8424.000000;1.298537
8423.000000;1.298408
8422.000000;1.298744
8421.000000;1.299660
8420.000000;1.301010
8419.000000;1.302329
8418.000000;1.302998
8417.000000;1.302622
8416.000000;1.301451
8415.000000;1.300272
8414.000000;1.299681
8413.000000;1.299536
8412.000000;1.299306
8411.000000;1.298810
8410.000000;1.298368
8409.000000;1.298304
8408.000000;1.298612
8407.000000;1.299060
8406.000000;1.299365
8405.000000;1.299275
8404.000000;1.298834
8403.000000;1.298576
8402.000000;1.299099
8401.000000;1.300310
8400.000000;1.301387
8399.000000;1.301644
8398.000000;1.301206
8397.000000;1.300658
8396.000000;1.300280
8395.000000;1.299881
8394.000000;1.299241
8393.000000;1.298427
8392.000000;1.297716
8391.000000;1.297392
8390.000000;1.297608
8389.000000;1.298248
8388.000000;1.298861
8387.000000;1.298903
8386.000000;1.298191
8385.000000;1.297138
8384.000000;1.296483
8383.000000;1.296672
8382.000000;1.297394
8381.000000;1.297791
8380.000000;1.297250
8379.000000;1.296037
8378.000000;1.295049
8377.000000;1.294962
8376.000000;1.295681
8375.000000;1.296556
8374.000000;1.297005
8373.000000;1.296951
8372.000000;1.296796
8371.000000;1.297010
8370.000000;1.297639
8369.000000;1.298214
8368.000000;1.298233
8367.000000;1.297685
8366.000000;1.296990
8365.000000;1.296538
8364.000000;1.296504
8363.000000;1.296993
8362.000000;1.298005
8361.000000;1.299139
8360.000000;1.299667
8359.000000;1.299170
8358.000000;1.297957
8357.000000;1.296690
8356.000000;1.295762
8355.000000;1.295180
8354.000000;1.294878
8353.000000;1.294868
8352.000000;1.295095
8351.000000;1.295362
8350.000000;1.295448
8349.000000;1.295219
8348.000000;1.294678
8347.000000;1.294081
8346.000000;1.293957
8345.000000;1.294738
8344.000000;1.296232
8343.000000;1.297588
8342.000000;1.297993
8341.000000;1.297393
8340.000000;1.296441
8339.000000;1.295764
8338.000000;1.295423
8337.000000;1.295104
8336.000000;1.294693
8335.000000;1.294478
8334.000000;1.294760
8333.000000;1.295417
8332.000000;1.295926
8331.000000;1.295767
8330.000000;1.294804
8329.000000;1.293405
8328.000000;1.292280
8327.000000;1.292043
8326.000000;1.292682
8325.000000;1.293460
8324.000000;1.293537
8323.000000;1.292811
8322.000000;1.292011
8321.000000;1.291924
8320.000000;1.292638
8319.000000;1.293560
8318.000000;1.294046
8317.000000;1.293956
8316.000000;1.293669
8315.000000;1.293660
8314.000000;1.294008
8313.000000;1.294284
8312.000000;1.293957
8311.000000;1.292955
8310.000000;1.291774
8309.000000;1.291038
8308.000000;1.291009
8307.000000;1.291477
8306.000000;1.291988
8305.000000;1.292163
8304.000000;1.291943
8303.000000;1.291605
8302.000000;1.291446
8301.000000;1.291429
8300.000000;1.291249
8299.000000;1.290798
8298.000000;1.290378
8297.000000;1.290327
8296.000000;1.290571
8295.000000;1.290756
8294.000000;1.290758
8293.000000;1.290783
8292.000000;1.290891
8291.000000;1.290689
8290.000000;1.289763
8289.000000;1.288384
8288.000000;1.287493
8287.000000;1.287815
8286.000000;1.289033
8285.000000;1.290033
8284.000000;1.290029
8283.000000;1.289310
8282.000000;1.288768
8281.000000;1.288871
8280.000000;1.289324
8279.000000;1.289621
8278.000000;1.289606
8277.000000;1.289426
8276.000000;1.289207
8275.000000;1.288998
8274.000000;1.288872
8273.000000;1.288865
8272.000000;1.288849
8271.000000;1.288684
8270.000000;1.288487
8269.000000;1.288568
8268.000000;1.289016
8267.000000;1.289468
8266.000000;1.289431
8265.000000;1.288834
8264.000000;1.288159
8263.000000;1.287964
8262.000000;1.288317
8261.000000;1.288783
8260.000000;1.288972
8259.000000;1.288984
8258.000000;1.289187
8257.000000;1.289659
8256.000000;1.290040
8255.000000;1.289943
8254.000000;1.289335
8253.000000;1.288406
8252.000000;1.287310
8251.000000;1.286232
8250.000000;1.285571
8249.000000;1.285752
8248.000000;1.286758
8247.000000;1.287978
8246.000000;1.288621
8245.000000;1.288323
8244.000000;1.287407
8243.000000;1.286597
8242.000000;1.286435
8241.000000;1.286851
8240.000000;1.287306
8239.000000;1.287384
8238.000000;1.287196
8237.000000;1.287127
8236.000000;1.287313
8235.000000;1.287546
8234.000000;1.287621
8233.000000;1.287507
8232.000000;1.287159
8231.000000;1.286454
8230.000000;1.285485
8229.000000;1.284700
8228.000000;1.284533
8227.000000;1.284965
8226.000000;1.285569
8225.000000;1.285938
8224.000000;1.285992
8223.000000;1.285967
8222.000000;1.286157
8221.000000;1.286520
8220.000000;1.286537
8219.000000;1.285715
8218.000000;1.284364
8217.000000;1.283517
8216.000000;1.283830
8215.000000;1.284838
8214.000000;1.285640
8213.000000;1.286077
8212.000000;1.286682
8211.000000;1.287551
8210.000000;1.288016
8209.000000;1.287617
8208.000000;1.286782
8207.000000;1.286178
8206.000000;1.285912
8205.000000;1.285758
8204.000000;1.285650
8203.000000;1.285485
8202.000000;1.284872
8201.000000;1.283692
8200.000000;1.282632
8199.000000;1.282514
8198.000000;1.283235
8197.000000;1.283935
8196.000000;1.284130
8195.000000;1.284075
8194.000000;1.284011
8193.000000;1.283768
8192.000000;1.283312
8191.000000;1.283059
8190.000000;1.283314
8189.000000;1.283845
8188.000000;1.284326
8187.000000;1.284825
8186.000000;1.285506
8185.000000;1.286137
8184.000000;1.286278
8183.000000;1.285775
8182.000000;1.284832
8181.000000;1.283754
8180.000000;1.282821
8179.000000;1.282217
8178.000000;1.281897
8177.000000;1.281677
8176.000000;1.281560
8175.000000;1.281751
8174.000000;1.282267
8173.000000;1.282859
8172.000000;1.283461
8171.000000;1.284271
8170.000000;1.285171
8169.000000;1.285490
8168.000000;1.284825
8167.000000;1.283723
8166.000000;1.283034
8165.000000;1.282806
8164.000000;1.282357
8163.000000;1.281323
8162.000000;1.280168
8161.000000;1.279629
8160.000000;1.280038
8159.000000;1.281142
8158.000000;1.282232
8157.000000;1.282530
8156.000000;1.281848
8155.000000;1.280872
8154.000000;1.280453
8153.000000;1.280662
8152.000000;1.280860
8151.000000;1.280656
8150.000000;1.280357
8149.000000;1.280449
8148.000000;1.281048
8147.000000;1.281938
8146.000000;1.282752
8145.000000;1.282981
8144.000000;1.282272
8143.000000;1.280941
8142.000000;1.279845
8141.000000;1.279513
8140.000000;1.279654
8139.000000;1.279718
8138.000000;1.279604
8137.000000;1.279551
8136.000000;1.279585
8135.000000;1.279469
8134.000000;1.279120
8133.000000;1.278764
8132.000000;1.278664
8131.000000;1.278899
8130.000000;1.279394
8129.000000;1.279993
8128.000000;1.280448
8127.000000;1.280467
8126.000000;1.279897
8125.000000;1.278924
8124.000000;1.278099
8123.000000;1.278064
8122.000000;1.279056
8121.000000;1.280611
8120.000000;1.281867
8119.000000;1.282270
8118.000000;1.281937
8117.000000;1.281353
8116.000000;1.280863
8115.000000;1.280494
8114.000000;1.280102
8113.000000;1.279586
8112.000000;1.279042
8111.000000;1.278731
8110.000000;1.278798
8109.000000;1.279030
8108.000000;1.279025
8107.000000;1.278674
8106.000000;1.278292
8105.000000;1.278216
8104.000000;1.278424
8103.000000;1.278665
8102.000000;1.278811
8101.000000;1.278924
8100.000000;1.279059
8099.000000;1.279175
8098.000000;1.279220
8097.000000;1.279202
8096.000000;1.279151
8095.000000;1.279074
8094.000000;1.278944
8093.000000;1.278717
8092.000000;1.278386
8091.000000;1.278039
8090.000000;1.277778
8089.000000;1.277597
8088.000000;1.277413
8087.000000;1.277264
8086.000000;1.277409
8085.000000;1.278069
8084.000000;1.279041
8083.000000;1.279705
8082.000000;1.279541
8081.000000;1.278683
8080.000000;1.277869
8079.000000;1.277703
8078.000000;1.277998
8077.000000;1.278011
8076.000000;1.277382
8075.000000;1.276608
8074.000000;1.276402
8073.000000;1.276824
8072.000000;1.277319
8071.000000;1.277491
8070.000000;1.277496
8069.000000;1.277616
8068.000000;1.277798
8067.000000;1.277800
8066.000000;1.277559
8065.000000;1.277185
8064.000000;1.276718
8063.000000;1.276090
8062.000000;1.275333
8061.000000;1.274671
8060.000000;1.274356
8059.000000;1.274449
8058.000000;1.274779
8057.000000;1.275101
8056.000000;1.275303
8055.000000;1.275429
8054.000000;1.275525
8053.000000;1.275543
8052.000000;1.275449
8051.000000;1.275310
8050.000000;1.275206
8049.000000;1.275145
8048.000000;1.275154
8047.000000;1.275309
8046.000000;1.275560
8045.000000;1.275659
8044.000000;1.275472
8043.000000;1.275232
8042.000000;1.275231
8041.000000;1.275346
8040.000000;1.275174
8039.000000;1.274651
8038.000000;1.274229
8037.000000;1.274345
8036.000000;1.274967
8035.000000;1.275749
8034.000000;1.276397
8033.000000;1.276760
8032.000000;1.276768
8031.000000;1.276443
8030.000000;1.275902
8029.000000;1.275286
8028.000000;1.274747
8027.000000;1.274494
8026.000000;1.274673
8025.000000;1.275154
8024.000000;1.275605
8023.000000;1.275823
8022.000000;1.275823
8021.000000;1.275613
8020.000000;1.275153
8019.000000;1.274594
8018.000000;1.274263
8017.000000;1.274235
8016.000000;1.274191
8015.000000;1.273878
8014.000000;1.273502
8013.000000;1.273386
8012.000000;1.273457
8011.000000;1.273364
8010.000000;1.273039
8009.000000;1.272803
8008.000000;1.272894
8007.000000;1.273120
8006.000000;1.273105
8005.000000;1.272756
8004.000000;1.272375
8003.000000;1.272342
8002.000000;1.272755
8001.000000;1.273404
8000.000000;1.274033
7999.000000;1.274538
7998.000000;1.274817
7997.000000;1.274615
7996.000000;1.273775
7995.000000;1.272645
7994.000000;1.271941
7993.000000;1.272040
7992.000000;1.272593
7991.000000;1.272988
7990.000000;1.273034
7989.000000;1.272992
7988.000000;1.273058
7987.000000;1.273097
7986.000000;1.272916
7985.000000;1.272583
7984.000000;1.272356
7983.000000;1.272390
7982.000000;1.272591
7981.000000;1.272751
7980.000000;1.272779
7979.000000;1.272766
7978.000000;1.272812
7977.000000;1.272859
7976.000000;1.272796
7975.000000;1.272697
7974.000000;1.272794
7973.000000;1.273180
7972.000000;1.273635
7971.000000;1.273832
7970.000000;1.273614
7969.000000;1.273058
7968.000000;1.272363
7967.000000;1.271755
7966.000000;1.271367
7965.000000;1.271143
7964.000000;1.270932
7963.000000;1.270735
7962.000000;1.270752
7961.000000;1.271126
7960.000000;1.271779
7959.000000;1.272512
7958.000000;1.273118
7957.000000;1.273380
7956.000000;1.273178
7955.000000;1.272728
7954.000000;1.272498
7953.000000;1.272693
7952.000000;1.272966
7951.000000;1.272841
7950.000000;1.272330
7949.000000;1.271902
7948.000000;1.271882
7947.000000;1.272117
7946.000000;1.272236
7945.000000;1.272062
7944.000000;1.271729
7943.000000;1.271509
7942.000000;1.271594
7941.000000;1.271977
7940.000000;1.272500
7939.000000;1.273011
7938.000000;1.273417
7937.000000;1.273576
7936.000000;1.273297
7935.000000;1.272588
7934.000000;1.271835
7933.000000;1.271551
7932.000000;1.271882
7931.000000;1.272419
7930.000000;1.272523
7929.000000;1.271896
7928.000000;1.270871
7927.000000;1.270128
7926.000000;1.270052
7925.000000;1.270375
7924.000000;1.270516
7923.000000;1.270290
7922.000000;1.270112
7921.000000;1.270428
7920.000000;1.271174
7919.000000;1.271903
7918.000000;1.272285
7917.000000;1.272276
7916.000000;1.271977
7915.000000;1.271612
7914.000000;1.271575
7913.000000;1.272169
7912.000000;1.273204
7911.000000;1.274057
7910.000000;1.274237
7909.000000;1.273805
7908.000000;1.273198
7907.000000;1.272789
7906.000000;1.272684
7905.000000;1.272796
7904.000000;1.272977
7903.000000;1.273095
7902.000000;1.273065
7901.000000;1.272887
7900.000000;1.272654
7899.000000;1.272520
7898.000000;1.272557
7897.000000;1.272615
7896.000000;1.272435
7895.000000;1.272007
7894.000000;1.271683
7893.000000;1.271811
7892.000000;1.272322
7891.000000;1.272836
7890.000000;1.273112
7889.000000;1.273191
7888.000000;1.273125
7887.000000;1.272849
7886.000000;1.272439
7885.000000;1.272258
7884.000000;1.272620
7883.000000;1.273375
7882.000000;1.274015
7881.000000;1.274179
7880.000000;1.273947
7879.000000;1.273656
7878.000000;1.273568
7877.000000;1.273737
7876.000000;1.274061
7875.000000;1.274336
7874.000000;1.274329
7873.000000;1.273922
7872.000000;1.273232
7871.000000;1.272545
7870.000000;1.272083
7869.000000;1.271869
7868.000000;1.271818
7867.000000;1.271910
7866.000000;1.272184
7865.000000;1.272585
7864.000000;1.272931
7863.000000;1.273090
7862.000000;1.273146
7861.000000;1.273288
7860.000000;1.273543
7859.000000;1.273696
7858.000000;1.273534
7857.000000;1.273143
7856.000000;1.272897
7855.000000;1.273083
7854.000000;1.273566
7853.000000;1.273905
7852.000000;1.273805
7851.000000;1.273368
7850.000000;1.272841
7849.000000;1.272310
7848.000000;1.271787
7847.000000;1.271473
7846.000000;1.271645
7845.000000;1.272260
7844.000000;1.272911
7843.000000;1.273270
7842.000000;1.273379
7841.000000;1.273440
7840.000000;1.273490
7839.000000;1.273446
7838.000000;1.273316
7837.000000;1.273181
7836.000000;1.273059
7835.000000;1.272950
7834.000000;1.272908
7833.000000;1.272944
7832.000000;1.272943
7831.000000;1.272834
7830.000000;1.272750
7829.000000;1.272861
7828.000000;1.273113
7827.000000;1.273321
7826.000000;1.273456
7825.000000;1.273646
7824.000000;1.273899
7823.000000;1.274055
7822.000000;1.274037
7821.000000;1.273972
7820.000000;1.274010
7819.000000;1.274138
7818.000000;1.274220
7817.000000;1.274099
7816.000000;1.273665
7815.000000;1.272979
7814.000000;1.272392
7813.000000;1.272354
7812.000000;1.273025
7811.000000;1.274123
7810.000000;1.275186
7809.000000;1.275882
7808.000000;1.276075
7807.000000;1.275785
7806.000000;1.275203
7805.000000;1.274602
7804.000000;1.274125
7803.000000;1.273735
7802.000000;1.273430
7801.000000;1.273366
7800.000000;1.273595
7799.000000;1.273836
7798.000000;1.273716
7797.000000;1.273254
7796.000000;1.272912
7795.000000;1.273131
7794.000000;1.273874
7793.000000;1.274671
7792.000000;1.275016
7791.000000;1.274766
7790.000000;1.274218
7789.000000;1.273846
7788.000000;1.273882
7787.000000;1.274160
7786.000000;1.274385
7785.000000;1.274494
7784.000000;1.274668
7783.000000;1.275034
7782.000000;1.275513
7781.000000;1.275978
7780.000000;1.276383
7779.000000;1.276669
7778.000000;1.276638
7777.000000;1.276102
7776.000000;1.275167
7775.000000;1.274283
7774.000000;1.273944
7773.000000;1.274316
7772.000000;1.275120
7771.000000;1.275857
7770.000000;1.276203
7769.000000;1.276222
7768.000000;1.276186
7767.000000;1.276221
7766.000000;1.276214
7765.000000;1.276079
7764.000000;1.275965
7763.000000;1.276069
7762.000000;1.276337
7761.000000;1.276518
7760.000000;1.276520
7759.000000;1.276542
7758.000000;1.276834
7757.000000;1.277414
7756.000000;1.278065
7755.000000;1.278498
7754.000000;1.278512
7753.000000;1.278094
7752.000000;1.277470
7751.000000;1.276977
7750.000000;1.276801
7749.000000;1.276892
7748.000000;1.277127
7747.000000;1.277445
7746.000000;1.277737
7745.000000;1.277772
7744.000000;1.277444
7743.000000;1.277001
7742.000000;1.276837
7741.000000;1.277045
7740.000000;1.277366
7739.000000;1.277589
7738.000000;1.277787
7737.000000;1.278097
7736.000000;1.278448
7735.000000;1.278644
7734.000000;1.278593
7733.000000;1.278351
7732.000000;1.278042
7731.000000;1.277822
7730.000000;1.277841
7729.000000;1.278080
7728.000000;1.278294
7727.000000;1.278240
7726.000000;1.277950
7725.000000;1.277675
7724.000000;1.277612
7723.000000;1.277811
7722.000000;1.278277
7721.000000;1.278984
7720.000000;1.279743
7719.000000;1.280218
7718.000000;1.280204
7717.000000;1.279875
7716.000000;1.279663
7715.000000;1.279891
7714.000000;1.280479
7713.000000;1.280991
7712.000000;1.281009
7711.000000;1.280552
7710.000000;1.280103
7709.000000;1.280106
7708.000000;1.280449
7707.000000;1.280573
7706.000000;1.280176
7705.000000;1.279668
7704.000000;1.279762
7703.000000;1.280689
7702.000000;1.281929
7701.000000;1.282735
7700.000000;1.282793
7699.000000;1.282374
7698.000000;1.281979
7697.000000;1.281916
7696.000000;1.282129
7695.000000;1.282302
7694.000000;1.282157
7693.000000;1.281729
7692.000000;1.281353
7691.000000;1.281310
7690.000000;1.281534
7689.000000;1.281752
7688.000000;1.281875
7687.000000;1.282107
7686.000000;1.282612
7685.000000;1.283231
7684.000000;1.283653
7683.000000;1.283787
7682.000000;1.283818
7681.000000;1.283901
7680.000000;1.283970
7679.000000;1.283883
7678.000000;1.283646
7677.000000;1.283421
7676.000000;1.283361
7675.000000;1.283514
7674.000000;1.283824
7673.000000;1.284170
7672.000000;1.284414
7671.000000;1.284496
7670.000000;1.284473
7669.000000;1.284448
7668.000000;1.284454
7667.000000;1.284468
7666.000000;1.284485
7665.000000;1.284533
7664.000000;1.284606
7663.000000;1.284654
7662.000000;1.284676
7661.000000;1.284745
7660.000000;1.284903
7659.000000;1.285059
7658.000000;1.285066
7657.000000;1.284893
7656.000000;1.284674
7655.000000;1.284564
7654.000000;1.284636
7653.000000;1.284927
7652.000000;1.285481
7651.000000;1.286246
7650.000000;1.286971
7649.000000;1.287332
7648.000000;1.287229
7647.000000;1.286870
7646.000000;1.286572
7645.000000;1.286555
7644.000000;1.286906
7643.000000;1.287577
7642.000000;1.288285
7641.000000;1.288574
7640.000000;1.288200
7639.000000;1.287491
7638.000000;1.287137
7637.000000;1.287555
7636.000000;1.288540
7635.000000;1.289549
7634.000000;1.290211
7633.000000;1.290483
7632.000000;1.290453
7631.000000;1.290215
7630.000000;1.289953
7629.000000;1.289979
7628.000000;1.290497
7627.000000;1.291324
7626.000000;1.291954
7625.000000;1.291990
7624.000000;1.291523
7623.000000;1.291017
7622.000000;1.290834
7621.000000;1.290955
7620.000000;1.291168
7619.000000;1.291392
7618.000000;1.291676
7617.000000;1.291982
7616.000000;1.292164
7615.000000;1.292196
7614.000000;1.292251
7613.000000;1.292462
7612.000000;1.292745
7611.000000;1.292960
7610.000000;1.293162
7609.000000;1.293524
7608.000000;1.294043
7607.000000;1.294472
7606.000000;1.294600
7605.000000;1.294505
7604.000000;1.294461
7603.000000;1.294656
7602.000000;1.295015
7601.000000;1.295296
7600.000000;1.295292
7599.000000;1.295005
7598.000000;1.294670
7597.000000;1.294627
7596.000000;1.295091
7595.000000;1.295976
7594.000000;1.296962
7593.000000;1.297754
7592.000000;1.298294
7591.000000;1.298685
7590.000000;1.298970
7589.000000;1.299086
7588.000000;1.299047
7587.000000;1.299060
7586.000000;1.299341
7585.000000;1.299855
7584.000000;1.300333
7583.000000;1.300543
7582.000000;1.300490
7581.000000;1.300379
7580.000000;1.300445
7579.000000;1.300769
7578.000000;1.301168
7577.000000;1.301288
7576.000000;1.300961
7575.000000;1.300509
7574.000000;1.300512
7573.000000;1.301217
7572.000000;1.302256
7571.000000;1.303029
7570.000000;1.303254
7569.000000;1.303091
7568.000000;1.302858
7567.000000;1.302801
7566.000000;1.303039
7565.000000;1.303523
7564.000000;1.304027
7563.000000;1.304362
7562.000000;1.304624
7561.000000;1.305107
7560.000000;1.305923
7559.000000;1.306813
7558.000000;1.307415
7557.000000;1.307624
7556.000000;1.307607
7555.000000;1.307557
7554.000000;1.307557
7553.000000;1.307667
7552.000000;1.307985
7551.000000;1.308543
7550.000000;1.309205
7549.000000;1.309754
7548.000000;1.310090
7547.000000;1.310305
7546.000000;1.310560
7545.000000;1.310943
7544.000000;1.311461
7543.000000;1.312078
7542.000000;1.312680
7541.000000;1.313042
7540.000000;1.313011
7539.000000;1.312765
7538.000000;1.312727
7537.000000;1.313107
7536.000000;1.313603
7535.000000;1.313739
7534.000000;1.313480
7533.000000;1.313316
7532.000000;1.313681
7531.000000;1.314438
7530.000000;1.315058
7529.000000;1.315222
7528.000000;1.315100
7527.000000;1.315072
7526.000000;1.315319
7525.000000;1.315731
7524.000000;1.316101
7523.000000;1.316351
7522.000000;1.316607
7521.000000;1.317088
7520.000000;1.317901
7519.000000;1.318870
7518.000000;1.319612
7517.000000;1.319853
7516.000000;1.319709
7515.000000;1.319605
7514.000000;1.319865
7513.000000;1.320417
7512.000000;1.320925
7511.000000;1.321170
7510.000000;1.321251
7509.000000;1.321404
7508.000000;1.321727
7507.000000;1.322107
7506.000000;1.322388
7505.000000;1.322513
7504.000000;1.322524
7503.000000;1.322671
7502.000000;1.323095
7501.000000;1.323878
7500.000000;1.324864
7499.000000;1.325699
7498.000000;1.326065
7497.000000;1.325958
7496.000000;1.325724
7495.000000;1.325791
7494.000000;1.326331
7493.000000;1.327169
7492.000000;1.327985
7491.000000;1.328575
7490.000000;1.328944
7489.000000;1.329205
7488.000000;1.329454
7487.000000;1.329716
7486.000000;1.329942
7485.000000;1.330053
7484.000000;1.330068
7483.000000;1.330194
7482.000000;1.330689
7481.000000;1.331566
7480.000000;1.332527
7479.000000;1.333249
7478.000000;1.333681
7477.000000;1.333980
7476.000000;1.334272
7475.000000;1.334615
7474.000000;1.335098
7473.000000;1.335773
7472.000000;1.336476
7471.000000;1.336891
7470.000000;1.336883
7469.000000;1.336625
7468.000000;1.336388
7467.000000;1.336323
7466.000000;1.336510
7465.000000;1.337028
7464.000000;1.337837
7463.000000;1.338704
7462.000000;1.339390
7461.000000;1.339865
7460.000000;1.340219
7459.000000;1.340473
7458.000000;1.340596
7457.000000;1.340687
7456.000000;1.340948
7455.000000;1.341447
7454.000000;1.342002
7453.000000;1.342347
7452.000000;1.342394
7451.000000;1.342314
7450.000000;1.342393
7449.000000;1.342794
7448.000000;1.343430
7447.000000;1.344096
7446.000000;1.344727
7445.000000;1.345427
7444.000000;1.346221
7443.000000;1.346892
7442.000000;1.347192
7441.000000;1.347144
7440.000000;1.347016
7439.000000;1.347050
7438.000000;1.347338
7437.000000;1.347870
7436.000000;1.348566
7435.000000;1.349258
7434.000000;1.349788
7433.000000;1.350123
7432.000000;1.350302
7431.000000;1.350362
7430.000000;1.350408
7429.000000;1.350668
7428.000000;1.351242
7427.000000;1.351839
7426.000000;1.352011
7425.000000;1.351700
7424.000000;1.351321
7423.000000;1.351248
7422.000000;1.351448
7421.000000;1.351739
7420.000000;1.352160
7419.000000;1.352863
7418.000000;1.353745
7417.000000;1.354444
7416.000000;1.354719
7415.000000;1.354751
7414.000000;1.354977
7413.000000;1.355614
7412.000000;1.356391
7411.000000;1.356807
7410.000000;1.356691
7409.000000;1.356386
7408.000000;1.356306
7407.000000;1.356442
7406.000000;1.356540
7405.000000;1.356574
7404.000000;1.356722
7403.000000;1.356979
7402.000000;1.357112
7401.000000;1.357035
7400.000000;1.356993
7399.000000;1.357242
7398.000000;1.357664
7397.000000;1.357847
7396.000000;1.357507
7395.000000;1.356803
7394.000000;1.356290
7393.000000;1.356482
7392.000000;1.357362
7391.000000;1.358337
7390.000000;1.358771
7389.000000;1.358504
7388.000000;1.357820
7387.000000;1.357063
7386.000000;1.356518
7385.000000;1.356444
7384.000000;1.356736
7383.000000;1.356664
7382.000000;1.355603
7381.000000;1.354130
7380.000000;1.353761
7379.000000;1.355179
7378.000000;1.357302
7377.000000;1.358516
7376.000000;1.358392
7375.000000;1.357910
7374.000000;1.358334
7373.000000;1.360117
7372.000000;1.362620
7371.000000;1.364529
7370.000000;1.364697
7369.000000;1.363098
7368.000000;1.360976
7367.000000;1.359721
7366.000000;1.359767
7365.000000;1.360854
7364.000000;1.362624
7363.000000;1.364401
7362.000000;1.365160
7361.000000;1.364549
7360.000000;1.363581
7359.000000;1.363456
7358.000000;1.364005
7357.000000;1.364009
7356.000000;1.362913
7355.000000;1.361470
7354.000000;1.360728
7353.000000;1.360962
7352.000000;1.361586
7351.000000;1.361493
7350.000000;1.359785
7349.000000;1.356919
7348.000000;1.354765
7347.000000;1.354715
7346.000000;1.356096
7345.000000;1.357373
7344.000000;1.358329
7343.000000;1.359741
7342.000000;1.361363
7341.000000;1.361955
7340.000000;1.361653
7339.000000;1.362427
7338.000000;1.365421
7337.000000;1.369353
7336.000000;1.372235
7335.000000;1.373216
7334.000000;1.372533
7333.000000;1.370941
7332.000000;1.369595
7331.000000;1.369229
7330.000000;1.369114
7329.000000;1.368047
7328.000000;1.366737
7327.000000;1.367792
7326.000000;1.372275
7325.000000;1.377769
7324.000000;1.381210
7323.000000;1.382376
7322.000000;1.383331
7321.000000;1.385167
7320.000000;1.386853
7319.000000;1.387042
7318.000000;1.385605
7317.000000;1.383542
7316.000000;1.382284
7315.000000;1.382718
7314.000000;1.384120
7313.000000;1.384530
7312.000000;1.383110
7311.000000;1.381559
7310.000000;1.382063
7309.000000;1.384344
7308.000000;1.386077
7307.000000;1.386026
7306.000000;1.385457
7305.000000;1.386164
7304.000000;1.388429
7303.000000;1.391393
7302.000000;1.393977
7301.000000;1.395149
7300.000000;1.394607
7299.000000;1.393693
7298.000000;1.394397
7297.000000;1.396867
7296.000000;1.399052
7295.000000;1.399355
7294.000000;1.398803
7293.000000;1.399815
7292.000000;1.403252
7291.000000;1.407660
7290.000000;1.411102
7289.000000;1.412817
7288.000000;1.413371
7287.000000;1.413899
7286.000000;1.415241
7285.000000;1.417306
7284.000000;1.419276
7283.000000;1.420601
7282.000000;1.421544
7281.000000;1.422642
7280.000000;1.423964
7279.000000;1.425187
7278.000000;1.426170
7277.000000;1.427090
7276.000000;1.428093
7275.000000;1.429132
7274.000000;1.430170
7273.000000;1.431331
7272.000000;1.432789
7271.000000;1.434540
7270.000000;1.436250
7269.000000;1.437398
7268.000000;1.437833
7267.000000;1.438167
7266.000000;1.439251
7265.000000;1.441169
7264.000000;1.443112
7263.000000;1.444430
7262.000000;1.445465
7261.000000;1.447035
7260.000000;1.449344
7259.000000;1.451872
7258.000000;1.454132
7257.000000;1.455920
7256.000000;1.456881
7255.000000;1.456564
7254.000000;1.455096
7253.000000;1.453582
7252.000000;1.453518
7251.000000;1.455442
7250.000000;1.458293
7249.000000;1.460483
7248.000000;1.461605
7247.000000;1.462637
7246.000000;1.464210
7245.000000;1.465300
7244.000000;1.464493
7243.000000;1.462418
7242.000000;1.461959
7241.000000;1.465279
7240.000000;1.471212
7239.000000;1.476587
7238.000000;1.479596
7237.000000;1.481000
7236.000000;1.482416
7235.000000;1.484271
7234.000000;1.485636
7233.000000;1.485982
7232.000000;1.486694
7231.000000;1.490039
7230.000000;1.496517
7229.000000;1.504083
7228.000000;1.510145
7227.000000;1.513807
7226.000000;1.516211
7225.000000;1.519048
7224.000000;1.522918
7223.000000;1.527098
7222.000000;1.530576
7221.000000;1.533075
7220.000000;1.535243
7219.000000;1.538043
7218.000000;1.541937
7217.000000;1.546562
7216.000000;1.551197
7215.000000;1.555463
7214.000000;1.559430
7213.000000;1.563180
7212.000000;1.566649
7211.000000;1.569886
7210.000000;1.573138
7209.000000;1.576548
7208.000000;1.579936
7207.000000;1.583019
7206.000000;1.585777
7205.000000;1.588669
7204.000000;1.592521
7203.000000;1.597981
7202.000000;1.604780
7201.000000;1.611638
7200.000000;1.617283
7199.000000;1.621664
7198.000000;1.625820
7197.000000;1.630524
7196.000000;1.635478
7195.000000;1.639985
7194.000000;1.643876
7193.000000;1.647382
7192.000000;1.650517
7191.000000;1.653211
7190.000000;1.655758
7189.000000;1.658502
7188.000000;1.661400
7187.000000;1.664492
7186.000000;1.668466
7185.000000;1.673900
7184.000000;1.680113
7183.000000;1.685620
7182.000000;1.689953
7181.000000;1.694363
7180.000000;1.700249
7179.000000;1.707420
7178.000000;1.714442
7177.000000;1.720162
7176.000000;1.724443
7175.000000;1.727992
7174.000000;1.731847
7173.000000;1.736697
7172.000000;1.742076
7171.000000;1.746567
7170.000000;1.749333
7169.000000;1.751159
7168.000000;1.753715
7167.000000;1.758059
7166.000000;1.764194
7165.000000;1.771600
7164.000000;1.779508
7163.000000;1.786908
7162.000000;1.793133
7161.000000;1.798719
7160.000000;1.805026
7159.000000;1.812623
7158.000000;1.820625
7157.000000;1.827861
7156.000000;1.833981
7155.000000;1.839349
7154.000000;1.844435
7153.000000;1.849655
7152.000000;1.855378
7151.000000;1.861595
7150.000000;1.867567
7149.000000;1.872311
7148.000000;1.875624
7147.000000;1.878295
7146.000000;1.881288
7145.000000;1.885160
7144.000000;1.890167
7143.000000;1.896271
7142.000000;1.902843
7141.000000;1.909006
7140.000000;1.914698
7139.000000;1.920903
7138.000000;1.928250
7137.000000;1.935873
7136.000000;1.942357
7135.000000;1.947539
7134.000000;1.952507
7133.000000;1.957934
7132.000000;1.963336
7131.000000;1.968147
7130.000000;1.972591
7129.000000;1.977030
7128.000000;1.981259
7127.000000;1.985149
7126.000000;1.989277
7125.000000;1.994021
7124.000000;1.998577
7123.000000;2.001954
7122.000000;2.004695
7121.000000;2.008413
7120.000000;2.013480
7119.000000;2.018395
7118.000000;2.022051
7117.000000;2.025562
7116.000000;2.030740
7115.000000;2.037415
7114.000000;2.043700
7113.000000;2.048640
7112.000000;2.053215
7111.000000;2.058493
7110.000000;2.063921
7109.000000;2.068118
7108.000000;2.070777
7107.000000;2.073045
7106.000000;2.076254
7105.000000;2.080875
7104.000000;2.086589
7103.000000;2.092604
7102.000000;2.097829
7101.000000;2.101443
7100.000000;2.103636
7099.000000;2.105389
7098.000000;2.107318
7097.000000;2.109247
7096.000000;2.111164
7095.000000;2.113903
7094.000000;2.118182
7093.000000;2.123298
7092.000000;2.127627
7091.000000;2.130547
7090.000000;2.133224
7089.000000;2.137289
7088.000000;2.143057
7087.000000;2.149229
7086.000000;2.154139
7085.000000;2.157146
7084.000000;2.158922
7083.000000;2.160542
7082.000000;2.162520
7081.000000;2.164885
7080.000000;2.167821
7079.000000;2.171598
7078.000000;2.175779
7077.000000;2.179166
7076.000000;2.181018
7075.000000;2.181949
7074.000000;2.183101
7073.000000;2.184849
7072.000000;2.186964
7071.000000;2.189503
7070.000000;2.192570
7069.000000;2.195425
7068.000000;2.197036
7067.000000;2.197773
7066.000000;2.199546
7065.000000;2.203773
7064.000000;2.209875
7063.000000;2.216074
7062.000000;2.220897
7061.000000;2.223403
7060.000000;2.222905
7059.000000;2.219737
7058.000000;2.215972
7057.000000;2.214145
7056.000000;2.215109
7055.000000;2.217774
7054.000000;2.220941
7053.000000;2.224588
7052.000000;2.229000
7051.000000;2.233402
7050.000000;2.236300
7049.000000;2.237089
7048.000000;2.236724
7047.000000;2.236743
7046.000000;2.237903
7045.000000;2.239605
7044.000000;2.240615
7043.000000;2.240580
7042.000000;2.240754
7041.000000;2.242834
7040.000000;2.247020
7039.000000;2.251557
7038.000000;2.254499
7037.000000;2.255658
7036.000000;2.256284
7035.000000;2.257188
7034.000000;2.258038
7033.000000;2.258447
7032.000000;2.258963
7031.000000;2.260528
7030.000000;2.263350
7029.000000;2.266611
7028.000000;2.269086
7027.000000;2.269927
7026.000000;2.269177
7025.000000;2.267760
7024.000000;2.266779
7023.000000;2.266583
7022.000000;2.266620
7021.000000;2.266270
7020.000000;2.265622
7019.000000;2.265308
7018.000000;2.265813
7017.000000;2.267161
7016.000000;2.269193
7015.000000;2.272012
7014.000000;2.275976
7013.000000;2.280937
7012.000000;2.285392
7011.000000;2.287006
7010.000000;2.284811
7009.000000;2.280695
7008.000000;2.277819
7007.000000;2.277713
7006.000000;2.279528
7005.000000;2.281774
7004.000000;2.283729
7003.000000;2.285031
7002.000000;2.285325
7001.000000;2.285209
7000.000000;2.286311
6999.000000;2.289080
6998.000000;2.291286
6997.000000;2.290370
6996.000000;2.286882
6995.000000;2.283989
6994.000000;2.283880
6993.000000;2.285946
6992.000000;2.288277
6991.000000;2.289654
6990.000000;2.289902
6989.000000;2.289429
6988.000000;2.289047
6987.000000;2.289575
6986.000000;2.291007
6985.000000;2.292450
6984.000000;2.293205
6983.000000;2.293385
6982.000000;2.293308
6981.000000;2.292995
6980.000000;2.292566
6979.000000;2.292371
6978.000000;2.292287
6977.000000;2.291670
6976.000000;2.290389
6975.000000;2.289181
6974.000000;2.288753
6973.000000;2.289105
6972.000000;2.289859
6971.000000;2.290554
6970.000000;2.290566
6969.000000;2.289822
6968.000000;2.289641
6967.000000;2.291611
6966.000000;2.295203
6965.000000;2.297591
6964.000000;2.296846
6963.000000;2.294480
6962.000000;2.293593
6961.000000;2.295340
6960.000000;2.298260
6959.000000;2.300273
6958.000000;2.300275
6957.000000;2.298340
6956.000000;2.295649
6955.000000;2.294000
6954.000000;2.294172
6953.000000;2.294833
6952.000000;2.294094
6951.000000;2.292186
6950.000000;2.291466
6949.000000;2.293480
6948.000000;2.297055
6947.000000;2.299640
6946.000000;2.299769
6945.000000;2.297810
6944.000000;2.294981
6943.000000;2.292412
6942.000000;2.290842
6941.000000;2.290468
6940.000000;2.290879
6939.000000;2.291403
6938.000000;2.291697
6937.000000;2.291856
6936.000000;2.291985
6935.000000;2.291920
6934.000000;2.291449
6933.000000;2.290762
6932.000000;2.290453
6931.000000;2.290831
6930.000000;2.291316
6929.000000;2.291007
6928.000000;2.289933
6927.000000;2.289175
6926.000000;2.289538
6925.000000;2.290629
6924.000000;2.291584
6923.000000;2.292254
6922.000000;2.293126
6921.000000;2.294356
6920.000000;2.295391
6919.000000;2.295383
6918.000000;2.293782
6917.000000;2.291001
6916.000000;2.288709
6915.000000;2.288694
6914.000000;2.290737
6913.000000;2.292186
6912.000000;2.290622
6911.000000;2.286597
6910.000000;2.282717
6909.000000;2.280551
6908.000000;2.279747
6907.000000;2.279821
6906.000000;2.281201
6905.000000;2.284082
6904.000000;2.287417
6903.000000;2.289847
6902.000000;2.290986
6901.000000;2.291161
6900.000000;2.290572
6899.000000;2.289424
6898.000000;2.288314
6897.000000;2.287624
6896.000000;2.286806
6895.000000;2.285088
6894.000000;2.282814
6893.000000;2.281432
6892.000000;2.281964
6891.000000;2.283781
6890.000000;2.285107
6889.000000;2.284669
6888.000000;2.282738
6887.000000;2.280615
6886.000000;2.279226
6885.000000;2.278438
6884.000000;2.277807
6883.000000;2.277495
6882.000000;2.277979
6881.000000;2.279259
6880.000000;2.280863
6879.000000;2.282334
6878.000000;2.283446
6877.000000;2.284227
6876.000000;2.284898
6875.000000;2.285565
6874.000000;2.285718
6873.000000;2.284332
6872.000000;2.281016
6871.000000;2.276860
6870.000000;2.273515
6869.000000;2.271606
6868.000000;2.270637
6867.000000;2.270280
6866.000000;2.270916
6865.000000;2.272662
6864.000000;2.274575
6863.000000;2.275356
6862.000000;2.274552
6861.000000;2.272686
6860.000000;2.270538
6859.000000;2.268706
6858.000000;2.267657
6857.000000;2.267695
6856.000000;2.268694
6855.000000;2.269937
6854.000000;2.270327
6853.000000;2.269037
6852.000000;2.266366
6851.000000;2.263730
6850.000000;2.262377
6849.000000;2.262211
6848.000000;2.262197
6847.000000;2.261878
6846.000000;2.261935
6845.000000;2.262890
6844.000000;2.263886
6843.000000;2.263524
6842.000000;2.261729
6841.000000;2.260016
6840.000000;2.259692
6839.000000;2.260253
6838.000000;2.259857
6837.000000;2.257295
6836.000000;2.253293
6835.000000;2.249740
6834.000000;2.247737
6833.000000;2.246673
6832.000000;2.245317
6831.000000;2.243522
6830.000000;2.242453
6829.000000;2.243012
6828.000000;2.244449
6827.000000;2.244887
6826.000000;2.243084
6825.000000;2.239485
6824.000000;2.235671
6823.000000;2.233042
6822.000000;2.231930
6821.000000;2.231672
6820.000000;2.231456
6819.000000;2.231103
6818.000000;2.230907
6817.000000;2.230753
6816.000000;2.229830
6815.000000;2.227505
6814.000000;2.224223
6813.000000;2.221129
6812.000000;2.218977
6811.000000;2.217757
6810.000000;2.217179
6809.000000;2.216994
6808.000000;2.216910
6807.000000;2.216636
6806.000000;2.216088
6805.000000;2.215258
6804.000000;2.213848
6803.000000;2.211489
6802.000000;2.208493
6801.000000;2.205827
6800.000000;2.204003
6799.000000;2.202456
6798.000000;2.200416
6797.000000;2.198002
6796.000000;2.195818
6795.000000;2.193811
6794.000000;2.191462
6793.000000;2.188958
6792.000000;2.187253
6791.000000;2.186706
6790.000000;2.186366
6789.000000;2.185079
6788.000000;2.182789
6787.000000;2.180254
6786.000000;2.178041
6785.000000;2.176380
6784.000000;2.175397
6783.000000;2.174677
6782.000000;2.172981
6781.000000;2.169408
6780.000000;2.164795
6779.000000;2.161135
6778.000000;2.159516
6777.000000;2.159278
6776.000000;2.159103
6775.000000;2.158189
6774.000000;2.156264
6773.000000;2.153407
6772.000000;2.150307
6771.000000;2.147979
6770.000000;2.146644
6769.000000;2.145391
6768.000000;2.143369
6767.000000;2.140779
6766.000000;2.138232
6765.000000;2.135819
6764.000000;2.133497
6763.000000;2.131746
6762.000000;2.130904
6761.000000;2.130190
6760.000000;2.128421
6759.000000;2.125649
6758.000000;2.123117
6757.000000;2.121482
6756.000000;2.119987
6755.000000;2.117699
6754.000000;2.114799
6753.000000;2.112137
6752.000000;2.110036
6751.000000;2.108142
6750.000000;2.106146
6749.000000;2.104147
6748.000000;2.102359
6747.000000;2.100830
6746.000000;2.099470
6745.000000;2.098169
6744.000000;2.096863
6743.000000;2.095518
6742.000000;2.094032
6741.000000;2.092190
6740.000000;2.089861
6739.000000;2.087206
6738.000000;2.084530
6737.000000;2.081969
6736.000000;2.079463
6735.000000;2.076995
6734.000000;2.074644
6733.000000;2.072387
6732.000000;2.070059
6731.000000;2.067524
6730.000000;2.064721
6729.000000;2.061591
6728.000000;2.058263
6727.000000;2.055331
6726.000000;2.053543
6725.000000;2.053030
6724.000000;2.053055
6723.000000;2.052670
6722.000000;2.051460
6721.000000;2.049553
6720.000000;2.047141
6719.000000;2.044351
6718.000000;2.041474
6717.000000;2.038957
6716.000000;2.037093
6715.000000;2.035731
6714.000000;2.034394
6713.000000;2.032707
6712.000000;2.030694
6711.000000;2.028567
6710.000000;2.026553
6709.000000;2.024620
6708.000000;2.022685
6707.000000;2.020991
6706.000000;2.019628
6705.000000;2.018386
6704.000000;2.016884
6703.000000;2.014997
6702.000000;2.012854
6701.000000;2.010524
6700.000000;2.007948
6699.000000;2.005211
6698.000000;2.002609
6697.000000;2.000337
6696.000000;1.998254
6695.000000;1.996002
6694.000000;1.993266
6693.000000;1.990013
6692.000000;1.986694
6691.000000;1.984131
6690.000000;1.982861
6689.000000;1.982492
6688.000000;1.981950
6687.000000;1.980486
6686.000000;1.978188
6685.000000;1.975455
6684.000000;1.972467
6683.000000;1.969411
6682.000000;1.966814
6681.000000;1.965147
6680.000000;1.964169
6679.000000;1.963078
6678.000000;1.961371
6677.000000;1.959324
6676.000000;1.957518
6675.000000;1.956089
6674.000000;1.954585
6673.000000;1.952537
6672.000000;1.950060
6671.000000;1.947780
6670.000000;1.946121
6669.000000;1.944783
6668.000000;1.943139
6667.000000;1.941053
6666.000000;1.938973
6665.000000;1.937158
6664.000000;1.935217
6663.000000;1.932702
6662.000000;1.929859
6661.000000;1.927359
6660.000000;1.925388
6659.000000;1.923438
6658.000000;1.921044
6657.000000;1.918439
6656.000000;1.916324
6655.000000;1.915138
6654.000000;1.914641
6653.000000;1.914083
6652.000000;1.912719
6651.000000;1.910317
6650.000000;1.907286
6649.000000;1.904318
6648.000000;1.901881
6647.000000;1.900057
6646.000000;1.898689
6645.000000;1.897514
6644.000000;1.896184
6643.000000;1.894455
6642.000000;1.892436
6641.000000;1.890470
6640.000000;1.888642
6639.000000;1.886615
6638.000000;1.884096
6637.000000;1.881310
6636.000000;1.878791
6635.000000;1.876743
6634.000000;1.874909
6633.000000;1.873091
6632.000000;1.871548
6631.000000;1.870665
6630.000000;1.870361
6629.000000;1.870024
6628.000000;1.869036
6627.000000;1.867228
6626.000000;1.864848
6625.000000;1.862307
6624.000000;1.860003
6623.000000;1.858180
6622.000000;1.856756
6621.000000;1.855337
6620.000000;1.853560
6619.000000;1.851417
6618.000000;1.849135
6617.000000;1.846808
6616.000000;1.844322
6615.000000;1.841647
6614.000000;1.839025
6613.000000;1.836752
6612.000000;1.834867
6611.000000;1.833178
6610.000000;1.831565
6609.000000;1.830148
6608.000000;1.829078
6607.000000;1.828215
6606.000000;1.827140
6605.000000;1.825556
6604.000000;1.823598
6603.000000;1.821644
6602.000000;1.819854
6601.000000;1.818081
6600.000000;1.816254
6599.000000;1.814620
6598.000000;1.813423
6597.000000;1.812495
6596.000000;1.811383
6595.000000;1.809833
6594.000000;1.807961
6593.000000;1.806015
6592.000000;1.804191
6591.000000;1.802628
6590.000000;1.801296
6589.000000;1.799833
6588.000000;1.797799
6587.000000;1.795237
6586.000000;1.792760
6585.000000;1.790930
6584.000000;1.789718
6583.000000;1.788703
6582.000000;1.787583
6581.000000;1.786332
6580.000000;1.785021
6579.000000;1.783738
6578.000000;1.782593
6577.000000;1.781547
6576.000000;1.780277
6575.000000;1.778447
6574.000000;1.776141
6573.000000;1.773853
6572.000000;1.772001
6571.000000;1.770595
6570.000000;1.769359
6569.000000;1.768008
6568.000000;1.766381
6567.000000;1.764486
6566.000000;1.762521
6565.000000;1.760787
6564.000000;1.759466
6563.000000;1.758486
6562.000000;1.757597
6561.000000;1.756545
6560.000000;1.755192
6559.000000;1.753544
6558.000000;1.751695
6557.000000;1.749709
6556.000000;1.747606
6555.000000;1.745504
6554.000000;1.743684
6553.000000;1.742357
6552.000000;1.741378
6551.000000;1.740347
6550.000000;1.739056
6549.000000;1.737677
6548.000000;1.736431
6547.000000;1.735220
6546.000000;1.733743
6545.000000;1.731916
6544.000000;1.730014
6543.000000;1.728407
6542.000000;1.727240
6541.000000;1.726375
6540.000000;1.725525
6539.000000;1.724424
6538.000000;1.722999
6537.000000;1.721425
6536.000000;1.719967
6535.000000;1.718707
6534.000000;1.717467
6533.000000;1.716036
6532.000000;1.714419
6531.000000;1.712801
6530.000000;1.711301
6529.000000;1.709871
6528.000000;1.708422
6527.000000;1.706939
6526.000000;1.705446
6525.000000;1.703965
6524.000000;1.702564
6523.000000;1.701371
6522.000000;1.700444
6521.000000;1.699636
6520.000000;1.698672
6519.000000;1.697385
6518.000000;1.695830
6517.000000;1.694205
6516.000000;1.692697
6515.000000;1.691383
6514.000000;1.690223
6513.000000;1.689128
6512.000000;1.688046
6511.000000;1.686948
6510.000000;1.685753
6509.000000;1.684357
6508.000000;1.682815
6507.000000;1.681398
6506.000000;1.680309
6505.000000;1.679387
6504.000000;1.678243
6503.000000;1.676716
6502.000000;1.675065
6501.000000;1.673664
6500.000000;1.672631
6499.000000;1.671777
6498.000000;1.670801
6497.000000;1.669473
6496.000000;1.667788
6495.000000;1.666035
6494.000000;1.664633
6493.000000;1.663787
6492.000000;1.663325
6491.000000;1.662911
6490.000000;1.662312
6489.000000;1.661414
6488.000000;1.660127
6487.000000;1.658475
6486.000000;1.656710
6485.000000;1.655170
6484.000000;1.653981
6483.000000;1.652992
6482.000000;1.651993
6481.000000;1.650923
6480.000000;1.649869
6479.000000;1.648925
6478.000000;1.648082
6477.000000;1.647198
6476.000000;1.646101
6475.000000;1.644761
6474.000000;1.643327
6473.000000;1.641947
6472.000000;1.640606
6471.000000;1.639218
6470.000000;1.637811
6469.000000;1.636545
6468.000000;1.635565
6467.000000;1.634904
6466.000000;1.634454
6465.000000;1.633959
6464.000000;1.633123
6463.000000;1.631859
6462.000000;1.630405
6461.000000;1.629082
6460.000000;1.627973
6459.000000;1.626955
6458.000000;1.625933
6457.000000;1.624886
6456.000000;1.623741
6455.000000;1.622458
6454.000000;1.621233
6453.000000;1.620381
6452.000000;1.619921
6451.000000;1.619483
6450.000000;1.618731
6449.000000;1.617688
6448.000000;1.616520
6447.000000;1.615222
6446.000000;1.613721
6445.000000;1.612164
6444.000000;1.610850
6443.000000;1.609904
6442.000000;1.609188
6441.000000;1.608515
6440.000000;1.607765
6439.000000;1.606828
6438.000000;1.605627
6437.000000;1.604269
6436.000000;1.603021
6435.000000;1.602060
6434.000000;1.601323
6433.000000;1.600644
6432.000000;1.599945
6431.000000;1.599228
6430.000000;1.598473
6429.000000;1.597636
6428.000000;1.596719
6427.000000;1.595793
6426.000000;1.594946
6425.000000;1.594234
6424.000000;1.593631
6423.000000;1.593020
6422.000000;1.592271
6421.000000;1.591338
6420.000000;1.590260
6419.000000;1.589072
6418.000000;1.587803
6417.000000;1.586561
6416.000000;1.585508
6415.000000;1.584673
6414.000000;1.583856
6413.000000;1.582812
6412.000000;1.581524
6411.000000;1.580221
6410.000000;1.579144
6409.000000;1.578344
6408.000000;1.577703
6407.000000;1.577061
6406.000000;1.576333
6405.000000;1.575541
6404.000000;1.574778
6403.000000;1.574119
6402.000000;1.573572
6401.000000;1.573093
6400.000000;1.572610
6399.000000;1.572011
6398.000000;1.571186
6397.000000;1.570138
6396.000000;1.569021
6395.000000;1.567979
6394.000000;1.566990
6393.000000;1.565944
6392.000000;1.564864
6391.000000;1.563895
6390.000000;1.563070
6389.000000;1.562215
6388.000000;1.561181
6387.000000;1.560081
6386.000000;1.559180
6385.000000;1.558596
6384.000000;1.558196
6383.000000;1.557757
6382.000000;1.557155
6381.000000;1.556400
6380.000000;1.555570
6379.000000;1.554703
6378.000000;1.553739
6377.000000;1.552611
6376.000000;1.551439
6375.000000;1.550531
6374.000000;1.550084
6373.000000;1.549921
6372.000000;1.549649
6371.000000;1.549074
6370.000000;1.548318
6369.000000;1.547536
6368.000000;1.546689
6367.000000;1.545693
6366.000000;1.544654
6365.000000;1.543805
6364.000000;1.543230
6363.000000;1.542784
6362.000000;1.542264
6361.000000;1.541572
6360.000000;1.540729
6359.000000;1.539798
6358.000000;1.538860
6357.000000;1.538012
6356.000000;1.537328
6355.000000;1.536800
6354.000000;1.536307
6353.000000;1.535688
6352.000000;1.534883
6351.000000;1.534012
6350.000000;1.533275
6349.000000;1.532783
6348.000000;1.532486
6347.000000;1.532245
6346.000000;1.531924
6345.000000;1.531416
6344.000000;1.530672
6343.000000;1.529760
6342.000000;1.528828
6341.000000;1.527985
6340.000000;1.527236
6339.000000;1.526569
6338.000000;1.526022
6337.000000;1.525612
6336.000000;1.525236
6335.000000;1.524735
6334.000000;1.524039
6333.000000;1.523205
6332.000000;1.522324
6331.000000;1.521469
6330.000000;1.520716
6329.000000;1.520139
6328.000000;1.519743
6327.000000;1.519439
6326.000000;1.519099
6325.000000;1.518630
6324.000000;1.517988
6323.000000;1.517186
6322.000000;1.516300
6321.000000;1.515455
6320.000000;1.514766
6319.000000;1.514252
6318.000000;1.513817
6317.000000;1.513319
6316.000000;1.512684
6315.000000;1.511957
6314.000000;1.511219
6313.000000;1.510481
6312.000000;1.509722
6311.000000;1.509018
6310.000000;1.508550
6309.000000;1.508394
6308.000000;1.508374
6307.000000;1.508201
6306.000000;1.507724
6305.000000;1.507003
6304.000000;1.506167
6303.000000;1.505312
6302.000000;1.504523
6301.000000;1.503879
6300.000000;1.503374
6299.000000;1.502898
6298.000000;1.502356
6297.000000;1.501757
6296.000000;1.501148
6295.000000;1.500533
6294.000000;1.499915
6293.000000;1.499367
6292.000000;1.498982
6291.000000;1.498734
6290.000000;1.498465
6289.000000;1.498031
6288.000000;1.497410
6287.000000;1.496659
6286.000000;1.495838
6285.000000;1.495005
6284.000000;1.494253
6283.000000;1.493663
6282.000000;1.493230
6281.000000;1.492863
6280.000000;1.492487
6279.000000;1.492069
6278.000000;1.491574
6277.000000;1.490962
6276.000000;1.490281
6275.000000;1.489687
6274.000000;1.489284
6273.000000;1.488968
6272.000000;1.488534
6271.000000;1.487914
6270.000000;1.487241
6269.000000;1.486653
6268.000000;1.486154
6267.000000;1.485696
6266.000000;1.485291
6265.000000;1.484957
6264.000000;1.484618
6263.000000;1.484157
6262.000000;1.483568
6261.000000;1.482978
6260.000000;1.482499
6259.000000;1.482137
6258.000000;1.481836
6257.000000;1.481560
6256.000000;1.481310
6255.000000;1.481087
6254.000000;1.480854
6253.000000;1.480551
6252.000000;1.480128
6251.000000;1.479599
6250.000000;1.479019
6249.000000;1.478415
6248.000000;1.477746
6247.000000;1.476998
6246.000000;1.476262
6245.000000;1.475687
6244.000000;1.475329
6243.000000;1.475097
6242.000000;1.474852
6241.000000;1.474526
6240.000000;1.474145
6239.000000;1.473765
6238.000000;1.473414
6237.000000;1.473078
6236.000000;1.472718
6235.000000;1.472292
6234.000000;1.471786
6233.000000;1.471221
6232.000000;1.470634
6231.000000;1.470074
6230.000000;1.469592
6229.000000;1.469227
6228.000000;1.468984
6227.000000;1.468813
6226.000000;1.468621
6225.000000;1.468321
6224.000000;1.467877
6223.000000;1.467329
6222.000000;1.466749
6221.000000;1.466188
6220.000000;1.465663
6219.000000;1.465172
6218.000000;1.464703
6217.000000;1.464241
6216.000000;1.463782
6215.000000;1.463338
6214.000000;1.462897
6213.000000;1.462422
6212.000000;1.461926
6211.000000;1.461514
6210.000000;1.461293
6209.000000;1.461228
6208.000000;1.461155
6207.000000;1.460949
6206.000000;1.460607
6205.000000;1.460177
6204.000000;1.459697
6203.000000;1.459237
6202.000000;1.458894
6201.000000;1.458645
6200.000000;1.458302
6199.000000;1.457717
6198.000000;1.456990
6197.000000;1.456376
6196.000000;1.456007
6195.000000;1.455776
6194.000000;1.455499
6193.000000;1.455108
6192.000000;1.454667
6191.000000;1.454287
6190.000000;1.454004
6189.000000;1.453734
6188.000000;1.453331
6187.000000;1.452764
6186.000000;1.452204
6185.000000;1.451872
6184.000000;1.451800
6183.000000;1.451808
6182.000000;1.451703
6181.000000;1.451451
6180.000000;1.451137
6179.000000;1.450825
6178.000000;1.450484
6177.000000;1.450024
6176.000000;1.449399
6175.000000;1.448705
6174.000000;1.448154
6173.000000;1.447902
6172.000000;1.447889
6171.000000;1.447907
6170.000000;1.447790
6169.000000;1.447499
6168.000000;1.447061
6167.000000;1.446535
6166.000000;1.446047
6165.000000;1.445733
6164.000000;1.445597
6163.000000;1.445484
6162.000000;1.445238
6161.000000;1.444849
6160.000000;1.444398
6159.000000;1.443946
6158.000000;1.443513
6157.000000;1.443113
6156.000000;1.442737
6155.000000;1.442356
6154.000000;1.441986
6153.000000;1.441715
6152.000000;1.441597
6151.000000;1.441556
6150.000000;1.441466
6149.000000;1.441285
6148.000000;1.441041
6147.000000;1.440731
6146.000000;1.440313
6145.000000;1.439819
6144.000000;1.439387
6143.000000;1.439133
6142.000000;1.439027
6141.000000;1.438937
6140.000000;1.438767
6139.000000;1.438533
6138.000000;1.438301
6137.000000;1.438079
6136.000000;1.437815
6135.000000;1.437492
6134.000000;1.437194
6133.000000;1.437036
6132.000000;1.437025
6131.000000;1.437020
6130.000000;1.436853
6129.000000;1.436472
6128.000000;1.435959
6127.000000;1.435436
6126.000000;1.434982
6125.000000;1.434614
6124.000000;1.434309
6123.000000;1.434038
6122.000000;1.433787
6121.000000;1.433548
6120.000000;1.433301
6119.000000;1.433039
6118.000000;1.432798
6117.000000;1.432623
6116.000000;1.432481
6115.000000;1.432263
6114.000000;1.431909
6113.000000;1.431499
6112.000000;1.431162
6111.000000;1.430917
6110.000000;1.430661
6109.000000;1.430318
6108.000000;1.429935
6107.000000;1.429618
6106.000000;1.429423
6105.000000;1.429341
6104.000000;1.429319
6103.000000;1.429285
6102.000000;1.429161
6101.000000;1.428926
6100.000000;1.428663
6099.000000;1.428501
6098.000000;1.428487
6097.000000;1.428523
6096.000000;1.428437
6095.000000;1.428128
6094.000000;1.427650
6093.000000;1.427169
6092.000000;1.426829
6091.000000;1.426638
6090.000000;1.426473
6089.000000;1.426204
6088.000000;1.425815
6087.000000;1.425393
6086.000000;1.425013
6085.000000;1.424679
6084.000000;1.424364
6083.000000;1.424075
6082.000000;1.423847
6081.000000;1.423696
6080.000000;1.423609
6079.000000;1.423550
6078.000000;1.423454
6077.000000;1.423251
6076.000000;1.422939
6075.000000;1.422631
6074.000000;1.422467
6073.000000;1.422441
6072.000000;1.422377
6071.000000;1.422100
6070.000000;1.421618
6069.000000;1.421104
6068.000000;1.420725
6067.000000;1.420523
6066.000000;1.420427
6065.000000;1.420346
6064.000000;1.420236
6063.000000;1.420117
6062.000000;1.420042
6061.000000;1.420036
6060.000000;1.420067
6059.000000;1.420069
6058.000000;1.419998
6057.000000;1.419850
6056.000000;1.419636
6055.000000;1.419357
6054.000000;1.419002
6053.000000;1.418579
6052.000000;1.418153
6051.000000;1.417829
6050.000000;1.417679
6049.000000;1.417664
6048.000000;1.417662
6047.000000;1.417601
6046.000000;1.417508
6045.000000;1.417437
6044.000000;1.417375
6043.000000;1.417274
6042.000000;1.417133
6041.000000;1.417007
6040.000000;1.416919
6039.000000;1.416834
6038.000000;1.416703
6037.000000;1.416499
6036.000000;1.416223
6035.000000;1.415899
6034.000000;1.415579
6033.000000;1.415300
6032.000000;1.415044
6031.000000;1.414767
6030.000000;1.414490
6029.000000;1.414306
6028.000000;1.414275
6027.000000;1.414359
6026.000000;1.414454
6025.000000;1.414479
6024.000000;1.414418
6023.000000;1.414316
6022.000000;1.414259
6021.000000;1.414299
6020.000000;1.414379
6019.000000;1.414361
6018.000000;1.414152
6017.000000;1.413804
6016.000000;1.413448
6015.000000;1.413182
6014.000000;1.413021
6013.000000;1.412938
6012.000000;1.412882
6011.000000;1.412789
6010.000000;1.412626
6009.000000;1.412443
6008.000000;1.412337
6007.000000;1.412343
6006.000000;1.412391
6005.000000;1.412384
6004.000000;1.412285
6003.000000;1.412128
6002.000000;1.411957
6001.000000;1.411785
6000.000000;1.411610
5999.000000;1.411447
5998.000000;1.411329
5997.000000;1.411282
5996.000000;1.411287
5995.000000;1.411280
5994.000000;1.411198
5993.000000;1.411043
5992.000000;1.410881
5991.000000;1.410781
5990.000000;1.410758
5989.000000;1.410783
5988.000000;1.410831
5987.000000;1.410872
5986.000000;1.410861
5985.000000;1.410756
5984.000000;1.410578
5983.000000;1.410400
5982.000000;1.410266
5981.000000;1.410150
5980.000000;1.410027
5979.000000;1.409952
5978.000000;1.410009
5977.000000;1.410190
5976.000000;1.410375
5975.000000;1.410444
5974.000000;1.410391
5973.000000;1.410289
5972.000000;1.410183
5971.000000;1.410055
5970.000000;1.409891
5969.000000;1.409744
5968.000000;1.409690
5967.000000;1.409746
5966.000000;1.409836
5965.000000;1.409853
5964.000000;1.409763
5963.000000;1.409627
5962.000000;1.409523
5961.000000;1.409465
5960.000000;1.409403
5959.000000;1.409309
5958.000000;1.409214
5957.000000;1.409156
5956.000000;1.409130
5955.000000;1.409122
5954.000000;1.409175
5953.000000;1.409345
5952.000000;1.409582
5951.000000;1.409704
5950.000000;1.409569
5949.000000;1.409260
5948.000000;1.409036
5947.000000;1.409072
5946.000000;1.409290
5945.000000;1.409455
5944.000000;1.409420
5943.000000;1.409218
5942.000000;1.408968
5941.000000;1.408769
5940.000000;1.408675
5939.000000;1.408701
5938.000000;1.408791
5937.000000;1.408850
5936.000000;1.408849
5935.000000;1.408879
5934.000000;1.409036
5933.000000;1.409280
5932.000000;1.409462
5931.000000;1.409478
5930.000000;1.409353
5929.000000;1.409193
5928.000000;1.409091
5927.000000;1.409085
5926.000000;1.409151
5925.000000;1.409209
5924.000000;1.409182
5923.000000;1.409058
5922.000000;1.408903
5921.000000;1.408825
5920.000000;1.408927
5919.000000;1.409259
5918.000000;1.409739
5917.000000;1.410160
5916.000000;1.410348
5915.000000;1.410324
5914.000000;1.410253
5913.000000;1.410236
5912.000000;1.410224
5911.000000;1.410141
5910.000000;1.410009
5909.000000;1.409900
5908.000000;1.409851
5907.000000;1.409882
5906.000000;1.410036
5905.000000;1.410328
5904.000000;1.410670
5903.000000;1.410904
5902.000000;1.410925
5901.000000;1.410753
5900.000000;1.410500
5899.000000;1.410292
5898.000000;1.410204
5897.000000;1.410232
5896.000000;1.410337
5895.000000;1.410515
5894.000000;1.410775
5893.000000;1.411048
5892.000000;1.411186
5891.000000;1.411099
5890.000000;1.410869
5889.000000;1.410675
5888.000000;1.410638
5887.000000;1.410754
5886.000000;1.410935
5885.000000;1.411090
5884.000000;1.411187
5883.000000;1.411301
5882.000000;1.411561
5881.000000;1.411996
5880.000000;1.412460
5879.000000;1.412756
5878.000000;1.412826
5877.000000;1.412776
5876.000000;1.412724
5875.000000;1.412699
5874.000000;1.412660
5873.000000;1.412573
5872.000000;1.412449
5871.000000;1.412356
5870.000000;1.412396
5869.000000;1.412641
5868.000000;1.413053
5867.000000;1.413502
5866.000000;1.413853
5865.000000;1.414054
5864.000000;1.414134
5863.000000;1.414164
5862.000000;1.414209
5861.000000;1.414288
5860.000000;1.414383
5859.000000;1.414481
5858.000000;1.414604
5857.000000;1.414776
5856.000000;1.414974
5855.000000;1.415149
5854.000000;1.415271
5853.000000;1.415342
5852.000000;1.415392
5851.000000;1.415467
5850.000000;1.415618
5849.000000;1.415854
5848.000000;1.416146
5847.000000;1.416480
5846.000000;1.416888
5845.000000;1.417386
5844.000000;1.417906
5843.000000;1.418333
5842.000000;1.418610
5841.000000;1.418773
5840.000000;1.418894
5839.000000;1.419018
5838.000000;1.419140
5837.000000;1.419224
5836.000000;1.419251
5835.000000;1.419277
5834.000000;1.419405
5833.000000;1.419665
5832.000000;1.419949
5831.000000;1.420125
5830.000000;1.420191
5829.000000;1.420281
5828.000000;1.420520
5827.000000;1.420915
5826.000000;1.421384
5825.000000;1.421819
5824.000000;1.422147
5823.000000;1.422367
5822.000000;1.422551
5821.000000;1.422779
5820.000000;1.423063
5819.000000;1.423375
5818.000000;1.423711
5817.000000;1.424095
5816.000000;1.424508
5815.000000;1.424887
5814.000000;1.425203
5813.000000;1.425480
5812.000000;1.425749
5811.000000;1.426014
5810.000000;1.426291
5809.000000;1.426607
5808.000000;1.426958
5807.000000;1.427298
5806.000000;1.427596
5805.000000;1.427878
5804.000000;1.428183
5803.000000;1.428522
5802.000000;1.428894
5801.000000;1.429316
5800.000000;1.429806
5799.000000;1.430351
5798.000000;1.430910
5797.000000;1.431430
5796.000000;1.431846
5795.000000;1.432112
5794.000000;1.432257
5793.000000;1.432383
5792.000000;1.432600
5791.000000;1.432954
5790.000000;1.433420
5789.000000;1.433928
5788.000000;1.434398
5787.000000;1.434775
5786.000000;1.435068
5785.000000;1.435340
5784.000000;1.435631
5783.000000;1.435934
5782.000000;1.436239
5781.000000;1.436586
5780.000000;1.437012
5779.000000;1.437493
5778.000000;1.437972
5777.000000;1.438445
5776.000000;1.438971
5775.000000;1.439583
5774.000000;1.440223
5773.000000;1.440794
5772.000000;1.441236
5771.000000;1.441555
5770.000000;1.441793
5769.000000;1.442020
5768.000000;1.442321
5767.000000;1.442753
5766.000000;1.443285
5765.000000;1.443836
5764.000000;1.444367
5763.000000;1.444919
5762.000000;1.445518
5761.000000;1.446093
5760.000000;1.446527
5759.000000;1.446779
5758.000000;1.446927
5757.000000;1.447110
5756.000000;1.447446
5755.000000;1.448000
5754.000000;1.448757
5753.000000;1.449613
5752.000000;1.450433
5751.000000;1.451149
5750.000000;1.451772
5749.000000;1.452330
5748.000000;1.452845
5747.000000;1.453377
5746.000000;1.454000
5745.000000;1.454693
5744.000000;1.455312
5743.000000;1.455764
5742.000000;1.456153
5741.000000;1.456674
5740.000000;1.457351
5739.000000;1.457996
5738.000000;1.458435
5737.000000;1.458710
5736.000000;1.459011
5735.000000;1.459465
5734.000000;1.460053
5733.000000;1.460705
5732.000000;1.461393
5731.000000;1.462114
5730.000000;1.462837
5729.000000;1.463515
5728.000000;1.464126
5727.000000;1.464691
5726.000000;1.465237
5725.000000;1.465796
5724.000000;1.466431
5723.000000;1.467218
5722.000000;1.468174
5721.000000;1.469203
5720.000000;1.470156
5719.000000;1.470933
5718.000000;1.471540
5717.000000;1.472066
5716.000000;1.472625
5715.000000;1.473283
5714.000000;1.473996
5713.000000;1.474647
5712.000000;1.475172
5711.000000;1.475641
5710.000000;1.476178
5709.000000;1.476821
5708.000000;1.477508
5707.000000;1.478208
5706.000000;1.478956
5705.000000;1.479790
5704.000000;1.480650
5703.000000;1.481464
5702.000000;1.482201
5701.000000;1.482822
5700.000000;1.483347
5699.000000;1.483852
5698.000000;1.484468
5697.000000;1.485247
5696.000000;1.486118
5695.000000;1.486992
5694.000000;1.487886
5693.000000;1.488865
5692.000000;1.489891
5691.000000;1.490799
5690.000000;1.491465
5689.000000;1.491949
5688.000000;1.492455
5687.000000;1.493163
5686.000000;1.494082
5685.000000;1.495065
5684.000000;1.495957
5683.000000;1.496716
5682.000000;1.497402
5681.000000;1.498082
5680.000000;1.498782
5679.000000;1.499523
5678.000000;1.500327
5677.000000;1.501183
5676.000000;1.502035
5675.000000;1.502840
5674.000000;1.503579
5673.000000;1.504241
5672.000000;1.504839
5671.000000;1.505460
5670.000000;1.506198
5669.000000;1.507034
5668.000000;1.507837
5667.000000;1.508530
5666.000000;1.509169
5665.000000;1.509832
5664.000000;1.510502
5663.000000;1.511132
5662.000000;1.511742
5661.000000;1.512370
5660.000000;1.512989
5659.000000;1.513564
5658.000000;1.514156
5657.000000;1.514877
5656.000000;1.515734
5655.000000;1.516599
5654.000000;1.517346
5653.000000;1.517973
5652.000000;1.518593
5651.000000;1.519332
5650.000000;1.520232
5649.000000;1.521210
5648.000000;1.522127
5647.000000;1.522911
5646.000000;1.523588
5645.000000;1.524202
5644.000000;1.524755
5643.000000;1.525285
5642.000000;1.525893
5641.000000;1.526624
5640.000000;1.527353
5639.000000;1.527901
5638.000000;1.528247
5637.000000;1.528543
5636.000000;1.528937
5635.000000;1.529457
5634.000000;1.530061
5633.000000;1.530707
5632.000000;1.531354
5631.000000;1.531954
5630.000000;1.532479
5629.000000;1.532932
5628.000000;1.533322
5627.000000;1.533671
5626.000000;1.534026
5625.000000;1.534424
5624.000000;1.534846
5623.000000;1.535248
5622.000000;1.535637
5621.000000;1.536061
5620.000000;1.536563
5619.000000;1.537167
5618.000000;1.537899
5617.000000;1.538724
5616.000000;1.539469
5615.000000;1.539917
5614.000000;1.540003
5613.000000;1.539905
5612.000000;1.539896
5611.000000;1.540131
5610.000000;1.540557
5609.000000;1.540989
5608.000000;1.541278
5607.000000;1.541464
5606.000000;1.541751
5605.000000;1.542284
5604.000000;1.542993
5603.000000;1.543685
5602.000000;1.544251
5601.000000;1.544716
5600.000000;1.545106
5599.000000;1.545395
5598.000000;1.545580
5597.000000;1.545717
5596.000000;1.545863
5595.000000;1.546031
5594.000000;1.546235
5593.000000;1.546484
5592.000000;1.546729
5591.000000;1.546887
5590.000000;1.546970
5589.000000;1.547089
5588.000000;1.547309
5587.000000;1.547560
5586.000000;1.547749
5585.000000;1.547899
5584.000000;1.548111
5583.000000;1.548419
5582.000000;1.548756
5581.000000;1.549060
5580.000000;1.549345
5579.000000;1.549638
5578.000000;1.549891
5577.000000;1.549997
5576.000000;1.549926
5575.000000;1.549803
5574.000000;1.549802
5573.000000;1.549961
5572.000000;1.550148
5571.000000;1.550249
5570.000000;1.550316
5569.000000;1.550457
5568.000000;1.550636
5567.000000;1.550706
5566.000000;1.550645
5565.000000;1.550624
5564.000000;1.550805
5563.000000;1.551154
5562.000000;1.551510
5561.000000;1.551758
5560.000000;1.551870
5559.000000;1.551825
5558.000000;1.551592
5557.000000;1.551199
5556.000000;1.550781
5555.000000;1.550484
5554.000000;1.550349
5553.000000;1.550301
5552.000000;1.550266
5551.000000;1.550267
5550.000000;1.550376
5549.000000;1.550603
5548.000000;1.550845
5547.000000;1.550986
5546.000000;1.551007
5545.000000;1.550974
5544.000000;1.550928
5543.000000;1.550826
5542.000000;1.550603
5541.000000;1.550255
5540.000000;1.549861
5539.000000;1.549531
5538.000000;1.549360
5537.000000;1.549410
5536.000000;1.549665
5535.000000;1.550014
5534.000000;1.550305
5533.000000;1.550464
5532.000000;1.550526
5531.000000;1.550545
5530.000000;1.550539
5529.000000;1.550512
5528.000000;1.550490
5527.000000;1.550479
5526.000000;1.550410
5525.000000;1.550175
5524.000000;1.549743
5523.000000;1.549209
5522.000000;1.548753
5521.000000;1.548562
5520.000000;1.548708
5519.000000;1.549036
5518.000000;1.549234
5517.000000;1.549139
5516.000000;1.548966
5515.000000;1.549061
5514.000000;1.549393
5513.000000;1.549515
5512.000000;1.549127
5511.000000;1.548460
5510.000000;1.547959
5509.000000;1.547765
5508.000000;1.547745
5507.000000;1.547919
5506.000000;1.548455
5505.000000;1.549233
5504.000000;1.549775
5503.000000;1.549695
5502.000000;1.549076
5501.000000;1.548278
5500.000000;1.547434
5499.000000;1.546414
5498.000000;1.545250
5497.000000;1.544306
5496.000000;1.543892
5495.000000;1.543860
5494.000000;1.543876
5493.000000;1.544004
5492.000000;1.544720
5491.000000;1.546205
5490.000000;1.547993
5489.000000;1.549512
5488.000000;1.550701
5487.000000;1.551845
5486.000000;1.552896
5485.000000;1.553309
5484.000000;1.552751
5483.000000;1.551532
5482.000000;1.550124
5481.000000;1.548675
5480.000000;1.547262
5479.000000;1.546262
5478.000000;1.545933
5477.000000;1.545928
5476.000000;1.545859
5475.000000;1.546145
5474.000000;1.547494
5473.000000;1.549635
5472.000000;1.551413
5471.000000;1.552008
5470.000000;1.551579
5469.000000;1.550856
5468.000000;1.550388
5467.000000;1.550293
5466.000000;1.550466
5465.000000;1.550785
5464.000000;1.551255
5463.000000;1.552003
5462.000000;1.553059
5461.000000;1.554303
5460.000000;1.555646
5459.000000;1.557090
5458.000000;1.558543
5457.000000;1.559705
5456.000000;1.560202
5455.000000;1.559918
5454.000000;1.559133
5453.000000;1.558165
5452.000000;1.556970
5451.000000;1.555259
5450.000000;1.553216
5449.000000;1.551770
5448.000000;1.551657
5447.000000;1.552561
5446.000000;1.553685
5445.000000;1.554830
5444.000000;1.556335
5443.000000;1.558222
5442.000000;1.560012
5441.000000;1.561405
5440.000000;1.562618
5439.000000;1.563785
5438.000000;1.564568
5437.000000;1.564678
5436.000000;1.564323
5435.000000;1.564158
5434.000000;1.564907
5433.000000;1.566811
5432.000000;1.569417
5431.000000;1.571970
5430.000000;1.574122
5429.000000;1.576448
5428.000000;1.579893
5427.000000;1.584547
5426.000000;1.589343
5425.000000;1.592929
5424.000000;1.594584
5423.000000;1.594596
5422.000000;1.593872
5421.000000;1.592938
5420.000000;1.591532
5419.000000;1.589378
5418.000000;1.587064
5417.000000;1.585663
5416.000000;1.585546
5415.000000;1.586359
5414.000000;1.588204
5413.000000;1.591849
5412.000000;1.597389
5411.000000;1.603644
5410.000000;1.609363
5409.000000;1.614314
5408.000000;1.618846
5407.000000;1.622976
5406.000000;1.626339
5405.000000;1.628819
5404.000000;1.630591
5403.000000;1.631747
5402.000000;1.632497
5401.000000;1.633261
5400.000000;1.634268
5399.000000;1.635429
5398.000000;1.636827
5397.000000;1.638932
5396.000000;1.641905
5395.000000;1.645260
5394.000000;1.648656
5393.000000;1.652411
5392.000000;1.656821
5391.000000;1.661504
5390.000000;1.665998
5389.000000;1.670396
5388.000000;1.674876
5387.000000;1.679060
5386.000000;1.682600
5385.000000;1.686031
5384.000000;1.689972
5383.000000;1.694004
5382.000000;1.697381
5381.000000;1.700429
5380.000000;1.704282
5379.000000;1.709369
5378.000000;1.715135
5377.000000;1.721347
5376.000000;1.728533
5375.000000;1.736810
5374.000000;1.745313
5373.000000;1.753150
5372.000000;1.760196
5371.000000;1.766703
5370.000000;1.772767
5369.000000;1.778471
5368.000000;1.784224
5367.000000;1.790472
5366.000000;1.797284
5365.000000;1.804470
5364.000000;1.811772
5363.000000;1.818927
5362.000000;1.825780
5361.000000;1.832404
5360.000000;1.838910
5359.000000;1.845225
5358.000000;1.851429
5357.000000;1.858100
5356.000000;1.865717
5355.000000;1.873879
5354.000000;1.881909
5353.000000;1.890144
5352.000000;1.899603
5351.000000;1.910382
5350.000000;1.921319
5349.000000;1.931345
5348.000000;1.940555
5347.000000;1.949748
5346.000000;1.959445
5345.000000;1.970021
5344.000000;1.982159
5343.000000;1.996053
5342.000000;2.010643
5341.000000;2.024696
5340.000000;2.038177
5339.000000;2.052181
5338.000000;2.067748
5337.000000;2.084690
5336.000000;2.101877
5335.000000;2.118338
5334.000000;2.133684
5333.000000;2.148069
5332.000000;2.162386
5331.000000;2.177992
5330.000000;2.195442
5329.000000;2.213673
5328.000000;2.231155
5327.000000;2.247890
5326.000000;2.265252
5325.000000;2.283735
5324.000000;2.302071
5323.000000;2.318919
5322.000000;2.334486
5321.000000;2.349907
5320.000000;2.365660
5319.000000;2.381303
5318.000000;2.396410
5317.000000;2.410981
5316.000000;2.425231
5315.000000;2.439524
5314.000000;2.454245
5313.000000;2.469370
5312.000000;2.484367
5311.000000;2.498782
5310.000000;2.512525
5309.000000;2.525413
5308.000000;2.537171
5307.000000;2.548280
5306.000000;2.559918
5305.000000;2.572294
5304.000000;2.583981
5303.000000;2.593763
5302.000000;2.602302
5301.000000;2.610965
5300.000000;2.619618
5299.000000;2.626831
5298.000000;2.631872
5297.000000;2.635307
5296.000000;2.638062
5295.000000;2.641093
5294.000000;2.645667
5293.000000;2.652388
5292.000000;2.659774
5291.000000;2.665295
5290.000000;2.668057
5289.000000;2.669376
5288.000000;2.670643
5287.000000;2.671976
5286.000000;2.673228
5285.000000;2.674849
5284.000000;2.677046
5283.000000;2.679054
5282.000000;2.680221
5281.000000;2.681243
5280.000000;2.683360
5279.000000;2.686583
5278.000000;2.689316
5277.000000;2.689764
5276.000000;2.687516
5275.000000;2.683745
5274.000000;2.679958
5273.000000;2.676848
5272.000000;2.674183
5271.000000;2.671413
5270.000000;2.668373
5269.000000;2.665516
5268.000000;2.663644
5267.000000;2.663259
5266.000000;2.664004
5265.000000;2.664840
5264.000000;2.665194
5263.000000;2.665808
5262.000000;2.667941
5261.000000;2.671718
5260.000000;2.675684
5259.000000;2.678217
5258.000000;2.679060
5257.000000;2.679336
5256.000000;2.680115
5255.000000;2.681263
5254.000000;2.681549
5253.000000;2.680027
5252.000000;2.677313
5251.000000;2.674955
5250.000000;2.673656
5249.000000;2.672686
5248.000000;2.671187
5247.000000;2.669569
5246.000000;2.669206
5245.000000;2.671079
5244.000000;2.675261
5243.000000;2.681182
5242.000000;2.687395
5241.000000;2.691661
5240.000000;2.692471
5239.000000;2.690674
5238.000000;2.688991
5237.000000;2.689647
5236.000000;2.692449
5235.000000;2.695109
5234.000000;2.695336
5233.000000;2.692693
5232.000000;2.688581
5231.000000;2.684693
5230.000000;2.681739
5229.000000;2.679595
5228.000000;2.678172
5227.000000;2.677691
5226.000000;2.678304
5225.000000;2.679962
5224.000000;2.682630
5223.000000;2.686099
5222.000000;2.689390
5221.000000;2.690828
5220.000000;2.689524
5219.000000;2.686678
5218.000000;2.684664
5217.000000;2.684654
5216.000000;2.685450
5215.000000;2.684805
5214.000000;2.681721
5213.000000;2.677312
5212.000000;2.673663
5211.000000;2.672049
5210.000000;2.672092
5209.000000;2.672440
5208.000000;2.672346
5207.000000;2.672609
5206.000000;2.674566
5205.000000;2.678212
5204.000000;2.682058
5203.000000;2.684866
5202.000000;2.686728
5201.000000;2.688400
5200.000000;2.690074
5199.000000;2.690834
5198.000000;2.689449
5197.000000;2.686118
5196.000000;2.683138
5195.000000;2.683065
5194.000000;2.686015
5193.000000;2.689220
5192.000000;2.689676
5191.000000;2.687026
5190.000000;2.683306
5189.000000;2.680396
5188.000000;2.678789
5187.000000;2.678429
5186.000000;2.679445
5185.000000;2.681716
5184.000000;2.684555
5183.000000;2.687322
5182.000000;2.689862
5181.000000;2.691891
5180.000000;2.692544
5179.000000;2.691244
5178.000000;2.688718
5177.000000;2.686474
5176.000000;2.685377
5175.000000;2.685127
5174.000000;2.685014
5173.000000;2.684742
5172.000000;2.684431
5171.000000;2.684177
5170.000000;2.684025
5169.000000;2.684313
5168.000000;2.685502
5167.000000;2.687258
5166.000000;2.688129
5165.000000;2.686878
5164.000000;2.684165
5163.000000;2.682122
5162.000000;2.682005
5161.000000;2.682962
5160.000000;2.683519
5159.000000;2.683443
5158.000000;2.683391
5157.000000;2.683591
5156.000000;2.683833
5155.000000;2.684224
5154.000000;2.684894
5153.000000;2.685280
5152.000000;2.684851
5151.000000;2.684455
5150.000000;2.685617
5149.000000;2.688364
5148.000000;2.690946
5147.000000;2.691926
5146.000000;2.691364
5145.000000;2.689697
5144.000000;2.686854
5143.000000;2.683160
5142.000000;2.680009
5141.000000;2.678713
5140.000000;2.679327
5139.000000;2.681236
5138.000000;2.684038
5137.000000;2.686923
5136.000000;2.688016
5135.000000;2.685918
5134.000000;2.681904
5133.000000;2.679139
5132.000000;2.679382
5131.000000;2.681269
5130.000000;2.682119
5129.000000;2.680870
5128.000000;2.678792
5127.000000;2.677752
5126.000000;2.678478
5125.000000;2.680375
5124.000000;2.682430
5123.000000;2.684038
5122.000000;2.685202
5121.000000;2.686226
5120.000000;2.687238
5119.000000;2.688065
5118.000000;2.688600
5117.000000;2.689191
5116.000000;2.690375
5115.000000;2.691942
5114.000000;2.692653
5113.000000;2.691473
5112.000000;2.688851
5111.000000;2.686319
5110.000000;2.684782
5109.000000;2.683860
5108.000000;2.683030
5107.000000;2.682631
5106.000000;2.683444
5105.000000;2.685689
5104.000000;2.688729
5103.000000;2.691447
5102.000000;2.692751
5101.000000;2.692207
5100.000000;2.690520
5099.000000;2.688928
5098.000000;2.687698
5097.000000;2.685748
5096.000000;2.682359
5095.000000;2.678810
5094.000000;2.677422
5093.000000;2.679208
5092.000000;2.683038
5091.000000;2.686724
5090.000000;2.688406
5089.000000;2.687369
5088.000000;2.684596
5087.000000;2.682509
5086.000000;2.683076
5085.000000;2.685846
5084.000000;2.688387
5083.000000;2.688838
5082.000000;2.687454
5081.000000;2.685496
5080.000000;2.683658
5079.000000;2.682048
5078.000000;2.680785
5077.000000;2.679941
5076.000000;2.679289
5075.000000;2.678508
5074.000000;2.677322
5073.000000;2.675442
5072.000000;2.673069
5071.000000;2.671567
5070.000000;2.672617
5069.000000;2.676146
5068.000000;2.679833
5067.000000;2.681414
5066.000000;2.680979
5065.000000;2.680048
5064.000000;2.679086
5063.000000;2.677232
5062.000000;2.674224
5061.000000;2.671338
5060.000000;2.670168
5059.000000;2.671243
5058.000000;2.673876
5057.000000;2.676702
5056.000000;2.678309
5055.000000;2.678164
5054.000000;2.677229
5053.000000;2.676940
5052.000000;2.677292
5051.000000;2.676705
5050.000000;2.674250
5049.000000;2.671181
5048.000000;2.669405
5047.000000;2.669188
5046.000000;2.669429
5045.000000;2.669783
5044.000000;2.671228
5043.000000;2.674142
5042.000000;2.676885
5041.000000;2.677262
5040.000000;2.674995
5039.000000;2.671963
5038.000000;2.670200
5037.000000;2.670357
5036.000000;2.671889
5035.000000;2.673828
5034.000000;2.675174
5033.000000;2.675087
5032.000000;2.673337
5031.000000;2.670674
5030.000000;2.668550
5029.000000;2.668122
5028.000000;2.669171
5027.000000;2.669918
5026.000000;2.668377
5025.000000;2.664307
5024.000000;2.659511
5023.000000;2.655979
5022.000000;2.654173
5021.000000;2.653378
5020.000000;2.653103
5019.000000;2.653446
5018.000000;2.654424
5017.000000;2.655656
5016.000000;2.656684
5015.000000;2.657136
5014.000000;2.656670
5013.000000;2.655383
5012.000000;2.654231
5011.000000;2.654214
5010.000000;2.655015
5009.000000;2.655164
5008.000000;2.653773
5007.000000;2.651537
5006.000000;2.649596
5005.000000;2.648446
5004.000000;2.648090
5003.000000;2.648462
5002.000000;2.649105
5001.000000;2.648893
5000.000000;2.646927
4999.000000;2.643690
4998.000000;2.640796
4997.000000;2.639426
4996.000000;2.639295
4995.000000;2.639127
4994.000000;2.637965
4993.000000;2.636179
4992.000000;2.635145
4991.000000;2.635734
4990.000000;2.637275
4989.000000;2.638297
4988.000000;2.637989
4987.000000;2.636319
4986.000000;2.633168
4985.000000;2.628686
4984.000000;2.624525
4983.000000;2.623070
4982.000000;2.624794
4981.000000;2.627326
4980.000000;2.627957
4979.000000;2.626472
4978.000000;2.624630
4977.000000;2.623644
4976.000000;2.623308
4975.000000;2.622958
4974.000000;2.622047
4973.000000;2.620154
4972.000000;2.617391
4971.000000;2.614559
4970.000000;2.612229
4969.000000;2.610069
4968.000000;2.607789
4967.000000;2.606282
4966.000000;2.606740
4965.000000;2.608835
4964.000000;2.610724
4963.000000;2.610971
4962.000000;2.609720
4961.000000;2.607816
4960.000000;2.605580
4959.000000;2.602795
4958.000000;2.599384
4957.000000;2.595837
4956.000000;2.593118
4955.000000;2.592067
4954.000000;2.592544
4953.000000;2.593327
4952.000000;2.593253
4951.000000;2.592262
4950.000000;2.590981
4949.000000;2.589790
4948.000000;2.588911
4947.000000;2.588864
4946.000000;2.589746
4945.000000;2.590276
4944.000000;2.588783
4943.000000;2.585254
4942.000000;2.581403
4941.000000;2.578648
4940.000000;2.576961
4939.000000;2.575741
4938.000000;2.574965
4937.000000;2.574945
4936.000000;2.575352
4935.000000;2.575093
4934.000000;2.573161
4933.000000;2.569577
4932.000000;2.565545
4931.000000;2.562395
4930.000000;2.560067
4929.000000;2.557043
4928.000000;2.552453
4927.000000;2.547753
4926.000000;2.545184
4925.000000;2.544902
4924.000000;2.544771
4923.000000;2.543069
4922.000000;2.540354
4921.000000;2.538204
4920.000000;2.537121
4919.000000;2.536282
4918.000000;2.534661
4917.000000;2.531841
4916.000000;2.528229
4915.000000;2.525046
4914.000000;2.523681
4913.000000;2.524358
4912.000000;2.525561
4911.000000;2.525244
4910.000000;2.522544
4909.000000;2.518113
4908.000000;2.513207
4907.000000;2.508806
4906.000000;2.505307
4905.000000;2.502570
4904.000000;2.500325
4903.000000;2.498638
4902.000000;2.497672
4901.000000;2.496897
4900.000000;2.495137
4899.000000;2.491852
4898.000000;2.487897
4897.000000;2.484463
4896.000000;2.481707
4895.000000;2.479027
4894.000000;2.476350
4893.000000;2.474277
4892.000000;2.472931
4891.000000;2.471438
4890.000000;2.468900
4889.000000;2.465484
4888.000000;2.462187
4887.000000;2.459719
4886.000000;2.457859
4885.000000;2.455782
4884.000000;2.452828
4883.000000;2.449058
4882.000000;2.445297
4881.000000;2.442629
4880.000000;2.441597
4879.000000;2.441655
4878.000000;2.441422
4877.000000;2.439727
4876.000000;2.436572
4875.000000;2.433034
4874.000000;2.430181
4873.000000;2.428086
4872.000000;2.425963
4871.000000;2.423171
4870.000000;2.419930
4869.000000;2.416942
4868.000000;2.414496
4867.000000;2.412124
4866.000000;2.409219
4865.000000;2.405850
4864.000000;2.402710
4863.000000;2.400171
4862.000000;2.397720
4861.000000;2.394640
4860.000000;2.391128
4859.000000;2.388273
4858.000000;2.386735
4857.000000;2.385861
4856.000000;2.384409
4855.000000;2.381921
4854.000000;2.379038
4853.000000;2.376616
4852.000000;2.374877
4851.000000;2.373350
4850.000000;2.371314
4849.000000;2.368303
4848.000000;2.364464
4847.000000;2.360399
4846.000000;2.356539
4845.000000;2.352784
4844.000000;2.348990
4843.000000;2.345528
4842.000000;2.342901
4841.000000;2.340910
4840.000000;2.338737
4839.000000;2.335920
4838.000000;2.332773
4837.000000;2.329735
4836.000000;2.326882
4835.000000;2.324303
4834.000000;2.322457
4833.000000;2.321637
4832.000000;2.321272
4831.000000;2.320214
4830.000000;2.317740
4829.000000;2.314051
4828.000000;2.309886
4827.000000;2.305934
4826.000000;2.302574
4825.000000;2.299867
4824.000000;2.297640
4823.000000;2.295650
4822.000000;2.293654
4821.000000;2.291341
4820.000000;2.288403
4819.000000;2.284850
4818.000000;2.281156
4817.000000;2.277871
4816.000000;2.275118
4815.000000;2.272626
4814.000000;2.270121
4813.000000;2.267505
4812.000000;2.264721
4811.000000;2.261744
4810.000000;2.258790
4809.000000;2.256288
4808.000000;2.254491
4807.000000;2.253162
4806.000000;2.251712
4805.000000;2.249604
4804.000000;2.246606
4803.000000;2.242809
4802.000000;2.238589
4801.000000;2.234547
4800.000000;2.231264
4799.000000;2.228910
4798.000000;2.227062
4797.000000;2.224989
4796.000000;2.222225
4795.000000;2.218862
4794.000000;2.215290
4793.000000;2.211757
4792.000000;2.208309
4791.000000;2.205030
4790.000000;2.202090
4789.000000;2.199478
4788.000000;2.196945
4787.000000;2.194412
4786.000000;2.192254
4785.000000;2.190833
4784.000000;2.189772
4783.000000;2.188062
4782.000000;2.185092
4781.000000;2.181335
4780.000000;2.177791
4779.000000;2.174954
4778.000000;2.172570
4777.000000;2.170219
4776.000000;2.167760
4775.000000;2.165182
4774.000000;2.162418
4773.000000;2.159526
4772.000000;2.156787
4771.000000;2.154379
4770.000000;2.152116
4769.000000;2.149757
4768.000000;2.147478
4767.000000;2.145748
4766.000000;2.144659
4765.000000;2.143601
4764.000000;2.141719
4763.000000;2.138665
4762.000000;2.134862
4761.000000;2.131121
4760.000000;2.128021
4759.000000;2.125589
4758.000000;2.123443
4757.000000;2.121168
4756.000000;2.118585
4755.000000;2.115743
4754.000000;2.112821
4753.000000;2.110064
4752.000000;2.107674
4751.000000;2.105597
4750.000000;2.103487
4749.000000;2.101028
4748.000000;2.098262
4747.000000;2.095483
4746.000000;2.092880
4745.000000;2.090439
4744.000000;2.088179
4743.000000;2.086248
4742.000000;2.084679
4741.000000;2.083150
4740.000000;2.081109
4739.000000;2.078171
4738.000000;2.074447
4737.000000;2.070547
4736.000000;2.067243
4735.000000;2.064955
4734.000000;2.063455
4733.000000;2.062102
4732.000000;2.060403
4731.000000;2.058329
4730.000000;2.056144
4729.000000;2.054049
4728.000000;2.052026
4727.000000;2.049932
4726.000000;2.047664
4725.000000;2.045253
4724.000000;2.042825
4723.000000;2.040464
4722.000000;2.038162
4721.000000;2.035923
4720.000000;2.033820
4719.000000;2.031850
4718.000000;2.029858
4717.000000;2.027768
4716.000000;2.025817
4715.000000;2.024292
4714.000000;2.022993
4713.000000;2.021247
4712.000000;2.018633
4711.000000;2.015546
4710.000000;2.012822
4709.000000;2.010866
4708.000000;2.009342
4707.000000;2.007704
4706.000000;2.005845
4705.000000;2.004114
4704.000000;2.002770
4703.000000;2.001585
4702.000000;2.000045
4701.000000;1.997883
4700.000000;1.995315
4699.000000;1.992757
4698.000000;1.990455
4697.000000;1.988415
4696.000000;1.986511
4695.000000;1.984552
4694.000000;1.982373
4693.000000;1.980060
4692.000000;1.977964
4691.000000;1.976281
4690.000000;1.974726
4689.000000;1.972884
4688.000000;1.970868
4687.000000;1.969300
4686.000000;1.968521
4685.000000;1.968077
4684.000000;1.967155
4683.000000;1.965360
4682.000000;1.962900
4681.000000;1.960158
4680.000000;1.957385
4679.000000;1.954797
4678.000000;1.952720
4677.000000;1.951425
4676.000000;1.950788
4675.000000;1.950162
4674.000000;1.948742
4673.000000;1.946244
4672.000000;1.943221
4671.000000;1.940605
4670.000000;1.938902
4669.000000;1.937868
4668.000000;1.936874
4667.000000;1.935465
4666.000000;1.933600
4665.000000;1.931532
4664.000000;1.929559
4663.000000;1.927813
4662.000000;1.926226
4661.000000;1.924722
4660.000000;1.923389
4659.000000;1.922339
4658.000000;1.921450
4657.000000;1.920456
4656.000000;1.919303
4655.000000;1.918165
4654.000000;1.917045
4653.000000;1.915641
4652.000000;1.913802
4651.000000;1.911937
4650.000000;1.910678
4649.000000;1.910186
4648.000000;1.909924
4647.000000;1.909138
4646.000000;1.907493
4645.000000;1.905313
4644.000000;1.903281
4643.000000;1.901847
4642.000000;1.900849
4641.000000;1.899747
4640.000000;1.898247
4639.000000;1.896589
4638.000000;1.895175
4637.000000;1.894095
4636.000000;1.893138
4635.000000;1.892094
4634.000000;1.890874
4633.000000;1.889443
4632.000000;1.887850
4631.000000;1.886257
4630.000000;1.884776
4629.000000;1.883325
4628.000000;1.881843
4627.000000;1.880532
4626.000000;1.879660
4625.000000;1.879139
4624.000000;1.878528
4623.000000;1.877488
4622.000000;1.876049
4621.000000;1.874405
4620.000000;1.872682
4619.000000;1.870999
4618.000000;1.869581
4617.000000;1.868614
4616.000000;1.868048
4615.000000;1.867639
4614.000000;1.867128
4613.000000;1.866322
4612.000000;1.865093
4611.000000;1.863493
4610.000000;1.861845
4609.000000;1.860578
4608.000000;1.859860
4607.000000;1.859424
4606.000000;1.858832
4605.000000;1.857920
4604.000000;1.856935
4603.000000;1.856212
4602.000000;1.855752
4601.000000;1.855193
4600.000000;1.854168
4599.000000;1.852617
4598.000000;1.850749
4597.000000;1.848874
4596.000000;1.847342
4595.000000;1.846467
4594.000000;1.846253
4593.000000;1.846195
4592.000000;1.845638
4591.000000;1.844446
4590.000000;1.843183
4589.000000;1.842480
4588.000000;1.842348
4587.000000;1.842250
4586.000000;1.841741
4585.000000;1.840815
4584.000000;1.839692
4583.000000;1.838534
4582.000000;1.837444
4581.000000;1.836509
4580.000000;1.835659
4579.000000;1.834615
4578.000000;1.833240
4577.000000;1.831866
4576.000000;1.831048
4575.000000;1.830947
4574.000000;1.831108
4573.000000;1.830923
4572.000000;1.830188
4571.000000;1.829138
4570.000000;1.828081
4569.000000;1.827143
4568.000000;1.826307
4567.000000;1.825532
4566.000000;1.824813
4565.000000;1.824182
4564.000000;1.823676
4563.000000;1.823253
4562.000000;1.822764
4561.000000;1.822058
4560.000000;1.821050
4559.000000;1.819696
4558.000000;1.818033
4557.000000;1.816317
4556.000000;1.814971
4555.000000;1.814230
4554.000000;1.813911
4553.000000;1.813688
4552.000000;1.813532
4551.000000;1.813617
4550.000000;1.813829
4549.000000;1.813670
4548.000000;1.812802
4547.000000;1.811502
4546.000000;1.810377
4545.000000;1.809729
4544.000000;1.809402
4543.000000;1.809151
4542.000000;1.808914
4541.000000;1.808636
4540.000000;1.808075
4539.000000;1.807009
4538.000000;1.805607
4537.000000;1.804429
4536.000000;1.803942
4535.000000;1.804045
4534.000000;1.804156
4533.000000;1.803758
4532.000000;1.802824
4531.000000;1.801734
4530.000000;1.800890
4529.000000;1.800498
4528.000000;1.800576
4527.000000;1.800969
4526.000000;1.801334
4525.000000;1.801290
4524.000000;1.800745
4523.000000;1.800012
4522.000000;1.799537
4521.000000;1.799511
4520.000000;1.799782
4519.000000;1.800044
4518.000000;1.800052
4517.000000;1.799720
4516.000000;1.799147
4515.000000;1.798555
4514.000000;1.798124
4513.000000;1.797863
4512.000000;1.797685
4511.000000;1.797607
4510.000000;1.797718
4509.000000;1.797914
4508.000000;1.797819
4507.000000;1.797170
4506.000000;1.796247
4505.000000;1.795681
4504.000000;1.795780
4503.000000;1.796175
4502.000000;1.796256
4501.000000;1.795843
4500.000000;1.795310
4499.000000;1.795121
4498.000000;1.795383
4497.000000;1.795807
4496.000000;1.795968
4495.000000;1.795661
4494.000000;1.795132
4493.000000;1.794886
4492.000000;1.795122
4491.000000;1.795468
4490.000000;1.795466
4489.000000;1.795219
4488.000000;1.795227
4487.000000;1.795638
4486.000000;1.796072
4485.000000;1.796270
4484.000000;1.796515
4483.000000;1.797162
4482.000000;1.798050
4481.000000;1.798676
4480.000000;1.798778
4479.000000;1.798499
4478.000000;1.798160
4477.000000;1.798076
4476.000000;1.798395
4475.000000;1.798844
4474.000000;1.798870
4473.000000;1.798342
4472.000000;1.797911
4471.000000;1.798291
4470.000000;1.799329
4469.000000;1.800165
4468.000000;1.800229
4467.000000;1.799705
4466.000000;1.799088
4465.000000;1.798756
4464.000000;1.798993
4463.000000;1.799912
4462.000000;1.801153
4461.000000;1.802033
4460.000000;1.802240
4459.000000;1.802119
4458.000000;1.802138
4457.000000;1.802380
4456.000000;1.802743
4455.000000;1.803377
4454.000000;1.804606
4453.000000;1.806460
4452.000000;1.808454
4451.000000;1.809831
4450.000000;1.810075
4449.000000;1.809344
4448.000000;1.808423
4447.000000;1.808079
4446.000000;1.808419
4445.000000;1.808993
4444.000000;1.809455
4443.000000;1.809838
4442.000000;1.810226
4441.000000;1.810608
4440.000000;1.811192
4439.000000;1.812430
4438.000000;1.814423
4437.000000;1.816562
4436.000000;1.818083
4435.000000;1.818820
4434.000000;1.819150
4433.000000;1.819372
4432.000000;1.819470
4431.000000;1.819397
4430.000000;1.819297
4429.000000;1.819441
4428.000000;1.820109
4427.000000;1.821416
4426.000000;1.823075
4425.000000;1.824462
4424.000000;1.825205
4423.000000;1.825684
4422.000000;1.826624
4421.000000;1.828204
4420.000000;1.829802
4419.000000;1.830741
4418.000000;1.831076
4417.000000;1.831473
4416.000000;1.832417
4415.000000;1.833701
4414.000000;1.834741
4413.000000;1.835297
4412.000000;1.835737
4411.000000;1.836545
4410.000000;1.837722
4409.000000;1.838880
4408.000000;1.839840
4407.000000;1.840821
4406.000000;1.841907
4405.000000;1.842690
4404.000000;1.842775
4403.000000;1.842531
4402.000000;1.842922
4401.000000;1.844534
4400.000000;1.846942
4399.000000;1.849107
4398.000000;1.850269
4397.000000;1.850437
4396.000000;1.850197
4395.000000;1.850192
4394.000000;1.850727
4393.000000;1.851689
4392.000000;1.852782
4391.000000;1.853838
4390.000000;1.854871
4389.000000;1.855821
4388.000000;1.856438
4387.000000;1.856549
4386.000000;1.856371
4385.000000;1.856385
4384.000000;1.856852
4383.000000;1.857650
4382.000000;1.858643
4381.000000;1.859972
4380.000000;1.861727
4379.000000;1.863528
4378.000000;1.864888
4377.000000;1.865850
4376.000000;1.866815
4375.000000;1.867686
4374.000000;1.867761
4373.000000;1.866830
4372.000000;1.865925
4371.000000;1.866400
4370.000000;1.868473
4369.000000;1.871100
4368.000000;1.873188
4367.000000;1.874445
4366.000000;1.875004
4365.000000;1.874831
4364.000000;1.873929
4363.000000;1.872823
4362.000000;1.872410
4361.000000;1.873281
4360.000000;1.875332
4359.000000;1.878023
4358.000000;1.880843
4357.000000;1.883439
4356.000000;1.885411
4355.000000;1.886335
4354.000000;1.886265
4353.000000;1.885969
4352.000000;1.886219
4351.000000;1.886811
4350.000000;1.886746
4349.000000;1.885669
4348.000000;1.884709
4347.000000;1.885416
4346.000000;1.887988
4345.000000;1.890937
4344.000000;1.892455
4343.000000;1.891946
4342.000000;1.890347
4341.000000;1.889247
4340.000000;1.889545
4339.000000;1.890684
4338.000000;1.891368
4337.000000;1.891265
4336.000000;1.891582
4335.000000;1.893419
4334.000000;1.896014
4333.000000;1.897379
4332.000000;1.896584
4331.000000;1.894783
4330.000000;1.893918
4329.000000;1.894987
4328.000000;1.897547
4327.000000;1.900236
4326.000000;1.901783
4325.000000;1.902167
4324.000000;1.902755
4323.000000;1.904670
4322.000000;1.907083
4321.000000;1.907861
4320.000000;1.906140
4319.000000;1.903458
4318.000000;1.901931
4317.000000;1.902106
4316.000000;1.903045
4315.000000;1.903679
4314.000000;1.903693
4313.000000;1.903719
4312.000000;1.904948
4311.000000;1.907958
4310.000000;1.911641
4309.000000;1.913882
4308.000000;1.913661
4307.000000;1.911968
4306.000000;1.910435
4305.000000;1.909797
4304.000000;1.909909
4303.000000;1.910357
4302.000000;1.910618
4301.000000;1.910350
4300.000000;1.909998
4299.000000;1.910542
4298.000000;1.912261
4297.000000;1.914261
4296.000000;1.915532
4295.000000;1.915820
4294.000000;1.915167
4293.000000;1.913424
4292.000000;1.910736
4291.000000;1.907762
4290.000000;1.904922
4289.000000;1.902162
4288.000000;1.899944
4287.000000;1.899472
4286.000000;1.901136
4285.000000;1.903596
4284.000000;1.905319
4283.000000;1.906365
4282.000000;1.907598
4281.000000;1.908653
4280.000000;1.907851
4279.000000;1.904286
4278.000000;1.899200
4277.000000;1.894865
4276.000000;1.892559
4275.000000;1.891738
4274.000000;1.890635
4273.000000;1.887915
4272.000000;1.884212
4271.000000;1.881472
4270.000000;1.880528
4269.000000;1.880346
4268.000000;1.879981
4267.000000;1.879873
4266.000000;1.880024
4265.000000;1.878196
4264.000000;1.872257
4263.000000;1.863912
4262.000000;1.857778
4261.000000;1.856707
4260.000000;1.859497
4259.000000;1.863261
4258.000000;1.866583
4257.000000;1.869145
4256.000000;1.869565
4255.000000;1.866391
4254.000000;1.861341
4253.000000;1.858497
4252.000000;1.859390
4251.000000;1.859984
4250.000000;1.854148
4249.000000;1.840646
4248.000000;1.824995
4247.000000;1.813370
4246.000000;1.807483
4245.000000;1.805505
4244.000000;1.805363
4243.000000;1.805465
4242.000000;1.803654
4241.000000;1.798308
4240.000000;1.790556
4239.000000;1.783244
4238.000000;1.777585
4237.000000;1.772428
4236.000000;1.766936
4235.000000;1.762158
4234.000000;1.758765
4233.000000;1.754823
4232.000000;1.747707
4231.000000;1.737459
4230.000000;1.726661
4229.000000;1.717233
4228.000000;1.708529
4227.000000;1.698397
4226.000000;1.685062
4225.000000;1.668297
4224.000000;1.650100
4223.000000;1.633829
4222.000000;1.621911
4221.000000;1.614347
4220.000000;1.608600
4219.000000;1.600211
4218.000000;1.584629
4217.000000;1.560531
4216.000000;1.531482
4215.000000;1.502886
4214.000000;1.477419
4213.000000;1.454595
4212.000000;1.433687
4211.000000;1.414281
4210.000000;1.393471
4209.000000;1.365750
4208.000000;1.328725
4207.000000;1.286520
4206.000000;1.244184
4205.000000;1.201334
4204.000000;1.153700
4203.000000;1.099532
4202.000000;1.041307
4201.000000;0.981742
4200.000000;0.925304
4199.000000;0.883953
4198.000000;0.872935
4197.000000;0.899432
4196.000000;0.956609
4195.000000;1.025371
4194.000000;1.089173
4193.000000;1.146713
4192.000000;1.205602
4191.000000;1.269181
4190.000000;1.333315
4189.000000;1.391597
4188.000000;1.439955
4187.000000;1.477102
4186.000000;1.504441
4185.000000;1.527262
4184.000000;1.552409
4183.000000;1.582552
4182.000000;1.614141
4181.000000;1.642863
4180.000000;1.669245
4179.000000;1.695632
4178.000000;1.720410
4177.000000;1.739356
4176.000000;1.753156
4175.000000;1.769595
4174.000000;1.796629
4173.000000;1.836314
4172.000000;1.884485
4171.000000;1.932550
4170.000000;1.969207
4169.000000;1.987150
4168.000000;1.991610
4167.000000;1.994604
4166.000000;2.001264
4165.000000;2.007809
4164.000000;2.012784
4163.000000;2.021982
4162.000000;2.038487
4161.000000;2.055984
4160.000000;2.065851
4159.000000;2.068221
4158.000000;2.071659
4157.000000;2.081932
4156.000000;2.095410
4155.000000;2.105041
4154.000000;2.110409
4153.000000;2.119701
4152.000000;2.142006
4151.000000;2.177893
4150.000000;2.216035
4149.000000;2.241212
4148.000000;2.249725
4147.000000;2.251554
4146.000000;2.256495
4145.000000;2.267180
4144.000000;2.283976
4143.000000;2.307354
4142.000000;2.332598
4141.000000;2.349929
4140.000000;2.354869
4139.000000;2.351451
4138.000000;2.343087
4137.000000;2.328821
4136.000000;2.312182
4135.000000;2.305314
4134.000000;2.317868
4133.000000;2.347371
4132.000000;2.383736
4131.000000;2.420641
4130.000000;2.456206
4129.000000;2.482778
4128.000000;2.488930
4127.000000;2.476090
4126.000000;2.458796
4125.000000;2.447255
4124.000000;2.442192
4123.000000;2.443150
4122.000000;2.452816
4121.000000;2.473016
4120.000000;2.499483
4119.000000;2.522096
4118.000000;2.531647
4117.000000;2.529589
4116.000000;2.526276
4115.000000;2.530424
4114.000000;2.547607
4113.000000;2.578463
4112.000000;2.613463
4111.000000;2.636043
4110.000000;2.636035
4109.000000;2.619852
4108.000000;2.602256
4107.000000;2.591678
4106.000000;2.586611
4105.000000;2.579338
4104.000000;2.564071
4103.000000;2.545983
4102.000000;2.536960
4101.000000;2.543063
4100.000000;2.559307
4099.000000;2.576016
4098.000000;2.592185
4097.000000;2.619639
4096.000000;2.669157
4095.000000;2.734097
4094.000000;2.787452
4093.000000;2.802397
4092.000000;2.779785
4091.000000;2.739110
4090.000000;2.697756
4089.000000;2.669268
4088.000000;2.664008
4087.000000;2.684064
4086.000000;2.717381
4085.000000;2.740575
4084.000000;2.738826
4083.000000;2.720699
4082.000000;2.701264
4081.000000;2.687420
4080.000000;2.683221
4079.000000;2.692577
4078.000000;2.714456
4077.000000;2.743036
4076.000000;2.774163
4075.000000;2.806638
4074.000000;2.835229
4073.000000;2.849213
4072.000000;2.847846
4071.000000;2.849068
4070.000000;2.866075
4069.000000;2.883584
4068.000000;2.874594
4067.000000;2.838287
4066.000000;2.794782
4065.000000;2.761661
4064.000000;2.748995
4063.000000;2.764228
4062.000000;2.810716
4061.000000;2.870261
4060.000000;2.906069
4059.000000;2.910827
4058.000000;2.898951
4057.000000;2.876022
4056.000000;2.849640
4055.000000;2.828898
4054.000000;2.820459
4053.000000;2.826532
4052.000000;2.845136
4051.000000;2.876082
4050.000000;2.914910
4049.000000;2.946781
4048.000000;2.962023
4047.000000;2.959053
4046.000000;2.935918
4045.000000;2.900695
4044.000000;2.872270
4043.000000;2.862157
4042.000000;2.866242
4041.000000;2.874763
4040.000000;2.884736
4039.000000;2.900949
4038.000000;2.925618
4037.000000;2.944948
4036.000000;2.944179
4035.000000;2.939668
4034.000000;2.953225
4033.000000;2.985201
4032.000000;3.023045
4031.000000;3.045078
4030.000000;3.034746
4029.000000;3.003240
4028.000000;2.974408
4027.000000;2.963079
4026.000000;2.973612
4025.000000;3.006489
4024.000000;3.055016
4023.000000;3.087236
4022.000000;3.060840
4021.000000;2.985983
4020.000000;2.914383
4019.000000;2.882307
4018.000000;2.898174
4017.000000;2.952347
4016.000000;3.029427
4015.000000;3.116690
4014.000000;3.202055
4013.000000;3.271812
4012.000000;3.322134
4011.000000;3.348384
4010.000000;3.323010
4009.000000;3.243454
4008.000000;3.153736
4007.000000;3.102600
4006.000000;3.108773
4005.000000;3.161023
4004.000000;3.214073
4003.000000;3.212756
4002.000000;3.185270
4001.000000;3.172008
4000.000000;3.163634
3999.000000;3.144709
3998.000000;3.117030
3997.000000;3.101458
3996.000000;3.119708
3995.000000;3.164502
3994.000000;3.176879
3993.000000;3.130526
3992.000000;3.095115
3991.000000;3.120174
3990.000000;3.193443
3989.000000;3.256527
3988.000000;3.270994
3987.000000;3.277389
3986.000000;3.313242
3985.000000;3.352737
3984.000000;3.331799
3983.000000;3.245199
3982.000000;3.151904
3981.000000;3.091565
3980.000000;3.078195
3979.000000;3.108351
3978.000000;3.152903
3977.000000;3.176351
3976.000000;3.172235
3975.000000;3.151297
3974.000000;3.124440
3973.000000;3.106224
3972.000000;3.113620
3971.000000;3.148213
3970.000000;3.180920
3969.000000;3.175610
3968.000000;3.139885
3967.000000;3.111079
3966.000000;3.095458
3965.000000;3.081627
3964.000000;3.100122
3963.000000;3.186157
3962.000000;3.333901
3961.000000;3.494561
3960.000000;3.495986
3959.000000;3.354531
3958.000000;3.277051
3957.000000;3.284279
3956.000000;3.331983
3955.000000;3.383987
3954.000000;3.410841
3953.000000;3.387014
3952.000000;3.322500
3951.000000;3.280852
3950.000000;3.294301
3949.000000;3.334256
3948.000000;3.351015
3947.000000;3.312323
3946.000000;3.255798
3945.000000;3.253291
3944.000000;3.306794
3943.000000;3.358366
3942.000000;3.365971
3941.000000;3.347466
3940.000000;3.337877
3939.000000;3.342640
3938.000000;3.348618
3937.000000;3.360936
3936.000000;3.418946
3935.000000;3.553377
3934.000000;3.744153
3933.000000;3.865507
3932.000000;3.827399
3931.000000;3.750029
3930.000000;3.659766
3929.000000;3.558440
3928.000000;3.502478
3927.000000;3.515740
3926.000000;3.564825
3925.000000;3.578610
3924.000000;3.519867
3923.000000;3.407892
3922.000000;3.274990
3921.000000;3.173251
3920.000000;3.162277
3919.000000;3.282240
3918.000000;3.525777
3917.000000;3.829270
3916.000000;4.085222
3915.000000;3.896835
3914.000000;3.669553
3913.000000;3.659209
3912.000000;3.851504
3911.000000;4.389230
3910.000000;4.434306
3909.000000;4.268921
3908.000000;4.959106
3907.000000;4.242967
3906.000000;3.904603
3905.000000;3.820234
3904.000000;3.736645
3903.000000;3.649713
3902.000000;3.600724
3901.000000;3.640539
3900.000000;3.704349
3899.000000;3.723529
3898.000000;3.733600
3897.000000;3.750669
3896.000000;3.749824
3895.000000;3.785143
3894.000000;3.962363
3893.000000;4.151543
3892.000000;4.142880
3891.000000;4.070295
3890.000000;3.908023
3889.000000;3.909623
3888.000000;4.416893
3887.000000;4.586078
3886.000000;4.319889
3885.000000;4.636776
3884.000000;4.080311
3883.000000;3.705572
3882.000000;3.618493
3881.000000;3.660148
3880.000000;3.725284
3879.000000;3.795109
3878.000000;3.968507
3877.000000;4.231294
3876.000000;4.380032
3875.000000;4.362819
3874.000000;4.133051
3873.000000;4.040131
3872.000000;4.150820
3871.000000;4.215220
3870.000000;4.194436
3869.000000;4.141477
3868.000000;4.029956
3867.000000;3.980453
3866.000000;4.038975
3865.000000;4.196944
3864.000000;4.327301
3863.000000;4.275680
3862.000000;4.280035
3861.000000;4.354373
3860.000000;4.399726
3859.000000;4.418880
3858.000000;4.354908
3857.000000;4.253418
3856.000000;4.237343
3855.000000;4.398710
3854.000000;4.659871
3853.000000;4.295666
3852.000000;4.007589
3851.000000;3.908327
3850.000000;4.044455
3849.000000;4.360561
3848.000000;4.230743
3847.000000;4.175669
3846.000000;4.388722
3845.000000;4.719368
3844.000000;4.875231
3843.000000;4.803040
3842.000000;4.795107
3841.000000;4.815914
3840.000000;4.832993
3839.000000;4.922161
3838.000000;4.981890
3837.000000;4.776703
3836.000000;4.442268
3835.000000;4.263145
3834.000000;4.355106
3833.000000;4.566525
3832.000000;5.146704
3831.000000;4.431897
3830.000000;3.940731
3829.000000;3.888166
3828.000000;4.104356
3827.000000;4.600354
3826.000000;4.965666
3825.000000;4.493526
3824.000000;4.369670
3823.000000;4.510234
3822.000000;4.713143
3821.000000;4.776764
3820.000000;4.549566
3819.000000;4.542686
3818.000000;4.324118
3817.000000;3.980606
3816.000000;3.878009
3815.000000;3.937471
3814.000000;4.173650
3813.000000;4.653073
3812.000000;5.005534
3811.000000;4.584372
3810.000000;4.255504
3809.000000;4.211703
3808.000000;4.378615
3807.000000;4.583309
3806.000000;4.690766
3805.000000;4.596974
3804.000000;4.621992
3803.000000;5.113045
3802.000000;4.981964
3801.000000;4.646798
3800.000000;4.560274
3799.000000;4.312452
3798.000000;4.203923
3797.000000;4.365175
3796.000000;4.278949
3795.000000;3.952951
3794.000000;3.925781
3793.000000;4.013895
3792.000000;4.193164
3791.000000;4.500778
3790.000000;4.054398
3789.000000;3.829254
3788.000000;3.849169
3787.000000;3.987550
3786.000000;4.054290
3785.000000;3.917287
3784.000000;3.754356
3783.000000;3.626976
3782.000000;3.566089
3781.000000;3.581673
3780.000000;3.663563
3779.000000;3.748794
3778.000000;3.762076
3777.000000;3.765429
3776.000000;3.802971
3775.000000;3.838074
3774.000000;3.849972
3773.000000;3.860943
3772.000000;3.917139
3771.000000;4.029585
3770.000000;4.119638
3769.000000;4.024783
3768.000000;3.990948
3767.000000;4.130029
3766.000000;4.227927
3765.000000;4.162688
3764.000000;4.080554
3763.000000;4.093962
3762.000000;4.214354
3761.000000;4.328942
3760.000000;4.343813
3759.000000;4.360596
3758.000000;4.441248
3757.000000;4.595156
3756.000000;4.812983
3755.000000;5.132361
3754.000000;5.251215
3753.000000;4.813515
3752.000000;4.623558
3751.000000;4.704827
3750.000000;4.779352
3749.000000;4.769269
3748.000000;4.406824
3747.000000;4.131611
3746.000000;4.167221
3745.000000;4.265513
3744.000000;4.271317
3743.000000;4.348829
3742.000000;4.491769
3741.000000;4.688221
3740.000000;4.743124
3739.000000;4.682416
3738.000000;4.709554
3737.000000;4.749110
3736.000000;4.616200
3735.000000;4.284594
3734.000000;4.008463
3733.000000;3.944569
3732.000000;4.029276
3731.000000;4.389002
3730.000000;4.496952
3729.000000;3.885475
3728.000000;3.680731
3727.000000;3.676941
3726.000000;3.723020
3725.000000;3.749303
3724.000000;3.744840
3723.000000;3.816919
3722.000000;4.175839
3721.000000;4.285383
3720.000000;4.143393
3719.000000;4.278014
3718.000000;4.187753
3717.000000;4.156796
3716.000000;4.262642
3715.000000;4.412804
3714.000000;4.566127
3713.000000;4.506811
3712.000000;4.543097
3711.000000;4.539872
3710.000000;3.893956
3709.000000;3.619340
3708.000000;3.571587
3707.000000;3.623619
3706.000000;3.766513
3705.000000;3.936804
3704.000000;3.776124
3703.000000;3.546800
3702.000000;3.466249
3701.000000;3.488280
3700.000000;3.616375
3699.000000;3.843144
3698.000000;4.201516
3697.000000;4.333922
3696.000000;4.237394
3695.000000;4.320823
3694.000000;4.399700
3693.000000;4.413270
3692.000000;4.412241
3691.000000;4.462109
3690.000000;4.313239
3689.000000;4.158687
3688.000000;4.048206
3687.000000;3.940445
3686.000000;3.945915
3685.000000;4.046460
3684.000000;4.165164
3683.000000;4.321859
3682.000000;4.518949
3681.000000;4.680291
3680.000000;4.777347
3679.000000;5.074275
3678.000000;5.198579
3677.000000;4.727377
3676.000000;4.649270
3675.000000;4.597318
3674.000000;4.411195
3673.000000;4.078642
3672.000000;3.878809
3671.000000;3.825598
3670.000000;3.945795
3669.000000;4.649527
3668.000000;4.398422
3667.000000;3.896291
3666.000000;3.771275
3665.000000;3.763423
3664.000000;3.911291
3663.000000;4.184029
3662.000000;4.469734
3661.000000;4.219464
3660.000000;3.990416
3659.000000;3.899520
3658.000000;3.952073
3657.000000;4.162932
3656.000000;4.544948
3655.000000;5.302525
3654.000000;4.873987
3653.000000;4.673804
3652.000000;4.569546
3651.000000;4.822546
3650.000000;4.853583
3649.000000;4.403893
3648.000000;4.432752
3647.000000;4.055450
3646.000000;3.859545
3645.000000;3.857349
3644.000000;3.973378
3643.000000;4.341425
3642.000000;3.994127
3641.000000;3.814465
3640.000000;3.943308
3639.000000;4.023570
3638.000000;3.954991
3637.000000;4.124874
3636.000000;4.611292
3635.000000;4.371899
3634.000000;4.245322
3633.000000;4.084417
3632.000000;3.970541
3631.000000;4.023828
3630.000000;3.944761
3629.000000;3.828861
3628.000000;3.906876
3627.000000;4.108997
3626.000000;4.199467
3625.000000;4.238341
3624.000000;4.300182
3623.000000;4.133412
3622.000000;3.992149
3621.000000;4.182731
3620.000000;4.386829
3619.000000;4.104789
3618.000000;4.003697
3617.000000;4.040140
3616.000000;4.145954
3615.000000;4.061539
3614.000000;3.771738
3613.000000;3.552519
3612.000000;3.432594
3611.000000;3.479958
3610.000000;3.667029
3609.000000;3.636172
3608.000000;3.557245
3607.000000;3.641141
3606.000000;3.915775
3605.000000;4.275424
3604.000000;4.194965
3603.000000;4.466368
3602.000000;4.281168
3601.000000;3.830943
3600.000000;3.701043
3599.000000;3.752315
3598.000000;3.880257
3597.000000;3.735025
3596.000000;3.596839
3595.000000;3.607097
3594.000000;3.636899
3593.000000;3.621257
3592.000000;3.528991
3591.000000;3.461204
3590.000000;3.555512
3589.000000;3.892599
3588.000000;4.523417
3587.000000;5.211213
3586.000000;4.665179
3585.000000;4.278578
3584.000000;4.063445
3583.000000;3.946262
3582.000000;3.867039
3581.000000;3.857390
3580.000000;3.815601
3579.000000;3.604579
3578.000000;3.429673
3577.000000;3.356193
3576.000000;3.373760
3575.000000;3.487019
3574.000000;3.722402
3573.000000;3.854965
3572.000000;3.639571
3571.000000;3.511216
3570.000000;3.535200
3569.000000;3.663283
3568.000000;3.711158
3567.000000;3.646079
3566.000000;3.641838
3565.000000;3.702582
3564.000000;4.078505
3563.000000;4.414903
3562.000000;4.066092
3561.000000;4.403739
3560.000000;4.240521
3559.000000;3.897549
3558.000000;3.924431
3557.000000;3.990902
3556.000000;3.749986
3555.000000;3.515776
3554.000000;3.414028
3553.000000;3.390176
3552.000000;3.410435
3551.000000;3.452715
3550.000000;3.448756
3549.000000;3.409361
3548.000000;3.475642
3547.000000;3.725886
3546.000000;4.103620
3545.000000;4.138944
3544.000000;4.027590
3543.000000;3.881331
3542.000000;3.766159
3541.000000;3.825787
3540.000000;4.064048
3539.000000;4.160250
3538.000000;4.089745
3537.000000;4.554153
3536.000000;4.142129
3535.000000;3.765261
3534.000000;3.775601
3533.000000;3.818263
3532.000000;3.700819
3531.000000;3.506135
3530.000000;3.399334
3529.000000;3.396264
3528.000000;3.402920
3527.000000;3.339672
3526.000000;3.260839
3525.000000;3.239421
3524.000000;3.291876
3523.000000;3.406461
3522.000000;3.537602
3521.000000;3.574490
3520.000000;3.549282
3519.000000;3.633727
3518.000000;3.711836
3517.000000;3.628802
3516.000000;3.592688
3515.000000;3.648022
3514.000000;3.693232
3513.000000;3.653295
3512.000000;3.597211
3511.000000;3.638948
3510.000000;4.096270
3509.000000;4.199973
3508.000000;3.657475
3507.000000;3.485550
3506.000000;3.391739
3505.000000;3.318699
3504.000000;3.277856
3503.000000;3.322204
3502.000000;3.456141
3501.000000;3.538940
3500.000000;3.483184
3499.000000;3.604590
3498.000000;3.924592
3497.000000;3.531853
3496.000000;3.324748
3495.000000;3.267977
3494.000000;3.264402
3493.000000;3.320694
3492.000000;3.460426
3491.000000;3.700210
3490.000000;3.823169
3489.000000;3.811920
3488.000000;3.809038
3487.000000;4.078404
3486.000000;4.305788
3485.000000;3.668836
3484.000000;3.406341
3483.000000;3.366678
3482.000000;3.536469
3481.000000;3.753083
3480.000000;3.593177
3479.000000;3.444841
3478.000000;3.375798
3477.000000;3.343419
3476.000000;3.390072
3475.000000;3.547903
3474.000000;3.766708
3473.000000;3.767770
3472.000000;3.840110
3471.000000;4.345377
3470.000000;3.958146
3469.000000;3.701545
3468.000000;3.727449
3467.000000;3.777425
3466.000000;3.680420
3465.000000;3.544423
3464.000000;3.443252
3463.000000;3.412878
3462.000000;3.488265
3461.000000;3.684961
3460.000000;3.997010
3459.000000;4.137622
3458.000000;3.837936
3457.000000;3.533968
3456.000000;3.367094
3455.000000;3.336539
3454.000000;3.396218
3453.000000;3.423376
3452.000000;3.366656
3451.000000;3.308027
3450.000000;3.290924
3449.000000;3.323175
3448.000000;3.383874
3447.000000;3.408494
3446.000000;3.404727
3445.000000;3.467656
3444.000000;3.572408
3443.000000;3.694685
3442.000000;3.753645
3441.000000;3.513268
3440.000000;3.367484
3439.000000;3.349484
3438.000000;3.391977
3437.000000;3.442794
3436.000000;3.475801
3435.000000;3.515028
3434.000000;3.591174
3433.000000;3.749015
3432.000000;3.805379
3431.000000;3.647837
3430.000000;3.557409
3429.000000;3.561380
3428.000000;3.648756
3427.000000;3.829874
3426.000000;4.061621
3425.000000;4.232609
3424.000000;4.086491
3423.000000;3.869142
3422.000000;3.959182
3421.000000;4.372446
3420.000000;3.833606
3419.000000;3.771093
3418.000000;4.335266
3417.000000;3.943692
3416.000000;3.676693
3415.000000;3.674004
3414.000000;3.760737
3413.000000;3.924651
3412.000000;4.069126
3411.000000;3.804302
3410.000000;3.644609
3409.000000;3.554718
3408.000000;3.384211
3407.000000;3.258394
3406.000000;3.224033
3405.000000;3.262022
3404.000000;3.360219
3403.000000;3.510916
3402.000000;3.677060
3401.000000;3.672266
3400.000000;3.581173
3399.000000;3.698328
3398.000000;4.225719
3397.000000;3.955033
3396.000000;3.803778
3395.000000;3.873796
3394.000000;3.788998
3393.000000;3.805068
3392.000000;4.003500
3391.000000;4.358499
3390.000000;4.522789
3389.000000;4.105172
3388.000000;3.992448
3387.000000;4.047388
3386.000000;3.911343
3385.000000;3.744003
3384.000000;3.746180
3383.000000;3.773185
3382.000000;3.631248
3381.000000;3.531074
3380.000000;3.528636
3379.000000;3.633274
3378.000000;3.958773
3377.000000;3.826316
3376.000000;3.518862
3375.000000;3.481608
3374.000000;3.599136
3373.000000;3.762793
3372.000000;3.947740
3371.000000;4.040830
3370.000000;3.663137
3369.000000;3.464206
3368.000000;3.366993
3367.000000;3.279212
3366.000000;3.253821
3365.000000;3.317834
3364.000000;3.465571
3363.000000;3.676275
3362.000000;3.807064
3361.000000;3.683341
3360.000000;3.550447
3359.000000;3.508392
3358.000000;3.617734
3357.000000;3.751661
3356.000000;3.628672
3355.000000;3.617797
3354.000000;3.644707
3353.000000;3.591114
3352.000000;3.673586
3351.000000;4.028396
3350.000000;4.543962
3349.000000;4.359967
3348.000000;3.801825
3347.000000;3.537696
3346.000000;3.486919
3345.000000;3.477063
3344.000000;3.463311
3343.000000;3.472412
3342.000000;3.460013
3341.000000;3.468525
3340.000000;3.723301
3339.000000;4.059397
3338.000000;3.594544
3337.000000;3.663917
3336.000000;4.136179
3335.000000;3.394245
3334.000000;3.232482
3333.000000;3.246337
3332.000000;3.345426
3331.000000;3.481206
3330.000000;3.622084
3329.000000;3.751953
3328.000000;3.733451
3327.000000;3.592975
3326.000000;3.574652
3325.000000;3.665914
3324.000000;3.744772
3323.000000;3.759956
3322.000000;3.790221
3321.000000;3.735622
3320.000000;3.600884
3319.000000;3.491986
3318.000000;3.417422
3317.000000;3.396616
3316.000000;3.459475
3315.000000;3.503044
3314.000000;3.356936
3313.000000;3.178890
3312.000000;3.056672
3311.000000;3.020035
3310.000000;3.092758
3309.000000;3.264075
3308.000000;3.409692
3307.000000;3.412180
3306.000000;3.380355
3305.000000;3.402049
3304.000000;3.557148
3303.000000;3.995776
3302.000000;3.938944
3301.000000;3.511204
3300.000000;3.450451
3299.000000;3.647133
3298.000000;3.690259
3297.000000;3.446234
3296.000000;3.423349
3295.000000;3.855451
3294.000000;3.924575
3293.000000;3.406245
3292.000000;3.293839
3291.000000;3.288990
3290.000000;3.355037
3289.000000;3.417855
3288.000000;3.412662
3287.000000;3.386563
3286.000000;3.408021
3285.000000;3.493577
3284.000000;3.616886
3283.000000;3.602503
3282.000000;3.651980
3281.000000;3.815066
3280.000000;3.503893
3279.000000;3.373379
3278.000000;3.492704
3277.000000;3.890890
3276.000000;3.609905
3275.000000;3.307369
3274.000000;3.220460
3273.000000;3.251012
3272.000000;3.384120
3271.000000;3.566698
3270.000000;3.962187
3269.000000;4.032192
3268.000000;3.547874
3267.000000;3.339216
3266.000000;3.236683
3265.000000;3.260102
3264.000000;3.444787
3263.000000;3.827261
3262.000000;3.491606
3261.000000;3.240803
3260.000000;3.171365
3259.000000;3.182734
3258.000000;3.239420
3257.000000;3.300271
3256.000000;3.374607
3255.000000;3.485701
3254.000000;3.615609
3253.000000;3.566494
3252.000000;3.347118
3251.000000;3.238019
3250.000000;3.222378
3249.000000;3.214411
3248.000000;3.207681
3247.000000;3.261244
3246.000000;3.399310
3245.000000;3.639875
3244.000000;3.849972
3243.000000;3.792747
3242.000000;3.663193
3241.000000;3.508640
3240.000000;3.393841
3239.000000;3.376524
3238.000000;3.451430
3237.000000;3.458953
3236.000000;3.393181
3235.000000;3.350176
3234.000000;3.294398
3233.000000;3.319795
3232.000000;3.531038
3231.000000;4.228598
3230.000000;3.656382
3229.000000;3.475575
3228.000000;3.448365
3227.000000;3.479670
3226.000000;3.478762
3225.000000;3.401720
3224.000000;3.370601
3223.000000;3.448575
3222.000000;3.589172
3221.000000;3.613742
3220.000000;3.530479
3219.000000;3.539907
3218.000000;3.631220
3217.000000;3.516334
3216.000000;3.365169
3215.000000;3.373096
3214.000000;3.534556
3213.000000;4.126355
3212.000000;3.771600
3211.000000;3.487108
3210.000000;3.473975
3209.000000;3.418115
3208.000000;3.474455
3207.000000;3.780492
3206.000000;3.867922
3205.000000;3.787526
3204.000000;3.674634
3203.000000;3.622223
3202.000000;3.765096
3201.000000;3.577567
3200.000000;3.318822
3199.000000;3.203536
3198.000000;3.196059
3197.000000;3.299784
3196.000000;3.592482
3195.000000;3.777493
3194.000000;3.485915
3193.000000;3.466986
3192.000000;3.437453
3191.000000;3.330695
3190.000000;3.303290
3189.000000;3.453029
3188.000000;3.527111
3187.000000;3.374053
3186.000000;3.307402
3185.000000;3.305529
3184.000000;3.364294
3183.000000;3.549405
3182.000000;3.645283
3181.000000;3.481824
3180.000000;3.433822
3179.000000;3.567682
3178.000000;3.873469
3177.000000;3.766443
3176.000000;3.530596
3175.000000;3.453491
3174.000000;3.579395
3173.000000;4.018230
3172.000000;3.747465
3171.000000;3.437092
3170.000000;3.248660
3169.000000;3.194343
3168.000000;3.288113
3167.000000;3.557527
3166.000000;3.674110
3165.000000;3.473671
3164.000000;3.445412
3163.000000;3.463481
3162.000000;3.449086
3161.000000;3.347904
3160.000000;3.248940
3159.000000;3.265051
3158.000000;3.414645
3157.000000;3.710073
3156.000000;3.788516
3155.000000;3.603261
3154.000000;3.598124
3153.000000;3.482239
3152.000000;3.272595
3151.000000;3.164920
3150.000000;3.151934
3149.000000;3.202436
3148.000000;3.247812
3147.000000;3.270197
3146.000000;3.396614
3145.000000;3.840747
3144.000000;3.826103
3143.000000;3.476953
3142.000000;3.487196
3141.000000;3.712063
3140.000000;4.219376
3139.000000;3.935489
3138.000000;3.674277
3137.000000;3.582785
3136.000000;3.505724
3135.000000;3.470337
3134.000000;3.505088
3133.000000;3.462530
3132.000000;3.341388
3131.000000;3.281247
3130.000000;3.279036
3129.000000;3.279226
3128.000000;3.235827
3127.000000;3.168389
3126.000000;3.111652
3125.000000;3.096088
3124.000000;3.164999
3123.000000;3.370608
3122.000000;3.780506
3121.000000;3.901106
3120.000000;3.672774
3119.000000;3.408902
3118.000000;3.299172
3117.000000;3.345226
3116.000000;3.421788
3115.000000;3.379298
3114.000000;3.376402
3113.000000;3.454168
3112.000000;3.688024
3111.000000;4.219161
3110.000000;3.957310
3109.000000;3.692866
3108.000000;3.621780
3107.000000;3.544055
3106.000000;3.518863
3105.000000;3.568570
3104.000000;3.762760
3103.000000;3.537544
3102.000000;3.278779
3101.000000;3.233019
3100.000000;3.320441
3099.000000;3.471044
3098.000000;3.566048
3097.000000;3.610568
3096.000000;3.742496
3095.000000;3.984987
3094.000000;3.599890
3093.000000;3.371022
3092.000000;3.320346
3091.000000;3.424555
3090.000000;3.652111
3089.000000;3.784696
3088.000000;3.872137
3087.000000;4.138609
3086.000000;3.998294
3085.000000;3.620544
3084.000000;3.456683
3083.000000;3.409895
3082.000000;3.409014
3081.000000;3.448954
3080.000000;3.542015
3079.000000;3.720608
3078.000000;3.541153
3077.000000;3.307075
3076.000000;3.281221
3075.000000;3.367274
3074.000000;3.483227
3073.000000;3.623271
3072.000000;3.667069
3071.000000;3.592350
3070.000000;3.647211
3069.000000;3.877345
3068.000000;3.968562
3067.000000;3.901873
3066.000000;3.940294
3065.000000;4.141820
3064.000000;4.228525
3063.000000;3.758150
3062.000000;3.497818
3061.000000;3.392626
3060.000000;3.472010
3059.000000;3.926660
3058.000000;4.026810
3057.000000;3.587241
3056.000000;3.600973
3055.000000;4.021726
3054.000000;3.839706
3053.000000;3.420693
3052.000000;3.615033
3051.000000;3.826990
3050.000000;3.412088
3049.000000;3.238514
3048.000000;3.227925
3047.000000;3.214920
3046.000000;3.153790
3045.000000;3.126281
3044.000000;3.209624
3043.000000;3.555652
3042.000000;3.821828
3041.000000;3.342997
3040.000000;3.230148
3039.000000;3.248972
3038.000000;3.285083
3037.000000;3.330466
3036.000000;3.411209
3035.000000;3.510514
3034.000000;3.773075
3033.000000;4.319557
3032.000000;3.808604
3031.000000;3.508166
3030.000000;3.332428
3029.000000;3.229353
3028.000000;3.198225
3027.000000;3.244278
3026.000000;3.311176
3025.000000;3.344459
3024.000000;3.424236
3023.000000;3.749487
3022.000000;3.957190
3021.000000;3.585900
3020.000000;3.467748
3019.000000;3.645101
3018.000000;3.579777
3017.000000;3.300138
3016.000000;3.205072
3015.000000;3.239823
3014.000000;3.358693
3013.000000;3.639363
3012.000000;3.943597
3011.000000;3.565600
3010.000000;3.520986
3009.000000;3.547271
3008.000000;3.487883
3007.000000;3.543522
3006.000000;3.924959
3005.000000;3.874976
3004.000000;3.451530
3003.000000;3.341216
3002.000000;3.322879
3001.000000;3.346604
3000.000000;3.328819
2999.000000;3.368926
2998.000000;3.631761
2997.000000;4.220699
2996.000000;3.941102
2995.000000;3.660953
2994.000000;3.506511
2993.000000;3.364558
2992.000000;3.297418
2991.000000;3.304843
2990.000000;3.372653
2989.000000;3.448680
2988.000000;3.480874
2987.000000;3.430326
2986.000000;3.434903
2985.000000;3.626119
2984.000000;3.548982
2983.000000;3.381947
2982.000000;3.455734
2981.000000;3.593323
2980.000000;3.564684
2979.000000;3.471028
2978.000000;3.393966
2977.000000;3.395329
2976.000000;3.561555
2975.000000;3.719549
2974.000000;3.776294
2973.000000;3.700285
2972.000000;3.417646
2971.000000;3.316486
2970.000000;3.361841
2969.000000;3.561179
2968.000000;3.514842
2967.000000;3.204175
2966.000000;3.016003
2965.000000;2.914141
2964.000000;2.870168
2963.000000;2.879528
2962.000000;2.946054
2961.000000;3.086193
2960.000000;3.330163
2959.000000;3.536401
2958.000000;3.518858
2957.000000;3.682913
2956.000000;3.797018
2955.000000;3.557447
2954.000000;3.463205
2953.000000;3.398478
2952.000000;3.484941
2951.000000;3.756484
2950.000000;3.648059
2949.000000;3.541431
2948.000000;3.912270
2947.000000;4.262866
2946.000000;4.126592
2945.000000;4.216654
2944.000000;3.773707
2943.000000;3.627885
2942.000000;3.598295
2941.000000;3.635425
2940.000000;3.662889
2939.000000;3.457748
2938.000000;3.311548
2937.000000;3.289167
2936.000000;3.398862
2935.000000;3.745333
2934.000000;3.571956
2933.000000;3.297496
2932.000000;3.224500
2931.000000;3.233960
2930.000000;3.311516
2929.000000;3.481806
2928.000000;3.923436
2927.000000;3.982496
2926.000000;3.443382
2925.000000;3.315367
2924.000000;3.386417
2923.000000;3.782065
2922.000000;3.923224
2921.000000;3.572120
2920.000000;3.662753
2919.000000;3.983185
2918.000000;3.849235
2917.000000;3.644708
2916.000000;3.767847
2915.000000;3.919216
2914.000000;3.740185
2913.000000;3.521065
2912.000000;3.426656
2911.000000;3.490114
2910.000000;3.698954
2909.000000;3.942376
2908.000000;4.208206
2907.000000;4.320759
2906.000000;3.801729
2905.000000;3.425901
2904.000000;3.220931
2903.000000;3.156706
2902.000000;3.218587
2901.000000;3.339534
2900.000000;3.371274
2899.000000;3.353057
2898.000000;3.393957
2897.000000;3.820408
2896.000000;4.058980
2895.000000;3.450745
2894.000000;3.386516
2893.000000;3.400061
2892.000000;3.607207
2891.000000;3.558683
2890.000000;3.195712
2889.000000;3.065037
2888.000000;3.096955
2887.000000;3.266472
2886.000000;3.405493
2885.000000;3.371135
2884.000000;3.358714
2883.000000;3.429516
2882.000000;3.462041
2881.000000;3.348814
2880.000000;3.310665
2879.000000;3.436187
2878.000000;3.686170
2877.000000;3.891024
2876.000000;3.962227
2875.000000;3.828482
2874.000000;3.530732
2873.000000;3.401615
2872.000000;3.438222
2871.000000;3.553277
2870.000000;3.580056
2869.000000;3.545076
2868.000000;3.578696
2867.000000;3.656665
2866.000000;3.768635
2865.000000;3.908010
2864.000000;4.024694
2863.000000;4.086949
2862.000000;3.891536
2861.000000;3.683009
2860.000000;3.629053
2859.000000;3.644536
2858.000000;3.630564
2857.000000;3.626800
2856.000000;3.721074
2855.000000;3.774555
2854.000000;3.595874
2853.000000;3.441161
2852.000000;3.396612
2851.000000;3.410902
2850.000000;3.458891
2849.000000;3.543935
2848.000000;3.802478
2847.000000;4.313143
2846.000000;3.917205
2845.000000;3.566923
2844.000000;3.405949
2843.000000;3.399576
2842.000000;3.427333
2841.000000;3.362654
2840.000000;3.324834
2839.000000;3.341571
2838.000000;3.468374
2837.000000;3.831086
2836.000000;3.700428
2835.000000;3.372265
2834.000000;3.256760
2833.000000;3.207109
2832.000000;3.193877
2831.000000;3.240518
2830.000000;3.390799
2829.000000;3.641155
2828.000000;3.719905
2827.000000;3.527315
2826.000000;3.419893
2825.000000;3.391076
2824.000000;3.336518
2823.000000;3.288357
2822.000000;3.252709
2821.000000;3.222267
2820.000000;3.243600
2819.000000;3.404130
2818.000000;3.913371
2817.000000;4.123673
2816.000000;3.975079
2815.000000;4.096975
2814.000000;3.677305
2813.000000;3.692537
2812.000000;3.839792
2811.000000;3.651779
2810.000000;3.528638
2809.000000;3.456133
2808.000000;3.325498
2807.000000;3.297723
2806.000000;3.611021
2805.000000;3.709841
2804.000000;3.352944
2803.000000;3.295638
2802.000000;3.427480
2801.000000;3.749677
2800.000000;4.292168
2799.000000;4.256786
2798.000000;3.871162
2797.000000;3.954561
2796.000000;4.138534
2795.000000;3.482361
2794.000000;3.236231
2793.000000;3.174969
2792.000000;3.199015
2791.000000;3.248780
2790.000000;3.218498
2789.000000;3.178665
2788.000000;3.199942
2787.000000;3.290263
2786.000000;3.564020
2785.000000;3.771683
2784.000000;3.412952
2783.000000;3.275393
2782.000000;3.367051
2781.000000;3.615797
2780.000000;3.825323
2779.000000;3.673330
2778.000000;3.462767
2777.000000;3.367690
2776.000000;3.371039
2775.000000;3.411036
2774.000000;3.453198
2773.000000;3.490031
2772.000000;3.531376
2771.000000;3.538468
2770.000000;3.451574
2769.000000;3.369335
2768.000000;3.381141
2767.000000;3.494216
2766.000000;3.717951
2765.000000;3.736817
2764.000000;3.553959
2763.000000;3.573975
2762.000000;3.860908
2761.000000;4.224734
2760.000000;3.630864
2759.000000;3.239642
2758.000000;3.072472
2757.000000;3.047616
2756.000000;3.151588
2755.000000;3.372861
2754.000000;3.699070
2753.000000;3.855352
2752.000000;3.845636
2751.000000;3.813987
2750.000000;3.702863
2749.000000;3.641276
2748.000000;3.698128
2747.000000;3.560086
2746.000000;3.636097
2745.000000;4.141672
2744.000000;3.428135
2743.000000;3.157283
2742.000000;3.135059
2741.000000;3.241755
2740.000000;3.517007
2739.000000;3.794967
2738.000000;3.745921
2737.000000;3.577564
2736.000000;3.455427
2735.000000;3.327735
2734.000000;3.241554
2733.000000;3.236589
2732.000000;3.337917
2731.000000;3.434769
2730.000000;3.393332
2729.000000;3.352205
2728.000000;3.471631
2727.000000;3.640241
2726.000000;3.434742
2725.000000;3.267914
2724.000000;3.277629
2723.000000;3.392195
2722.000000;3.567473
2721.000000;3.612810
2720.000000;3.451880
2719.000000;3.340756
2718.000000;3.362444
2717.000000;3.539339
2716.000000;3.723847
2715.000000;3.571502
2714.000000;3.422899
2713.000000;3.430635
2712.000000;3.578253
2711.000000;3.652493
2710.000000;3.592640
2709.000000;3.563682
2708.000000;3.437018
2707.000000;3.247333
2706.000000;3.090787
2705.000000;3.002820
2704.000000;2.988134
2703.000000;3.040518
2702.000000;3.150227
2701.000000;3.288617
2700.000000;3.388847
2699.000000;3.340148
2698.000000;3.248405
2697.000000;3.257009
2696.000000;3.406054
2695.000000;3.657149
2694.000000;3.694865
2693.000000;3.586065
2692.000000;3.613450
2691.000000;3.784997
2690.000000;4.137390
2689.000000;4.118987
2688.000000;3.753465
2687.000000;3.606557
2686.000000;3.679611
2685.000000;3.929311
2684.000000;3.799304
2683.000000;3.636485
2682.000000;3.697716
2681.000000;3.738082
2680.000000;3.668874
2679.000000;3.496883
2678.000000;3.328753
2677.000000;3.236606
2676.000000;3.236976
2675.000000;3.337748
2674.000000;3.545126
2673.000000;3.987406
2672.000000;3.936044
2671.000000;3.579909
2670.000000;3.441233
2669.000000;3.466827
2668.000000;3.783195
2667.000000;3.721666
2666.000000;3.384757
2665.000000;3.256962
2664.000000;3.208263
2663.000000;3.220352
2662.000000;3.312936
2661.000000;3.520300
2660.000000;3.846607
2659.000000;4.052111
2658.000000;3.957912
2657.000000;3.853887
2656.000000;3.827275
2655.000000;3.936429
2654.000000;4.431962
2653.000000;4.633987
2652.000000;4.087368
2651.000000;4.093137
2650.000000;3.989548
2649.000000;3.798348
2648.000000;3.953515
2647.000000;3.944727
2646.000000;3.613986
2645.000000;3.550866
2644.000000;3.633507
2643.000000;3.623404
2642.000000;3.574578
2641.000000;3.606391
2640.000000;3.779491
2639.000000;3.920579
2638.000000;3.739348
2637.000000;3.693606
2636.000000;3.678822
2635.000000;3.535536
2634.000000;3.493943
2633.000000;3.746367
2632.000000;3.957964
2631.000000;3.556748
2630.000000;3.427501
2629.000000;3.435726
2628.000000;3.500957
2627.000000;3.639920
2626.000000;3.790585
2625.000000;4.115273
2624.000000;4.277253
2623.000000;4.050622
2622.000000;3.978035
2621.000000;4.136213
2620.000000;4.725444
2619.000000;4.313838
2618.000000;3.870218
2617.000000;3.957164
2616.000000;4.358385
2615.000000;3.822125
2614.000000;3.583304
2613.000000;3.744592
2612.000000;3.864417
2611.000000;3.518643
2610.000000;3.433641
2609.000000;3.545586
2608.000000;3.903903
2607.000000;4.896868
2606.000000;3.906984
2605.000000;3.741513
2604.000000;3.855152
2603.000000;4.259698
2602.000000;4.188243
2601.000000;3.801560
2600.000000;3.631092
2599.000000;3.475397
2598.000000;3.469222
2597.000000;3.613218
2596.000000;3.892985
2595.000000;4.042932
2594.000000;4.000882
2593.000000;4.187856
2592.000000;4.439022
2591.000000;4.187032
2590.000000;3.900316
2589.000000;4.080244
2588.000000;4.126533
2587.000000;3.677484
2586.000000;3.517834
2585.000000;3.743368
2584.000000;4.113628
2583.000000;3.546092
2582.000000;3.372660
2581.000000;3.368982
2580.000000;3.415611
2579.000000;3.527794
2578.000000;3.597908
2577.000000;3.627118
2576.000000;3.611191
2575.000000;3.596418
2574.000000;3.647173
2573.000000;3.740182
2572.000000;3.748934
2571.000000;4.163395
2570.000000;4.215933
2569.000000;3.564016
2568.000000;3.423792
2567.000000;3.451225
2566.000000;3.670732
2565.000000;4.065301
2564.000000;3.811478
2563.000000;3.624208
2562.000000;3.617080
2561.000000;3.709796
2560.000000;3.833070
2559.000000;3.708880
2558.000000;3.534636
2557.000000;3.421894
2556.000000;3.377533
2555.000000;3.429010
2554.000000;3.598031
2553.000000;3.773443
2552.000000;3.668863
2551.000000;3.581061
2550.000000;3.676662
2549.000000;3.839544
2548.000000;4.009773
2547.000000;4.426392
2546.000000;4.437086
2545.000000;3.889646
2544.000000;3.549792
2543.000000;3.415610
2542.000000;3.441972
2541.000000;3.503099
2540.000000;3.530866
2539.000000;3.445284
2538.000000;3.345921
2537.000000;3.330381
2536.000000;3.481173
2535.000000;3.926117
2534.000000;3.748603
2533.000000;3.600836
2532.000000;3.821545
2531.000000;3.751882
2530.000000;3.525380
2529.000000;3.492312
2528.000000;3.568034
2527.000000;3.912399
2526.000000;4.753749
2525.000000;3.872148
2524.000000;3.691173
2523.000000;3.577425
2522.000000;3.475022
2521.000000;3.470656
2520.000000;3.576889
2519.000000;3.763948
2518.000000;3.896981
2517.000000;4.354287
2516.000000;4.104471
2515.000000;3.643324
2514.000000;3.522424
2513.000000;3.515821
2512.000000;3.447395
2511.000000;3.303634
2510.000000;3.235107
2509.000000;3.260627
2508.000000;3.352554
2507.000000;3.462459
2506.000000;3.503058
2505.000000;3.508053
2504.000000;3.625422
2503.000000;3.972791
2502.000000;4.147742
2501.000000;3.872423
2500.000000;3.691175
2499.000000;3.630991
2498.000000;3.722326
2497.000000;3.810899
2496.000000;3.788046
2495.000000;3.836929
2494.000000;3.754681
2493.000000;3.599471
2492.000000;3.562246
2491.000000;3.566883
2490.000000;3.502104
2489.000000;3.376045
2488.000000;3.323518
2487.000000;3.377512
2486.000000;3.578902
2485.000000;4.087502
2484.000000;4.016946
2483.000000;3.794116
2482.000000;3.909492
2481.000000;3.935347
2480.000000;3.733962
2479.000000;3.567356
2478.000000;3.500989
2477.000000;3.501860
2476.000000;3.556662
2475.000000;3.672933
2474.000000;3.845847
2473.000000;3.985995
2472.000000;3.984153
2471.000000;3.815657
2470.000000;3.681223
2469.000000;3.705230
2468.000000;3.728540
2467.000000;3.620600
2466.000000;3.641374
2465.000000;4.010131
2464.000000;4.156141
2463.000000;3.947791
2462.000000;3.850938
2461.000000;3.564067
2460.000000;3.449138
2459.000000;3.553865
2458.000000;3.832641
2457.000000;3.980908
2456.000000;4.026659
2455.000000;3.911918
2454.000000;3.645636
2453.000000;3.547743
2452.000000;3.570650
2451.000000;3.787189
2450.000000;4.397638
2449.000000;3.896275
2448.000000;3.579875
2447.000000;3.497558
2446.000000;3.557390
2445.000000;3.816009
2444.000000;4.157751
2443.000000;4.041009
2442.000000;3.840738
2441.000000;3.719637
2440.000000;3.687800
2439.000000;3.595132
2438.000000;3.439963
2437.000000;3.431079
2436.000000;3.635975
2435.000000;3.960693
2434.000000;4.011264
2433.000000;3.916061
2432.000000;3.682556
2431.000000;3.448903
2430.000000;3.336400
2429.000000;3.374605
2428.000000;3.552236
2427.000000;3.576136
2426.000000;3.446468
2425.000000;3.390328
2424.000000;3.396755
2423.000000;3.479090
2422.000000;3.644300
2421.000000;3.948322
2420.000000;4.571839
2419.000000;4.359513
2418.000000;4.052943
2417.000000;3.762374
2416.000000;3.550957
2415.000000;3.459211
2414.000000;3.442508
2413.000000;3.479323
2412.000000;3.597515
2411.000000;3.752738
2410.000000;3.781245
2409.000000;3.797984
2408.000000;3.855911
2407.000000;3.982319
2406.000000;4.107480
2405.000000;3.816324
2404.000000;3.624684
2403.000000;3.644358
2402.000000;3.879261
2401.000000;4.329711
2400.000000;3.989276
2399.000000;3.680550
2398.000000;3.522953
2397.000000;3.467655
2396.000000;3.517562
2395.000000;3.622974
2394.000000;3.777074
2393.000000;3.748418
2392.000000;3.540977
2391.000000;3.477176
2390.000000;3.791040
2389.000000;4.597883
2388.000000;3.800705
2387.000000;3.942774
2386.000000;4.159411
2385.000000;3.969002
2384.000000;3.756917
2383.000000;3.528245
2382.000000;3.467505
2381.000000;3.510819
2380.000000;3.344693
2379.000000;3.138966
2378.000000;3.124548
2377.000000;3.284607
2376.000000;3.609193
2375.000000;3.944728
2374.000000;3.744101
2373.000000;3.525773
2372.000000;3.420006
2371.000000;3.337437
2370.000000;3.259923
2369.000000;3.207588
2368.000000;3.220014
2367.000000;3.303295
2366.000000;3.577204
2365.000000;3.918615
2364.000000;3.439946
2363.000000;3.356488
2362.000000;3.518771
2361.000000;3.752914
2360.000000;3.692449
2359.000000;3.558980
2358.000000;3.552133
2357.000000;3.554212
2356.000000;3.456153
2355.000000;3.244345
2354.000000;3.129588
2353.000000;3.187377
2352.000000;3.360201
2351.000000;4.108404
2350.000000;3.690311
2349.000000;3.321569
2348.000000;3.444410
2347.000000;3.268600
2346.000000;3.161819
2345.000000;3.243130
2344.000000;3.322308
2343.000000;3.433725
2342.000000;3.619130
2341.000000;3.747824
2340.000000;3.558260
2339.000000;3.270351
2338.000000;3.112747
2337.000000;3.074132
2336.000000;3.103679
2335.000000;3.213687
2334.000000;3.393114
2333.000000;3.377103
2332.000000;3.301362
2331.000000;3.437211
2330.000000;3.988952
2329.000000;4.090120
2328.000000;3.532277
2327.000000;3.406956
2326.000000;3.324764
2325.000000;3.268422
2324.000000;3.197037
2323.000000;3.165509
2322.000000;3.263300
2321.000000;3.507186
2320.000000;3.778675
2319.000000;3.788684
2318.000000;3.602789
2317.000000;3.471914
2316.000000;3.402941
2315.000000;3.435112
2314.000000;3.719336
2313.000000;3.626599
2312.000000;3.293935
2311.000000;3.232781
2310.000000;3.302951
2309.000000;3.383340
2308.000000;3.348236
2307.000000;3.270398
2306.000000;3.240144
2305.000000;3.280390
2304.000000;3.364825
2303.000000;3.451690
2302.000000;3.517632
2301.000000;3.564368
2300.000000;3.544729
2299.000000;3.482167
2298.000000;3.445333
2297.000000;3.464543
2296.000000;3.561030
2295.000000;3.755541
2294.000000;3.885987
2293.000000;3.647992
2292.000000;3.407300
2291.000000;3.292648
2290.000000;3.298425
2289.000000;3.416919
2288.000000;3.688910
2287.000000;4.095877
2286.000000;3.595235
2285.000000;3.403540
2284.000000;3.396570
2283.000000;3.481944
2282.000000;3.578374
2281.000000;3.648614
2280.000000;3.932962
2279.000000;4.469961
2278.000000;3.957873
2277.000000;4.052982
2276.000000;3.980074
2275.000000;3.753763
2274.000000;3.714473
2273.000000;3.648816
2272.000000;3.585165
2271.000000;3.534060
2270.000000;3.447075
2269.000000;3.395722
2268.000000;3.440295
2267.000000;3.616089
2266.000000;3.788232
2265.000000;3.637524
2264.000000;3.508562
2263.000000;3.481382
2262.000000;3.520879
2261.000000;3.593005
2260.000000;3.632521
2259.000000;3.665890
2258.000000;3.791084
2257.000000;4.055571
2256.000000;3.879996
2255.000000;3.544011
2254.000000;3.379195
2253.000000;3.326071
2252.000000;3.355189
2251.000000;3.436111
2250.000000;3.554592
2249.000000;3.718954
2248.000000;3.694983
2247.000000;3.528643
2246.000000;3.498850
2245.000000;3.660405
2244.000000;3.859170
2243.000000;3.742005
2242.000000;3.734488
2241.000000;3.778690
2240.000000;3.620300
2239.000000;3.498363
2238.000000;3.494716
2237.000000;3.622167
2236.000000;3.863113
2235.000000;3.749128
2234.000000;3.584131
2233.000000;3.489766
2232.000000;3.428277
2231.000000;3.453064
2230.000000;3.600941
2229.000000;3.841043
2228.000000;3.977068
2227.000000;3.967618
2226.000000;3.922476
2225.000000;3.815107
2224.000000;3.722658
2223.000000;3.697743
2222.000000;3.711726
2221.000000;3.759882
2220.000000;3.936860
2219.000000;4.370379
2218.000000;3.836466
2217.000000;3.467405
2216.000000;3.350460
2215.000000;3.352432
2214.000000;3.456296
2213.000000;3.602232
2212.000000;3.552031
2211.000000;3.410754
2210.000000;3.384015
2209.000000;3.496906
2208.000000;3.736606
2207.000000;3.973521
2206.000000;3.937552
2205.000000;3.751664
2204.000000;3.606493
2203.000000;3.577883
2202.000000;3.665632
2201.000000;3.777969
2200.000000;3.749572
2199.000000;3.585637
2198.000000;3.436612
2197.000000;3.397263
2196.000000;3.523043
2195.000000;3.821720
2194.000000;3.876205
2193.000000;3.745987
2192.000000;3.720612
2191.000000;3.684505
2190.000000;3.637856
2189.000000;3.578832
2188.000000;3.540602
2187.000000;3.545285
2186.000000;3.585585
2185.000000;3.610051
2184.000000;3.574590
2183.000000;3.498721
2182.000000;3.450683
2181.000000;3.506425
2180.000000;3.797447
2179.000000;4.046549
2178.000000;3.647234
2177.000000;3.622895
2176.000000;3.785698
2175.000000;3.788861
2174.000000;3.585845
2173.000000;3.511315
2172.000000;3.517554
2171.000000;3.575218
2170.000000;3.665088
2169.000000;3.813870
2168.000000;4.015303
2167.000000;4.196412
2166.000000;3.988715
2165.000000;3.784052
2164.000000;3.828020
2163.000000;4.097649
2162.000000;4.620250
2161.000000;4.744835
2160.000000;4.242038
2159.000000;3.898985
2158.000000;3.796674
2157.000000;3.907794
2156.000000;4.634816
2155.000000;3.852911
2154.000000;3.661189
2153.000000;3.622908
2152.000000;3.498707
2151.000000;3.432021
2150.000000;3.496435
2149.000000;3.639228
2148.000000;3.767441
2147.000000;3.919615
2146.000000;4.344423
2145.000000;4.331415
2144.000000;3.809143
2143.000000;3.633944
2142.000000;3.540611
2141.000000;3.536611
2140.000000;3.567224
2139.000000;3.603562
2138.000000;3.804880
2137.000000;4.034748
2136.000000;3.810111
2135.000000;3.726840
2134.000000;3.721460
2133.000000;3.588310
2132.000000;3.453871
2131.000000;3.404660
2130.000000;3.410944
2129.000000;3.420343
2128.000000;3.441449
2127.000000;3.530211
2126.000000;3.695656
2125.000000;3.815504
2124.000000;3.750699
2123.000000;3.597346
2122.000000;3.530139
2121.000000;3.557758
2120.000000;3.682788
2119.000000;3.887453
2118.000000;3.746411
2117.000000;3.546037
2116.000000;3.548375
2115.000000;3.692116
2114.000000;3.862598
2113.000000;3.994424
2112.000000;4.157655
2111.000000;4.037094
2110.000000;3.793447
2109.000000;3.689632
2108.000000;3.780934
2107.000000;4.105295
2106.000000;3.827553
2105.000000;3.635679
2104.000000;3.641815
2103.000000;3.686586
2102.000000;3.716378
2101.000000;3.722034
2100.000000;3.717293
2099.000000;3.686045
2098.000000;3.643524
2097.000000;3.652552
2096.000000;3.734898
2095.000000;4.002897
2094.000000;4.811356
2093.000000;3.827355
2092.000000;3.758335
2091.000000;3.866382
2090.000000;4.013458
2089.000000;3.983139
2088.000000;3.980828
2087.000000;4.025703
2086.000000;4.187878
2085.000000;4.283925
2084.000000;4.077284
2083.000000;3.983459
2082.000000;3.875706
2081.000000;3.770998
2080.000000;3.717628
2079.000000;3.574345
2078.000000;3.469426
2077.000000;3.464778
2076.000000;3.499753
2075.000000;3.546539
2074.000000;3.630371
2073.000000;3.710207
2072.000000;3.712252
2071.000000;3.710703
2070.000000;3.752302
2069.000000;3.871660
2068.000000;4.227160
2067.000000;4.582645
2066.000000;3.867575
2065.000000;3.638154
2064.000000;3.534404
2063.000000;3.571090
2062.000000;3.745534
2061.000000;4.288697
2060.000000;4.634969
2059.000000;3.895606
2058.000000;3.745900
2057.000000;3.817714
2056.000000;4.153256
2055.000000;4.482613
2054.000000;4.456730
2053.000000;4.495810
2052.000000;4.239037
2051.000000;3.906617
2050.000000;3.678655
2049.000000;3.532758
2048.000000;3.469735
2047.000000;3.497915
2046.000000;3.585339
2045.000000;3.636597
2044.000000;3.736189
2043.000000;3.995253
2042.000000;4.005203
2041.000000;3.780728
2040.000000;3.631840
2039.000000;3.537082
2038.000000;3.473681
2037.000000;3.438902
2036.000000;3.476652
2035.000000;3.621429
2034.000000;3.794359
2033.000000;3.851206
2032.000000;3.774273
2031.000000;3.658035
2030.000000;3.619405
2029.000000;3.654491
2028.000000;3.684674
2027.000000;3.624450
2026.000000;3.557005
2025.000000;3.579332
2024.000000;3.726431
2023.000000;4.104711
2022.000000;4.463784
2021.000000;3.952165
2020.000000;3.692510
2019.000000;3.533922
2018.000000;3.427209
2017.000000;3.353730
2016.000000;3.323801
2015.000000;3.354250
2014.000000;3.418363
2013.000000;3.443651
2012.000000;3.432583
2011.000000;3.463092
2010.000000;3.610043
2009.000000;3.876444
2008.000000;3.822589
2007.000000;3.680747
2006.000000;3.730874
2005.000000;3.939277
2004.000000;3.867486
2003.000000;3.547544
2002.000000;3.355574
2001.000000;3.245036
2000.000000;3.233012
1999.000000;3.356594
1998.000000;3.720280
1997.000000;4.431508
1996.000000;4.313198
1995.000000;4.166868
1994.000000;3.980019
1993.000000;3.850563
1992.000000;3.767336
1991.000000;3.724030
1990.000000;3.762493
1989.000000;3.897684
1988.000000;4.209789
1987.000000;4.821214
1986.000000;4.098498
1985.000000;3.762087
1984.000000;3.548560
1983.000000;3.465282
1982.000000;3.531972
1981.000000;3.750467
1980.000000;3.875354
1979.000000;3.827802
1978.000000;3.902212
1977.000000;4.081867
1976.000000;4.291262
1975.000000;4.323552
1974.000000;4.085447
1973.000000;3.843944
1972.000000;3.765503
1971.000000;3.797970
1970.000000;3.831142
1969.000000;3.881776
1968.000000;4.065476
1967.000000;4.602095
1966.000000;4.033163
1965.000000;3.821885
1964.000000;3.849516
1963.000000;3.878114
1962.000000;3.793917
1961.000000;3.753075
1960.000000;3.744387
1959.000000;3.750125
1958.000000;3.831917
1957.000000;3.862622
1956.000000;3.726304
1955.000000;3.678610
1954.000000;3.933389
1953.000000;4.191723
1952.000000;3.768944
1951.000000;3.624793
1950.000000;3.613625
1949.000000;3.680462
1948.000000;3.925252
1947.000000;4.044012
1946.000000;3.679726
1945.000000;3.490955
1944.000000;3.469617
1943.000000;3.572384
1942.000000;3.726013
1941.000000;3.700333
1940.000000;3.609218
1939.000000;3.605226
1938.000000;3.720348
1937.000000;4.043700
1936.000000;5.021784
1935.000000;4.466161
1934.000000;4.360683
1933.000000;4.330851
1932.000000;4.150761
1931.000000;3.951382
1930.000000;3.833560
1929.000000;3.809099
1928.000000;3.884569
1927.000000;4.116350
1926.000000;4.486456
1925.000000;4.008856
1924.000000;3.670126
1923.000000;3.558394
1922.000000;3.560580
1921.000000;3.662886
1920.000000;3.793329
1919.000000;3.859674
1918.000000;3.865527
1917.000000;3.834207
1916.000000;3.762420
1915.000000;3.723009
1914.000000;3.795480
1913.000000;3.865479
1912.000000;3.688372
1911.000000;3.551265
1910.000000;3.547981
1909.000000;3.688401
1908.000000;4.029365
1907.000000;3.990127
1906.000000;3.685309
1905.000000;3.577433
1904.000000;3.578067
1903.000000;3.659981
1902.000000;4.106569
1901.000000;4.633396
1900.000000;3.905139
1899.000000;3.977661
1898.000000;3.911972
1897.000000;3.695763
1896.000000;3.593340
1895.000000;3.588431
1894.000000;3.557602
1893.000000;3.495460
1892.000000;3.547039
1891.000000;3.718712
1890.000000;4.070982
1889.000000;4.512844
1888.000000;4.108883
1887.000000;4.089718
1886.000000;4.063635
1885.000000;3.832372
1884.000000;3.783293
1883.000000;3.906956
1882.000000;3.941489
1881.000000;3.823427
1880.000000;3.831744
1879.000000;3.881739
1878.000000;3.843574
1877.000000;3.754829
1876.000000;3.640421
1875.000000;3.554391
1874.000000;3.517624
1873.000000;3.529820
1872.000000;3.593560
1871.000000;3.739593
1870.000000;4.043811
1869.000000;4.085873
1868.000000;3.841728
1867.000000;3.726495
1866.000000;3.680422
1865.000000;3.751080
1864.000000;3.896125
1863.000000;3.962601
1862.000000;4.048708
1861.000000;3.990754
1860.000000;3.747937
1859.000000;3.607678
1858.000000;3.604026
1857.000000;3.762165
1856.000000;3.989926
1855.000000;3.896431
1854.000000;3.741458
1853.000000;3.654179
1852.000000;3.673422
1851.000000;3.855745
1850.000000;4.137509
1849.000000;3.928010
1848.000000;3.592563
1847.000000;3.422648
1846.000000;3.361037
1845.000000;3.355810
1844.000000;3.377242
1843.000000;3.439414
1842.000000;3.548053
1841.000000;3.647929
1840.000000;3.663642
1839.000000;3.578327
1838.000000;3.478005
1837.000000;3.468657
1836.000000;3.594710
1835.000000;3.859156
1834.000000;4.103313
1833.000000;3.981856
1832.000000;3.839624
1831.000000;3.787135
1830.000000;3.754091
1829.000000;3.757968
1828.000000;3.837533
1827.000000;3.876162
1826.000000;3.739957
1825.000000;3.578751
1824.000000;3.513390
1823.000000;3.584751
1822.000000;3.800923
1821.000000;3.902018
1820.000000;3.716981
1819.000000;3.644997
1818.000000;3.755114
1817.000000;4.015001
1816.000000;4.010197
1815.000000;3.721076
1814.000000;3.593437
1813.000000;3.650787
1812.000000;3.783727
1811.000000;3.728897
1810.000000;3.622293
1809.000000;3.632933
1808.000000;3.793686
1807.000000;4.113911
1806.000000;4.266328
1805.000000;4.080919
1804.000000;3.900071
1803.000000;3.800471
1802.000000;3.689038
1801.000000;3.581456
1800.000000;3.535922
1799.000000;3.559788
1798.000000;3.635745
1797.000000;3.836893
1796.000000;4.289101
1795.000000;3.987446
1794.000000;3.695673
1793.000000;3.676035
1792.000000;3.794450
1791.000000;4.126778
1790.000000;4.251685
1789.000000;3.992050
1788.000000;3.960856
1787.000000;3.982735
1786.000000;3.839065
1785.000000;3.659129
1784.000000;3.558061
1783.000000;3.521473
1782.000000;3.554652
1781.000000;3.686085
1780.000000;3.975162
1779.000000;4.391330
1778.000000;4.347401
1777.000000;4.187975
1776.000000;3.988477
1775.000000;3.802858
1774.000000;3.696813
1773.000000;3.647643
1772.000000;3.652137
1771.000000;3.801907
1770.000000;4.195293
1769.000000;4.133320
1768.000000;3.909277
1767.000000;3.923703
1766.000000;3.990199
1765.000000;3.982620
1764.000000;3.822874
1763.000000;3.667119
1762.000000;3.575104
1761.000000;3.576791
1760.000000;3.701350
1759.000000;3.796877
1758.000000;3.762092
1757.000000;3.821201
1756.000000;3.966985
1755.000000;4.009323
1754.000000;4.010186
1753.000000;4.219949
1752.000000;4.989974
1751.000000;4.460750
1750.000000;4.124655
1749.000000;4.040283
1748.000000;3.998605
1747.000000;3.975558
1746.000000;3.953168
1745.000000;3.909562
1744.000000;3.860320
1743.000000;3.901623
1742.000000;3.874228
1741.000000;3.705005
1740.000000;3.602138
1739.000000;3.583824
1738.000000;3.582329
1737.000000;3.614091
1736.000000;3.670690
1735.000000;3.689329
1734.000000;3.659003
1733.000000;3.702746
1732.000000;4.088235
1731.000000;4.065436
1730.000000;3.692862
1729.000000;3.631192
1728.000000;3.699147
1727.000000;3.808098
1726.000000;3.967743
1725.000000;4.385041
1724.000000;4.253006
1723.000000;3.821570
1722.000000;3.648304
1721.000000;3.630112
1720.000000;3.696410
1719.000000;3.758686
1718.000000;3.790433
1717.000000;3.889170
1716.000000;4.098477
1715.000000;3.983510
1714.000000;3.790778
1713.000000;3.730625
1712.000000;3.680640
1711.000000;3.646879
1710.000000;3.843021
1709.000000;4.216752
1708.000000;3.961129
1707.000000;3.886283
1706.000000;4.059583
1705.000000;4.207013
1704.000000;4.058861
1703.000000;3.814580
1702.000000;3.756696
1701.000000;3.799537
1700.000000;3.812994
1699.000000;3.806722
1698.000000;3.798641
1697.000000;3.786659
1696.000000;3.796095
1695.000000;3.840871
1694.000000;3.893687
1693.000000;3.972108
1692.000000;4.022973
1691.000000;3.910233
1690.000000;3.811263
1689.000000;3.940786
1688.000000;4.213452
1687.000000;4.108391
1686.000000;4.008329
1685.000000;3.918496
1684.000000;3.771447
1683.000000;3.705639
1682.000000;3.731012
1681.000000;3.870970
1680.000000;4.173451
1679.000000;4.098039
1678.000000;3.942034
1677.000000;4.092917
1676.000000;4.110055
1675.000000;3.898781
1674.000000;3.797885
1673.000000;3.774971
1672.000000;3.947000
1671.000000;4.253639
1670.000000;3.962041
1669.000000;3.770327
1668.000000;3.806263
1667.000000;4.045058
1666.000000;4.067979
1665.000000;3.887407
1664.000000;3.905566
1663.000000;3.936754
1662.000000;4.145148
1661.000000;4.169320
1660.000000;3.736706
1659.000000;3.581965
1658.000000;3.614785
1657.000000;3.697185
1656.000000;3.654926
1655.000000;3.610703
1654.000000;3.700701
1653.000000;3.890613
1652.000000;4.066058
1651.000000;3.981021
1650.000000;3.862545
1649.000000;3.876443
1648.000000;3.989118
1647.000000;4.074901
1646.000000;3.995646
1645.000000;3.817302
1644.000000;3.695634
1643.000000;3.667203
1642.000000;3.732540
1641.000000;3.833178
1640.000000;3.721957
1639.000000;3.546742
1638.000000;3.509658
1637.000000;3.608300
1636.000000;3.806655
1635.000000;4.068433
1634.000000;4.081086
1633.000000;3.753872
1632.000000;3.549132
1631.000000;3.504589
1630.000000;3.523650
1629.000000;3.494383
1628.000000;3.459359
1627.000000;3.485647
1626.000000;3.584050
1625.000000;3.768318
1624.000000;4.111516
1623.000000;4.822977
1622.000000;5.028502
1621.000000;4.711912
1620.000000;4.082369
1619.000000;3.799504
1618.000000;3.744034
1617.000000;3.879388
1616.000000;4.242276
1615.000000;4.004065
1614.000000;3.762577
1613.000000;3.721652
1612.000000;3.751658
1611.000000;3.831156
1610.000000;3.913300
1609.000000;3.981038
1608.000000;3.936390
1607.000000;3.757992
1606.000000;3.606433
1605.000000;3.552294
1604.000000;3.671780
1603.000000;3.855722
1602.000000;3.733004
1601.000000;3.603546
1600.000000;3.614488
1599.000000;3.623827
1598.000000;3.672341
1597.000000;4.084401
1596.000000;4.140543
1595.000000;3.710061
1594.000000;3.652531
1593.000000;3.868433
1592.000000;4.154573
1591.000000;3.921413
1590.000000;3.896331
1589.000000;4.012097
1588.000000;4.167513
1587.000000;4.449313
1586.000000;4.156910
1585.000000;4.049368
1584.000000;4.126072
1583.000000;4.123919
1582.000000;4.031025
1581.000000;3.948568
1580.000000;3.938070
1579.000000;3.981413
1578.000000;3.936901
1577.000000;3.871701
1576.000000;3.858964
1575.000000;3.795833
1574.000000;3.743285
1573.000000;3.863301
1572.000000;4.101997
1571.000000;3.986259
1570.000000;3.762410
1569.000000;3.653326
1568.000000;3.593436
1567.000000;3.720401
1566.000000;3.976443
1565.000000;3.655494
1564.000000;3.437636
1563.000000;3.403190
1562.000000;3.439514
1561.000000;3.495189
1560.000000;3.490002
1559.000000;3.446399
1558.000000;3.416359
1557.000000;3.419524
1556.000000;3.433797
1555.000000;3.454759
1554.000000;3.504312
1553.000000;3.610757
1552.000000;3.787414
1551.000000;4.092736
1550.000000;4.548784
1549.000000;4.334495
1548.000000;4.078759
1547.000000;4.040720
1546.000000;4.104798
1545.000000;4.278492
1544.000000;4.167986
1543.000000;3.937510
1542.000000;3.847006
1541.000000;3.822919
1540.000000;3.859855
1539.000000;3.786146
1538.000000;3.647013
1537.000000;3.581715
1536.000000;3.597336
1535.000000;3.664656
1534.000000;3.909158
1533.000000;4.348318
1532.000000;4.017095
1531.000000;3.883360
1530.000000;3.904652
1529.000000;3.880991
1528.000000;4.015833
1527.000000;4.102056
1526.000000;3.814895
1525.000000;3.696287
1524.000000;3.807842
1523.000000;4.196478
1522.000000;4.857907
1521.000000;4.429572
1520.000000;4.187157
1519.000000;4.189849
1518.000000;4.535703
1517.000000;4.309765
1516.000000;3.880381
1515.000000;3.685168
1514.000000;3.604004
1513.000000;3.625617
1512.000000;3.692372
1511.000000;3.702930
1510.000000;3.617036
1509.000000;3.537782
1508.000000;3.484490
1507.000000;3.486071
1506.000000;3.563076
1505.000000;3.904349
1504.000000;4.290713
1503.000000;3.680646
1502.000000;3.522820
1501.000000;3.518877
1500.000000;3.574659
1499.000000;3.714119
1498.000000;3.919067
1497.000000;4.310629
1496.000000;4.233139
1495.000000;3.991324
1494.000000;3.950826
1493.000000;3.987352
1492.000000;3.968890
1491.000000;3.865806
1490.000000;3.750710
1489.000000;3.680669
1488.000000;3.659679
1487.000000;3.716296
1486.000000;3.852144
1485.000000;3.848278
1484.000000;3.704656
1483.000000;3.692199
1482.000000;3.786025
1481.000000;4.103975
1480.000000;4.638886
1479.000000;4.141682
1478.000000;3.977182
1477.000000;3.796717
1476.000000;3.679603
1475.000000;3.715153
1474.000000;3.842728
1473.000000;4.076525
1472.000000;4.262027
1471.000000;4.142631
1470.000000;3.874032
1469.000000;3.737442
1468.000000;3.748164
1467.000000;3.938966
1466.000000;4.100356
1465.000000;4.051304
1464.000000;4.463633
1463.000000;4.454130
1462.000000;3.978168
1461.000000;3.866364
1460.000000;3.768548
1459.000000;3.680571
1458.000000;3.621290
1457.000000;3.602730
1456.000000;3.663290
1455.000000;3.766955
1454.000000;3.806901
1453.000000;3.803849
1452.000000;3.805373
1451.000000;3.760269
1450.000000;3.674551
1449.000000;3.600153
1448.000000;3.546772
1447.000000;3.473928
1446.000000;3.396510
1445.000000;3.386163
1444.000000;3.488324
1443.000000;3.670089
1442.000000;3.775930
1441.000000;3.771794
1440.000000;3.754979
1439.000000;3.723866
1438.000000;3.701842
1437.000000;3.701832
1436.000000;3.772509
1435.000000;4.032892
1434.000000;4.265056
1433.000000;4.289464
1432.000000;4.262906
1431.000000;3.977014
1430.000000;3.825973
1429.000000;3.757239
1428.000000;3.661752
1427.000000;3.564707
1426.000000;3.513612
1425.000000;3.536715
1424.000000;3.636803
1423.000000;3.782364
1422.000000;3.867107
1421.000000;3.927270
1420.000000;4.022500
1419.000000;4.060803
1418.000000;4.091074
1417.000000;4.114153
1416.000000;4.180972
1415.000000;4.141480
1414.000000;3.862488
1413.000000;3.698455
1412.000000;3.670354
1411.000000;3.705462
1410.000000;3.748884
1409.000000;3.809867
1408.000000;4.045627
1407.000000;4.311223
1406.000000;4.015357
1405.000000;3.833735
1404.000000;3.783357
1403.000000;3.830910
1402.000000;3.972498
1401.000000;4.044425
1400.000000;4.018312
1399.000000;3.952033
1398.000000;3.956840
1397.000000;4.026883
1396.000000;3.936056
1395.000000;3.805513
1394.000000;3.759453
1393.000000;4.045055
1392.000000;4.549204
1391.000000;4.007779
1390.000000;3.979174
1389.000000;3.908373
1388.000000;3.807723
1387.000000;3.848238
1386.000000;3.859309
1385.000000;3.792915
1384.000000;3.715597
1383.000000;3.567700
1382.000000;3.438133
1381.000000;3.438621
1380.000000;3.693216
1379.000000;4.202642
1378.000000;3.806591
1377.000000;3.678218
1376.000000;3.785467
1375.000000;3.942850
1374.000000;4.302692
1373.000000;4.542071
1372.000000;4.257722
1371.000000;4.054694
1370.000000;3.944767
1369.000000;3.941436
1368.000000;4.118069
1367.000000;4.419906
1366.000000;4.398483
1365.000000;4.158976
1364.000000;3.846436
1363.000000;3.676190
1362.000000;3.663364
1361.000000;3.819174
1360.000000;4.301587
1359.000000;4.182570
1358.000000;3.825126
1357.000000;3.762446
1356.000000;3.826002
1355.000000;4.034243
1354.000000;3.929412
1353.000000;3.752753
1352.000000;3.742768
1351.000000;3.774678
1350.000000;3.754724
1349.000000;3.725534
1348.000000;3.786867
1347.000000;3.927156
1346.000000;3.994818
1345.000000;3.976711
1344.000000;4.260280
1343.000000;4.263663
1342.000000;3.874294
1341.000000;3.778530
1340.000000;3.636795
1339.000000;3.476815
1338.000000;3.373850
1337.000000;3.313986
1336.000000;3.296132
1335.000000;3.343268
1334.000000;3.448163
1333.000000;3.548715
1332.000000;3.567352
1331.000000;3.526262
1330.000000;3.557157
1329.000000;3.795956
1328.000000;4.260753
1327.000000;4.056333
1326.000000;3.859397
1325.000000;3.800041
1324.000000;3.691168
1323.000000;3.604813
1322.000000;3.596595
1321.000000;3.744617
1320.000000;4.127248
1319.000000;4.047786
1318.000000;3.976173
1317.000000;4.036604
1316.000000;4.008988
1315.000000;4.160168
1314.000000;3.940286
1313.000000;3.703477
1312.000000;3.645546
1311.000000;3.658400
1310.000000;3.770844
1309.000000;4.038825
1308.000000;4.291482
1307.000000;4.092724
1306.000000;3.813011
1305.000000;3.693186
1304.000000;3.687506
1303.000000;3.606463
1302.000000;3.497369
1301.000000;3.474267
1300.000000;3.537067
1299.000000;3.668406
1298.000000;3.808932
1297.000000;3.853449
1296.000000;3.838751
1295.000000;3.793260
1294.000000;3.667328
1293.000000;3.564388
1292.000000;3.560517
1291.000000;3.664199
1290.000000;3.946291
1289.000000;4.223157
1288.000000;3.912076
1287.000000;3.886995
1286.000000;4.084140
1285.000000;4.315107
1284.000000;4.231985
1283.000000;4.056736
1282.000000;3.934559
1281.000000;3.823078
1280.000000;3.764628
1279.000000;3.891598
1278.000000;4.325566
1277.000000;4.167608
1276.000000;3.845582
1275.000000;3.689149
1274.000000;3.630389
1273.000000;3.694233
1272.000000;3.812951
1271.000000;3.910166
1270.000000;3.938746
1269.000000;3.920374
1268.000000;3.860883
1267.000000;3.815065
1266.000000;3.889399
1265.000000;4.308082
1264.000000;4.227663
1263.000000;3.900853
1262.000000;3.869564
1261.000000;3.765637
1260.000000;3.617382
1259.000000;3.690851
1258.000000;3.986425
1257.000000;3.764171
1256.000000;3.599576
1255.000000;3.688587
1254.000000;3.730416
1253.000000;3.596034
1252.000000;3.547989
1251.000000;3.602130
1250.000000;3.658822
1249.000000;3.641873
1248.000000;3.608111
1247.000000;3.599017
1246.000000;3.609045
1245.000000;3.654093
1244.000000;3.829733
1243.000000;4.434803
1242.000000;3.945788
1241.000000;3.654881
1240.000000;3.558622
1239.000000;3.540458
1238.000000;3.578112
1237.000000;3.630840
1236.000000;3.700773
1235.000000;3.758590
1234.000000;3.765641
1233.000000;3.749092
1232.000000;3.903345
1231.000000;4.351964
1230.000000;3.901580
1229.000000;3.570526
1228.000000;3.434289
1227.000000;3.408154
1226.000000;3.500658
1225.000000;3.633958
1224.000000;3.578784
1223.000000;3.464214
1222.000000;3.430709
1221.000000;3.435250
1220.000000;3.450420
1219.000000;3.443867
1218.000000;3.380385
1217.000000;3.282204
1216.000000;3.207461
1215.000000;3.200601
1214.000000;3.268634
1213.000000;3.370484
1212.000000;3.440239
1211.000000;3.465727
1210.000000;3.485130
1209.000000;3.528552
1208.000000;3.653266
1207.000000;4.004664
1206.000000;4.246957
1205.000000;3.918990
1204.000000;3.990510
1203.000000;4.089056
1202.000000;3.877462
1201.000000;3.684432
1200.000000;3.552530
