Criado como novo conjunto de dados;"1909daniel.spp","-4282725.0 Secs"
cm-1;Abs
10000.000000;1.119810
9999.000000;1.119599
9998.000000;1.119366
9997.000000;1.119188
9996.000000;1.118637
9995.000000;1.117178
9994.000000;1.115307
9993.000000;1.114104
9992.000000;1.113886
9991.000000;1.113800
9990.000000;1.113024
9989.000000;1.111758
9988.000000;1.110712
9987.000000;1.110082
9986.000000;1.109529
9985.000000;1.108870
9984.000000;1.108344
9983.000000;1.108254
9982.000000;1.108651
9981.000000;1.109254
9980.000000;1.109525
9979.000000;1.108996
9978.000000;1.107730
9977.000000;1.106269
9976.000000;1.104993
9975.000000;1.103806
9974.000000;1.102605
9973.000000;1.101672
9972.000000;1.101224
9971.000000;1.100910
9970.000000;1.100189
9969.000000;1.099040
9968.000000;1.097910
9967.000000;1.097078
9966.000000;1.096473
9965.000000;1.095990
9964.000000;1.095599
9963.000000;1.095142
9962.000000;1.094439
9961.000000;1.093608
9960.000000;1.092987
9959.000000;1.092700
9958.000000;1.092549
9957.000000;1.092327
9956.000000;1.091932
9955.000000;1.091212
9954.000000;1.090035
9953.000000;1.088593
9952.000000;1.087361
9951.000000;1.086647
9950.000000;1.086318
9949.000000;1.086016
9948.000000;1.085499
9947.000000;1.084769
9946.000000;1.084054
9945.000000;1.083628
9944.000000;1.083460
9943.000000;1.083063
9942.000000;1.081906
9941.000000;1.079992
9940.000000;1.077862
9939.000000;1.076079
9938.000000;1.074938
9937.000000;1.074585
9936.000000;1.075016
9935.000000;1.075814
9934.000000;1.076232
9933.000000;1.075783
9932.000000;1.074622
9931.000000;1.073315
9930.000000;1.072393
9929.000000;1.072073
9928.000000;1.072100
9927.000000;1.071790
9926.000000;1.070599
9925.000000;1.068854
9924.000000;1.067596
9923.000000;1.067446
9922.000000;1.067896
9921.000000;1.067958
9920.000000;1.067264
9919.000000;1.066193
9918.000000;1.065119
9917.000000;1.064029
9916.000000;1.062852
9915.000000;1.061712
9914.000000;1.060702
9913.000000;1.059730
9912.000000;1.058750
9911.000000;1.057918
9910.000000;1.057335
9909.000000;1.056835
9908.000000;1.056208
9907.000000;1.055501
9906.000000;1.054921
9905.000000;1.054538
9904.000000;1.054221
9903.000000;1.053801
9902.000000;1.053142
9901.000000;1.052167
9900.000000;1.050993
9899.000000;1.049977
9898.000000;1.049419
9897.000000;1.049191
9896.000000;1.048811
9895.000000;1.047935
9894.000000;1.046680
9893.000000;1.045460
9892.000000;1.044658
9891.000000;1.044453
9890.000000;1.044741
9889.000000;1.045074
9888.000000;1.044842
9887.000000;1.043731
9886.000000;1.041992
9885.000000;1.040208
9884.000000;1.038830
9883.000000;1.037973
9882.000000;1.037562
9881.000000;1.037478
9880.000000;1.037565
9879.000000;1.037633
9878.000000;1.037544
9877.000000;1.037259
9876.000000;1.036754
9875.000000;1.035975
9874.000000;1.034871
9873.000000;1.033474
9872.000000;1.031958
9871.000000;1.030600
9870.000000;1.029625
9869.000000;1.029009
9868.000000;1.028474
9867.000000;1.027729
9866.000000;1.026712
9865.000000;1.025570
9864.000000;1.024521
9863.000000;1.023795
9862.000000;1.023563
9861.000000;1.023747
9860.000000;1.023900
9859.000000;1.023479
9858.000000;1.022312
9857.000000;1.020711
9856.000000;1.019128
9855.000000;1.017811
9854.000000;1.016812
9853.000000;1.016138
9852.000000;1.015727
9851.000000;1.015351
9850.000000;1.014742
9849.000000;1.013840
9848.000000;1.012841
9847.000000;1.011960
9846.000000;1.011231
9845.000000;1.010549
9844.000000;1.009845
9843.000000;1.009129
9842.000000;1.008380
9841.000000;1.007570
9840.000000;1.006828
9839.000000;1.006440
9838.000000;1.006516
9837.000000;1.006757
9836.000000;1.006721
9835.000000;1.006282
9834.000000;1.005639
9833.000000;1.004885
9832.000000;1.003844
9831.000000;1.002412
9830.000000;1.000838
9829.000000;0.999503
9828.000000;0.998569
9827.000000;0.997996
9826.000000;0.997725
9825.000000;0.997660
9824.000000;0.997594
9823.000000;0.997380
9822.000000;0.997079
9821.000000;0.996718
9820.000000;0.996003
9819.000000;0.994586
9818.000000;0.992622
9817.000000;0.990806
9816.000000;0.989750
9815.000000;0.989487
9814.000000;0.989612
9813.000000;0.989720
9812.000000;0.989594
9811.000000;0.989122
9810.000000;0.988230
9809.000000;0.986994
9808.000000;0.985731
9807.000000;0.984869
9806.000000;0.984575
9805.000000;0.984562
9804.000000;0.984361
9803.000000;0.983840
9802.000000;0.983255
9801.000000;0.982763
9800.000000;0.982118
9799.000000;0.981046
9798.000000;0.979701
9797.000000;0.978505
9796.000000;0.977659
9795.000000;0.977078
9794.000000;0.976666
9793.000000;0.976375
9792.000000;0.976051
9791.000000;0.975547
9790.000000;0.974966
9789.000000;0.974525
9788.000000;0.974156
9787.000000;0.973582
9786.000000;0.972825
9785.000000;0.972314
9784.000000;0.972311
9783.000000;0.972493
9782.000000;0.972265
9781.000000;0.971344
9780.000000;0.969896
9779.000000;0.968296
9778.000000;0.966914
9777.000000;0.965969
9776.000000;0.965358
9775.000000;0.964704
9774.000000;0.963747
9773.000000;0.962643
9772.000000;0.961737
9771.000000;0.961107
9770.000000;0.960497
9769.000000;0.959688
9768.000000;0.958753
9767.000000;0.957856
9766.000000;0.956959
9765.000000;0.955957
9764.000000;0.955007
9763.000000;0.954486
9762.000000;0.954498
9761.000000;0.954628
9760.000000;0.954402
9759.000000;0.953903
9758.000000;0.953596
9757.000000;0.953568
9756.000000;0.953319
9755.000000;0.952450
9754.000000;0.951242
9753.000000;0.950251
9752.000000;0.949592
9751.000000;0.948931
9750.000000;0.948010
9749.000000;0.946817
9748.000000;0.945370
9747.000000;0.943759
9746.000000;0.942359
9745.000000;0.941606
9744.000000;0.941492
9743.000000;0.941555
9742.000000;0.941428
9741.000000;0.941130
9740.000000;0.940788
9739.000000;0.940344
9738.000000;0.939673
9737.000000;0.938773
9736.000000;0.937742
9735.000000;0.936727
9734.000000;0.935950
9733.000000;0.935585
9732.000000;0.935566
9731.000000;0.935679
9730.000000;0.935820
9729.000000;0.935954
9728.000000;0.935834
9727.000000;0.935114
9726.000000;0.933829
9725.000000;0.932500
9724.000000;0.931590
9723.000000;0.931010
9722.000000;0.930269
9721.000000;0.928955
9720.000000;0.927057
9719.000000;0.924995
9718.000000;0.923437
9717.000000;0.922895
9716.000000;0.923363
9715.000000;0.924374
9714.000000;0.925350
9713.000000;0.925769
9712.000000;0.925201
9711.000000;0.923598
9710.000000;0.921569
9709.000000;0.920000
9708.000000;0.919210
9707.000000;0.918733
9706.000000;0.918010
9705.000000;0.917017
9704.000000;0.916056
9703.000000;0.915302
9702.000000;0.914788
9701.000000;0.914597
9700.000000;0.914722
9699.000000;0.914858
9698.000000;0.914580
9697.000000;0.913725
9696.000000;0.912471
9695.000000;0.911147
9694.000000;0.910034
9693.000000;0.909224
9692.000000;0.908585
9691.000000;0.907961
9690.000000;0.907433
9689.000000;0.907167
9688.000000;0.907003
9687.000000;0.906473
9686.000000;0.905361
9685.000000;0.903996
9684.000000;0.902826
9683.000000;0.901982
9682.000000;0.901397
9681.000000;0.901053
9680.000000;0.900842
9679.000000;0.900451
9678.000000;0.899676
9677.000000;0.898704
9676.000000;0.897837
9675.000000;0.897111
9674.000000;0.896444
9673.000000;0.895966
9672.000000;0.895854
9671.000000;0.895887
9670.000000;0.895532
9669.000000;0.894522
9668.000000;0.893133
9667.000000;0.891866
9666.000000;0.891008
9665.000000;0.890501
9664.000000;0.890035
9663.000000;0.889270
9662.000000;0.888130
9661.000000;0.886932
9660.000000;0.886141
9659.000000;0.885995
9658.000000;0.886379
9657.000000;0.886934
9656.000000;0.887183
9655.000000;0.886726
9654.000000;0.885563
9653.000000;0.884137
9652.000000;0.882905
9651.000000;0.881924
9650.000000;0.881020
9649.000000;0.880201
9648.000000;0.879667
9647.000000;0.879435
9646.000000;0.879227
9645.000000;0.878764
9644.000000;0.878000
9643.000000;0.877004
9642.000000;0.875779
9641.000000;0.874334
9640.000000;0.872873
9639.000000;0.871767
9638.000000;0.871286
9637.000000;0.871310
9636.000000;0.871372
9635.000000;0.871085
9634.000000;0.870510
9633.000000;0.869984
9632.000000;0.869579
9631.000000;0.868962
9630.000000;0.867919
9629.000000;0.866797
9628.000000;0.866165
9627.000000;0.866122
9626.000000;0.866164
9625.000000;0.865729
9624.000000;0.864683
9623.000000;0.863285
9622.000000;0.861873
9621.000000;0.860677
9620.000000;0.859809
9619.000000;0.859327
9618.000000;0.859256
9617.000000;0.859516
9616.000000;0.859807
9615.000000;0.859692
9614.000000;0.858921
9613.000000;0.857667
9612.000000;0.856385
9611.000000;0.855448
9610.000000;0.854959
9609.000000;0.854780
9608.000000;0.854622
9607.000000;0.854204
9606.000000;0.853465
9605.000000;0.852632
9604.000000;0.851991
9603.000000;0.851625
9602.000000;0.851420
9601.000000;0.851218
9600.000000;0.850872
9599.000000;0.850246
9598.000000;0.849335
9597.000000;0.848352
9596.000000;0.847555
9595.000000;0.846976
9594.000000;0.846425
9593.000000;0.845741
9592.000000;0.844907
9591.000000;0.843949
9590.000000;0.842856
9589.000000;0.841686
9588.000000;0.840605
9587.000000;0.839765
9586.000000;0.839144
9585.000000;0.838581
9584.000000;0.837958
9583.000000;0.837299
9582.000000;0.836698
9581.000000;0.836194
9580.000000;0.835739
9579.000000;0.835278
9578.000000;0.834800
9577.000000;0.834307
9576.000000;0.833790
9575.000000;0.833246
9574.000000;0.832638
9573.000000;0.831813
9572.000000;0.830622
9571.000000;0.829217
9570.000000;0.828102
9569.000000;0.827669
9568.000000;0.827760
9567.000000;0.827875
9566.000000;0.827739
9565.000000;0.827410
9564.000000;0.826944
9563.000000;0.826323
9562.000000;0.825750
9561.000000;0.825578
9560.000000;0.825709
9559.000000;0.825458
9558.000000;0.824337
9557.000000;0.822746
9556.000000;0.821534
9555.000000;0.821036
9554.000000;0.820886
9553.000000;0.820653
9552.000000;0.820236
9551.000000;0.819648
9550.000000;0.818829
9549.000000;0.817867
9548.000000;0.817131
9547.000000;0.816932
9546.000000;0.817149
9545.000000;0.817317
9544.000000;0.817040
9543.000000;0.816221
9542.000000;0.815002
9541.000000;0.813633
9540.000000;0.812384
9539.000000;0.811449
9538.000000;0.810842
9537.000000;0.810371
9536.000000;0.809758
9535.000000;0.808840
9534.000000;0.807697
9533.000000;0.806591
9532.000000;0.805790
9531.000000;0.805416
9530.000000;0.805385
9529.000000;0.805437
9528.000000;0.805277
9527.000000;0.804827
9526.000000;0.804314
9525.000000;0.803959
9524.000000;0.803618
9523.000000;0.802924
9522.000000;0.801814
9521.000000;0.800686
9520.000000;0.799896
9519.000000;0.799309
9518.000000;0.798557
9517.000000;0.797621
9516.000000;0.796917
9515.000000;0.796789
9514.000000;0.797096
9513.000000;0.797332
9512.000000;0.797060
9511.000000;0.796215
9510.000000;0.795072
9509.000000;0.793991
9508.000000;0.793165
9507.000000;0.792571
9506.000000;0.792107
9505.000000;0.791701
9504.000000;0.791296
9503.000000;0.790841
9502.000000;0.790352
9501.000000;0.789893
9500.000000;0.789448
9499.000000;0.788902
9498.000000;0.788230
9497.000000;0.787595
9496.000000;0.787159
9495.000000;0.786879
9494.000000;0.786595
9493.000000;0.786233
9492.000000;0.785809
9491.000000;0.785282
9490.000000;0.784579
9489.000000;0.783762
9488.000000;0.783051
9487.000000;0.782629
9486.000000;0.782438
9485.000000;0.782201
9484.000000;0.781652
9483.000000;0.780768
9482.000000;0.779791
9481.000000;0.778998
9480.000000;0.778431
9479.000000;0.777873
9478.000000;0.777060
9477.000000;0.775893
9476.000000;0.774504
9475.000000;0.773216
9474.000000;0.772384
9473.000000;0.772116
9472.000000;0.772122
9471.000000;0.771991
9470.000000;0.771621
9469.000000;0.771221
9468.000000;0.770918
9467.000000;0.770588
9466.000000;0.770144
9465.000000;0.769720
9464.000000;0.769420
9463.000000;0.769090
9462.000000;0.768562
9461.000000;0.767922
9460.000000;0.767304
9459.000000;0.766572
9458.000000;0.765511
9457.000000;0.764308
9456.000000;0.763516
9455.000000;0.763453
9454.000000;0.763793
9453.000000;0.763881
9452.000000;0.763385
9451.000000;0.762563
9450.000000;0.761923
9449.000000;0.761652
9448.000000;0.761414
9447.000000;0.760759
9446.000000;0.759679
9445.000000;0.758626
9444.000000;0.757987
9443.000000;0.757727
9442.000000;0.757565
9441.000000;0.757269
9440.000000;0.756679
9439.000000;0.755712
9438.000000;0.754595
9437.000000;0.753892
9436.000000;0.753991
9435.000000;0.754609
9434.000000;0.755047
9433.000000;0.754901
9432.000000;0.754224
9431.000000;0.753100
9430.000000;0.751482
9429.000000;0.749575
9428.000000;0.748001
9427.000000;0.747290
9426.000000;0.747318
9425.000000;0.747483
9424.000000;0.747330
9423.000000;0.746835
9422.000000;0.746212
9421.000000;0.745680
9420.000000;0.745416
9419.000000;0.745488
9418.000000;0.745721
9417.000000;0.745763
9416.000000;0.745402
9415.000000;0.744735
9414.000000;0.743949
9413.000000;0.743017
9412.000000;0.741804
9411.000000;0.740432
9410.000000;0.739343
9409.000000;0.738877
9408.000000;0.738916
9407.000000;0.739045
9406.000000;0.738991
9405.000000;0.738739
9404.000000;0.738348
9403.000000;0.737863
9402.000000;0.737399
9401.000000;0.737070
9400.000000;0.736765
9399.000000;0.736192
9398.000000;0.735269
9397.000000;0.734293
9396.000000;0.733593
9395.000000;0.733142
9394.000000;0.732699
9393.000000;0.732167
9392.000000;0.731593
9391.000000;0.730873
9390.000000;0.729765
9389.000000;0.728314
9388.000000;0.727082
9387.000000;0.726726
9386.000000;0.727342
9385.000000;0.728306
9384.000000;0.728821
9383.000000;0.728599
9382.000000;0.727985
9381.000000;0.727462
9380.000000;0.727165
9379.000000;0.726905
9378.000000;0.726536
9377.000000;0.726105
9376.000000;0.725687
9375.000000;0.725216
9374.000000;0.724562
9373.000000;0.723687
9372.000000;0.722690
9371.000000;0.721731
9370.000000;0.720925
9369.000000;0.720272
9368.000000;0.719693
9367.000000;0.719160
9366.000000;0.718705
9365.000000;0.718235
9364.000000;0.717499
9363.000000;0.716424
9362.000000;0.715390
9361.000000;0.714883
9360.000000;0.714890
9359.000000;0.714941
9358.000000;0.714753
9357.000000;0.714525
9356.000000;0.714435
9355.000000;0.714217
9354.000000;0.713513
9353.000000;0.712426
9352.000000;0.711384
9351.000000;0.710600
9350.000000;0.709958
9349.000000;0.709367
9348.000000;0.708924
9347.000000;0.708676
9346.000000;0.708446
9345.000000;0.708005
9344.000000;0.707310
9343.000000;0.706517
9342.000000;0.705852
9341.000000;0.705467
9340.000000;0.705351
9339.000000;0.705359
9338.000000;0.705358
9337.000000;0.705283
9336.000000;0.705049
9335.000000;0.704528
9334.000000;0.703710
9333.000000;0.702772
9332.000000;0.701890
9331.000000;0.701093
9330.000000;0.700417
9329.000000;0.700032
9328.000000;0.700003
9327.000000;0.700036
9326.000000;0.699723
9325.000000;0.699013
9324.000000;0.698235
9323.000000;0.697634
9322.000000;0.697160
9321.000000;0.696750
9320.000000;0.696565
9319.000000;0.696776
9318.000000;0.697254
9317.000000;0.697646
9316.000000;0.697709
9315.000000;0.697441
9314.000000;0.696904
9313.000000;0.696085
9312.000000;0.694992
9311.000000;0.693791
9310.000000;0.692747
9309.000000;0.692013
9308.000000;0.691527
9307.000000;0.691118
9306.000000;0.690666
9305.000000;0.690149
9304.000000;0.689608
9303.000000;0.689151
9302.000000;0.688908
9301.000000;0.688862
9300.000000;0.688748
9299.000000;0.688269
9298.000000;0.687440
9297.000000;0.686604
9296.000000;0.686076
9295.000000;0.685891
9294.000000;0.685884
9293.000000;0.685853
9292.000000;0.685583
9291.000000;0.684921
9290.000000;0.683970
9289.000000;0.683065
9288.000000;0.682453
9287.000000;0.682097
9286.000000;0.681878
9285.000000;0.681812
9284.000000;0.681919
9283.000000;0.682012
9282.000000;0.681863
9281.000000;0.681514
9280.000000;0.681226
9279.000000;0.681145
9278.000000;0.681175
9277.000000;0.681150
9276.000000;0.680961
9275.000000;0.680511
9274.000000;0.679735
9273.000000;0.678726
9272.000000;0.677714
9271.000000;0.676901
9270.000000;0.676388
9269.000000;0.676225
9268.000000;0.676395
9267.000000;0.676703
9266.000000;0.676838
9265.000000;0.676617
9264.000000;0.676130
9263.000000;0.675597
9262.000000;0.675162
9261.000000;0.674828
9260.000000;0.674494
9259.000000;0.673999
9258.000000;0.673175
9257.000000;0.671957
9256.000000;0.670477
9255.000000;0.669068
9254.000000;0.668124
9253.000000;0.667869
9252.000000;0.668189
9251.000000;0.668726
9250.000000;0.669184
9249.000000;0.669507
9248.000000;0.669752
9247.000000;0.669859
9246.000000;0.669646
9245.000000;0.669025
9244.000000;0.668156
9243.000000;0.667368
9242.000000;0.666867
9241.000000;0.666512
9240.000000;0.665964
9239.000000;0.665146
9238.000000;0.664467
9237.000000;0.664382
9236.000000;0.664748
9235.000000;0.664894
9234.000000;0.664413
9233.000000;0.663612
9232.000000;0.663017
9231.000000;0.662702
9230.000000;0.662350
9229.000000;0.661791
9228.000000;0.661101
9227.000000;0.660301
9226.000000;0.659335
9225.000000;0.658385
9224.000000;0.657862
9223.000000;0.657930
9222.000000;0.658306
9221.000000;0.658623
9220.000000;0.658797
9219.000000;0.658855
9218.000000;0.658630
9217.000000;0.657904
9216.000000;0.656823
9215.000000;0.655907
9214.000000;0.655543
9213.000000;0.655566
9212.000000;0.655439
9211.000000;0.654857
9210.000000;0.654085
9209.000000;0.653674
9208.000000;0.653849
9207.000000;0.654245
9206.000000;0.654265
9205.000000;0.653641
9204.000000;0.652623
9203.000000;0.651656
9202.000000;0.650974
9201.000000;0.650518
9200.000000;0.650181
9199.000000;0.650056
9198.000000;0.650365
9197.000000;0.651107
9196.000000;0.651823
9195.000000;0.651857
9194.000000;0.650955
9193.000000;0.649535
9192.000000;0.648303
9191.000000;0.647632
9190.000000;0.647362
9189.000000;0.647124
9188.000000;0.646747
9187.000000;0.646380
9186.000000;0.646309
9185.000000;0.646611
9184.000000;0.646962
9183.000000;0.646847
9182.000000;0.646094
9181.000000;0.645149
9180.000000;0.644670
9179.000000;0.644820
9178.000000;0.645081
9177.000000;0.644804
9176.000000;0.643880
9175.000000;0.642795
9174.000000;0.642079
9173.000000;0.641793
9172.000000;0.641603
9171.000000;0.641243
9170.000000;0.640789
9169.000000;0.640441
9168.000000;0.640226
9167.000000;0.640070
9166.000000;0.640017
9165.000000;0.640109
9164.000000;0.640051
9163.000000;0.639330
9162.000000;0.637851
9161.000000;0.636242
9160.000000;0.635303
9159.000000;0.635273
9158.000000;0.635775
9157.000000;0.636335
9156.000000;0.636694
9155.000000;0.636728
9154.000000;0.636412
9153.000000;0.635937
9152.000000;0.635608
9151.000000;0.635526
9150.000000;0.635478
9149.000000;0.635221
9148.000000;0.634740
9147.000000;0.634174
9146.000000;0.633627
9145.000000;0.633125
9144.000000;0.632686
9143.000000;0.632352
9142.000000;0.632196
9141.000000;0.632310
9140.000000;0.632707
9139.000000;0.633207
9138.000000;0.633530
9137.000000;0.633530
9136.000000;0.633265
9135.000000;0.632777
9134.000000;0.631935
9133.000000;0.630630
9132.000000;0.629119
9131.000000;0.628004
9130.000000;0.627777
9129.000000;0.628332
9128.000000;0.628995
9127.000000;0.629080
9126.000000;0.628480
9125.000000;0.627698
9124.000000;0.627303
9123.000000;0.627378
9122.000000;0.627517
9121.000000;0.627293
9120.000000;0.626656
9119.000000;0.625920
9118.000000;0.625454
9117.000000;0.625400
9116.000000;0.625636
9115.000000;0.625939
9114.000000;0.626135
9113.000000;0.626138
9112.000000;0.625912
9111.000000;0.625480
9110.000000;0.624937
9109.000000;0.624384
9108.000000;0.623863
9107.000000;0.623440
9106.000000;0.623282
9105.000000;0.623479
9104.000000;0.623764
9103.000000;0.623644
9102.000000;0.622943
9101.000000;0.622051
9100.000000;0.621485
9099.000000;0.621316
9098.000000;0.621209
9097.000000;0.620892
9096.000000;0.620394
9095.000000;0.619877
9094.000000;0.619477
9093.000000;0.619274
9092.000000;0.619234
9091.000000;0.619134
9090.000000;0.618715
9089.000000;0.617982
9088.000000;0.617205
9087.000000;0.616623
9086.000000;0.616275
9085.000000;0.616124
9084.000000;0.616130
9083.000000;0.616166
9082.000000;0.616057
9081.000000;0.615840
9080.000000;0.615807
9079.000000;0.616111
9078.000000;0.616418
9077.000000;0.616174
9076.000000;0.615198
9075.000000;0.613901
9074.000000;0.612888
9073.000000;0.612471
9072.000000;0.612589
9071.000000;0.613018
9070.000000;0.613544
9069.000000;0.613958
9068.000000;0.614062
9067.000000;0.613762
9066.000000;0.613168
9065.000000;0.612516
9064.000000;0.611953
9063.000000;0.611420
9062.000000;0.610779
9061.000000;0.610040
9060.000000;0.609407
9059.000000;0.609105
9058.000000;0.609188
9057.000000;0.609522
9056.000000;0.609866
9055.000000;0.609993
9054.000000;0.609794
9053.000000;0.609347
9052.000000;0.608832
9051.000000;0.608363
9050.000000;0.607921
9049.000000;0.607498
9048.000000;0.607232
9047.000000;0.607304
9046.000000;0.607671
9045.000000;0.608009
9044.000000;0.607989
9043.000000;0.607589
9042.000000;0.607105
9041.000000;0.606834
9040.000000;0.606769
9039.000000;0.606597
9038.000000;0.605980
9037.000000;0.604881
9036.000000;0.603624
9035.000000;0.602661
9034.000000;0.602252
9033.000000;0.602379
9032.000000;0.602889
9031.000000;0.603606
9030.000000;0.604260
9029.000000;0.604486
9028.000000;0.604114
9027.000000;0.603453
9026.000000;0.603072
9025.000000;0.603203
9024.000000;0.603526
9023.000000;0.603610
9022.000000;0.603407
9021.000000;0.603136
9020.000000;0.602854
9019.000000;0.602414
9018.000000;0.601810
9017.000000;0.601280
9016.000000;0.600996
9015.000000;0.600847
9014.000000;0.600629
9013.000000;0.600289
9012.000000;0.599890
9011.000000;0.599496
9010.000000;0.599206
9009.000000;0.599163
9008.000000;0.599352
9007.000000;0.599483
9006.000000;0.599268
9005.000000;0.598793
9004.000000;0.598430
9003.000000;0.598356
9002.000000;0.598334
9001.000000;0.598049
9000.000000;0.597574
8999.000000;0.597344
8998.000000;0.597676
8997.000000;0.598401
8996.000000;0.598995
8995.000000;0.599063
8994.000000;0.598636
8993.000000;0.598036
8992.000000;0.597527
8991.000000;0.597173
8990.000000;0.596949
8989.000000;0.596844
8988.000000;0.596791
8987.000000;0.596600
8986.000000;0.596108
8985.000000;0.595404
8984.000000;0.594815
8983.000000;0.594586
8982.000000;0.594606
8981.000000;0.594515
8980.000000;0.594091
8979.000000;0.593488
8978.000000;0.593035
8977.000000;0.592899
8976.000000;0.592978
8975.000000;0.593106
8974.000000;0.593209
8973.000000;0.593254
8972.000000;0.593148
8971.000000;0.592798
8970.000000;0.592208
8969.000000;0.591479
8968.000000;0.590767
8967.000000;0.590263
8966.000000;0.590116
8965.000000;0.590279
8964.000000;0.590528
8963.000000;0.590715
8962.000000;0.590895
8961.000000;0.591097
8960.000000;0.591115
8959.000000;0.590727
8958.000000;0.590057
8957.000000;0.589504
8956.000000;0.589305
8955.000000;0.589348
8954.000000;0.589405
8953.000000;0.589374
8952.000000;0.589230
8951.000000;0.588940
8950.000000;0.588544
8949.000000;0.588204
8948.000000;0.588088
8947.000000;0.588241
8946.000000;0.588574
8945.000000;0.588897
8944.000000;0.588942
8943.000000;0.588516
8942.000000;0.587713
8941.000000;0.586910
8940.000000;0.586513
8939.000000;0.586712
8938.000000;0.587418
8937.000000;0.588316
8936.000000;0.588978
8935.000000;0.589110
8934.000000;0.588747
8933.000000;0.588134
8932.000000;0.587431
8931.000000;0.586679
8930.000000;0.585988
8929.000000;0.585524
8928.000000;0.585250
8927.000000;0.584915
8926.000000;0.584407
8925.000000;0.583941
8924.000000;0.583773
8923.000000;0.583891
8922.000000;0.584116
8921.000000;0.584382
8920.000000;0.584748
8919.000000;0.585213
8918.000000;0.585635
8917.000000;0.585785
8916.000000;0.585417
8915.000000;0.584437
8914.000000;0.583133
8913.000000;0.582126
8912.000000;0.581897
8911.000000;0.582345
8910.000000;0.582924
8909.000000;0.583196
8908.000000;0.583194
8907.000000;0.583272
8906.000000;0.583669
8905.000000;0.584219
8904.000000;0.584442
8903.000000;0.583953
8902.000000;0.582832
8901.000000;0.581573
8900.000000;0.580679
8899.000000;0.580348
8898.000000;0.580481
8897.000000;0.580816
8896.000000;0.581022
8895.000000;0.580885
8894.000000;0.580528
8893.000000;0.580356
8892.000000;0.580638
8891.000000;0.581198
8890.000000;0.581590
8889.000000;0.581494
8888.000000;0.580866
8887.000000;0.579844
8886.000000;0.578705
8885.000000;0.577857
8884.000000;0.577651
8883.000000;0.578095
8882.000000;0.578809
8881.000000;0.579314
8880.000000;0.579388
8879.000000;0.579191
8878.000000;0.579092
8877.000000;0.579324
8876.000000;0.579767
8875.000000;0.580077
8874.000000;0.580042
8873.000000;0.579747
8872.000000;0.579429
8871.000000;0.579244
8870.000000;0.579211
8869.000000;0.579251
8868.000000;0.579234
8867.000000;0.579080
8866.000000;0.578865
8865.000000;0.578742
8864.000000;0.578698
8863.000000;0.578533
8862.000000;0.578138
8861.000000;0.577687
8860.000000;0.577442
8859.000000;0.577455
8858.000000;0.577556
8857.000000;0.577555
8856.000000;0.577375
8855.000000;0.577076
8854.000000;0.576823
8853.000000;0.576771
8852.000000;0.576903
8851.000000;0.577041
8850.000000;0.577099
8849.000000;0.577238
8848.000000;0.577664
8847.000000;0.578362
8846.000000;0.579105
8845.000000;0.579640
8844.000000;0.579779
8843.000000;0.579410
8842.000000;0.578594
8841.000000;0.577626
8840.000000;0.576874
8839.000000;0.576550
8838.000000;0.576645
8837.000000;0.577010
8836.000000;0.577419
8835.000000;0.577637
8834.000000;0.577585
8833.000000;0.577407
8832.000000;0.577314
8831.000000;0.577365
8830.000000;0.577463
8829.000000;0.577532
8828.000000;0.577598
8827.000000;0.577707
8826.000000;0.577826
8825.000000;0.577853
8824.000000;0.577723
8823.000000;0.577544
8822.000000;0.577570
8821.000000;0.577944
8820.000000;0.578475
8819.000000;0.578791
8818.000000;0.578720
8817.000000;0.578378
8816.000000;0.577883
8815.000000;0.577188
8814.000000;0.576283
8813.000000;0.575397
8812.000000;0.574859
8811.000000;0.574868
8810.000000;0.575464
8809.000000;0.576571
8808.000000;0.577921
8807.000000;0.579091
8806.000000;0.579775
8805.000000;0.579976
8804.000000;0.579837
8803.000000;0.579437
8802.000000;0.578877
8801.000000;0.578413
8800.000000;0.578267
8799.000000;0.578383
8798.000000;0.578558
8797.000000;0.578734
8796.000000;0.578975
8795.000000;0.579238
8794.000000;0.579365
8793.000000;0.579288
8792.000000;0.579047
8791.000000;0.578674
8790.000000;0.578255
8789.000000;0.578079
8788.000000;0.578440
8787.000000;0.579207
8786.000000;0.579812
8785.000000;0.579796
8784.000000;0.579276
8783.000000;0.578774
8782.000000;0.578698
8781.000000;0.579056
8780.000000;0.579584
8779.000000;0.580033
8778.000000;0.580328
8777.000000;0.580520
8776.000000;0.580651
8775.000000;0.580704
8774.000000;0.580688
8773.000000;0.580703
8772.000000;0.580856
8771.000000;0.581141
8770.000000;0.581456
8769.000000;0.581714
8768.000000;0.581884
8767.000000;0.581959
8766.000000;0.581962
8765.000000;0.581957
8764.000000;0.581997
8763.000000;0.582085
8762.000000;0.582233
8761.000000;0.582510
8760.000000;0.582934
8759.000000;0.583357
8758.000000;0.583567
8757.000000;0.583501
8756.000000;0.583318
8755.000000;0.583245
8754.000000;0.583409
8753.000000;0.583777
8752.000000;0.584187
8751.000000;0.584461
8750.000000;0.584543
8749.000000;0.584531
8748.000000;0.584549
8747.000000;0.584612
8746.000000;0.584651
8745.000000;0.584631
8744.000000;0.584587
8743.000000;0.584579
8742.000000;0.584637
8741.000000;0.584706
8740.000000;0.584652
8739.000000;0.584420
8738.000000;0.584218
8737.000000;0.584412
8736.000000;0.585122
8735.000000;0.586016
8734.000000;0.586603
8733.000000;0.586695
8732.000000;0.586498
8731.000000;0.586362
8730.000000;0.586503
8729.000000;0.586895
8728.000000;0.587301
8727.000000;0.587466
8726.000000;0.587373
8725.000000;0.587242
8724.000000;0.587191
8723.000000;0.587051
8722.000000;0.586679
8721.000000;0.586332
8720.000000;0.586460
8719.000000;0.587110
8718.000000;0.587808
8717.000000;0.588126
8716.000000;0.588175
8715.000000;0.588404
8714.000000;0.589030
8713.000000;0.589809
8712.000000;0.590325
8711.000000;0.590373
8710.000000;0.590077
8709.000000;0.589694
8708.000000;0.589395
8707.000000;0.589226
8706.000000;0.589197
8705.000000;0.589319
8704.000000;0.589548
8703.000000;0.589783
8702.000000;0.589974
8701.000000;0.590157
8700.000000;0.590303
8699.000000;0.590250
8698.000000;0.589900
8697.000000;0.589426
8696.000000;0.589153
8695.000000;0.589241
8694.000000;0.589607
8693.000000;0.590114
8692.000000;0.590708
8691.000000;0.591326
8690.000000;0.591797
8689.000000;0.591906
8688.000000;0.591570
8687.000000;0.590969
8686.000000;0.590504
8685.000000;0.590516
8684.000000;0.590946
8683.000000;0.591333
8682.000000;0.591285
8681.000000;0.590924
8680.000000;0.590749
8679.000000;0.591087
8678.000000;0.591803
8677.000000;0.592541
8676.000000;0.593062
8675.000000;0.593310
8674.000000;0.593328
8673.000000;0.593252
8672.000000;0.593286
8671.000000;0.593524
8670.000000;0.593825
8669.000000;0.593950
8668.000000;0.593831
8667.000000;0.593652
8666.000000;0.593662
8665.000000;0.593922
8664.000000;0.594246
8663.000000;0.594358
8662.000000;0.594117
8661.000000;0.593618
8660.000000;0.593096
8659.000000;0.592740
8658.000000;0.592584
8657.000000;0.592518
8656.000000;0.592379
8655.000000;0.592082
8654.000000;0.591729
8653.000000;0.591593
8652.000000;0.591894
8651.000000;0.592550
8650.000000;0.593192
8649.000000;0.593464
8648.000000;0.593310
8647.000000;0.592945
8646.000000;0.592601
8645.000000;0.592343
8644.000000;0.592143
8643.000000;0.592020
8642.000000;0.592049
8641.000000;0.592214
8640.000000;0.592350
8639.000000;0.592275
8638.000000;0.591979
8637.000000;0.591647
8636.000000;0.591491
8635.000000;0.591583
8634.000000;0.591824
8633.000000;0.592049
8632.000000;0.592137
8631.000000;0.592038
8630.000000;0.591736
8629.000000;0.591280
8628.000000;0.590870
8627.000000;0.590823
8626.000000;0.591285
8625.000000;0.591969
8624.000000;0.592363
8623.000000;0.592248
8622.000000;0.591883
8621.000000;0.591590
8620.000000;0.591365
8619.000000;0.591061
8618.000000;0.590795
8617.000000;0.590871
8616.000000;0.591328
8615.000000;0.591837
8614.000000;0.592074
8613.000000;0.591993
8612.000000;0.591708
8611.000000;0.591317
8610.000000;0.590938
8609.000000;0.590703
8608.000000;0.590599
8607.000000;0.590466
8606.000000;0.590259
8605.000000;0.590155
8604.000000;0.590265
8603.000000;0.590393
8602.000000;0.590227
8601.000000;0.589693
8600.000000;0.589007
8599.000000;0.588458
8598.000000;0.588225
8597.000000;0.588335
8596.000000;0.588669
8595.000000;0.589068
8594.000000;0.589509
8593.000000;0.590070
8592.000000;0.590672
8591.000000;0.590978
8590.000000;0.590697
8589.000000;0.589916
8588.000000;0.589017
8587.000000;0.588337
8586.000000;0.587984
8585.000000;0.587893
8584.000000;0.587907
8583.000000;0.587868
8582.000000;0.587730
8581.000000;0.587594
8580.000000;0.587551
8579.000000;0.587563
8578.000000;0.587554
8577.000000;0.587523
8576.000000;0.587490
8575.000000;0.587424
8574.000000;0.587321
8573.000000;0.587266
8572.000000;0.587298
8571.000000;0.587318
8570.000000;0.587242
8569.000000;0.587174
8568.000000;0.587250
8567.000000;0.587400
8566.000000;0.587429
8565.000000;0.587304
8564.000000;0.587186
8563.000000;0.587159
8562.000000;0.587097
8561.000000;0.586838
8560.000000;0.586410
8559.000000;0.586047
8558.000000;0.586005
8557.000000;0.586360
8556.000000;0.586915
8555.000000;0.587310
8554.000000;0.587272
8553.000000;0.586791
8552.000000;0.586075
8551.000000;0.585424
8550.000000;0.585102
8549.000000;0.585199
8548.000000;0.585533
8547.000000;0.585790
8546.000000;0.585835
8545.000000;0.585785
8544.000000;0.585735
8543.000000;0.585594
8542.000000;0.585279
8541.000000;0.584922
8540.000000;0.584699
8539.000000;0.584591
8538.000000;0.584487
8537.000000;0.584407
8536.000000;0.584413
8535.000000;0.584371
8534.000000;0.584058
8533.000000;0.583492
8532.000000;0.582979
8531.000000;0.582821
8530.000000;0.583088
8529.000000;0.583665
8528.000000;0.584323
8527.000000;0.584759
8526.000000;0.584761
8525.000000;0.584394
8524.000000;0.583928
8523.000000;0.583579
8522.000000;0.583407
8521.000000;0.583395
8520.000000;0.583459
8519.000000;0.583403
8518.000000;0.583082
8517.000000;0.582637
8516.000000;0.582404
8515.000000;0.582525
8514.000000;0.582800
8513.000000;0.582965
8512.000000;0.582959
8511.000000;0.582889
8510.000000;0.582859
8509.000000;0.582905
8508.000000;0.582988
8507.000000;0.582971
8506.000000;0.582729
8505.000000;0.582329
8504.000000;0.581987
8503.000000;0.581828
8502.000000;0.581766
8501.000000;0.581693
8500.000000;0.581636
8499.000000;0.581671
8498.000000;0.581774
8497.000000;0.581831
8496.000000;0.581720
8495.000000;0.581363
8494.000000;0.580799
8493.000000;0.580271
8492.000000;0.580109
8491.000000;0.580430
8490.000000;0.581031
8489.000000;0.581613
8488.000000;0.582033
8487.000000;0.582261
8486.000000;0.582234
8485.000000;0.581909
8484.000000;0.581376
8483.000000;0.580790
8482.000000;0.580232
8481.000000;0.579726
8480.000000;0.579370
8479.000000;0.579303
8478.000000;0.579538
8477.000000;0.579929
8476.000000;0.580298
8475.000000;0.580542
8474.000000;0.580622
8473.000000;0.580532
8472.000000;0.580342
8471.000000;0.580204
8470.000000;0.580243
8469.000000;0.580440
8468.000000;0.580619
8467.000000;0.580570
8466.000000;0.580215
8465.000000;0.579676
8464.000000;0.579178
8463.000000;0.578885
8462.000000;0.578814
8461.000000;0.578889
8460.000000;0.579028
8459.000000;0.579148
8458.000000;0.579165
8457.000000;0.579043
8456.000000;0.578818
8455.000000;0.578551
8454.000000;0.578298
8453.000000;0.578138
8452.000000;0.578181
8451.000000;0.578435
8450.000000;0.578702
8449.000000;0.578712
8448.000000;0.578419
8447.000000;0.578073
8446.000000;0.577953
8445.000000;0.578065
8444.000000;0.578170
8443.000000;0.578084
8442.000000;0.577868
8441.000000;0.577696
8440.000000;0.577601
8439.000000;0.577430
8438.000000;0.577062
8437.000000;0.576605
8436.000000;0.576342
8435.000000;0.576467
8434.000000;0.576877
8433.000000;0.577247
8432.000000;0.577323
8431.000000;0.577113
8430.000000;0.576815
8429.000000;0.576570
8428.000000;0.576368
8427.000000;0.576175
8426.000000;0.576053
8425.000000;0.576089
8424.000000;0.576246
8423.000000;0.576378
8422.000000;0.576398
8421.000000;0.576363
8420.000000;0.576368
8419.000000;0.576438
8418.000000;0.576534
8417.000000;0.576643
8416.000000;0.576800
8415.000000;0.577029
8414.000000;0.577275
8413.000000;0.577384
8412.000000;0.577170
8411.000000;0.576575
8410.000000;0.575798
8409.000000;0.575221
8408.000000;0.575151
8407.000000;0.575569
8406.000000;0.576139
8405.000000;0.576464
8404.000000;0.576388
8403.000000;0.576078
8402.000000;0.575820
8401.000000;0.575735
8400.000000;0.575710
8399.000000;0.575583
8398.000000;0.575325
8397.000000;0.575007
8396.000000;0.574686
8395.000000;0.574414
8394.000000;0.574299
8393.000000;0.574448
8392.000000;0.574797
8391.000000;0.575106
8390.000000;0.575144
8389.000000;0.574879
8388.000000;0.574470
8387.000000;0.574139
8386.000000;0.574035
8385.000000;0.574152
8384.000000;0.574355
8383.000000;0.574507
8382.000000;0.574567
8381.000000;0.574562
8380.000000;0.574517
8379.000000;0.574477
8378.000000;0.574543
8377.000000;0.574740
8376.000000;0.574894
8375.000000;0.574777
8374.000000;0.574400
8373.000000;0.574029
8372.000000;0.573883
8371.000000;0.573917
8370.000000;0.573934
8369.000000;0.573802
8368.000000;0.573516
8367.000000;0.573161
8366.000000;0.572889
8365.000000;0.572849
8364.000000;0.573043
8363.000000;0.573322
8362.000000;0.573560
8361.000000;0.573737
8360.000000;0.573833
8359.000000;0.573740
8358.000000;0.573414
8357.000000;0.572994
8356.000000;0.572663
8355.000000;0.572442
8354.000000;0.572222
8353.000000;0.571966
8352.000000;0.571776
8351.000000;0.571757
8350.000000;0.571900
8349.000000;0.572091
8348.000000;0.572196
8347.000000;0.572165
8346.000000;0.572106
8345.000000;0.572192
8344.000000;0.572452
8343.000000;0.572707
8342.000000;0.572767
8341.000000;0.572641
8340.000000;0.572481
8339.000000;0.572368
8338.000000;0.572268
8337.000000;0.572159
8336.000000;0.572101
8335.000000;0.572133
8334.000000;0.572179
8333.000000;0.572090
8332.000000;0.571769
8331.000000;0.571259
8330.000000;0.570727
8329.000000;0.570374
8328.000000;0.570307
8327.000000;0.570473
8326.000000;0.570703
8325.000000;0.570818
8324.000000;0.570747
8323.000000;0.570583
8322.000000;0.570490
8321.000000;0.570504
8320.000000;0.570466
8319.000000;0.570227
8318.000000;0.569887
8317.000000;0.569703
8316.000000;0.569772
8315.000000;0.569927
8314.000000;0.569986
8313.000000;0.569942
8312.000000;0.569862
8311.000000;0.569733
8310.000000;0.569522
8309.000000;0.569283
8308.000000;0.569093
8307.000000;0.568957
8306.000000;0.568857
8305.000000;0.568824
8304.000000;0.568876
8303.000000;0.568955
8302.000000;0.569019
8301.000000;0.569108
8300.000000;0.569221
8299.000000;0.569222
8298.000000;0.568996
8297.000000;0.568640
8296.000000;0.568363
8295.000000;0.568234
8294.000000;0.568177
8293.000000;0.568162
8292.000000;0.568258
8291.000000;0.568463
8290.000000;0.568609
8289.000000;0.568507
8288.000000;0.568137
8287.000000;0.567691
8286.000000;0.567427
8285.000000;0.567468
8284.000000;0.567712
8283.000000;0.567943
8282.000000;0.568073
8281.000000;0.568178
8280.000000;0.568294
8279.000000;0.568290
8278.000000;0.568036
8277.000000;0.567593
8276.000000;0.567116
8275.000000;0.566653
8274.000000;0.566201
8273.000000;0.565892
8272.000000;0.565937
8271.000000;0.566334
8270.000000;0.566785
8269.000000;0.566955
8268.000000;0.566762
8267.000000;0.566387
8266.000000;0.566097
8265.000000;0.566052
8264.000000;0.566212
8263.000000;0.566387
8262.000000;0.566432
8261.000000;0.566374
8260.000000;0.566331
8259.000000;0.566334
8258.000000;0.566310
8257.000000;0.566219
8256.000000;0.566100
8255.000000;0.565996
8254.000000;0.565909
8253.000000;0.565829
8252.000000;0.565740
8251.000000;0.565615
8250.000000;0.565490
8249.000000;0.565461
8248.000000;0.565531
8247.000000;0.565519
8246.000000;0.565273
8245.000000;0.564943
8244.000000;0.564847
8243.000000;0.565053
8242.000000;0.565264
8241.000000;0.565205
8240.000000;0.564955
8239.000000;0.564796
8238.000000;0.564851
8237.000000;0.565017
8236.000000;0.565163
8235.000000;0.565245
8234.000000;0.565252
8233.000000;0.565143
8232.000000;0.564902
8231.000000;0.564577
8230.000000;0.564263
8229.000000;0.564050
8228.000000;0.563989
8227.000000;0.564067
8226.000000;0.564221
8225.000000;0.564375
8224.000000;0.564463
8223.000000;0.564426
8222.000000;0.564246
8221.000000;0.563993
8220.000000;0.563779
8219.000000;0.563643
8218.000000;0.563517
8217.000000;0.563329
8216.000000;0.563087
8215.000000;0.562845
8214.000000;0.562633
8213.000000;0.562463
8212.000000;0.562357
8211.000000;0.562311
8210.000000;0.562285
8209.000000;0.562270
8208.000000;0.562313
8207.000000;0.562426
8206.000000;0.562496
8205.000000;0.562389
8204.000000;0.562123
8203.000000;0.561875
8202.000000;0.561803
8201.000000;0.561930
8200.000000;0.562190
8199.000000;0.562482
8198.000000;0.562661
8197.000000;0.562591
8196.000000;0.562304
8195.000000;0.562036
8194.000000;0.561994
8193.000000;0.562118
8192.000000;0.562147
8191.000000;0.561919
8190.000000;0.561537
8189.000000;0.561217
8188.000000;0.561082
8187.000000;0.561121
8186.000000;0.561252
8185.000000;0.561352
8184.000000;0.561305
8183.000000;0.561114
8182.000000;0.560921
8181.000000;0.560852
8180.000000;0.560846
8179.000000;0.560725
8178.000000;0.560432
8177.000000;0.560112
8176.000000;0.559956
8175.000000;0.560023
8174.000000;0.560238
8173.000000;0.560496
8172.000000;0.560721
8171.000000;0.560867
8170.000000;0.560912
8169.000000;0.560863
8168.000000;0.560751
8167.000000;0.560627
8166.000000;0.560533
8165.000000;0.560472
8164.000000;0.560413
8163.000000;0.560341
8162.000000;0.560291
8161.000000;0.560278
8160.000000;0.560259
8159.000000;0.560201
8158.000000;0.560142
8157.000000;0.560125
8156.000000;0.560100
8155.000000;0.559971
8154.000000;0.559733
8153.000000;0.559481
8152.000000;0.559287
8151.000000;0.559173
8150.000000;0.559186
8149.000000;0.559380
8148.000000;0.559683
8147.000000;0.559899
8146.000000;0.559879
8145.000000;0.559648
8144.000000;0.559322
8143.000000;0.558992
8142.000000;0.558711
8141.000000;0.558512
8140.000000;0.558386
8139.000000;0.558285
8138.000000;0.558206
8137.000000;0.558201
8136.000000;0.558275
8135.000000;0.558360
8134.000000;0.558420
8133.000000;0.558508
8132.000000;0.558626
8131.000000;0.558649
8130.000000;0.558442
8129.000000;0.558042
8128.000000;0.557625
8127.000000;0.557341
8126.000000;0.557239
8125.000000;0.557287
8124.000000;0.557382
8123.000000;0.557390
8122.000000;0.557274
8121.000000;0.557171
8120.000000;0.557262
8119.000000;0.557542
8118.000000;0.557788
8117.000000;0.557773
8116.000000;0.557497
8115.000000;0.557195
8114.000000;0.557144
8113.000000;0.557409
8112.000000;0.557775
8111.000000;0.557922
8110.000000;0.557702
8109.000000;0.557233
8108.000000;0.556747
8107.000000;0.556402
8106.000000;0.556246
8105.000000;0.556274
8104.000000;0.556462
8103.000000;0.556753
8102.000000;0.557068
8101.000000;0.557288
8100.000000;0.557255
8099.000000;0.556880
8098.000000;0.556302
8097.000000;0.555846
8096.000000;0.555726
8095.000000;0.555840
8094.000000;0.555911
8093.000000;0.555786
8092.000000;0.555516
8091.000000;0.555226
8090.000000;0.555000
8089.000000;0.554897
8088.000000;0.554960
8087.000000;0.555180
8086.000000;0.555481
8085.000000;0.555780
8084.000000;0.556020
8083.000000;0.556168
8082.000000;0.556195
8081.000000;0.556087
8080.000000;0.555845
8079.000000;0.555510
8078.000000;0.555192
8077.000000;0.555034
8076.000000;0.555103
8075.000000;0.555325
8074.000000;0.555555
8073.000000;0.555688
8072.000000;0.555709
8071.000000;0.555660
8070.000000;0.555591
8069.000000;0.555526
8068.000000;0.555452
8067.000000;0.555358
8066.000000;0.555261
8065.000000;0.555162
8064.000000;0.554992
8063.000000;0.554664
8062.000000;0.554216
8061.000000;0.553813
8060.000000;0.553608
8059.000000;0.553632
8058.000000;0.553828
8057.000000;0.554116
8056.000000;0.554400
8055.000000;0.554603
8054.000000;0.554742
8053.000000;0.554887
8052.000000;0.555014
8051.000000;0.554979
8050.000000;0.554705
8049.000000;0.554300
8048.000000;0.553939
8047.000000;0.553700
8046.000000;0.553584
8045.000000;0.553600
8044.000000;0.553745
8043.000000;0.553951
8042.000000;0.554151
8041.000000;0.554340
8040.000000;0.554498
8039.000000;0.554532
8038.000000;0.554385
8037.000000;0.554153
8036.000000;0.553981
8035.000000;0.553896
8034.000000;0.553827
8033.000000;0.553757
8032.000000;0.553704
8031.000000;0.553610
8030.000000;0.553391
8029.000000;0.553107
8028.000000;0.552950
8027.000000;0.553011
8026.000000;0.553152
8025.000000;0.553170
8024.000000;0.553014
8023.000000;0.552809
8022.000000;0.552712
8021.000000;0.552791
8020.000000;0.552972
8019.000000;0.553099
8018.000000;0.553067
8017.000000;0.552933
8016.000000;0.552856
8015.000000;0.552926
8014.000000;0.553083
8013.000000;0.553211
8012.000000;0.553257
8011.000000;0.553257
8010.000000;0.553268
8009.000000;0.553301
8008.000000;0.553300
8007.000000;0.553205
8006.000000;0.553033
8005.000000;0.552865
8004.000000;0.552754
8003.000000;0.552673
8002.000000;0.552603
8001.000000;0.552611
8000.000000;0.552780
7999.000000;0.553064
7998.000000;0.553284
7997.000000;0.553275
7996.000000;0.553021
7995.000000;0.552644
7994.000000;0.552294
7993.000000;0.552056
7992.000000;0.551933
7991.000000;0.551913
7990.000000;0.552035
7989.000000;0.552334
7988.000000;0.552727
7987.000000;0.553021
7986.000000;0.553092
7985.000000;0.553002
7984.000000;0.552882
7983.000000;0.552769
7982.000000;0.552627
7981.000000;0.552474
7980.000000;0.552374
7979.000000;0.552305
7978.000000;0.552151
7977.000000;0.551853
7976.000000;0.551491
7975.000000;0.551215
7974.000000;0.551145
7973.000000;0.551328
7972.000000;0.551720
7971.000000;0.552161
7970.000000;0.552451
7969.000000;0.552492
7968.000000;0.552336
7967.000000;0.552108
7966.000000;0.551906
7965.000000;0.551798
7964.000000;0.551815
7963.000000;0.551924
7962.000000;0.552040
7961.000000;0.552113
7960.000000;0.552164
7959.000000;0.552213
7958.000000;0.552205
7957.000000;0.552084
7956.000000;0.551893
7955.000000;0.551761
7954.000000;0.551752
7953.000000;0.551800
7952.000000;0.551815
7951.000000;0.551803
7950.000000;0.551823
7949.000000;0.551847
7948.000000;0.551745
7947.000000;0.551468
7946.000000;0.551163
7945.000000;0.551051
7944.000000;0.551189
7943.000000;0.551433
7942.000000;0.551612
7941.000000;0.551678
7940.000000;0.551680
7939.000000;0.551655
7938.000000;0.551609
7937.000000;0.551553
7936.000000;0.551512
7935.000000;0.551502
7934.000000;0.551528
7933.000000;0.551586
7932.000000;0.551652
7931.000000;0.551699
7930.000000;0.551716
7929.000000;0.551697
7928.000000;0.551617
7927.000000;0.551464
7926.000000;0.551314
7925.000000;0.551291
7924.000000;0.551446
7923.000000;0.551690
7922.000000;0.551896
7921.000000;0.552016
7920.000000;0.552087
7919.000000;0.552165
7918.000000;0.552266
7917.000000;0.552338
7916.000000;0.552286
7915.000000;0.552078
7914.000000;0.551842
7913.000000;0.551783
7912.000000;0.551960
7911.000000;0.552218
7910.000000;0.552366
7909.000000;0.552368
7908.000000;0.552314
7907.000000;0.552268
7906.000000;0.552222
7905.000000;0.552166
7904.000000;0.552115
7903.000000;0.552083
7902.000000;0.552071
7901.000000;0.552071
7900.000000;0.552062
7899.000000;0.552027
7898.000000;0.551986
7897.000000;0.551984
7896.000000;0.552020
7895.000000;0.552030
7894.000000;0.551966
7893.000000;0.551847
7892.000000;0.551719
7891.000000;0.551612
7890.000000;0.551554
7889.000000;0.551556
7888.000000;0.551572
7887.000000;0.551548
7886.000000;0.551543
7885.000000;0.551685
7884.000000;0.551969
7883.000000;0.552201
7882.000000;0.552248
7881.000000;0.552231
7880.000000;0.552363
7879.000000;0.552638
7878.000000;0.552834
7877.000000;0.552779
7876.000000;0.552524
7875.000000;0.552233
7874.000000;0.552034
7873.000000;0.551982
7872.000000;0.552073
7871.000000;0.552243
7870.000000;0.552386
7869.000000;0.552424
7868.000000;0.552359
7867.000000;0.552271
7866.000000;0.552262
7865.000000;0.552376
7864.000000;0.552549
7863.000000;0.552674
7862.000000;0.552714
7861.000000;0.552725
7860.000000;0.552745
7859.000000;0.552740
7858.000000;0.552689
7857.000000;0.552639
7856.000000;0.552621
7855.000000;0.552587
7854.000000;0.552497
7853.000000;0.552418
7852.000000;0.552441
7851.000000;0.552549
7850.000000;0.552640
7849.000000;0.552667
7848.000000;0.552682
7847.000000;0.552759
7846.000000;0.552927
7845.000000;0.553157
7844.000000;0.553351
7843.000000;0.553391
7842.000000;0.553259
7841.000000;0.553082
7840.000000;0.552997
7839.000000;0.553011
7838.000000;0.553027
7837.000000;0.552981
7836.000000;0.552880
7835.000000;0.552782
7834.000000;0.552795
7833.000000;0.553033
7832.000000;0.553457
7831.000000;0.553831
7830.000000;0.553939
7829.000000;0.553825
7828.000000;0.553723
7827.000000;0.553780
7826.000000;0.553955
7825.000000;0.554149
7824.000000;0.554291
7823.000000;0.554303
7822.000000;0.554120
7821.000000;0.553800
7820.000000;0.553508
7819.000000;0.553358
7818.000000;0.553329
7817.000000;0.553368
7816.000000;0.553475
7815.000000;0.553654
7814.000000;0.553866
7813.000000;0.554066
7812.000000;0.554245
7811.000000;0.554394
7810.000000;0.554476
7809.000000;0.554471
7808.000000;0.554394
7807.000000;0.554276
7806.000000;0.554156
7805.000000;0.554106
7804.000000;0.554186
7803.000000;0.554361
7802.000000;0.554515
7801.000000;0.554579
7800.000000;0.554599
7799.000000;0.554653
7798.000000;0.554756
7797.000000;0.554873
7796.000000;0.554984
7795.000000;0.555089
7794.000000;0.555183
7793.000000;0.555245
7792.000000;0.555262
7791.000000;0.555250
7790.000000;0.555275
7789.000000;0.555415
7788.000000;0.555672
7787.000000;0.555935
7786.000000;0.556077
7785.000000;0.556085
7784.000000;0.556045
7783.000000;0.556015
7782.000000;0.555970
7781.000000;0.555874
7780.000000;0.555760
7779.000000;0.555718
7778.000000;0.555836
7777.000000;0.556141
7776.000000;0.556559
7775.000000;0.556940
7774.000000;0.557167
7773.000000;0.557246
7772.000000;0.557268
7771.000000;0.557282
7770.000000;0.557264
7769.000000;0.557194
7768.000000;0.557104
7767.000000;0.557023
7766.000000;0.556944
7765.000000;0.556858
7764.000000;0.556798
7763.000000;0.556787
7762.000000;0.556808
7761.000000;0.556838
7760.000000;0.556904
7759.000000;0.557055
7758.000000;0.557265
7757.000000;0.557442
7756.000000;0.557542
7755.000000;0.557653
7754.000000;0.557897
7753.000000;0.558228
7752.000000;0.558424
7751.000000;0.558334
7750.000000;0.558097
7749.000000;0.558013
7748.000000;0.558202
7747.000000;0.558500
7746.000000;0.558687
7745.000000;0.558706
7744.000000;0.558610
7743.000000;0.558440
7742.000000;0.558238
7741.000000;0.558120
7740.000000;0.558189
7739.000000;0.558416
7738.000000;0.558682
7737.000000;0.558914
7736.000000;0.559118
7735.000000;0.559316
7734.000000;0.559517
7733.000000;0.559725
7732.000000;0.559907
7731.000000;0.559990
7730.000000;0.559953
7729.000000;0.559867
7728.000000;0.559798
7727.000000;0.559714
7726.000000;0.559577
7725.000000;0.559459
7724.000000;0.559466
7723.000000;0.559589
7722.000000;0.559749
7721.000000;0.559950
7720.000000;0.560248
7719.000000;0.560589
7718.000000;0.560824
7717.000000;0.560917
7716.000000;0.561005
7715.000000;0.561186
7714.000000;0.561384
7713.000000;0.561470
7712.000000;0.561447
7711.000000;0.561430
7710.000000;0.561510
7709.000000;0.561688
7708.000000;0.561918
7707.000000;0.562130
7706.000000;0.562243
7705.000000;0.562204
7704.000000;0.562037
7703.000000;0.561838
7702.000000;0.561728
7701.000000;0.561793
7700.000000;0.562028
7699.000000;0.562342
7698.000000;0.562644
7697.000000;0.562913
7696.000000;0.563174
7695.000000;0.563421
7694.000000;0.563629
7693.000000;0.563810
7692.000000;0.563987
7691.000000;0.564118
7690.000000;0.564125
7689.000000;0.564010
7688.000000;0.563899
7687.000000;0.563933
7686.000000;0.564144
7685.000000;0.564447
7684.000000;0.564713
7683.000000;0.564868
7682.000000;0.564938
7681.000000;0.565003
7680.000000;0.565098
7679.000000;0.565184
7678.000000;0.565242
7677.000000;0.565346
7676.000000;0.565569
7675.000000;0.565860
7674.000000;0.566073
7673.000000;0.566112
7672.000000;0.566001
7671.000000;0.565839
7670.000000;0.565743
7669.000000;0.565805
7668.000000;0.566030
7667.000000;0.566319
7666.000000;0.566583
7665.000000;0.566837
7664.000000;0.567125
7663.000000;0.567396
7662.000000;0.567552
7661.000000;0.567608
7660.000000;0.567688
7659.000000;0.567854
7658.000000;0.568040
7657.000000;0.568176
7656.000000;0.568292
7655.000000;0.568441
7654.000000;0.568623
7653.000000;0.568804
7652.000000;0.568954
7651.000000;0.569042
7650.000000;0.569047
7649.000000;0.569018
7648.000000;0.569060
7647.000000;0.569238
7646.000000;0.569526
7645.000000;0.569869
7644.000000;0.570232
7643.000000;0.570573
7642.000000;0.570840
7641.000000;0.571031
7640.000000;0.571200
7639.000000;0.571386
7638.000000;0.571577
7637.000000;0.571760
7636.000000;0.571961
7635.000000;0.572196
7634.000000;0.572435
7633.000000;0.572641
7632.000000;0.572803
7631.000000;0.572922
7630.000000;0.573004
7629.000000;0.573096
7628.000000;0.573261
7627.000000;0.573512
7626.000000;0.573786
7625.000000;0.574024
7624.000000;0.574211
7623.000000;0.574339
7622.000000;0.574392
7621.000000;0.574403
7620.000000;0.574464
7619.000000;0.574639
7618.000000;0.574895
7617.000000;0.575150
7616.000000;0.575369
7615.000000;0.575578
7614.000000;0.575831
7613.000000;0.576174
7612.000000;0.576606
7611.000000;0.577053
7610.000000;0.577418
7609.000000;0.577672
7608.000000;0.577886
7607.000000;0.578128
7606.000000;0.578391
7605.000000;0.578620
7604.000000;0.578800
7603.000000;0.578963
7602.000000;0.579142
7601.000000;0.579343
7600.000000;0.579560
7599.000000;0.579800
7598.000000;0.580083
7597.000000;0.580411
7596.000000;0.580732
7595.000000;0.580962
7594.000000;0.581079
7593.000000;0.581171
7592.000000;0.581368
7591.000000;0.581724
7590.000000;0.582175
7589.000000;0.582601
7588.000000;0.582902
7587.000000;0.583043
7586.000000;0.583091
7585.000000;0.583166
7584.000000;0.583342
7583.000000;0.583595
7582.000000;0.583885
7581.000000;0.584224
7580.000000;0.584599
7579.000000;0.584904
7578.000000;0.585040
7577.000000;0.585076
7576.000000;0.585182
7575.000000;0.585411
7574.000000;0.585651
7573.000000;0.585819
7572.000000;0.585991
7571.000000;0.586293
7570.000000;0.586749
7569.000000;0.587290
7568.000000;0.587845
7567.000000;0.588354
7566.000000;0.588758
7565.000000;0.589029
7564.000000;0.589221
7563.000000;0.589421
7562.000000;0.589697
7561.000000;0.590069
7560.000000;0.590491
7559.000000;0.590849
7558.000000;0.591038
7557.000000;0.591089
7556.000000;0.591176
7555.000000;0.591456
7554.000000;0.591920
7553.000000;0.592415
7552.000000;0.592804
7551.000000;0.593056
7550.000000;0.593247
7549.000000;0.593476
7548.000000;0.593796
7547.000000;0.594193
7546.000000;0.594631
7545.000000;0.595093
7544.000000;0.595559
7543.000000;0.595978
7542.000000;0.596300
7541.000000;0.596537
7540.000000;0.596736
7539.000000;0.596922
7538.000000;0.597117
7537.000000;0.597373
7536.000000;0.597732
7535.000000;0.598148
7534.000000;0.598534
7533.000000;0.598880
7532.000000;0.599245
7531.000000;0.599621
7530.000000;0.599913
7529.000000;0.600075
7528.000000;0.600178
7527.000000;0.600315
7526.000000;0.600509
7525.000000;0.600774
7524.000000;0.601173
7523.000000;0.601754
7522.000000;0.602460
7521.000000;0.603156
7520.000000;0.603730
7519.000000;0.604142
7518.000000;0.604428
7517.000000;0.604675
7516.000000;0.604965
7515.000000;0.605288
7514.000000;0.605549
7513.000000;0.605696
7512.000000;0.605809
7511.000000;0.606042
7510.000000;0.606478
7509.000000;0.607055
7508.000000;0.607620
7507.000000;0.608052
7506.000000;0.608372
7505.000000;0.608714
7504.000000;0.609174
7503.000000;0.609700
7502.000000;0.610167
7501.000000;0.610535
7500.000000;0.610864
7499.000000;0.611177
7498.000000;0.611435
7497.000000;0.611621
7496.000000;0.611833
7495.000000;0.612171
7494.000000;0.612608
7493.000000;0.613159
7492.000000;0.613784
7491.000000;0.614419
7490.000000;0.614952
7489.000000;0.615310
7488.000000;0.615526
7487.000000;0.615700
7486.000000;0.615942
7485.000000;0.616335
7484.000000;0.616911
7483.000000;0.617603
7482.000000;0.618264
7481.000000;0.618777
7480.000000;0.619134
7479.000000;0.619412
7478.000000;0.619694
7477.000000;0.620022
7476.000000;0.620397
7475.000000;0.620796
7474.000000;0.621219
7473.000000;0.621715
7472.000000;0.622312
7471.000000;0.622945
7470.000000;0.623493
7469.000000;0.623900
7468.000000;0.624210
7467.000000;0.624488
7466.000000;0.624770
7465.000000;0.625083
7464.000000;0.625440
7463.000000;0.625808
7462.000000;0.626138
7461.000000;0.626450
7460.000000;0.626820
7459.000000;0.627281
7458.000000;0.627792
7457.000000;0.628307
7456.000000;0.628814
7455.000000;0.629298
7454.000000;0.629730
7453.000000;0.630112
7452.000000;0.630470
7451.000000;0.630810
7450.000000;0.631136
7449.000000;0.631498
7448.000000;0.631945
7447.000000;0.632424
7446.000000;0.632809
7445.000000;0.633065
7444.000000;0.633298
7443.000000;0.633625
7442.000000;0.634059
7441.000000;0.634527
7440.000000;0.634948
7439.000000;0.635277
7438.000000;0.635540
7437.000000;0.635849
7436.000000;0.636294
7435.000000;0.636811
7434.000000;0.637235
7433.000000;0.637500
7432.000000;0.637695
7431.000000;0.637942
7430.000000;0.638304
7429.000000;0.638796
7428.000000;0.639394
7427.000000;0.640000
7426.000000;0.640510
7425.000000;0.640947
7424.000000;0.641416
7423.000000;0.641909
7422.000000;0.642268
7421.000000;0.642396
7420.000000;0.642416
7419.000000;0.642544
7418.000000;0.642866
7417.000000;0.643306
7416.000000;0.643760
7415.000000;0.644195
7414.000000;0.644641
7413.000000;0.645127
7412.000000;0.645616
7411.000000;0.646031
7410.000000;0.646342
7409.000000;0.646586
7408.000000;0.646754
7407.000000;0.646766
7406.000000;0.646683
7405.000000;0.646831
7404.000000;0.647501
7403.000000;0.648556
7402.000000;0.649527
7401.000000;0.650099
7400.000000;0.650333
7399.000000;0.650449
7398.000000;0.650587
7397.000000;0.650786
7396.000000;0.650990
7395.000000;0.651092
7394.000000;0.651141
7393.000000;0.651425
7392.000000;0.652115
7391.000000;0.652942
7390.000000;0.653529
7389.000000;0.653910
7388.000000;0.654380
7387.000000;0.654919
7386.000000;0.655221
7385.000000;0.655243
7384.000000;0.655240
7383.000000;0.655209
7382.000000;0.654891
7381.000000;0.654494
7380.000000;0.654742
7379.000000;0.655775
7378.000000;0.656573
7377.000000;0.656134
7376.000000;0.654908
7375.000000;0.654477
7374.000000;0.655798
7373.000000;0.658213
7372.000000;0.660226
7371.000000;0.660841
7370.000000;0.660166
7369.000000;0.659197
7368.000000;0.659089
7367.000000;0.660189
7366.000000;0.661753
7365.000000;0.662829
7364.000000;0.663185
7363.000000;0.663184
7362.000000;0.663185
7361.000000;0.663427
7360.000000;0.664120
7359.000000;0.665090
7358.000000;0.665507
7357.000000;0.664652
7356.000000;0.663063
7355.000000;0.662316
7354.000000;0.663390
7353.000000;0.665639
7352.000000;0.667613
7351.000000;0.668360
7350.000000;0.667878
7349.000000;0.666928
7348.000000;0.666575
7347.000000;0.667312
7346.000000;0.668426
7345.000000;0.668763
7344.000000;0.668089
7343.000000;0.667049
7342.000000;0.665951
7341.000000;0.664619
7340.000000;0.663655
7339.000000;0.664566
7338.000000;0.667796
7337.000000;0.671687
7336.000000;0.674276
7335.000000;0.675293
7334.000000;0.675822
7333.000000;0.676668
7332.000000;0.677649
7331.000000;0.678100
7330.000000;0.677408
7329.000000;0.675514
7328.000000;0.673555
7327.000000;0.673393
7326.000000;0.675494
7325.000000;0.678055
7324.000000;0.679265
7323.000000;0.679564
7322.000000;0.680658
7321.000000;0.682948
7320.000000;0.685137
7319.000000;0.686140
7318.000000;0.686216
7317.000000;0.686185
7316.000000;0.686474
7315.000000;0.687085
7314.000000;0.687765
7313.000000;0.688064
7312.000000;0.687856
7311.000000;0.687836
7310.000000;0.688687
7309.000000;0.689768
7308.000000;0.689800
7307.000000;0.688975
7306.000000;0.689183
7305.000000;0.691573
7304.000000;0.694918
7303.000000;0.697180
7302.000000;0.697735
7301.000000;0.697461
7300.000000;0.697522
7299.000000;0.698620
7298.000000;0.700722
7297.000000;0.702783
7296.000000;0.703293
7295.000000;0.701949
7294.000000;0.700508
7293.000000;0.701132
7292.000000;0.703864
7291.000000;0.706682
7290.000000;0.708012
7289.000000;0.708171
7288.000000;0.708446
7287.000000;0.709635
7286.000000;0.711641
7285.000000;0.713897
7284.000000;0.715858
7283.000000;0.717318
7282.000000;0.718486
7281.000000;0.719686
7280.000000;0.720999
7279.000000;0.722260
7278.000000;0.723377
7277.000000;0.724426
7276.000000;0.725443
7275.000000;0.726401
7274.000000;0.727437
7273.000000;0.728811
7272.000000;0.730585
7271.000000;0.732485
7270.000000;0.734160
7269.000000;0.735505
7268.000000;0.736730
7267.000000;0.738155
7266.000000;0.739873
7265.000000;0.741555
7264.000000;0.742740
7263.000000;0.743445
7262.000000;0.744361
7261.000000;0.746186
7260.000000;0.748818
7259.000000;0.751499
7258.000000;0.753673
7257.000000;0.755367
7256.000000;0.756770
7255.000000;0.757848
7254.000000;0.758645
7253.000000;0.759679
7252.000000;0.761633
7251.000000;0.764599
7250.000000;0.767919
7249.000000;0.770867
7248.000000;0.773256
7247.000000;0.775250
7246.000000;0.776733
7245.000000;0.777130
7244.000000;0.776247
7243.000000;0.775269
7242.000000;0.776273
7241.000000;0.780122
7240.000000;0.785344
7239.000000;0.789830
7238.000000;0.793054
7237.000000;0.795992
7236.000000;0.799247
7235.000000;0.801996
7234.000000;0.803062
7233.000000;0.802792
7232.000000;0.803378
7231.000000;0.806815
7230.000000;0.812625
7229.000000;0.818314
7228.000000;0.821951
7227.000000;0.823828
7226.000000;0.825845
7225.000000;0.829491
7224.000000;0.834488
7223.000000;0.839319
7222.000000;0.842809
7221.000000;0.845098
7220.000000;0.847372
7219.000000;0.850781
7218.000000;0.855408
7217.000000;0.860252
7216.000000;0.864299
7215.000000;0.867510
7214.000000;0.870676
7213.000000;0.874470
7212.000000;0.878859
7211.000000;0.883423
7210.000000;0.887924
7209.000000;0.892328
7208.000000;0.896433
7207.000000;0.899875
7206.000000;0.902622
7205.000000;0.905262
7204.000000;0.908656
7203.000000;0.913251
7202.000000;0.918715
7201.000000;0.924276
7200.000000;0.929416
7199.000000;0.934219
7198.000000;0.939042
7197.000000;0.943952
7196.000000;0.948698
7195.000000;0.953234
7194.000000;0.957982
7193.000000;0.963331
7192.000000;0.969067
7191.000000;0.974656
7190.000000;0.979932
7189.000000;0.985133
7188.000000;0.990354
7187.000000;0.995448
7186.000000;1.000452
7185.000000;1.005559
7184.000000;1.010539
7183.000000;1.014791
7182.000000;1.018422
7181.000000;1.022715
7180.000000;1.028748
7179.000000;1.035911
7178.000000;1.042647
7177.000000;1.048357
7176.000000;1.053797
7175.000000;1.059834
7174.000000;1.066486
7173.000000;1.073211
7172.000000;1.079521
7171.000000;1.085096
7170.000000;1.089841
7169.000000;1.094198
7168.000000;1.099016
7167.000000;1.104797
7166.000000;1.111251
7165.000000;1.117724
7164.000000;1.123731
7163.000000;1.129031
7162.000000;1.133849
7161.000000;1.139170
7160.000000;1.146063
7159.000000;1.154310
7158.000000;1.162368
7157.000000;1.169103
7156.000000;1.174983
7155.000000;1.181213
7154.000000;1.188224
7153.000000;1.195488
7152.000000;1.202441
7151.000000;1.208981
7150.000000;1.215185
7149.000000;1.221091
7148.000000;1.226730
7147.000000;1.232075
7146.000000;1.237115
7145.000000;1.242186
7144.000000;1.247896
7143.000000;1.254365
7142.000000;1.260875
7141.000000;1.266743
7140.000000;1.272384
7139.000000;1.278921
7138.000000;1.286642
7137.000000;1.294430
7136.000000;1.301055
7135.000000;1.306567
7134.000000;1.312053
7133.000000;1.318346
7132.000000;1.325311
7131.000000;1.332264
7130.000000;1.338703
7129.000000;1.344575
7128.000000;1.350124
7127.000000;1.355679
7126.000000;1.361511
7125.000000;1.367669
7124.000000;1.373917
7123.000000;1.380017
7122.000000;1.386017
7121.000000;1.392038
7120.000000;1.397784
7119.000000;1.402687
7118.000000;1.406824
7117.000000;1.411276
7116.000000;1.416983
7115.000000;1.423529
7114.000000;1.429723
7113.000000;1.435116
7112.000000;1.440244
7111.000000;1.445540
7110.000000;1.450744
7109.000000;1.455480
7108.000000;1.459811
7107.000000;1.464044
7106.000000;1.468478
7105.000000;1.473548
7104.000000;1.479646
7103.000000;1.486470
7102.000000;1.493106
7101.000000;1.499057
7100.000000;1.504656
7099.000000;1.510196
7098.000000;1.515247
7097.000000;1.519307
7096.000000;1.522737
7095.000000;1.526505
7094.000000;1.531100
7093.000000;1.536116
7092.000000;1.540839
7091.000000;1.544938
7090.000000;1.548610
7089.000000;1.552310
7088.000000;1.556290
7087.000000;1.560311
7086.000000;1.563909
7085.000000;1.566963
7084.000000;1.569774
7083.000000;1.572633
7082.000000;1.575742
7081.000000;1.579548
7080.000000;1.584532
7079.000000;1.590382
7078.000000;1.595904
7077.000000;1.600168
7076.000000;1.603364
7075.000000;1.606216
7074.000000;1.608950
7073.000000;1.611248
7072.000000;1.612992
7071.000000;1.614603
7070.000000;1.616699
7069.000000;1.619705
7068.000000;1.623677
7067.000000;1.628279
7066.000000;1.632986
7065.000000;1.637426
7064.000000;1.641431
7063.000000;1.644807
7062.000000;1.647420
7061.000000;1.649503
7060.000000;1.651477
7059.000000;1.653439
7058.000000;1.655259
7057.000000;1.657181
7056.000000;1.659750
7055.000000;1.663020
7054.000000;1.666436
7053.000000;1.669684
7052.000000;1.673031
7051.000000;1.676480
7050.000000;1.679257
7049.000000;1.680692
7048.000000;1.681140
7047.000000;1.681509
7046.000000;1.682277
7045.000000;1.683481
7044.000000;1.685272
7043.000000;1.687883
7042.000000;1.691185
7041.000000;1.694719
7040.000000;1.698078
7039.000000;1.701010
7038.000000;1.703387
7037.000000;1.705349
7036.000000;1.707224
7035.000000;1.708970
7034.000000;1.709992
7033.000000;1.709894
7032.000000;1.709265
7031.000000;1.709339
7030.000000;1.710888
7029.000000;1.713626
7028.000000;1.716512
7027.000000;1.718503
7026.000000;1.719250
7025.000000;1.719299
7024.000000;1.719613
7023.000000;1.720902
7022.000000;1.723373
7021.000000;1.726720
7020.000000;1.730074
7019.000000;1.732273
7018.000000;1.732760
7017.000000;1.732257
7016.000000;1.732098
7015.000000;1.732907
7014.000000;1.734321
7013.000000;1.735862
7012.000000;1.737444
7011.000000;1.738976
7010.000000;1.740142
7009.000000;1.740803
7008.000000;1.741196
7007.000000;1.741625
7006.000000;1.742261
7005.000000;1.743111
7004.000000;1.743786
7003.000000;1.743559
7002.000000;1.742338
7001.000000;1.741390
7000.000000;1.742276
6999.000000;1.745071
6998.000000;1.748308
6997.000000;1.750653
6996.000000;1.751882
6995.000000;1.752246
6994.000000;1.751958
6993.000000;1.751552
6992.000000;1.751764
6991.000000;1.752632
6990.000000;1.753407
6989.000000;1.753700
6988.000000;1.753986
6987.000000;1.754706
6986.000000;1.755674
6985.000000;1.756666
6984.000000;1.757744
6983.000000;1.758692
6982.000000;1.758985
6981.000000;1.758688
6980.000000;1.758552
6979.000000;1.758853
6978.000000;1.759018
6977.000000;1.758854
6976.000000;1.759164
6975.000000;1.760480
6974.000000;1.762042
6973.000000;1.762841
6972.000000;1.763036
6971.000000;1.763471
6970.000000;1.764298
6969.000000;1.764907
6968.000000;1.764804
6967.000000;1.763925
6966.000000;1.762561
6965.000000;1.761527
6964.000000;1.761853
6963.000000;1.763656
6962.000000;1.765725
6961.000000;1.766781
6960.000000;1.766741
6959.000000;1.766269
6958.000000;1.765625
6957.000000;1.764589
6956.000000;1.763151
6955.000000;1.761651
6954.000000;1.760469
6953.000000;1.759970
6952.000000;1.760416
6951.000000;1.761502
6950.000000;1.762395
6949.000000;1.762710
6948.000000;1.763020
6947.000000;1.763899
6946.000000;1.764882
6945.000000;1.764994
6944.000000;1.764023
6943.000000;1.762622
6942.000000;1.761401
6941.000000;1.760541
6940.000000;1.760117
6939.000000;1.760183
6938.000000;1.760549
6937.000000;1.760856
6936.000000;1.760879
6935.000000;1.760529
6934.000000;1.759756
6933.000000;1.758713
6932.000000;1.757805
6931.000000;1.757274
6930.000000;1.756933
6929.000000;1.756571
6928.000000;1.756415
6927.000000;1.756810
6926.000000;1.757597
6925.000000;1.758038
6924.000000;1.757353
6923.000000;1.755295
6922.000000;1.752404
6921.000000;1.749751
6920.000000;1.748143
6919.000000;1.747464
6918.000000;1.747018
6917.000000;1.746558
6916.000000;1.746552
6915.000000;1.747389
6914.000000;1.748916
6913.000000;1.750833
6912.000000;1.752887
6911.000000;1.754473
6910.000000;1.754688
6909.000000;1.753255
6908.000000;1.750949
6907.000000;1.748688
6906.000000;1.746603
6905.000000;1.744425
6904.000000;1.742378
6903.000000;1.741128
6902.000000;1.740992
6901.000000;1.741650
6900.000000;1.742544
6899.000000;1.743282
6898.000000;1.743728
6897.000000;1.743949
6896.000000;1.744029
6895.000000;1.743822
6894.000000;1.743018
6893.000000;1.741518
6892.000000;1.739594
6891.000000;1.737609
6890.000000;1.735794
6889.000000;1.734381
6888.000000;1.733614
6887.000000;1.733495
6886.000000;1.733725
6885.000000;1.734002
6884.000000;1.734229
6883.000000;1.734464
6882.000000;1.734887
6881.000000;1.735687
6880.000000;1.736632
6879.000000;1.736877
6878.000000;1.735710
6877.000000;1.733517
6876.000000;1.731538
6875.000000;1.730632
6874.000000;1.730615
6873.000000;1.730672
6872.000000;1.730027
6871.000000;1.728368
6870.000000;1.726148
6869.000000;1.724485
6868.000000;1.724240
6867.000000;1.725123
6866.000000;1.726150
6865.000000;1.726812
6864.000000;1.727172
6863.000000;1.726996
6862.000000;1.725690
6861.000000;1.723309
6860.000000;1.720832
6859.000000;1.719085
6858.000000;1.718080
6857.000000;1.717567
6856.000000;1.717493
6855.000000;1.717612
6854.000000;1.717341
6853.000000;1.716404
6852.000000;1.715118
6851.000000;1.713710
6850.000000;1.711921
6849.000000;1.709642
6848.000000;1.707342
6847.000000;1.705442
6846.000000;1.703764
6845.000000;1.701971
6844.000000;1.700136
6843.000000;1.698512
6842.000000;1.697219
6841.000000;1.696477
6840.000000;1.696643
6839.000000;1.697591
6838.000000;1.698457
6837.000000;1.698420
6836.000000;1.697469
6835.000000;1.696089
6834.000000;1.694552
6833.000000;1.692846
6832.000000;1.690896
6831.000000;1.688512
6830.000000;1.685473
6829.000000;1.682035
6828.000000;1.679015
6827.000000;1.677000
6826.000000;1.675743
6825.000000;1.674579
6824.000000;1.673162
6823.000000;1.671531
6822.000000;1.669792
6821.000000;1.668036
6820.000000;1.666323
6819.000000;1.664499
6818.000000;1.662280
6817.000000;1.659675
6816.000000;1.657016
6815.000000;1.654458
6814.000000;1.651829
6813.000000;1.649126
6812.000000;1.646722
6811.000000;1.644862
6810.000000;1.643349
6809.000000;1.641924
6808.000000;1.640555
6807.000000;1.639173
6806.000000;1.637550
6805.000000;1.635668
6804.000000;1.633755
6803.000000;1.631709
6802.000000;1.629028
6801.000000;1.625616
6800.000000;1.622165
6799.000000;1.619321
6798.000000;1.616932
6797.000000;1.614498
6796.000000;1.611950
6795.000000;1.609537
6794.000000;1.607296
6793.000000;1.605150
6792.000000;1.603211
6791.000000;1.601480
6790.000000;1.599482
6789.000000;1.596763
6788.000000;1.593648
6787.000000;1.590994
6786.000000;1.589178
6785.000000;1.587681
6784.000000;1.585652
6783.000000;1.582681
6782.000000;1.579050
6781.000000;1.575482
6780.000000;1.572643
6779.000000;1.570684
6778.000000;1.569212
6777.000000;1.567692
6776.000000;1.565805
6775.000000;1.563449
6774.000000;1.560659
6773.000000;1.557639
6772.000000;1.554650
6771.000000;1.551722
6770.000000;1.548708
6769.000000;1.545672
6768.000000;1.542951
6767.000000;1.540690
6766.000000;1.538601
6765.000000;1.536333
6764.000000;1.533806
6763.000000;1.531029
6762.000000;1.527967
6761.000000;1.524800
6760.000000;1.521990
6759.000000;1.519761
6758.000000;1.517750
6757.000000;1.515460
6756.000000;1.512888
6755.000000;1.510407
6754.000000;1.508225
6753.000000;1.506236
6752.000000;1.504244
6751.000000;1.502046
6750.000000;1.499406
6749.000000;1.496220
6748.000000;1.492689
6747.000000;1.489141
6746.000000;1.485774
6745.000000;1.482694
6744.000000;1.479994
6743.000000;1.477610
6742.000000;1.475243
6741.000000;1.472664
6740.000000;1.469968
6739.000000;1.467359
6738.000000;1.464856
6737.000000;1.462409
6736.000000;1.460119
6735.000000;1.458047
6734.000000;1.455907
6733.000000;1.453272
6732.000000;1.450090
6731.000000;1.446742
6730.000000;1.443606
6729.000000;1.440763
6728.000000;1.438131
6727.000000;1.435660
6726.000000;1.433314
6725.000000;1.431014
6724.000000;1.428680
6723.000000;1.426297
6722.000000;1.423910
6721.000000;1.421599
6720.000000;1.419456
6719.000000;1.417492
6718.000000;1.415587
6717.000000;1.413546
6716.000000;1.411203
6715.000000;1.408470
6714.000000;1.405367
6713.000000;1.402068
6712.000000;1.398813
6711.000000;1.395745
6710.000000;1.392846
6709.000000;1.390052
6708.000000;1.387361
6707.000000;1.384790
6706.000000;1.382314
6705.000000;1.379953
6704.000000;1.377753
6703.000000;1.375702
6702.000000;1.373590
6701.000000;1.371302
6700.000000;1.368882
6699.000000;1.366364
6698.000000;1.363890
6697.000000;1.361463
6696.000000;1.359000
6695.000000;1.356414
6694.000000;1.353787
6693.000000;1.351318
6692.000000;1.349074
6691.000000;1.346850
6690.000000;1.344397
6689.000000;1.341729
6688.000000;1.339060
6687.000000;1.336528
6686.000000;1.334125
6685.000000;1.331860
6684.000000;1.329750
6683.000000;1.327668
6682.000000;1.325393
6681.000000;1.322867
6680.000000;1.320243
6679.000000;1.317654
6678.000000;1.315111
6677.000000;1.312642
6676.000000;1.310333
6675.000000;1.308164
6674.000000;1.305980
6673.000000;1.303682
6672.000000;1.301325
6671.000000;1.298971
6670.000000;1.296624
6669.000000;1.294346
6668.000000;1.292255
6667.000000;1.290321
6666.000000;1.288301
6665.000000;1.286000
6664.000000;1.283484
6663.000000;1.280957
6662.000000;1.278563
6661.000000;1.276371
6660.000000;1.274396
6659.000000;1.272516
6658.000000;1.270467
6657.000000;1.268057
6656.000000;1.265354
6655.000000;1.262595
6654.000000;1.259976
6653.000000;1.257561
6652.000000;1.255310
6651.000000;1.253123
6650.000000;1.250914
6649.000000;1.248693
6648.000000;1.246528
6647.000000;1.244431
6646.000000;1.242359
6645.000000;1.240304
6644.000000;1.238279
6643.000000;1.236208
6642.000000;1.233986
6641.000000;1.231663
6640.000000;1.229432
6639.000000;1.227398
6638.000000;1.225474
6637.000000;1.223578
6636.000000;1.221754
6635.000000;1.220035
6634.000000;1.218276
6633.000000;1.216251
6632.000000;1.213864
6631.000000;1.211217
6630.000000;1.208520
6629.000000;1.205979
6628.000000;1.203680
6627.000000;1.201545
6626.000000;1.199453
6625.000000;1.197415
6624.000000;1.195543
6623.000000;1.193848
6622.000000;1.192175
6621.000000;1.190364
6620.000000;1.188384
6619.000000;1.186292
6618.000000;1.184193
6617.000000;1.182247
6616.000000;1.180585
6615.000000;1.179132
6614.000000;1.177616
6613.000000;1.175795
6612.000000;1.173595
6611.000000;1.171064
6610.000000;1.168328
6609.000000;1.165630
6608.000000;1.163230
6607.000000;1.161163
6606.000000;1.159223
6605.000000;1.157256
6604.000000;1.155346
6603.000000;1.153647
6602.000000;1.152143
6601.000000;1.150671
6600.000000;1.149078
6599.000000;1.147278
6598.000000;1.145274
6597.000000;1.143210
6596.000000;1.141303
6595.000000;1.139611
6594.000000;1.137934
6593.000000;1.136060
6592.000000;1.134004
6591.000000;1.131941
6590.000000;1.129986
6589.000000;1.128174
6588.000000;1.126543
6587.000000;1.125084
6586.000000;1.123631
6585.000000;1.121963
6584.000000;1.120056
6583.000000;1.118101
6582.000000;1.116265
6581.000000;1.114515
6580.000000;1.112725
6579.000000;1.110862
6578.000000;1.108993
6577.000000;1.107145
6576.000000;1.105233
6575.000000;1.103172
6574.000000;1.101023
6573.000000;1.098996
6572.000000;1.097268
6571.000000;1.095837
6570.000000;1.094553
6569.000000;1.093259
6568.000000;1.091849
6567.000000;1.090262
6566.000000;1.088509
6565.000000;1.086734
6564.000000;1.085121
6563.000000;1.083692
6562.000000;1.082256
6561.000000;1.080599
6560.000000;1.078707
6559.000000;1.076767
6558.000000;1.074978
6557.000000;1.073388
6556.000000;1.071876
6555.000000;1.070296
6554.000000;1.068635
6553.000000;1.067018
6552.000000;1.065553
6551.000000;1.064190
6550.000000;1.062780
6549.000000;1.061235
6548.000000;1.059564
6547.000000;1.057799
6546.000000;1.055965
6545.000000;1.054121
6544.000000;1.052355
6543.000000;1.050718
6542.000000;1.049212
6541.000000;1.047812
6540.000000;1.046453
6539.000000;1.045022
6538.000000;1.043447
6537.000000;1.041791
6536.000000;1.040160
6535.000000;1.038559
6534.000000;1.036924
6533.000000;1.035281
6532.000000;1.033746
6531.000000;1.032344
6530.000000;1.030965
6529.000000;1.029515
6528.000000;1.028032
6527.000000;1.026584
6526.000000;1.025181
6525.000000;1.023819
6524.000000;1.022541
6523.000000;1.021369
6522.000000;1.020234
6521.000000;1.019037
6520.000000;1.017741
6519.000000;1.016365
6518.000000;1.014940
6517.000000;1.013496
6516.000000;1.012048
6515.000000;1.010538
6514.000000;1.008887
6513.000000;1.007118
6512.000000;1.005394
6511.000000;1.003858
6510.000000;1.002497
6509.000000;1.001197
6508.000000;0.999898
6507.000000;0.998641
6506.000000;0.997481
6505.000000;0.996424
6504.000000;0.995419
6503.000000;0.994386
6502.000000;0.993235
6501.000000;0.991902
6500.000000;0.990374
6499.000000;0.988720
6498.000000;0.987090
6497.000000;0.985655
6496.000000;0.984474
6495.000000;0.983422
6494.000000;0.982301
6493.000000;0.981030
6492.000000;0.979682
6491.000000;0.978344
6490.000000;0.977009
6489.000000;0.975618
6488.000000;0.974147
6487.000000;0.972640
6486.000000;0.971186
6485.000000;0.969867
6484.000000;0.968683
6483.000000;0.967538
6482.000000;0.966346
6481.000000;0.965141
6480.000000;0.964010
6479.000000;0.962940
6478.000000;0.961819
6477.000000;0.960606
6476.000000;0.959393
6475.000000;0.958280
6474.000000;0.957253
6473.000000;0.956228
6472.000000;0.955154
6471.000000;0.954024
6470.000000;0.952830
6469.000000;0.951569
6468.000000;0.950269
6467.000000;0.948988
6466.000000;0.947793
6465.000000;0.946739
6464.000000;0.945812
6463.000000;0.944897
6462.000000;0.943860
6461.000000;0.942678
6460.000000;0.941444
6459.000000;0.940237
6458.000000;0.939054
6457.000000;0.937871
6456.000000;0.936705
6455.000000;0.935579
6454.000000;0.934493
6453.000000;0.933449
6452.000000;0.932470
6451.000000;0.931552
6450.000000;0.930643
6449.000000;0.929695
6448.000000;0.928687
6447.000000;0.927600
6446.000000;0.926403
6445.000000;0.925118
6444.000000;0.923821
6443.000000;0.922576
6442.000000;0.921398
6441.000000;0.920296
6440.000000;0.919284
6439.000000;0.918335
6438.000000;0.917376
6437.000000;0.916378
6436.000000;0.915369
6435.000000;0.914360
6434.000000;0.913301
6433.000000;0.912171
6432.000000;0.911052
6431.000000;0.910046
6430.000000;0.909169
6429.000000;0.908352
6428.000000;0.907520
6427.000000;0.906626
6426.000000;0.905647
6425.000000;0.904593
6424.000000;0.903501
6423.000000;0.902403
6422.000000;0.901316
6421.000000;0.900274
6420.000000;0.899327
6419.000000;0.898479
6418.000000;0.897669
6417.000000;0.896838
6416.000000;0.895994
6415.000000;0.895169
6414.000000;0.894345
6413.000000;0.893461
6412.000000;0.892484
6411.000000;0.891431
6410.000000;0.890343
6409.000000;0.889252
6408.000000;0.888168
6407.000000;0.887092
6406.000000;0.886047
6405.000000;0.885092
6404.000000;0.884282
6403.000000;0.883590
6402.000000;0.882909
6401.000000;0.882143
6400.000000;0.881265
6399.000000;0.880301
6398.000000;0.879301
6397.000000;0.878339
6396.000000;0.877481
6395.000000;0.876714
6394.000000;0.875944
6393.000000;0.875092
6392.000000;0.874163
6391.000000;0.873212
6390.000000;0.872268
6389.000000;0.871342
6388.000000;0.870463
6387.000000;0.869666
6386.000000;0.868949
6385.000000;0.868281
6384.000000;0.867629
6383.000000;0.866951
6382.000000;0.866193
6381.000000;0.865320
6380.000000;0.864361
6379.000000;0.863388
6378.000000;0.862473
6377.000000;0.861668
6376.000000;0.860993
6375.000000;0.860408
6374.000000;0.859807
6373.000000;0.859089
6372.000000;0.858246
6371.000000;0.857367
6370.000000;0.856541
6369.000000;0.855779
6368.000000;0.855023
6367.000000;0.854215
6366.000000;0.853352
6365.000000;0.852480
6364.000000;0.851639
6363.000000;0.850841
6362.000000;0.850083
6361.000000;0.849381
6360.000000;0.848740
6359.000000;0.848118
6358.000000;0.847455
6357.000000;0.846733
6356.000000;0.846001
6355.000000;0.845313
6354.000000;0.844692
6353.000000;0.844120
6352.000000;0.843551
6351.000000;0.842911
6350.000000;0.842139
6349.000000;0.841240
6348.000000;0.840304
6347.000000;0.839433
6346.000000;0.838673
6345.000000;0.838012
6344.000000;0.837401
6343.000000;0.836783
6342.000000;0.836117
6341.000000;0.835400
6340.000000;0.834668
6339.000000;0.833953
6338.000000;0.833258
6337.000000;0.832566
6336.000000;0.831867
6335.000000;0.831165
6334.000000;0.830467
6333.000000;0.829764
6332.000000;0.829043
6331.000000;0.828318
6330.000000;0.827660
6329.000000;0.827137
6328.000000;0.826726
6327.000000;0.826306
6326.000000;0.825779
6325.000000;0.825156
6324.000000;0.824502
6323.000000;0.823833
6322.000000;0.823128
6321.000000;0.822405
6320.000000;0.821698
6319.000000;0.820993
6318.000000;0.820246
6317.000000;0.819492
6316.000000;0.818842
6315.000000;0.818338
6314.000000;0.817891
6313.000000;0.817377
6312.000000;0.816763
6311.000000;0.816100
6310.000000;0.815451
6309.000000;0.814856
6308.000000;0.814325
6307.000000;0.813820
6306.000000;0.813268
6305.000000;0.812634
6304.000000;0.811962
6303.000000;0.811329
6302.000000;0.810765
6301.000000;0.810249
6300.000000;0.809744
6299.000000;0.809223
6298.000000;0.808664
6297.000000;0.808075
6296.000000;0.807496
6295.000000;0.806952
6294.000000;0.806431
6293.000000;0.805902
6292.000000;0.805357
6291.000000;0.804803
6290.000000;0.804238
6289.000000;0.803674
6288.000000;0.803146
6287.000000;0.802673
6286.000000;0.802219
6285.000000;0.801729
6284.000000;0.801200
6283.000000;0.800681
6282.000000;0.800198
6281.000000;0.799716
6280.000000;0.799192
6279.000000;0.798637
6278.000000;0.798102
6277.000000;0.797600
6276.000000;0.797082
6275.000000;0.796488
6274.000000;0.795810
6273.000000;0.795104
6272.000000;0.794442
6271.000000;0.793863
6270.000000;0.793370
6269.000000;0.792945
6268.000000;0.792569
6267.000000;0.792220
6266.000000;0.791869
6265.000000;0.791480
6264.000000;0.791020
6263.000000;0.790464
6262.000000;0.789827
6261.000000;0.789171
6260.000000;0.788572
6259.000000;0.788070
6258.000000;0.787644
6257.000000;0.787223
6256.000000;0.786737
6255.000000;0.786177
6254.000000;0.785607
6253.000000;0.785106
6252.000000;0.784706
6251.000000;0.784374
6250.000000;0.784068
6249.000000;0.783759
6248.000000;0.783401
6247.000000;0.782930
6246.000000;0.782337
6245.000000;0.781719
6244.000000;0.781203
6243.000000;0.780822
6242.000000;0.780498
6241.000000;0.780140
6240.000000;0.779724
6239.000000;0.779281
6238.000000;0.778843
6237.000000;0.778418
6236.000000;0.777989
6235.000000;0.777526
6234.000000;0.777019
6233.000000;0.776502
6232.000000;0.776034
6231.000000;0.775639
6230.000000;0.775282
6229.000000;0.774909
6228.000000;0.774488
6227.000000;0.774034
6226.000000;0.773591
6225.000000;0.773200
6224.000000;0.772864
6223.000000;0.772529
6222.000000;0.772122
6221.000000;0.771622
6220.000000;0.771076
6219.000000;0.770542
6218.000000;0.770047
6217.000000;0.769587
6216.000000;0.769176
6215.000000;0.768843
6214.000000;0.768581
6213.000000;0.768321
6212.000000;0.767981
6211.000000;0.767565
6210.000000;0.767179
6209.000000;0.766918
6208.000000;0.766747
6207.000000;0.766529
6206.000000;0.766181
6205.000000;0.765740
6204.000000;0.765287
6203.000000;0.764852
6202.000000;0.764432
6201.000000;0.764041
6200.000000;0.763707
6199.000000;0.763410
6198.000000;0.763097
6197.000000;0.762733
6196.000000;0.762323
6195.000000;0.761874
6194.000000;0.761391
6193.000000;0.760900
6192.000000;0.760440
6191.000000;0.760028
6190.000000;0.759651
6189.000000;0.759303
6188.000000;0.758999
6187.000000;0.758753
6186.000000;0.758547
6185.000000;0.758340
6184.000000;0.758081
6183.000000;0.757741
6182.000000;0.757342
6181.000000;0.756948
6180.000000;0.756607
6179.000000;0.756298
6178.000000;0.755964
6177.000000;0.755574
6176.000000;0.755152
6175.000000;0.754746
6174.000000;0.754387
6173.000000;0.754082
6172.000000;0.753809
6171.000000;0.753535
6170.000000;0.753246
6169.000000;0.752953
6168.000000;0.752657
6167.000000;0.752348
6166.000000;0.752029
6165.000000;0.751739
6164.000000;0.751507
6163.000000;0.751309
6162.000000;0.751098
6161.000000;0.750845
6160.000000;0.750535
6159.000000;0.750154
6158.000000;0.749719
6157.000000;0.749297
6156.000000;0.748939
6155.000000;0.748616
6154.000000;0.748260
6153.000000;0.747860
6152.000000;0.747467
6151.000000;0.747112
6150.000000;0.746782
6149.000000;0.746474
6148.000000;0.746209
6147.000000;0.745996
6146.000000;0.745808
6145.000000;0.745618
6144.000000;0.745411
6143.000000;0.745169
6142.000000;0.744881
6141.000000;0.744582
6140.000000;0.744339
6139.000000;0.744175
6138.000000;0.744049
6137.000000;0.743906
6136.000000;0.743722
6135.000000;0.743488
6134.000000;0.743201
6133.000000;0.742883
6132.000000;0.742573
6131.000000;0.742273
6130.000000;0.741948
6129.000000;0.741577
6128.000000;0.741197
6127.000000;0.740857
6126.000000;0.740568
6125.000000;0.740328
6124.000000;0.740139
6123.000000;0.739984
6122.000000;0.739794
6121.000000;0.739503
6120.000000;0.739118
6119.000000;0.738723
6118.000000;0.738400
6117.000000;0.738159
6116.000000;0.737936
6115.000000;0.737655
6114.000000;0.737296
6113.000000;0.736920
6112.000000;0.736601
6111.000000;0.736341
6110.000000;0.736073
6109.000000;0.735759
6108.000000;0.735449
6107.000000;0.735227
6106.000000;0.735112
6105.000000;0.735046
6104.000000;0.734963
6103.000000;0.734845
6102.000000;0.734704
6101.000000;0.734542
6100.000000;0.734352
6099.000000;0.734138
6098.000000;0.733919
6097.000000;0.733710
6096.000000;0.733497
6095.000000;0.733256
6094.000000;0.732986
6093.000000;0.732716
6092.000000;0.732465
6091.000000;0.732220
6090.000000;0.731959
6089.000000;0.731686
6088.000000;0.731426
6087.000000;0.731189
6086.000000;0.730962
6085.000000;0.730737
6084.000000;0.730536
6083.000000;0.730385
6082.000000;0.730281
6081.000000;0.730191
6080.000000;0.730075
6079.000000;0.729913
6078.000000;0.729710
6077.000000;0.729477
6076.000000;0.729224
6075.000000;0.728966
6074.000000;0.728723
6073.000000;0.728513
6072.000000;0.728329
6071.000000;0.728149
6070.000000;0.727960
6069.000000;0.727769
6068.000000;0.727585
6067.000000;0.727411
6066.000000;0.727250
6065.000000;0.727104
6064.000000;0.726955
6063.000000;0.726772
6062.000000;0.726549
6061.000000;0.726316
6060.000000;0.726108
6059.000000;0.725915
6058.000000;0.725711
6057.000000;0.725491
6056.000000;0.725276
6055.000000;0.725079
6054.000000;0.724895
6053.000000;0.724729
6052.000000;0.724597
6051.000000;0.724497
6050.000000;0.724399
6049.000000;0.724263
6048.000000;0.724068
6047.000000;0.723817
6046.000000;0.723546
6045.000000;0.723297
6044.000000;0.723094
6043.000000;0.722923
6042.000000;0.722768
6041.000000;0.722651
6040.000000;0.722606
6039.000000;0.722626
6038.000000;0.722636
6037.000000;0.722551
6036.000000;0.722341
6035.000000;0.722053
6034.000000;0.721767
6033.000000;0.721530
6032.000000;0.721339
6031.000000;0.721174
6030.000000;0.721032
6029.000000;0.720927
6028.000000;0.720855
6027.000000;0.720798
6026.000000;0.720751
6025.000000;0.720727
6024.000000;0.720722
6023.000000;0.720704
6022.000000;0.720651
6021.000000;0.720563
6020.000000;0.720426
6019.000000;0.720205
6018.000000;0.719906
6017.000000;0.719619
6016.000000;0.719453
6015.000000;0.719434
6014.000000;0.719496
6013.000000;0.719562
6012.000000;0.719585
6011.000000;0.719544
6010.000000;0.719440
6009.000000;0.719303
6008.000000;0.719172
6007.000000;0.719055
6006.000000;0.718935
6005.000000;0.718804
6004.000000;0.718672
6003.000000;0.718542
6002.000000;0.718407
6001.000000;0.718268
6000.000000;0.718138
5999.000000;0.718011
5998.000000;0.717874
5997.000000;0.717741
5996.000000;0.717656
5995.000000;0.717638
5994.000000;0.717658
5993.000000;0.717664
5992.000000;0.717639
5991.000000;0.717603
5990.000000;0.717581
5989.000000;0.717587
5988.000000;0.717607
5987.000000;0.717608
5986.000000;0.717563
5985.000000;0.717479
5984.000000;0.717387
5983.000000;0.717304
5982.000000;0.717224
5981.000000;0.717145
5980.000000;0.717077
5979.000000;0.717017
5978.000000;0.716948
5977.000000;0.716863
5976.000000;0.716796
5975.000000;0.716787
5974.000000;0.716841
5973.000000;0.716918
5972.000000;0.716961
5971.000000;0.716929
5970.000000;0.716822
5969.000000;0.716678
5968.000000;0.716556
5967.000000;0.716496
5966.000000;0.716501
5965.000000;0.716548
5964.000000;0.716604
5963.000000;0.716637
5962.000000;0.716629
5961.000000;0.716587
5960.000000;0.716537
5959.000000;0.716501
5958.000000;0.716483
5957.000000;0.716488
5956.000000;0.716536
5955.000000;0.716635
5954.000000;0.716750
5953.000000;0.716818
5952.000000;0.716812
5951.000000;0.716764
5950.000000;0.716738
5949.000000;0.716767
5948.000000;0.716831
5947.000000;0.716879
5946.000000;0.716856
5945.000000;0.716746
5944.000000;0.716581
5943.000000;0.716423
5942.000000;0.716318
5941.000000;0.716265
5940.000000;0.716254
5939.000000;0.716298
5938.000000;0.716411
5937.000000;0.716561
5936.000000;0.716670
5935.000000;0.716696
5934.000000;0.716676
5933.000000;0.716676
5932.000000;0.716721
5931.000000;0.716784
5930.000000;0.716838
5929.000000;0.716866
5928.000000;0.716870
5927.000000;0.716871
5926.000000;0.716906
5925.000000;0.716981
5924.000000;0.717036
5923.000000;0.717002
5922.000000;0.716900
5921.000000;0.716842
5920.000000;0.716932
5919.000000;0.717170
5918.000000;0.717475
5917.000000;0.717753
5916.000000;0.717950
5915.000000;0.718060
5914.000000;0.718113
5913.000000;0.718144
5912.000000;0.718165
5911.000000;0.718171
5910.000000;0.718172
5909.000000;0.718196
5908.000000;0.718256
5907.000000;0.718330
5906.000000;0.718387
5905.000000;0.718402
5904.000000;0.718367
5903.000000;0.718307
5902.000000;0.718278
5901.000000;0.718329
5900.000000;0.718454
5899.000000;0.718609
5898.000000;0.718782
5897.000000;0.718996
5896.000000;0.719244
5895.000000;0.719467
5894.000000;0.719621
5893.000000;0.719719
5892.000000;0.719794
5891.000000;0.719839
5890.000000;0.719845
5889.000000;0.719832
5888.000000;0.719835
5887.000000;0.719856
5886.000000;0.719887
5885.000000;0.719945
5884.000000;0.720055
5883.000000;0.720205
5882.000000;0.720358
5881.000000;0.720507
5880.000000;0.720683
5879.000000;0.720910
5878.000000;0.721163
5877.000000;0.721372
5876.000000;0.721470
5875.000000;0.721436
5874.000000;0.721332
5873.000000;0.721269
5872.000000;0.721327
5871.000000;0.721510
5870.000000;0.721775
5869.000000;0.722087
5868.000000;0.722417
5867.000000;0.722731
5866.000000;0.723004
5865.000000;0.723237
5864.000000;0.723447
5863.000000;0.723630
5862.000000;0.723777
5861.000000;0.723890
5860.000000;0.723981
5859.000000;0.724050
5858.000000;0.724097
5857.000000;0.724145
5856.000000;0.724248
5855.000000;0.724452
5854.000000;0.724773
5853.000000;0.725170
5852.000000;0.725559
5851.000000;0.725847
5850.000000;0.726010
5849.000000;0.726122
5848.000000;0.726295
5847.000000;0.726581
5846.000000;0.726936
5845.000000;0.727267
5844.000000;0.727506
5843.000000;0.727649
5842.000000;0.727768
5841.000000;0.727950
5840.000000;0.728234
5839.000000;0.728576
5838.000000;0.728903
5837.000000;0.729187
5836.000000;0.729450
5835.000000;0.729730
5834.000000;0.730036
5833.000000;0.730357
5832.000000;0.730670
5831.000000;0.730963
5830.000000;0.731244
5829.000000;0.731540
5828.000000;0.731869
5827.000000;0.732222
5826.000000;0.732578
5825.000000;0.732916
5824.000000;0.733214
5823.000000;0.733452
5822.000000;0.733636
5821.000000;0.733806
5820.000000;0.734005
5819.000000;0.734243
5818.000000;0.734506
5817.000000;0.734781
5816.000000;0.735062
5815.000000;0.735352
5814.000000;0.735667
5813.000000;0.736021
5812.000000;0.736399
5811.000000;0.736753
5810.000000;0.737051
5809.000000;0.737315
5808.000000;0.737593
5807.000000;0.737915
5806.000000;0.738285
5805.000000;0.738706
5804.000000;0.739175
5803.000000;0.739668
5802.000000;0.740150
5801.000000;0.740599
5800.000000;0.741002
5799.000000;0.741341
5798.000000;0.741610
5797.000000;0.741849
5796.000000;0.742131
5795.000000;0.742502
5794.000000;0.742950
5793.000000;0.743436
5792.000000;0.743947
5791.000000;0.744494
5790.000000;0.745071
5789.000000;0.745635
5788.000000;0.746130
5787.000000;0.746538
5786.000000;0.746898
5785.000000;0.747264
5784.000000;0.747652
5783.000000;0.748044
5782.000000;0.748424
5781.000000;0.748806
5780.000000;0.749199
5779.000000;0.749602
5778.000000;0.750020
5777.000000;0.750472
5776.000000;0.750962
5775.000000;0.751475
5774.000000;0.751996
5773.000000;0.752533
5772.000000;0.753090
5771.000000;0.753645
5770.000000;0.754175
5769.000000;0.754687
5768.000000;0.755207
5767.000000;0.755731
5766.000000;0.756236
5765.000000;0.756712
5764.000000;0.757182
5763.000000;0.757673
5762.000000;0.758197
5761.000000;0.758745
5760.000000;0.759308
5759.000000;0.759885
5758.000000;0.760476
5757.000000;0.761074
5756.000000;0.761665
5755.000000;0.762241
5754.000000;0.762809
5753.000000;0.763373
5752.000000;0.763921
5751.000000;0.764446
5750.000000;0.764989
5749.000000;0.765601
5748.000000;0.766280
5747.000000;0.766961
5746.000000;0.767599
5745.000000;0.768225
5744.000000;0.768906
5743.000000;0.769656
5742.000000;0.770411
5741.000000;0.771082
5740.000000;0.771626
5739.000000;0.772084
5738.000000;0.772556
5737.000000;0.773120
5736.000000;0.773773
5735.000000;0.774447
5734.000000;0.775089
5733.000000;0.775704
5732.000000;0.776331
5731.000000;0.777004
5730.000000;0.777741
5729.000000;0.778527
5728.000000;0.779299
5727.000000;0.779990
5726.000000;0.780600
5725.000000;0.781196
5724.000000;0.781827
5723.000000;0.782479
5722.000000;0.783140
5721.000000;0.783828
5720.000000;0.784555
5719.000000;0.785284
5718.000000;0.785986
5717.000000;0.786694
5716.000000;0.787453
5715.000000;0.788249
5714.000000;0.789026
5713.000000;0.789762
5712.000000;0.790476
5711.000000;0.791180
5710.000000;0.791881
5709.000000;0.792609
5708.000000;0.793399
5707.000000;0.794236
5706.000000;0.795066
5705.000000;0.795870
5704.000000;0.796677
5703.000000;0.797507
5702.000000;0.798325
5701.000000;0.799102
5700.000000;0.799847
5699.000000;0.800604
5698.000000;0.801388
5697.000000;0.802232
5696.000000;0.803108
5695.000000;0.804011
5694.000000;0.804940
5693.000000;0.805842
5692.000000;0.806670
5691.000000;0.807399
5690.000000;0.808071
5689.000000;0.808785
5688.000000;0.809628
5687.000000;0.810599
5686.000000;0.811608
5685.000000;0.812549
5684.000000;0.813379
5683.000000;0.814122
5682.000000;0.814833
5681.000000;0.815565
5680.000000;0.816347
5679.000000;0.817174
5678.000000;0.818012
5677.000000;0.818824
5676.000000;0.819599
5675.000000;0.820352
5674.000000;0.821108
5673.000000;0.821888
5672.000000;0.822694
5671.000000;0.823518
5670.000000;0.824355
5669.000000;0.825201
5668.000000;0.826053
5667.000000;0.826899
5666.000000;0.827718
5665.000000;0.828498
5664.000000;0.829248
5663.000000;0.830000
5662.000000;0.830778
5661.000000;0.831556
5660.000000;0.832276
5659.000000;0.832915
5658.000000;0.833525
5657.000000;0.834198
5656.000000;0.834987
5655.000000;0.835875
5654.000000;0.836813
5653.000000;0.837762
5652.000000;0.838699
5651.000000;0.839600
5650.000000;0.840434
5649.000000;0.841160
5648.000000;0.841749
5647.000000;0.842225
5646.000000;0.842671
5645.000000;0.843173
5644.000000;0.843755
5643.000000;0.844381
5642.000000;0.845030
5641.000000;0.845722
5640.000000;0.846476
5639.000000;0.847284
5638.000000;0.848121
5637.000000;0.848969
5636.000000;0.849801
5635.000000;0.850572
5634.000000;0.851247
5633.000000;0.851824
5632.000000;0.852321
5631.000000;0.852769
5630.000000;0.853205
5629.000000;0.853671
5628.000000;0.854187
5627.000000;0.854743
5626.000000;0.855331
5625.000000;0.855953
5624.000000;0.856599
5623.000000;0.857237
5622.000000;0.857839
5621.000000;0.858391
5620.000000;0.858894
5619.000000;0.859364
5618.000000;0.859846
5617.000000;0.860380
5616.000000;0.860949
5615.000000;0.861475
5614.000000;0.861906
5613.000000;0.862268
5612.000000;0.862642
5611.000000;0.863091
5610.000000;0.863613
5609.000000;0.864149
5608.000000;0.864626
5607.000000;0.865018
5606.000000;0.865359
5605.000000;0.865690
5604.000000;0.866010
5603.000000;0.866315
5602.000000;0.866651
5601.000000;0.867071
5600.000000;0.867538
5599.000000;0.867945
5598.000000;0.868251
5597.000000;0.868536
5596.000000;0.868891
5595.000000;0.869307
5594.000000;0.869709
5593.000000;0.870046
5592.000000;0.870317
5591.000000;0.870529
5590.000000;0.870691
5589.000000;0.870841
5588.000000;0.871025
5587.000000;0.871256
5586.000000;0.871514
5585.000000;0.871774
5584.000000;0.872019
5583.000000;0.872251
5582.000000;0.872496
5581.000000;0.872784
5580.000000;0.873105
5579.000000;0.873388
5578.000000;0.873557
5577.000000;0.873585
5576.000000;0.873511
5575.000000;0.873431
5574.000000;0.873464
5573.000000;0.873668
5572.000000;0.873984
5571.000000;0.874292
5570.000000;0.874539
5569.000000;0.874760
5568.000000;0.874980
5567.000000;0.875166
5566.000000;0.875295
5565.000000;0.875407
5564.000000;0.875527
5563.000000;0.875605
5562.000000;0.875579
5561.000000;0.875475
5560.000000;0.875389
5559.000000;0.875394
5558.000000;0.875498
5557.000000;0.875665
5556.000000;0.875839
5555.000000;0.875950
5554.000000;0.875966
5553.000000;0.875918
5552.000000;0.875859
5551.000000;0.875817
5550.000000;0.875812
5549.000000;0.875877
5548.000000;0.876024
5547.000000;0.876200
5546.000000;0.876321
5545.000000;0.876347
5544.000000;0.876298
5543.000000;0.876229
5542.000000;0.876218
5541.000000;0.876328
5540.000000;0.876550
5539.000000;0.876788
5538.000000;0.876956
5537.000000;0.877057
5536.000000;0.877136
5535.000000;0.877182
5534.000000;0.877161
5533.000000;0.877092
5532.000000;0.877042
5531.000000;0.877030
5530.000000;0.877024
5529.000000;0.877015
5528.000000;0.877042
5527.000000;0.877140
5526.000000;0.877293
5525.000000;0.877446
5524.000000;0.877533
5523.000000;0.877543
5522.000000;0.877548
5521.000000;0.877643
5520.000000;0.877826
5519.000000;0.877965
5518.000000;0.877959
5517.000000;0.877868
5516.000000;0.877813
5515.000000;0.877827
5514.000000;0.877861
5513.000000;0.877923
5512.000000;0.878105
5511.000000;0.878430
5510.000000;0.878779
5509.000000;0.879012
5508.000000;0.879093
5507.000000;0.879067
5506.000000;0.878964
5505.000000;0.878816
5504.000000;0.878726
5503.000000;0.878854
5502.000000;0.879230
5501.000000;0.879680
5500.000000;0.879996
5499.000000;0.880173
5498.000000;0.880431
5497.000000;0.880922
5496.000000;0.881447
5495.000000;0.881662
5494.000000;0.881540
5493.000000;0.881423
5492.000000;0.881560
5491.000000;0.881737
5490.000000;0.881627
5489.000000;0.881335
5488.000000;0.881277
5487.000000;0.881612
5486.000000;0.882087
5485.000000;0.882435
5484.000000;0.882699
5483.000000;0.883064
5482.000000;0.883562
5481.000000;0.884121
5480.000000;0.884769
5479.000000;0.885506
5478.000000;0.886086
5477.000000;0.886244
5476.000000;0.886121
5475.000000;0.886228
5474.000000;0.886818
5473.000000;0.887486
5472.000000;0.887759
5471.000000;0.887747
5470.000000;0.887925
5469.000000;0.888513
5468.000000;0.889291
5467.000000;0.889924
5466.000000;0.890352
5465.000000;0.890753
5464.000000;0.891196
5463.000000;0.891605
5462.000000;0.891990
5461.000000;0.892519
5460.000000;0.893289
5459.000000;0.894144
5458.000000;0.894838
5457.000000;0.895384
5456.000000;0.896050
5455.000000;0.897026
5454.000000;0.898200
5453.000000;0.899240
5452.000000;0.899895
5451.000000;0.900289
5450.000000;0.900846
5449.000000;0.901776
5448.000000;0.902744
5447.000000;0.903304
5446.000000;0.903602
5445.000000;0.904211
5444.000000;0.905193
5443.000000;0.905986
5442.000000;0.906373
5441.000000;0.906960
5440.000000;0.908365
5439.000000;0.910300
5438.000000;0.911864
5437.000000;0.912671
5436.000000;0.913195
5435.000000;0.914133
5434.000000;0.915712
5433.000000;0.917463
5432.000000;0.918676
5431.000000;0.919173
5430.000000;0.919501
5429.000000;0.920425
5428.000000;0.922187
5427.000000;0.924272
5426.000000;0.926095
5425.000000;0.927680
5424.000000;0.929411
5423.000000;0.931446
5422.000000;0.933592
5421.000000;0.935561
5420.000000;0.937276
5419.000000;0.938981
5418.000000;0.940921
5417.000000;0.942928
5416.000000;0.944616
5415.000000;0.945984
5414.000000;0.947539
5413.000000;0.949623
5412.000000;0.951840
5411.000000;0.953677
5410.000000;0.955372
5409.000000;0.957566
5408.000000;0.960334
5407.000000;0.963155
5406.000000;0.965771
5405.000000;0.968499
5404.000000;0.971641
5403.000000;0.975030
5402.000000;0.978341
5401.000000;0.981528
5400.000000;0.984668
5399.000000;0.987763
5398.000000;0.990890
5397.000000;0.994103
5396.000000;0.997233
5395.000000;1.000062
5394.000000;1.002741
5393.000000;1.005769
5392.000000;1.009381
5391.000000;1.013370
5390.000000;1.017588
5389.000000;1.022107
5388.000000;1.026861
5387.000000;1.031574
5386.000000;1.036147
5385.000000;1.040807
5384.000000;1.045667
5383.000000;1.050500
5382.000000;1.055244
5381.000000;1.060233
5380.000000;1.065572
5379.000000;1.070907
5378.000000;1.076078
5377.000000;1.081519
5376.000000;1.087659
5375.000000;1.094196
5374.000000;1.100528
5373.000000;1.106684
5372.000000;1.113192
5371.000000;1.120297
5370.000000;1.127779
5369.000000;1.135388
5368.000000;1.143085
5367.000000;1.150860
5366.000000;1.158672
5365.000000;1.166654
5364.000000;1.175086
5363.000000;1.184029
5362.000000;1.193250
5361.000000;1.202544
5360.000000;1.211914
5359.000000;1.221508
5358.000000;1.231461
5357.000000;1.241740
5356.000000;1.252153
5355.000000;1.262599
5354.000000;1.273313
5353.000000;1.284648
5352.000000;1.296483
5351.000000;1.308295
5350.000000;1.320078
5349.000000;1.332573
5348.000000;1.346165
5347.000000;1.360222
5346.000000;1.374021
5345.000000;1.387869
5344.000000;1.402723
5343.000000;1.418706
5342.000000;1.434798
5341.000000;1.450334
5340.000000;1.465809
5339.000000;1.482030
5338.000000;1.499240
5337.000000;1.517084
5336.000000;1.535171
5335.000000;1.553552
5334.000000;1.572621
5333.000000;1.592717
5332.000000;1.613856
5331.000000;1.635623
5330.000000;1.657411
5329.000000;1.679026
5328.000000;1.700877
5327.000000;1.723545
5326.000000;1.747169
5325.000000;1.771307
5324.000000;1.795533
5323.000000;1.820039
5322.000000;1.845390
5321.000000;1.871781
5320.000000;1.898681
5319.000000;1.925303
5318.000000;1.951349
5317.000000;1.977077
5316.000000;2.002819
5315.000000;2.028727
5314.000000;2.054900
5313.000000;2.081466
5312.000000;2.108630
5311.000000;2.136778
5310.000000;2.166257
5309.000000;2.196713
5308.000000;2.226872
5307.000000;2.255455
5306.000000;2.282150
5305.000000;2.307284
5304.000000;2.331232
5303.000000;2.354653
5302.000000;2.378313
5301.000000;2.401902
5300.000000;2.424046
5299.000000;2.444412
5298.000000;2.464697
5297.000000;2.486201
5296.000000;2.507852
5295.000000;2.528412
5294.000000;2.548874
5293.000000;2.570325
5292.000000;2.590721
5291.000000;2.606187
5290.000000;2.615767
5289.000000;2.622794
5288.000000;2.630997
5287.000000;2.641177
5286.000000;2.650918
5285.000000;2.655989
5284.000000;2.653637
5283.000000;2.645806
5282.000000;2.637821
5281.000000;2.633864
5280.000000;2.634797
5279.000000;2.639547
5278.000000;2.646835
5277.000000;2.654985
5276.000000;2.661614
5275.000000;2.665347
5274.000000;2.667112
5273.000000;2.668522
5272.000000;2.670296
5271.000000;2.672898
5270.000000;2.676779
5269.000000;2.680804
5268.000000;2.682010
5267.000000;2.678603
5266.000000;2.672400
5265.000000;2.667144
5264.000000;2.665319
5263.000000;2.666637
5262.000000;2.668648
5261.000000;2.668982
5260.000000;2.667703
5259.000000;2.667118
5258.000000;2.668381
5257.000000;2.669149
5256.000000;2.666631
5255.000000;2.662794
5254.000000;2.663421
5253.000000;2.671049
5252.000000;2.681395
5251.000000;2.687937
5250.000000;2.688396
5249.000000;2.685159
5248.000000;2.681036
5247.000000;2.677100
5246.000000;2.674010
5245.000000;2.673170
5244.000000;2.675661
5243.000000;2.680359
5242.000000;2.684031
5241.000000;2.684368
5240.000000;2.682830
5239.000000;2.683476
5238.000000;2.688400
5237.000000;2.694825
5236.000000;2.697751
5235.000000;2.695455
5234.000000;2.690998
5233.000000;2.688555
5232.000000;2.689925
5231.000000;2.693916
5230.000000;2.697039
5229.000000;2.695284
5228.000000;2.687330
5227.000000;2.676725
5226.000000;2.669286
5225.000000;2.667523
5224.000000;2.668885
5223.000000;2.669628
5222.000000;2.668867
5221.000000;2.668835
5220.000000;2.673208
5219.000000;2.685119
5218.000000;2.704182
5217.000000;2.724393
5216.000000;2.737364
5215.000000;2.739670
5214.000000;2.734847
5213.000000;2.727501
5212.000000;2.719172
5211.000000;2.710307
5210.000000;2.702264
5209.000000;2.696343
5208.000000;2.693151
5207.000000;2.693442
5206.000000;2.697690
5205.000000;2.703767
5204.000000;2.707151
5203.000000;2.705676
5202.000000;2.702427
5201.000000;2.702018
5200.000000;2.705351
5199.000000;2.709078
5198.000000;2.709487
5197.000000;2.705823
5196.000000;2.700042
5195.000000;2.694497
5194.000000;2.690003
5193.000000;2.685943
5192.000000;2.682123
5191.000000;2.679816
5190.000000;2.680394
5189.000000;2.683511
5188.000000;2.687832
5187.000000;2.693383
5186.000000;2.701582
5185.000000;2.712568
5184.000000;2.723311
5183.000000;2.729582
5182.000000;2.730060
5181.000000;2.726980
5180.000000;2.722946
5179.000000;2.718376
5178.000000;2.712304
5177.000000;2.705363
5176.000000;2.700682
5175.000000;2.701445
5174.000000;2.708045
5173.000000;2.717257
5172.000000;2.724128
5171.000000;2.725198
5170.000000;2.720365
5169.000000;2.712547
5168.000000;2.705964
5167.000000;2.703968
5166.000000;2.707053
5165.000000;2.711877
5164.000000;2.712963
5163.000000;2.707194
5162.000000;2.697193
5161.000000;2.689175
5160.000000;2.687194
5159.000000;2.689941
5158.000000;2.692444
5157.000000;2.690859
5156.000000;2.685978
5155.000000;2.681408
5154.000000;2.679425
5153.000000;2.680183
5152.000000;2.683572
5151.000000;2.689754
5150.000000;2.697957
5149.000000;2.705986
5148.000000;2.711377
5147.000000;2.712342
5146.000000;2.707827
5145.000000;2.698594
5144.000000;2.688525
5143.000000;2.682275
5142.000000;2.681063
5141.000000;2.682402
5140.000000;2.684053
5139.000000;2.686920
5138.000000;2.692965
5137.000000;2.701559
5136.000000;2.709693
5135.000000;2.715083
5134.000000;2.717440
5133.000000;2.717171
5132.000000;2.714684
5131.000000;2.710721
5130.000000;2.705967
5129.000000;2.700783
5128.000000;2.695891
5127.000000;2.692170
5126.000000;2.689088
5125.000000;2.685004
5124.000000;2.680376
5123.000000;2.679166
5122.000000;2.685383
5121.000000;2.698490
5120.000000;2.712811
5119.000000;2.722142
5118.000000;2.724533
5117.000000;2.722291
5116.000000;2.719074
5115.000000;2.717225
5114.000000;2.716314
5113.000000;2.713799
5112.000000;2.708427
5111.000000;2.702665
5110.000000;2.699369
5109.000000;2.697868
5108.000000;2.695586
5107.000000;2.691389
5106.000000;2.686280
5105.000000;2.682291
5104.000000;2.681813
5103.000000;2.686926
5102.000000;2.697126
5101.000000;2.708009
5100.000000;2.714119
5099.000000;2.713057
5098.000000;2.706118
5097.000000;2.695494
5096.000000;2.682725
5095.000000;2.670136
5094.000000;2.661325
5093.000000;2.659571
5092.000000;2.666134
5091.000000;2.679252
5090.000000;2.694370
5089.000000;2.705852
5088.000000;2.709651
5087.000000;2.705436
5086.000000;2.696224
5085.000000;2.686189
5084.000000;2.678703
5083.000000;2.675111
5082.000000;2.674678
5081.000000;2.675944
5080.000000;2.678098
5079.000000;2.680735
5078.000000;2.683030
5077.000000;2.684417
5076.000000;2.685690
5075.000000;2.687976
5074.000000;2.690533
5073.000000;2.691214
5072.000000;2.689597
5071.000000;2.687927
5070.000000;2.688327
5069.000000;2.690835
5068.000000;2.694559
5067.000000;2.698710
5066.000000;2.701392
5065.000000;2.699760
5064.000000;2.693540
5063.000000;2.686415
5062.000000;2.681713
5061.000000;2.678286
5060.000000;2.672466
5059.000000;2.663186
5058.000000;2.653456
5057.000000;2.647338
5056.000000;2.646839
5055.000000;2.650915
5054.000000;2.655993
5053.000000;2.658135
5052.000000;2.656430
5051.000000;2.653926
5050.000000;2.653933
5049.000000;2.656484
5048.000000;2.659353
5047.000000;2.661225
5046.000000;2.662549
5045.000000;2.663824
5044.000000;2.664924
5043.000000;2.666206
5042.000000;2.668462
5041.000000;2.671271
5040.000000;2.672624
5039.000000;2.670668
5038.000000;2.665082
5037.000000;2.656841
5036.000000;2.647631
5035.000000;2.639295
5034.000000;2.633228
5033.000000;2.630847
5032.000000;2.634389
5031.000000;2.644777
5030.000000;2.657403
5029.000000;2.662685
5028.000000;2.654980
5027.000000;2.639523
5026.000000;2.626204
5025.000000;2.619127
5024.000000;2.615294
5023.000000;2.611404
5022.000000;2.608495
5021.000000;2.608821
5020.000000;2.611222
5019.000000;2.611864
5018.000000;2.608562
5017.000000;2.602942
5016.000000;2.598364
5015.000000;2.597113
5014.000000;2.599283
5013.000000;2.602865
5012.000000;2.605081
5011.000000;2.604106
5010.000000;2.599709
5009.000000;2.593145
5008.000000;2.586938
5007.000000;2.583995
5006.000000;2.585544
5005.000000;2.589296
5004.000000;2.590912
5003.000000;2.588286
5002.000000;2.583262
5001.000000;2.578789
5000.000000;2.575947
4999.000000;2.574176
4998.000000;2.572330
4997.000000;2.568456
4996.000000;2.560772
4995.000000;2.550353
4994.000000;2.541552
4993.000000;2.538341
4992.000000;2.540679
4991.000000;2.544832
4990.000000;2.546959
4989.000000;2.545757
4988.000000;2.541790
4987.000000;2.536064
4986.000000;2.530137
4985.000000;2.526388
4984.000000;2.526776
4983.000000;2.530998
4982.000000;2.536039
4981.000000;2.537562
4980.000000;2.532227
4979.000000;2.520034
4978.000000;2.504706
4977.000000;2.491450
4976.000000;2.484268
4975.000000;2.484066
4974.000000;2.488063
4973.000000;2.491449
4972.000000;2.490518
4971.000000;2.485196
4970.000000;2.478715
4969.000000;2.474009
4968.000000;2.471021
4967.000000;2.467815
4966.000000;2.463285
4965.000000;2.458053
4964.000000;2.453245
4963.000000;2.449442
4962.000000;2.446802
4961.000000;2.445161
4960.000000;2.443877
4959.000000;2.442131
4958.000000;2.439661
4957.000000;2.436786
4956.000000;2.433442
4955.000000;2.428775
4954.000000;2.422259
4953.000000;2.414750
4952.000000;2.407876
4951.000000;2.402608
4950.000000;2.398772
4949.000000;2.395905
4948.000000;2.394105
4947.000000;2.393324
4946.000000;2.391932
4945.000000;2.386968
4944.000000;2.376733
4943.000000;2.362724
4942.000000;2.348430
4941.000000;2.336582
4940.000000;2.327893
4939.000000;2.321894
4938.000000;2.318330
4937.000000;2.317561
4936.000000;2.319942
4935.000000;2.325013
4934.000000;2.331022
4933.000000;2.335020
4932.000000;2.334107
4931.000000;2.327463
4930.000000;2.317037
4929.000000;2.305916
4928.000000;2.296378
4927.000000;2.289333
4926.000000;2.284701
4925.000000;2.281569
4924.000000;2.278293
4923.000000;2.273414
4922.000000;2.266948
4921.000000;2.260307
4920.000000;2.254601
4919.000000;2.249544
4918.000000;2.244311
4917.000000;2.238926
4916.000000;2.234256
4915.000000;2.230887
4914.000000;2.228523
4913.000000;2.226184
4912.000000;2.222577
4911.000000;2.216553
4910.000000;2.207905
4909.000000;2.197973
4908.000000;2.189013
4907.000000;2.182557
4906.000000;2.178454
4905.000000;2.175475
4904.000000;2.172511
4903.000000;2.169062
4902.000000;2.164936
4901.000000;2.159960
4900.000000;2.154134
4899.000000;2.147871
4898.000000;2.141822
4897.000000;2.136531
4896.000000;2.132373
4895.000000;2.129731
4894.000000;2.128945
4893.000000;2.129675
4892.000000;2.130362
4891.000000;2.128995
4890.000000;2.124758
4889.000000;2.118634
4888.000000;2.112119
4887.000000;2.105634
4886.000000;2.098607
4885.000000;2.090863
4884.000000;2.083274
4883.000000;2.076910
4882.000000;2.072111
4881.000000;2.068549
4880.000000;2.065666
4879.000000;2.062747
4878.000000;2.059046
4877.000000;2.054373
4876.000000;2.049330
4875.000000;2.044587
4874.000000;2.040086
4873.000000;2.035228
4872.000000;2.029753
4871.000000;2.024049
4870.000000;2.018535
4869.000000;2.013077
4868.000000;2.007144
4867.000000;2.000515
4866.000000;1.993770
4865.000000;1.987936
4864.000000;1.983551
4863.000000;1.980023
4862.000000;1.976106
4861.000000;1.971116
4860.000000;1.965425
4859.000000;1.959776
4858.000000;1.954534
4857.000000;1.949764
4856.000000;1.945614
4855.000000;1.942270
4854.000000;1.939700
4853.000000;1.937608
4852.000000;1.935524
4851.000000;1.932826
4850.000000;1.928873
4849.000000;1.923387
4848.000000;1.916694
4847.000000;1.909547
4846.000000;1.902804
4845.000000;1.897270
4844.000000;1.893491
4843.000000;1.891322
4842.000000;1.889797
4841.000000;1.887764
4840.000000;1.884702
4839.000000;1.880810
4838.000000;1.876363
4837.000000;1.871195
4836.000000;1.864878
4835.000000;1.857399
4834.000000;1.849658
4833.000000;1.843146
4832.000000;1.838763
4831.000000;1.835920
4830.000000;1.833120
4829.000000;1.829574
4828.000000;1.825878
4827.000000;1.822907
4826.000000;1.820521
4825.000000;1.817746
4824.000000;1.813972
4823.000000;1.809461
4822.000000;1.804761
4821.000000;1.800114
4820.000000;1.795520
4819.000000;1.791007
4818.000000;1.786652
4817.000000;1.782493
4816.000000;1.778442
4815.000000;1.774210
4814.000000;1.769447
4813.000000;1.764159
4812.000000;1.758939
4811.000000;1.754505
4810.000000;1.751007
4809.000000;1.747925
4808.000000;1.744637
4807.000000;1.740879
4806.000000;1.736779
4805.000000;1.732696
4804.000000;1.729063
4803.000000;1.726081
4802.000000;1.723391
4801.000000;1.720269
4800.000000;1.716327
4799.000000;1.711971
4798.000000;1.707953
4797.000000;1.704535
4796.000000;1.701200
4795.000000;1.697246
4794.000000;1.692586
4793.000000;1.687889
4792.000000;1.683875
4791.000000;1.680535
4790.000000;1.677169
4789.000000;1.673171
4788.000000;1.668603
4787.000000;1.663943
4786.000000;1.659520
4785.000000;1.655362
4784.000000;1.651422
4783.000000;1.647667
4782.000000;1.644020
4781.000000;1.640436
4780.000000;1.637038
4779.000000;1.633991
4778.000000;1.631254
4777.000000;1.628559
4776.000000;1.625644
4775.000000;1.622375
4774.000000;1.618694
4773.000000;1.614632
4772.000000;1.610416
4771.000000;1.606416
4770.000000;1.602924
4769.000000;1.600007
4768.000000;1.597521
4767.000000;1.595161
4766.000000;1.592531
4765.000000;1.589336
4764.000000;1.585576
4763.000000;1.581496
4762.000000;1.577346
4761.000000;1.573240
4760.000000;1.569243
4759.000000;1.565427
4758.000000;1.561791
4757.000000;1.558236
4756.000000;1.554740
4755.000000;1.551532
4754.000000;1.548973
4753.000000;1.547194
4752.000000;1.545800
4751.000000;1.544028
4750.000000;1.541305
4749.000000;1.537694
4748.000000;1.533746
4747.000000;1.529913
4746.000000;1.526189
4745.000000;1.522363
4744.000000;1.518481
4743.000000;1.514919
4742.000000;1.511978
4741.000000;1.509530
4740.000000;1.507110
4739.000000;1.504343
4738.000000;1.501294
4737.000000;1.498403
4736.000000;1.496038
4735.000000;1.494111
4734.000000;1.492117
4733.000000;1.489550
4732.000000;1.486275
4731.000000;1.482543
4730.000000;1.478781
4729.000000;1.475342
4728.000000;1.472338
4727.000000;1.469623
4726.000000;1.466968
4725.000000;1.464292
4724.000000;1.461717
4723.000000;1.459425
4722.000000;1.457481
4721.000000;1.455739
4720.000000;1.453839
4719.000000;1.451388
4718.000000;1.448313
4717.000000;1.445014
4716.000000;1.442018
4715.000000;1.439443
4714.000000;1.436963
4713.000000;1.434265
4712.000000;1.431351
4711.000000;1.428358
4710.000000;1.425320
4709.000000;1.422243
4708.000000;1.419265
4707.000000;1.416568
4706.000000;1.414238
4705.000000;1.412282
4704.000000;1.410651
4703.000000;1.409134
4702.000000;1.407412
4701.000000;1.405360
4700.000000;1.403185
4699.000000;1.401115
4698.000000;1.399094
4697.000000;1.396918
4696.000000;1.394560
4695.000000;1.392169
4694.000000;1.389835
4693.000000;1.387536
4692.000000;1.385272
4691.000000;1.383098
4690.000000;1.381023
4689.000000;1.379005
4688.000000;1.377054
4687.000000;1.375215
4686.000000;1.373447
4685.000000;1.371610
4684.000000;1.369586
4683.000000;1.367373
4682.000000;1.365084
4681.000000;1.362868
4680.000000;1.360771
4679.000000;1.358636
4678.000000;1.356267
4677.000000;1.353743
4676.000000;1.351443
4675.000000;1.349664
4674.000000;1.348289
4673.000000;1.346960
4672.000000;1.345432
4671.000000;1.343682
4670.000000;1.341783
4669.000000;1.339860
4668.000000;1.338086
4667.000000;1.336533
4666.000000;1.335012
4665.000000;1.333198
4664.000000;1.330909
4663.000000;1.328207
4662.000000;1.325300
4661.000000;1.322467
4660.000000;1.320024
4659.000000;1.318177
4658.000000;1.316874
4657.000000;1.315864
4656.000000;1.314911
4655.000000;1.313899
4654.000000;1.312811
4653.000000;1.311695
4652.000000;1.310614
4651.000000;1.309547
4650.000000;1.308354
4649.000000;1.306895
4648.000000;1.305157
4647.000000;1.303241
4646.000000;1.301313
4645.000000;1.299609
4644.000000;1.298326
4643.000000;1.297399
4642.000000;1.296474
4641.000000;1.295211
4640.000000;1.293554
4639.000000;1.291645
4638.000000;1.289614
4637.000000;1.287593
4636.000000;1.285780
4635.000000;1.284296
4634.000000;1.283034
4633.000000;1.281822
4632.000000;1.280667
4631.000000;1.279665
4630.000000;1.278766
4629.000000;1.277792
4628.000000;1.276663
4627.000000;1.275412
4626.000000;1.274009
4625.000000;1.272382
4624.000000;1.270632
4623.000000;1.269062
4622.000000;1.267892
4621.000000;1.267038
4620.000000;1.266216
4619.000000;1.265190
4618.000000;1.263934
4617.000000;1.262607
4616.000000;1.261392
4615.000000;1.260292
4614.000000;1.259115
4613.000000;1.257706
4612.000000;1.256175
4611.000000;1.254799
4610.000000;1.253747
4609.000000;1.252961
4608.000000;1.252273
4607.000000;1.251529
4606.000000;1.250637
4605.000000;1.249593
4604.000000;1.248470
4603.000000;1.247324
4602.000000;1.246144
4601.000000;1.244923
4600.000000;1.243699
4599.000000;1.242454
4598.000000;1.241080
4597.000000;1.239540
4596.000000;1.237982
4595.000000;1.236552
4594.000000;1.235190
4593.000000;1.233771
4592.000000;1.232363
4591.000000;1.231201
4590.000000;1.230417
4589.000000;1.229949
4588.000000;1.229670
4587.000000;1.229478
4586.000000;1.229282
4585.000000;1.229037
4584.000000;1.228757
4583.000000;1.228382
4582.000000;1.227685
4581.000000;1.226492
4580.000000;1.224977
4579.000000;1.223578
4578.000000;1.222604
4577.000000;1.222037
4576.000000;1.221684
4575.000000;1.221340
4574.000000;1.220792
4573.000000;1.219869
4572.000000;1.218577
4571.000000;1.217110
4570.000000;1.215688
4569.000000;1.214437
4568.000000;1.213403
4567.000000;1.212561
4566.000000;1.211810
4565.000000;1.211066
4564.000000;1.210373
4563.000000;1.209836
4562.000000;1.209437
4561.000000;1.209057
4560.000000;1.208670
4559.000000;1.208365
4558.000000;1.208138
4557.000000;1.207793
4556.000000;1.207141
4555.000000;1.206195
4554.000000;1.205101
4553.000000;1.203964
4552.000000;1.202816
4551.000000;1.201687
4550.000000;1.200617
4549.000000;1.199595
4548.000000;1.198574
4547.000000;1.197561
4546.000000;1.196681
4545.000000;1.196115
4544.000000;1.195915
4543.000000;1.195911
4542.000000;1.195846
4541.000000;1.195628
4540.000000;1.195358
4539.000000;1.195081
4538.000000;1.194664
4537.000000;1.194023
4536.000000;1.193365
4535.000000;1.193004
4534.000000;1.192953
4533.000000;1.192881
4532.000000;1.192501
4531.000000;1.191908
4530.000000;1.191462
4529.000000;1.191412
4528.000000;1.191678
4527.000000;1.191938
4526.000000;1.191883
4525.000000;1.191411
4524.000000;1.190640
4523.000000;1.189750
4522.000000;1.188865
4521.000000;1.188086
4520.000000;1.187557
4519.000000;1.187415
4518.000000;1.187680
4517.000000;1.188238
4516.000000;1.188885
4515.000000;1.189374
4514.000000;1.189476
4513.000000;1.189113
4512.000000;1.188431
4511.000000;1.187739
4510.000000;1.187337
4509.000000;1.187340
4508.000000;1.187586
4507.000000;1.187718
4506.000000;1.187495
4505.000000;1.187075
4504.000000;1.186876
4503.000000;1.187100
4502.000000;1.187478
4501.000000;1.187588
4500.000000;1.187334
4499.000000;1.186986
4498.000000;1.186786
4497.000000;1.186664
4496.000000;1.186370
4495.000000;1.185858
4494.000000;1.185484
4493.000000;1.185763
4492.000000;1.186849
4491.000000;1.188285
4490.000000;1.189382
4489.000000;1.189856
4488.000000;1.189967
4487.000000;1.190083
4486.000000;1.190304
4485.000000;1.190551
4484.000000;1.190727
4483.000000;1.190681
4482.000000;1.190233
4481.000000;1.189475
4480.000000;1.188888
4479.000000;1.188954
4478.000000;1.189712
4477.000000;1.190829
4476.000000;1.191989
4475.000000;1.193038
4474.000000;1.193884
4473.000000;1.194471
4472.000000;1.194875
4471.000000;1.195268
4470.000000;1.195770
4469.000000;1.196403
4468.000000;1.197118
4467.000000;1.197794
4466.000000;1.198289
4465.000000;1.198589
4464.000000;1.198863
4463.000000;1.199274
4462.000000;1.199822
4461.000000;1.200405
4460.000000;1.200944
4459.000000;1.201405
4458.000000;1.201837
4457.000000;1.202448
4456.000000;1.203434
4455.000000;1.204631
4454.000000;1.205582
4453.000000;1.206113
4452.000000;1.206600
4451.000000;1.207420
4450.000000;1.208342
4449.000000;1.208756
4448.000000;1.208441
4447.000000;1.207848
4446.000000;1.207683
4445.000000;1.208391
4444.000000;1.209906
4443.000000;1.211637
4442.000000;1.212823
4441.000000;1.213189
4440.000000;1.213251
4439.000000;1.213776
4438.000000;1.215012
4437.000000;1.216630
4436.000000;1.218283
4435.000000;1.219929
4434.000000;1.221633
4433.000000;1.223319
4432.000000;1.224785
4431.000000;1.225827
4430.000000;1.226368
4429.000000;1.226581
4428.000000;1.226824
4427.000000;1.227245
4426.000000;1.227548
4425.000000;1.227389
4424.000000;1.226928
4423.000000;1.226744
4422.000000;1.227261
4421.000000;1.228475
4420.000000;1.230177
4419.000000;1.232168
4418.000000;1.234240
4417.000000;1.236211
4416.000000;1.238061
4415.000000;1.239896
4414.000000;1.241729
4413.000000;1.243423
4412.000000;1.244853
4411.000000;1.245994
4410.000000;1.246904
4409.000000;1.247743
4408.000000;1.248782
4407.000000;1.250233
4406.000000;1.252102
4405.000000;1.254284
4404.000000;1.256649
4403.000000;1.258920
4402.000000;1.260650
4401.000000;1.261619
4400.000000;1.262144
4399.000000;1.262707
4398.000000;1.263356
4397.000000;1.263754
4396.000000;1.263791
4395.000000;1.263830
4394.000000;1.264328
4393.000000;1.265458
4392.000000;1.267158
4391.000000;1.269327
4390.000000;1.271848
4389.000000;1.274524
4388.000000;1.277071
4387.000000;1.279184
4386.000000;1.280678
4385.000000;1.281630
4384.000000;1.282310
4383.000000;1.282936
4382.000000;1.283568
4381.000000;1.284251
4380.000000;1.285103
4379.000000;1.286201
4378.000000;1.287615
4377.000000;1.289593
4376.000000;1.292301
4375.000000;1.295153
4374.000000;1.296838
4373.000000;1.296525
4372.000000;1.294815
4371.000000;1.293135
4370.000000;1.292496
4369.000000;1.293208
4368.000000;1.295318
4367.000000;1.298608
4366.000000;1.302270
4365.000000;1.305328
4364.000000;1.307577
4363.000000;1.309689
4362.000000;1.312245
4361.000000;1.315020
4360.000000;1.317270
4359.000000;1.318420
4358.000000;1.318420
4357.000000;1.317868
4356.000000;1.317921
4355.000000;1.319644
4354.000000;1.323214
4353.000000;1.327799
4352.000000;1.332144
4351.000000;1.335150
4350.000000;1.336125
4349.000000;1.334986
4348.000000;1.332428
4347.000000;1.329667
4346.000000;1.327862
4345.000000;1.327722
4344.000000;1.329467
4343.000000;1.332846
4342.000000;1.337202
4341.000000;1.341812
4340.000000;1.346239
4339.000000;1.350162
4338.000000;1.352981
4337.000000;1.354018
4336.000000;1.353226
4335.000000;1.351451
4334.000000;1.349929
4333.000000;1.349709
4332.000000;1.351306
4331.000000;1.354415
4330.000000;1.357927
4329.000000;1.360662
4328.000000;1.362304
4327.000000;1.363503
4326.000000;1.365129
4325.000000;1.367584
4324.000000;1.370590
4323.000000;1.373374
4322.000000;1.375227
4321.000000;1.376185
4320.000000;1.376964
4319.000000;1.378056
4318.000000;1.379376
4317.000000;1.381040
4316.000000;1.383686
4315.000000;1.387339
4314.000000;1.390646
4313.000000;1.392335
4312.000000;1.393206
4311.000000;1.395362
4310.000000;1.399179
4309.000000;1.402159
4308.000000;1.401446
4307.000000;1.396785
4306.000000;1.390321
4305.000000;1.384436
4304.000000;1.380564
4303.000000;1.379235
4302.000000;1.380301
4301.000000;1.383174
4300.000000;1.387303
4299.000000;1.392546
4298.000000;1.398913
4297.000000;1.405863
4296.000000;1.412018
4295.000000;1.415769
4294.000000;1.416245
4293.000000;1.413701
4292.000000;1.409154
4291.000000;1.403806
4290.000000;1.398677
4289.000000;1.394324
4288.000000;1.390669
4287.000000;1.387504
4286.000000;1.385861
4285.000000;1.388548
4284.000000;1.397905
4283.000000;1.412417
4282.000000;1.426284
4281.000000;1.433696
4280.000000;1.433924
4279.000000;1.431107
4278.000000;1.429510
4277.000000;1.430386
4276.000000;1.432573
4275.000000;1.434253
4274.000000;1.433846
4273.000000;1.430749
4272.000000;1.425903
4271.000000;1.420742
4270.000000;1.415919
4269.000000;1.411733
4268.000000;1.409065
4267.000000;1.409170
4266.000000;1.412410
4265.000000;1.417398
4264.000000;1.421701
4263.000000;1.423902
4262.000000;1.425347
4261.000000;1.429073
4260.000000;1.436202
4259.000000;1.443868
4258.000000;1.447553
4257.000000;1.445349
4256.000000;1.438624
4255.000000;1.429212
4254.000000;1.418476
4253.000000;1.408927
4252.000000;1.404037
4251.000000;1.405520
4250.000000;1.412221
4249.000000;1.422286
4248.000000;1.434546
4247.000000;1.446251
4246.000000;1.451862
4245.000000;1.447542
4244.000000;1.434979
4243.000000;1.418462
4242.000000;1.401790
4241.000000;1.388589
4240.000000;1.381364
4239.000000;1.378209
4238.000000;1.372762
4237.000000;1.361022
4236.000000;1.346856
4235.000000;1.337385
4234.000000;1.335004
4233.000000;1.336789
4232.000000;1.339979
4231.000000;1.344148
4230.000000;1.347322
4229.000000;1.343912
4228.000000;1.330048
4227.000000;1.309577
4226.000000;1.291404
4225.000000;1.281750
4224.000000;1.279988
4223.000000;1.280692
4222.000000;1.279665
4221.000000;1.277398
4220.000000;1.274869
4219.000000;1.267364
4218.000000;1.246674
4217.000000;1.212473
4216.000000;1.176856
4215.000000;1.152166
4214.000000;1.137992
4213.000000;1.122402
4212.000000;1.095888
4211.000000;1.062064
4210.000000;1.032216
4209.000000;1.013479
4208.000000;1.003831
4207.000000;0.993885
4206.000000;0.972407
4205.000000;0.934050
4204.000000;0.884891
4203.000000;0.836810
4202.000000;0.793857
4201.000000;0.750235
4200.000000;0.702185
4199.000000;0.658058
4198.000000;0.637188
4197.000000;0.653927
4196.000000;0.701852
4195.000000;0.755714
4194.000000;0.796642
4193.000000;0.830927
4192.000000;0.874428
4191.000000;0.929621
4190.000000;0.983406
4189.000000;1.023888
4188.000000;1.054712
4187.000000;1.087504
4186.000000;1.127666
4185.000000;1.173594
4184.000000;1.224285
4183.000000;1.281861
4182.000000;1.347082
4181.000000;1.416538
4180.000000;1.483857
4179.000000;1.540227
4178.000000;1.576843
4177.000000;1.590824
4176.000000;1.586843
4175.000000;1.576270
4174.000000;1.571381
4173.000000;1.573360
4172.000000;1.576122
4171.000000;1.582511
4170.000000;1.600519
4169.000000;1.632163
4168.000000;1.677295
4167.000000;1.736140
4166.000000;1.799388
4165.000000;1.851540
4164.000000;1.893976
4163.000000;1.938934
4162.000000;1.984323
4161.000000;2.015297
4160.000000;2.033026
4159.000000;2.068134
4158.000000;2.143929
4157.000000;2.229117
4156.000000;2.237565
4155.000000;2.174915
4154.000000;2.109520
4153.000000;2.064017
4152.000000;2.044590
4151.000000;2.052453
4150.000000;2.087372
4149.000000;2.149404
4148.000000;2.231426
4147.000000;2.316728
4146.000000;2.392945
4145.000000;2.465149
4144.000000;2.550689
4143.000000;2.638395
4142.000000;2.645376
4141.000000;2.551060
4140.000000;2.435097
4139.000000;2.338477
4138.000000;2.265626
4137.000000;2.211694
4136.000000;2.178356
4135.000000;2.166857
4134.000000;2.170820
4133.000000;2.184732
4132.000000;2.207679
4131.000000;2.239175
4130.000000;2.284917
4129.000000;2.360347
4128.000000;2.477984
4127.000000;2.611014
4126.000000;2.660208
4125.000000;2.605226
4124.000000;2.530507
4123.000000;2.477087
4122.000000;2.446668
4121.000000;2.426135
4120.000000;2.410634
4119.000000;2.407017
4118.000000;2.409676
4117.000000;2.385904
4116.000000;2.323208
4115.000000;2.259296
4114.000000;2.228962
4113.000000;2.240929
4112.000000;2.287700
4111.000000;2.357136
4110.000000;2.435905
4109.000000;2.500779
4108.000000;2.536976
4107.000000;2.568031
4106.000000;2.609898
4105.000000;2.636083
4104.000000;2.607009
4103.000000;2.525145
4102.000000;2.432136
4101.000000;2.365203
4100.000000;2.344219
4099.000000;2.367905
4098.000000;2.414397
4097.000000;2.455682
4096.000000;2.474113
4095.000000;2.469480
4094.000000;2.460875
4093.000000;2.471775
4092.000000;2.517503
4091.000000;2.603986
4090.000000;2.723772
4089.000000;2.831153
4088.000000;2.842655
4087.000000;2.787232
4086.000000;2.710430
4085.000000;2.623680
4084.000000;2.575485
4083.000000;2.596715
4082.000000;2.682190
4081.000000;2.789076
4080.000000;2.826257
4079.000000;2.734409
4078.000000;2.586471
4077.000000;2.468420
4076.000000;2.415705
4075.000000;2.434031
4074.000000;2.507447
4073.000000;2.602276
4072.000000;2.680429
4071.000000;2.724120
4070.000000;2.755416
4069.000000;2.809541
4068.000000;2.898484
4067.000000;2.968980
4066.000000;2.908109
4065.000000;2.750852
4064.000000;2.600232
4063.000000;2.495626
4062.000000;2.436294
4061.000000;2.407139
4060.000000;2.396976
4059.000000;2.397260
4058.000000;2.396853
4057.000000;2.395032
4056.000000;2.408469
4055.000000;2.455686
4054.000000;2.541203
4053.000000;2.641337
4052.000000;2.690629
4051.000000;2.654501
4050.000000;2.577464
4049.000000;2.519170
4048.000000;2.530449
4047.000000;2.635507
4046.000000;2.809411
4045.000000;2.886013
4044.000000;2.823980
4043.000000;2.736221
4042.000000;2.635020
4041.000000;2.543136
4040.000000;2.496959
4039.000000;2.516381
4038.000000;2.580084
4037.000000;2.599358
4036.000000;2.533769
4035.000000;2.471761
4034.000000;2.469846
4033.000000;2.538965
4032.000000;2.661689
4031.000000;2.777768
4030.000000;2.827555
4029.000000;2.824847
4028.000000;2.833981
4027.000000;2.926903
4026.000000;3.166948
4025.000000;3.197615
4024.000000;2.969096
4023.000000;2.902684
4022.000000;2.855189
4021.000000;2.777870
4020.000000;2.723694
4019.000000;2.722999
4018.000000;2.761400
4017.000000;2.816451
4016.000000;2.841454
4015.000000;2.796485
4014.000000;2.730393
4013.000000;2.720758
4012.000000;2.809824
4011.000000;2.987165
4010.000000;2.910884
4009.000000;2.759894
4008.000000;2.705068
4007.000000;2.673240
4006.000000;2.613939
4005.000000;2.562044
4004.000000;2.553610
4003.000000;2.595420
4002.000000;2.671267
4001.000000;2.743219
4000.000000;2.770087
3999.000000;2.737980
3998.000000;2.682931
3997.000000;2.673824
3996.000000;2.756067
3995.000000;2.986839
3994.000000;3.315736
3993.000000;3.389822
3992.000000;3.248729
3991.000000;2.945877
3990.000000;2.750359
3989.000000;2.691259
3988.000000;2.720694
3987.000000;2.810078
3986.000000;2.916359
3985.000000;2.970373
3984.000000;2.992728
3983.000000;3.080154
3982.000000;3.304898
3981.000000;3.256875
3980.000000;3.030381
3979.000000;2.985617
3978.000000;3.083401
3977.000000;3.307684
3976.000000;3.465415
3975.000000;3.294050
3974.000000;3.151690
3973.000000;3.311301
3972.000000;3.532397
3971.000000;3.033188
3970.000000;2.828578
3969.000000;2.770563
3968.000000;2.786258
3967.000000;2.826377
3966.000000;2.865695
3965.000000;2.901474
3964.000000;2.940789
3963.000000;2.985782
3962.000000;3.047619
3961.000000;3.240929
3960.000000;3.408511
3959.000000;3.057662
3958.000000;2.896512
3957.000000;2.905908
3956.000000;3.003718
3955.000000;3.060550
3954.000000;3.018259
3953.000000;2.978880
3952.000000;2.980674
3951.000000;2.997308
3950.000000;2.972645
3949.000000;2.897127
3948.000000;2.816631
3947.000000;2.779940
3946.000000;2.803149
3945.000000;2.869964
3944.000000;2.940174
3943.000000;2.964707
3942.000000;3.013108
3941.000000;3.121092
3940.000000;3.723716
3939.000000;3.672699
3938.000000;3.130763
3937.000000;3.008177
3936.000000;2.972941
3935.000000;3.043576
3934.000000;3.181086
3933.000000;3.764082
3932.000000;3.318811
3931.000000;3.048694
3930.000000;3.081292
3929.000000;3.305359
3928.000000;3.342382
3927.000000;3.176214
3926.000000;3.166736
3925.000000;3.284294
3924.000000;3.258075
3923.000000;3.104528
3922.000000;3.070167
3921.000000;3.073488
3920.000000;3.031474
3919.000000;2.952796
3918.000000;2.840274
3917.000000;2.737976
3916.000000;2.703150
3915.000000;2.712318
3914.000000;2.701547
3913.000000;2.668986
3912.000000;2.649644
3911.000000;2.653000
3910.000000;2.676448
3909.000000;2.701369
3908.000000;2.720293
3907.000000;2.761595
3906.000000;2.856686
3905.000000;2.853413
3904.000000;2.707471
3903.000000;2.673651
3902.000000;2.816040
3901.000000;2.958085
3900.000000;2.827517
3899.000000;2.737200
3898.000000;2.779496
3897.000000;2.925669
3896.000000;2.983695
3895.000000;2.965691
3894.000000;3.013605
3893.000000;3.111095
3892.000000;3.209290
3891.000000;3.268031
3890.000000;3.517108
3889.000000;3.840080
3888.000000;3.405798
3887.000000;3.240221
3886.000000;3.215261
3885.000000;3.515194
3884.000000;3.492236
3883.000000;3.201322
3882.000000;3.170646
3881.000000;3.148435
3880.000000;2.962495
3879.000000;2.779488
3878.000000;2.726738
3877.000000;2.753374
3876.000000;2.784472
3875.000000;2.771896
3874.000000;2.706274
3873.000000;2.669854
3872.000000;2.734637
3871.000000;2.843117
3870.000000;2.880993
3869.000000;2.858268
3868.000000;2.853788
3867.000000;2.870798
3866.000000;2.859628
3865.000000;2.762125
3864.000000;2.617888
3863.000000;2.523816
3862.000000;2.498720
3861.000000;2.501274
3860.000000;2.504936
3859.000000;2.500357
3858.000000;2.489769
3857.000000;2.513050
3856.000000;2.600479
3855.000000;2.706940
3854.000000;2.748703
3853.000000;2.737762
3852.000000;2.771384
3851.000000;2.856139
3850.000000;2.910520
3849.000000;2.916670
3848.000000;2.916697
3847.000000;2.919665
3846.000000;2.930733
3845.000000;2.960865
3844.000000;2.995336
3843.000000;2.963664
3842.000000;2.881621
3841.000000;2.915802
3840.000000;3.140907
3839.000000;3.647129
3838.000000;3.872150
3837.000000;3.489613
3836.000000;3.280278
3835.000000;3.089034
3834.000000;2.956800
3833.000000;2.880953
3832.000000;2.815045
3831.000000;2.715747
3830.000000;2.646051
3829.000000;2.657949
3828.000000;2.743805
3827.000000;2.852476
3826.000000;2.874422
3825.000000;2.864086
3824.000000;2.911253
3823.000000;2.960997
3822.000000;2.959515
3821.000000;2.954532
3820.000000;3.077759
3819.000000;3.380616
3818.000000;3.672866
3817.000000;3.676543
3816.000000;3.516025
3815.000000;3.405093
3814.000000;3.443118
3813.000000;3.598914
3812.000000;3.611990
3811.000000;3.537814
3810.000000;3.601840
3809.000000;4.110482
3808.000000;4.191952
3807.000000;3.501728
3806.000000;3.353902
3805.000000;3.454926
3804.000000;3.838294
3803.000000;3.771266
3802.000000;3.517924
3801.000000;3.224819
3800.000000;3.008685
3799.000000;2.883339
3798.000000;2.754572
3797.000000;2.612099
3796.000000;2.499587
3795.000000;2.451394
3794.000000;2.466189
3793.000000;2.512758
3792.000000;2.555689
3791.000000;2.603892
3790.000000;2.693880
3789.000000;2.827875
3788.000000;2.947872
3787.000000;3.008709
3786.000000;3.034267
3785.000000;3.044822
3784.000000;3.038778
3783.000000;3.017419
3782.000000;2.954328
3781.000000;2.835096
3780.000000;2.713603
3779.000000;2.644071
3778.000000;2.623573
3777.000000;2.601002
3776.000000;2.595671
3775.000000;2.642883
3774.000000;2.726487
3773.000000;2.765886
3772.000000;2.724382
3771.000000;2.652216
3770.000000;2.578026
3769.000000;2.540020
3768.000000;2.570899
3767.000000;2.659622
3766.000000;2.786958
3765.000000;2.973254
3764.000000;3.193104
3763.000000;3.406284
3762.000000;3.459886
3761.000000;3.170943
3760.000000;3.059019
3759.000000;2.937194
3758.000000;2.761154
3757.000000;2.705767
3756.000000;2.777512
3755.000000;2.953355
3754.000000;3.117827
3753.000000;3.049652
3752.000000;2.929509
3751.000000;2.887221
3750.000000;2.885666
3749.000000;2.850671
3748.000000;2.799882
3747.000000;2.788341
3746.000000;2.795857
3745.000000;2.787426
3744.000000;2.765604
3743.000000;2.775150
3742.000000;2.805449
3741.000000;2.805423
3740.000000;2.757574
3739.000000;2.682629
3738.000000;2.609131
3737.000000;2.593726
3736.000000;2.621265
3735.000000;2.626276
3734.000000;2.599181
3733.000000;2.614549
3732.000000;2.667231
3731.000000;2.690925
3730.000000;2.686433
3729.000000;2.687052
3728.000000;2.661639
3727.000000;2.614174
3726.000000;2.604315
3725.000000;2.647910
3724.000000;2.644073
3723.000000;2.603816
3722.000000;2.631398
3721.000000;2.769846
3720.000000;3.105673
3719.000000;3.458338
3718.000000;3.075167
3717.000000;2.881242
3716.000000;2.829180
3715.000000;2.790940
3714.000000;2.684343
3713.000000;2.535831
3712.000000;2.416122
3711.000000;2.367923
3710.000000;2.387126
3709.000000;2.402469
3708.000000;2.376682
3707.000000;2.369959
3706.000000;2.406665
3705.000000;2.473048
3704.000000;2.569626
3703.000000;2.719701
3702.000000;2.785994
3701.000000;2.682154
3700.000000;2.681230
3699.000000;2.939844
3698.000000;3.099814
3697.000000;2.824693
3696.000000;2.691683
3695.000000;2.675647
3694.000000;2.692807
3693.000000;2.682705
3692.000000;2.672229
3691.000000;2.721278
3690.000000;2.865799
3689.000000;3.114440
3688.000000;3.565247
3687.000000;3.443636
3686.000000;3.225672
3685.000000;3.148852
3684.000000;3.117783
3683.000000;3.103830
3682.000000;3.061896
3681.000000;2.936852
3680.000000;2.802147
3679.000000;2.724585
3678.000000;2.746748
3677.000000;2.830344
3676.000000;3.160162
3675.000000;3.463542
3674.000000;2.894921
3673.000000;2.852668
3672.000000;2.980797
3671.000000;3.025408
3670.000000;2.816150
3669.000000;2.621715
3668.000000;2.576596
3667.000000;2.682455
3666.000000;2.807751
3665.000000;2.690618
3664.000000;2.563739
3663.000000;2.560997
3662.000000;2.689274
3661.000000;2.963977
3660.000000;3.099625
3659.000000;2.971938
3658.000000;2.910656
3657.000000;2.923617
3656.000000;2.905958
3655.000000;2.751220
3654.000000;2.636346
3653.000000;2.620413
3652.000000;2.682428
3651.000000;2.962688
3650.000000;3.387362
3649.000000;3.064594
3648.000000;3.002531
3647.000000;2.869044
3646.000000;2.797045
3645.000000;2.780566
3644.000000;2.794956
3643.000000;2.815510
3642.000000;2.816917
3641.000000;2.759983
3640.000000;2.652682
3639.000000;2.560541
3638.000000;2.532976
3637.000000;2.602380
3636.000000;2.800447
3635.000000;3.093580
3634.000000;3.083012
3633.000000;3.234489
3632.000000;3.554463
3631.000000;2.968903
3630.000000;2.825944
3629.000000;2.826998
3628.000000;2.953306
3627.000000;3.191445
3626.000000;3.475325
3625.000000;3.221510
3624.000000;2.909903
3623.000000;2.740846
3622.000000;2.676930
3621.000000;2.704141
3620.000000;2.792473
3619.000000;2.963592
3618.000000;2.926738
3617.000000;2.656346
3616.000000;2.550777
3615.000000;2.580793
3614.000000;2.715951
3613.000000;2.792822
3612.000000;2.699388
3611.000000;2.672825
3610.000000;2.742107
3609.000000;2.816823
3608.000000;2.813316
3607.000000;2.752928
3606.000000;2.727303
3605.000000;2.781875
3604.000000;2.924469
3603.000000;2.985850
3602.000000;2.844094
3601.000000;2.784834
3600.000000;2.883078
3599.000000;3.287499
3598.000000;3.579858
3597.000000;3.072728
3596.000000;2.980676
3595.000000;2.866668
3594.000000;2.707820
3593.000000;2.630958
3592.000000;2.676491
3591.000000;2.703158
3590.000000;2.650519
3589.000000;2.655346
3588.000000;2.752920
3587.000000;2.706478
3586.000000;2.571842
3585.000000;2.555305
3584.000000;2.612759
3583.000000;2.643000
3582.000000;2.589394
3581.000000;2.512274
3580.000000;2.479458
3579.000000;2.511429
3578.000000;2.579311
3577.000000;2.633578
3576.000000;2.658391
3575.000000;2.662783
3574.000000;2.670178
3573.000000;2.707681
3572.000000;2.749183
3571.000000;2.735020
3570.000000;2.713228
3569.000000;2.760617
3568.000000;2.900002
3567.000000;3.008229
3566.000000;2.964000
3565.000000;2.959626
3564.000000;3.054274
3563.000000;2.999137
3562.000000;2.828474
3561.000000;2.747886
3560.000000;2.724347
3559.000000;2.696187
3558.000000;2.687406
3557.000000;2.764201
3556.000000;2.867641
3555.000000;2.828498
3554.000000;2.785676
3553.000000;2.847139
3552.000000;2.979192
3551.000000;2.957803
3550.000000;2.810310
3549.000000;2.715455
3548.000000;2.674066
3547.000000;2.672466
3546.000000;2.696711
3545.000000;2.728621
3544.000000;2.907320
3543.000000;3.223038
3542.000000;2.883842
3541.000000;2.678938
3540.000000;2.684028
3539.000000;2.738617
3538.000000;2.663348
3537.000000;2.534649
3536.000000;2.479852
3535.000000;2.509655
3534.000000;2.620268
3533.000000;2.808858
3532.000000;2.819663
3531.000000;2.633081
3530.000000;2.552079
3529.000000;2.603466
3528.000000;2.720691
3527.000000;2.788716
3526.000000;2.802087
3525.000000;2.820956
3524.000000;2.853590
3523.000000;2.879962
3522.000000;2.851505
3521.000000;2.732572
3520.000000;2.655203
3519.000000;2.709004
3518.000000;2.761290
3517.000000;2.662413
3516.000000;2.637293
3515.000000;2.747580
3514.000000;2.936152
3513.000000;3.008826
3512.000000;2.955957
3511.000000;3.031261
3510.000000;3.117323
3509.000000;2.996209
3508.000000;2.929322
3507.000000;2.966463
3506.000000;3.007201
3505.000000;3.013854
3504.000000;3.052436
3503.000000;3.225852
3502.000000;3.271385
3501.000000;3.029489
3500.000000;2.893942
3499.000000;2.897656
3498.000000;3.004490
3497.000000;2.829561
3496.000000;2.592318
3495.000000;2.508956
3494.000000;2.545888
3493.000000;2.656516
3492.000000;2.728650
3491.000000;2.690860
3490.000000;2.640073
3489.000000;2.622649
3488.000000;2.643380
3487.000000;2.715144
3486.000000;2.804835
3485.000000;2.734833
3484.000000;2.582367
3483.000000;2.509236
3482.000000;2.528420
3481.000000;2.609094
3480.000000;2.669343
3479.000000;2.700764
3478.000000;2.776865
3477.000000;2.856192
3476.000000;2.758525
3475.000000;2.639423
3474.000000;2.598870
3473.000000;2.607921
3472.000000;2.661176
3471.000000;2.744000
3470.000000;2.787824
3469.000000;2.788325
3468.000000;2.848986
3467.000000;3.185786
3466.000000;3.607895
3465.000000;2.956792
3464.000000;2.851723
3463.000000;2.791563
3462.000000;2.652380
3461.000000;2.528454
3460.000000;2.501938
3459.000000;2.587992
3458.000000;2.787266
3457.000000;3.036596
3456.000000;2.897266
3455.000000;2.582177
3454.000000;2.408692
3453.000000;2.380232
3452.000000;2.497487
3451.000000;2.760739
3450.000000;2.820969
3449.000000;2.719130
3448.000000;2.774643
3447.000000;3.084728
3446.000000;3.572949
3445.000000;3.152136
3444.000000;3.096784
3443.000000;2.981989
3442.000000;2.802368
3441.000000;2.717762
3440.000000;2.637069
3439.000000;2.524915
3438.000000;2.428005
3437.000000;2.377819
3436.000000;2.381776
3435.000000;2.430497
3434.000000;2.486419
3433.000000;2.501436
3432.000000;2.496968
3431.000000;2.530942
3430.000000;2.624530
3429.000000;2.764875
3428.000000;2.852353
3427.000000;2.797124
3426.000000;2.706239
3425.000000;2.669213
3424.000000;2.691556
3423.000000;2.706691
3422.000000;2.676752
3421.000000;2.648168
3420.000000;2.636676
3419.000000;2.648393
3418.000000;2.682295
3417.000000;2.682531
3416.000000;2.674861
3415.000000;2.759689
3414.000000;2.962551
3413.000000;3.098822
3412.000000;3.079917
3411.000000;3.380032
3410.000000;3.324798
3409.000000;2.738050
3408.000000;2.519485
3407.000000;2.423355
3406.000000;2.422491
3405.000000;2.427493
3404.000000;2.352222
3403.000000;2.275128
3402.000000;2.247280
3401.000000;2.256183
3400.000000;2.287742
3399.000000;2.320177
3398.000000;2.330320
3397.000000;2.342707
3396.000000;2.392379
3395.000000;2.472650
3394.000000;2.566920
3393.000000;2.661821
3392.000000;2.665898
3391.000000;2.575710
3390.000000;2.494288
3389.000000;2.455913
3388.000000;2.470766
3387.000000;2.572494
3386.000000;2.833000
3385.000000;2.868103
3384.000000;2.590723
3383.000000;2.538182
3382.000000;2.636461
3381.000000;2.783027
3380.000000;2.873633
3379.000000;2.849508
3378.000000;2.719235
3377.000000;2.666204
3376.000000;2.659049
3375.000000;2.622280
3374.000000;2.615405
3373.000000;2.683389
3372.000000;2.854640
3371.000000;3.161308
3370.000000;3.484070
3369.000000;3.230236
3368.000000;2.976516
3367.000000;2.948756
3366.000000;3.012354
3365.000000;3.031574
3364.000000;3.001235
3363.000000;2.720575
3362.000000;2.489728
3361.000000;2.363789
3360.000000;2.270744
3359.000000;2.198845
3358.000000;2.168988
3357.000000;2.179484
3356.000000;2.206774
3355.000000;2.221116
3354.000000;2.219396
3353.000000;2.231819
3352.000000;2.287766
3351.000000;2.405323
3350.000000;2.589145
3349.000000;2.713949
3348.000000;2.612383
3347.000000;2.467933
3346.000000;2.391823
3345.000000;2.381282
3344.000000;2.375274
3343.000000;2.338030
3342.000000;2.326688
3341.000000;2.365690
3340.000000;2.412329
3339.000000;2.409676
3338.000000;2.361268
3337.000000;2.317808
3336.000000;2.308379
3335.000000;2.330811
3334.000000;2.379510
3333.000000;2.470399
3332.000000;2.628827
3331.000000;2.827994
3330.000000;2.926710
3329.000000;2.904585
3328.000000;2.787091
3327.000000;2.564003
3326.000000;2.379665
3325.000000;2.309693
3324.000000;2.365521
3323.000000;2.561533
3322.000000;2.923990
3321.000000;3.241513
3320.000000;2.995794
3319.000000;2.679760
3318.000000;2.499133
3317.000000;2.436452
3316.000000;2.451019
3315.000000;2.509951
3314.000000;2.575667
3313.000000;2.607580
3312.000000;2.595032
3311.000000;2.572979
3310.000000;2.591264
3309.000000;2.637875
3308.000000;2.633697
3307.000000;2.553750
3306.000000;2.464836
3305.000000;2.411860
3304.000000;2.377134
3303.000000;2.333198
3302.000000;2.312549
3301.000000;2.364648
3300.000000;2.456591
3299.000000;2.449139
3298.000000;2.365407
3297.000000;2.298069
3296.000000;2.239793
3295.000000;2.189602
3294.000000;2.167320
3293.000000;2.203056
3292.000000;2.292758
3291.000000;2.388064
3290.000000;2.492370
3289.000000;2.712196
3288.000000;3.088857
3287.000000;2.851759
3286.000000;2.619732
3285.000000;2.558124
3284.000000;2.592055
3283.000000;2.652865
3282.000000;2.588782
3281.000000;2.507057
3280.000000;2.514461
3279.000000;2.648399
3278.000000;2.911263
3277.000000;2.918131
3276.000000;2.774771
3275.000000;2.810415
3274.000000;2.881135
3273.000000;2.841821
3272.000000;2.841294
3271.000000;2.856544
3270.000000;2.685556
3269.000000;2.522467
3268.000000;2.471986
3267.000000;2.500687
3266.000000;2.568210
3265.000000;2.632768
3264.000000;2.672904
3263.000000;2.659733
3262.000000;2.593690
3261.000000;2.548918
3260.000000;2.592088
3259.000000;2.642506
3258.000000;2.585351
3257.000000;2.573680
3256.000000;2.595118
3255.000000;2.496086
3254.000000;2.371028
3253.000000;2.293503
3252.000000;2.253501
3251.000000;2.244405
3250.000000;2.262584
3249.000000;2.269440
3248.000000;2.230299
3247.000000;2.197657
3246.000000;2.227170
3245.000000;2.336813
3244.000000;2.480386
3243.000000;2.527312
3242.000000;2.510726
3241.000000;2.553941
3240.000000;2.729180
3239.000000;2.743655
3238.000000;2.500473
3237.000000;2.376151
3236.000000;2.389208
3235.000000;2.528718
3234.000000;2.612313
3233.000000;2.539173
3232.000000;2.550059
3231.000000;2.704887
3230.000000;2.898601
3229.000000;2.677179
3228.000000;2.448780
3227.000000;2.366248
3226.000000;2.345265
3225.000000;2.301534
3224.000000;2.259405
3223.000000;2.266882
3222.000000;2.300048
3221.000000;2.325856
3220.000000;2.363353
3219.000000;2.437906
3218.000000;2.508460
3217.000000;2.549015
3216.000000;2.632428
3215.000000;2.942425
3214.000000;3.297947
3213.000000;2.775244
3212.000000;2.471462
3211.000000;2.328212
3210.000000;2.258187
3209.000000;2.234634
3208.000000;2.231496
3207.000000;2.226110
3206.000000;2.197916
3205.000000;2.160751
3204.000000;2.149669
3203.000000;2.184594
3202.000000;2.254775
3201.000000;2.335406
3200.000000;2.435030
3199.000000;2.526839
3198.000000;2.515902
3197.000000;2.438679
3196.000000;2.379577
3195.000000;2.377124
3194.000000;2.381305
3193.000000;2.322195
3192.000000;2.261767
3191.000000;2.259153
3190.000000;2.311274
3189.000000;2.382695
3188.000000;2.424900
3187.000000;2.434085
3186.000000;2.453082
3185.000000;2.494351
3184.000000;2.509315
3183.000000;2.452330
3182.000000;2.374760
3181.000000;2.342705
3180.000000;2.362178
3179.000000;2.410885
3178.000000;2.475426
3177.000000;2.537597
3176.000000;2.539250
3175.000000;2.508415
3174.000000;2.528735
3173.000000;2.679777
3172.000000;3.019202
3171.000000;3.101997
3170.000000;3.011246
3169.000000;2.774613
3168.000000;2.500111
3167.000000;2.381133
3166.000000;2.296362
3165.000000;2.200673
3164.000000;2.136809
3163.000000;2.119864
3162.000000;2.136781
3161.000000;2.174755
3160.000000;2.226658
3159.000000;2.268427
3158.000000;2.308575
3157.000000;2.415581
3156.000000;2.639797
3155.000000;2.971232
3154.000000;3.190310
3153.000000;3.119982
3152.000000;3.020384
3151.000000;3.092774
3150.000000;3.239257
3149.000000;2.928008
3148.000000;2.725608
3147.000000;2.674703
3146.000000;2.734888
3145.000000;2.741597
3144.000000;2.553072
3143.000000;2.451222
3142.000000;2.492297
3141.000000;2.637950
3140.000000;2.748037
3139.000000;2.693245
3138.000000;2.604723
3137.000000;2.566657
3136.000000;2.591235
3135.000000;2.656291
3134.000000;2.687988
3133.000000;2.565362
3132.000000;2.393712
3131.000000;2.307517
3130.000000;2.324072
3129.000000;2.394230
3128.000000;2.447494
3127.000000;2.488555
3126.000000;2.454310
3125.000000;2.335272
3124.000000;2.264102
3123.000000;2.290125
3122.000000;2.426920
3121.000000;2.573837
3120.000000;2.521760
3119.000000;2.453090
3118.000000;2.434851
3117.000000;2.396850
3116.000000;2.328679
3115.000000;2.270967
3114.000000;2.252683
3113.000000;2.264587
3112.000000;2.264185
3111.000000;2.247674
3110.000000;2.277026
3109.000000;2.436546
3108.000000;2.560790
3107.000000;2.367345
3106.000000;2.214105
3105.000000;2.176914
3104.000000;2.211639
3103.000000;2.249152
3102.000000;2.214800
3101.000000;2.150846
3100.000000;2.103286
3099.000000;2.087335
3098.000000;2.112715
3097.000000;2.166286
3096.000000;2.210382
3095.000000;2.222662
3094.000000;2.207646
3093.000000;2.164188
3092.000000;2.109154
3091.000000;2.082231
3090.000000;2.097118
3089.000000;2.113787
3088.000000;2.092998
3087.000000;2.075452
3086.000000;2.099768
3085.000000;2.142118
3084.000000;2.168156
3083.000000;2.211735
3082.000000;2.357643
3081.000000;2.524968
3080.000000;2.443970
3079.000000;2.360529
3078.000000;2.381663
3077.000000;2.404186
3076.000000;2.425444
3075.000000;2.484932
3074.000000;2.557385
3073.000000;2.626729
3072.000000;2.719471
3071.000000;2.843144
3070.000000;2.908105
3069.000000;2.819490
3068.000000;2.691987
3067.000000;2.583330
3066.000000;2.502970
3065.000000;2.445611
3064.000000;2.393095
3063.000000;2.346757
3062.000000;2.319018
3061.000000;2.324662
3060.000000;2.349693
3059.000000;2.351057
3058.000000;2.358096
3057.000000;2.436935
3056.000000;2.542203
3055.000000;2.524486
3054.000000;2.397374
3053.000000;2.276537
3052.000000;2.214120
3051.000000;2.214985
3050.000000;2.264361
3049.000000;2.336934
3048.000000;2.369368
3047.000000;2.346994
3046.000000;2.354768
3045.000000;2.451888
3044.000000;2.621749
3043.000000;2.700805
3042.000000;2.593916
3041.000000;2.445824
3040.000000;2.306819
3039.000000;2.181829
3038.000000;2.088628
3037.000000;2.041382
3036.000000;2.043164
3035.000000;2.097821
3034.000000;2.220066
3033.000000;2.449443
3032.000000;2.784848
3031.000000;3.097638
3030.000000;3.172187
3029.000000;2.737742
3028.000000;2.415638
3027.000000;2.258740
3026.000000;2.208664
3025.000000;2.217278
3024.000000;2.202546
3023.000000;2.160232
3022.000000;2.143768
3021.000000;2.174634
3020.000000;2.242239
3019.000000;2.288515
3018.000000;2.284046
3017.000000;2.289458
3016.000000;2.342470
3015.000000;2.391410
3014.000000;2.387886
3013.000000;2.405171
3012.000000;2.474460
3011.000000;2.545428
3010.000000;2.593602
3009.000000;2.588588
3008.000000;2.500788
3007.000000;2.417518
3006.000000;2.436889
3005.000000;2.602249
3004.000000;2.766197
3003.000000;2.760991
3002.000000;2.731171
3001.000000;2.601929
3000.000000;2.463378
2999.000000;2.428015
2998.000000;2.517510
2997.000000;2.671090
2996.000000;2.747836
2995.000000;2.632557
2994.000000;2.413484
2993.000000;2.274135
2992.000000;2.250488
2991.000000;2.336829
2990.000000;2.498322
2989.000000;2.626061
2988.000000;2.698678
2987.000000;2.740127
2986.000000;2.740354
2985.000000;2.757850
2984.000000;2.803017
2983.000000;2.809045
2982.000000;2.924461
2981.000000;2.972961
2980.000000;2.708732
2979.000000;2.616768
2978.000000;2.757609
2977.000000;3.079554
2976.000000;2.692645
2975.000000;2.329776
2974.000000;2.192065
2973.000000;2.176644
2972.000000;2.285294
2971.000000;2.452168
2970.000000;2.414724
2969.000000;2.302187
2968.000000;2.298319
2967.000000;2.413070
2966.000000;2.518557
2965.000000;2.359061
2964.000000;2.207278
2963.000000;2.176411
2962.000000;2.230695
2961.000000;2.321408
2960.000000;2.370323
2959.000000;2.364727
2958.000000;2.393961
2957.000000;2.524570
2956.000000;2.931634
2955.000000;3.480794
2954.000000;2.902313
2953.000000;2.907687
2952.000000;2.888749
2951.000000;2.593933
2950.000000;2.399207
2949.000000;2.341143
2948.000000;2.317472
2947.000000;2.214734
2946.000000;2.120895
2945.000000;2.095794
2944.000000;2.108713
2943.000000;2.101173
2942.000000;2.068866
2941.000000;2.060923
2940.000000;2.104743
2939.000000;2.191402
2938.000000;2.244749
2937.000000;2.204073
2936.000000;2.167126
2935.000000;2.209455
2934.000000;2.322343
2933.000000;2.442148
2932.000000;2.466334
2931.000000;2.400537
2930.000000;2.369055
2929.000000;2.434900
2928.000000;2.422673
2927.000000;2.252735
2926.000000;2.167800
2925.000000;2.202646
2924.000000;2.304063
2923.000000;2.387059
2922.000000;2.421470
2921.000000;2.412525
2920.000000;2.348801
2919.000000;2.311612
2918.000000;2.359506
2917.000000;2.497656
2916.000000;2.689115
2915.000000;2.842825
2914.000000;2.829373
2913.000000;2.578038
2912.000000;2.379877
2911.000000;2.316169
2910.000000;2.462810
2909.000000;2.703892
2908.000000;2.492199
2907.000000;2.416342
2906.000000;2.672373
2905.000000;3.021622
2904.000000;2.592592
2903.000000;2.416489
2902.000000;2.406850
2901.000000;2.504117
2900.000000;2.717049
2899.000000;2.735287
2898.000000;2.574077
2897.000000;2.443765
2896.000000;2.328370
2895.000000;2.234615
2894.000000;2.178428
2893.000000;2.141833
2892.000000;2.111229
2891.000000;2.102327
2890.000000;2.134351
2889.000000;2.182095
2888.000000;2.189107
2887.000000;2.166353
2886.000000;2.180135
2885.000000;2.252341
2884.000000;2.340949
2883.000000;2.382062
2882.000000;2.374143
2881.000000;2.346801
2880.000000;2.321758
2879.000000;2.327713
2878.000000;2.336681
2877.000000;2.292808
2876.000000;2.267497
2875.000000;2.336179
2874.000000;2.480034
2873.000000;2.561978
2872.000000;2.479876
2871.000000;2.367084
2870.000000;2.286400
2869.000000;2.232650
2868.000000;2.227666
2867.000000;2.267694
2866.000000;2.324060
2865.000000;2.386091
2864.000000;2.387232
2863.000000;2.324554
2862.000000;2.254066
2861.000000;2.165923
2860.000000;2.089360
2859.000000;2.058127
2858.000000;2.078615
2857.000000;2.138613
2856.000000;2.194509
2855.000000;2.195246
2854.000000;2.152550
2853.000000;2.132605
2852.000000;2.189565
2851.000000;2.343824
2850.000000;2.438912
2849.000000;2.379164
2848.000000;2.415263
2847.000000;2.668406
2846.000000;2.979217
2845.000000;2.815458
2844.000000;2.714052
2843.000000;2.815680
2842.000000;2.898958
2841.000000;2.705323
2840.000000;2.606228
2839.000000;2.595061
2838.000000;2.546342
2837.000000;2.518743
2836.000000;2.537822
2835.000000;2.560175
2834.000000;2.527213
2833.000000;2.471375
2832.000000;2.487113
2831.000000;2.631446
2830.000000;2.768153
2829.000000;2.783414
2828.000000;2.789275
2827.000000;2.752904
2826.000000;2.798765
2825.000000;2.990346
2824.000000;2.986702
2823.000000;2.691822
2822.000000;2.441827
2821.000000;2.305477
2820.000000;2.289981
2819.000000;2.385681
2818.000000;2.562126
2817.000000;2.747282
2816.000000;2.885229
2815.000000;2.884094
2814.000000;2.652519
2813.000000;2.424628
2812.000000;2.278646
2811.000000;2.187026
2810.000000;2.133184
2809.000000;2.125298
2808.000000;2.154353
2807.000000;2.160822
2806.000000;2.146609
2805.000000;2.175995
2804.000000;2.269870
2803.000000;2.345474
2802.000000;2.271483
2801.000000;2.176063
2800.000000;2.169924
2799.000000;2.263647
2798.000000;2.432517
2797.000000;2.472530
2796.000000;2.332756
2795.000000;2.231389
2794.000000;2.199765
2793.000000;2.219303
2792.000000;2.273796
2791.000000;2.337047
2790.000000;2.378166
2789.000000;2.401483
2788.000000;2.434367
2787.000000;2.498237
2786.000000;2.643422
2785.000000;2.720900
2784.000000;2.563488
2783.000000;2.453763
2782.000000;2.425740
2781.000000;2.428263
2780.000000;2.489774
2779.000000;2.450092
2778.000000;2.236786
2777.000000;2.076458
2776.000000;2.018432
2775.000000;2.041461
2774.000000;2.105398
2773.000000;2.151385
2772.000000;2.200335
2771.000000;2.307021
2770.000000;2.527002
2769.000000;2.737642
2768.000000;2.584895
2767.000000;2.474755
2766.000000;2.462186
2765.000000;2.435820
2764.000000;2.373821
2763.000000;2.327968
2762.000000;2.340089
2761.000000;2.382752
2760.000000;2.393561
2759.000000;2.337803
2758.000000;2.266056
2757.000000;2.232514
2756.000000;2.244424
2755.000000;2.270125
2754.000000;2.297807
2753.000000;2.368509
2752.000000;2.489818
2751.000000;2.582307
2750.000000;2.627133
2749.000000;2.635007
2748.000000;2.594949
2747.000000;2.499232
2746.000000;2.371526
2745.000000;2.301410
2744.000000;2.367786
2743.000000;2.583351
2742.000000;2.594584
2741.000000;2.425275
2740.000000;2.363593
2739.000000;2.336692
2738.000000;2.303035
2737.000000;2.261818
2736.000000;2.204362
2735.000000;2.160269
2734.000000;2.138163
2733.000000;2.151837
2732.000000;2.213138
2731.000000;2.381055
2730.000000;2.869816
2729.000000;2.819018
2728.000000;2.520141
2727.000000;2.534256
2726.000000;2.450957
2725.000000;2.371044
2724.000000;2.402606
2723.000000;2.573129
2722.000000;2.853515
2721.000000;2.794495
2720.000000;2.696087
2719.000000;2.660505
2718.000000;2.538392
2717.000000;2.461327
2716.000000;2.448006
2715.000000;2.396952
2714.000000;2.298075
2713.000000;2.222071
2712.000000;2.188386
2711.000000;2.175452
2710.000000;2.162804
2709.000000;2.155701
2708.000000;2.178644
2707.000000;2.236623
2706.000000;2.266433
2705.000000;2.238953
2704.000000;2.222769
2703.000000;2.241543
2702.000000;2.233551
2701.000000;2.158410
2700.000000;2.096580
2699.000000;2.124054
2698.000000;2.265732
2697.000000;2.357509
2696.000000;2.303309
2695.000000;2.322620
2694.000000;2.520968
2693.000000;2.836775
2692.000000;2.673643
2691.000000;2.496507
2690.000000;2.471156
2689.000000;2.567913
2688.000000;2.776780
2687.000000;2.899931
2686.000000;2.989115
2685.000000;2.724052
2684.000000;2.454841
2683.000000;2.402265
2682.000000;2.496622
2681.000000;2.665487
2680.000000;2.730245
2679.000000;2.615444
2678.000000;2.500297
2677.000000;2.462160
2676.000000;2.455503
2675.000000;2.418445
2674.000000;2.370122
2673.000000;2.327147
2672.000000;2.282094
2671.000000;2.236083
2670.000000;2.192452
2669.000000;2.153838
2668.000000;2.129791
2667.000000;2.121856
2666.000000;2.110966
2665.000000;2.092455
2664.000000;2.089643
2663.000000;2.109962
2662.000000;2.126010
2661.000000;2.127880
2660.000000;2.143271
2659.000000;2.166479
2658.000000;2.157459
2657.000000;2.109356
2656.000000;2.059847
2655.000000;2.042701
2654.000000;2.073598
2653.000000;2.139784
2652.000000;2.194570
2651.000000;2.230757
2650.000000;2.309595
2649.000000;2.543807
2648.000000;2.771339
2647.000000;2.528309
2646.000000;2.346091
2645.000000;2.304515
2644.000000;2.311772
2643.000000;2.276905
2642.000000;2.214448
2641.000000;2.203780
2640.000000;2.250507
2639.000000;2.337502
2638.000000;2.452068
2637.000000;2.592152
2636.000000;2.758825
2635.000000;2.805942
2634.000000;2.675344
2633.000000;2.589588
2632.000000;2.598585
2631.000000;2.721717
2630.000000;2.951401
2629.000000;3.092564
2628.000000;2.936935
2627.000000;2.633826
2626.000000;2.421568
2625.000000;2.340914
2624.000000;2.369252
2623.000000;2.481907
2622.000000;2.591559
2621.000000;2.585388
2620.000000;2.526461
2619.000000;2.552798
2618.000000;2.738659
2617.000000;3.116578
2616.000000;3.260907
2615.000000;2.986822
2614.000000;2.673020
2613.000000;2.759906
2612.000000;3.298240
2611.000000;2.749844
2610.000000;2.859095
2609.000000;2.863050
2608.000000;2.338056
2607.000000;2.174995
2606.000000;2.144501
2605.000000;2.199021
2604.000000;2.324447
2603.000000;2.472585
2602.000000;2.557859
2601.000000;2.534337
2600.000000;2.480970
2599.000000;2.480037
2598.000000;2.631261
2597.000000;2.630458
2596.000000;2.412211
2595.000000;2.324281
2594.000000;2.315466
2593.000000;2.307103
2592.000000;2.292381
2591.000000;2.283907
2590.000000;2.274047
2589.000000;2.264770
2588.000000;2.297135
2587.000000;2.374403
2586.000000;2.506677
2585.000000;2.711839
2584.000000;2.953268
2583.000000;3.205694
2582.000000;2.980574
2581.000000;2.743089
2580.000000;2.709334
2579.000000;2.663804
2578.000000;2.528664
2577.000000;2.422882
2576.000000;2.438470
2575.000000;2.498244
2574.000000;2.435978
2573.000000;2.356328
2572.000000;2.338747
2571.000000;2.349864
2570.000000;2.351183
2569.000000;2.335412
2568.000000;2.329588
2567.000000;2.315209
2566.000000;2.288055
2565.000000;2.272105
2564.000000;2.240134
2563.000000;2.182872
2562.000000;2.136538
2561.000000;2.118652
2560.000000;2.131876
2559.000000;2.177437
2558.000000;2.259715
2557.000000;2.340882
2556.000000;2.334340
2555.000000;2.287820
2554.000000;2.289337
2553.000000;2.348466
2552.000000;2.399452
2551.000000;2.395586
2550.000000;2.432992
2549.000000;2.583589
2548.000000;2.833316
2547.000000;3.016902
2546.000000;3.060137
2545.000000;3.088776
2544.000000;2.892680
2543.000000;2.658123
2542.000000;2.566520
2541.000000;2.585966
2540.000000;2.628977
2539.000000;2.563872
2538.000000;2.486065
2537.000000;2.494657
2536.000000;2.636448
2535.000000;2.956665
2534.000000;2.872457
2533.000000;2.688850
2532.000000;2.733144
2531.000000;2.940418
2530.000000;3.183199
2529.000000;2.887114
2528.000000;2.633634
2527.000000;2.570808
2526.000000;2.594100
2525.000000;2.607016
2524.000000;2.561185
2523.000000;2.439454
2522.000000;2.363597
2521.000000;2.420026
2520.000000;2.624179
2519.000000;3.167570
2518.000000;2.974360
2517.000000;2.390175
2516.000000;2.123415
2515.000000;1.983305
2514.000000;1.936984
2513.000000;1.948729
2512.000000;1.964294
2511.000000;1.960502
2510.000000;1.972397
2509.000000;2.043774
2508.000000;2.168641
2507.000000;2.293918
2506.000000;2.349608
2505.000000;2.345145
2504.000000;2.325089
2503.000000;2.301724
2502.000000;2.284093
2501.000000;2.290862
2500.000000;2.331466
2499.000000;2.397080
2498.000000;2.403144
2497.000000;2.286994
2496.000000;2.160476
2495.000000;2.100048
2494.000000;2.110410
2493.000000;2.151110
2492.000000;2.163909
2491.000000;2.169811
2490.000000;2.202646
2489.000000;2.244716
2488.000000;2.272826
2487.000000;2.310879
2486.000000;2.401212
2485.000000;2.378091
2484.000000;2.232679
2483.000000;2.180902
2482.000000;2.243442
2481.000000;2.357642
2480.000000;2.424206
2479.000000;2.416950
2478.000000;2.391014
2477.000000;2.369424
2476.000000;2.377948
2475.000000;2.447920
2474.000000;2.626690
2473.000000;2.861946
2472.000000;3.075343
2471.000000;3.037983
2470.000000;2.712254
2469.000000;2.590933
2468.000000;2.613930
2467.000000;2.772731
2466.000000;2.973658
2465.000000;2.757909
2464.000000;2.534137
2463.000000;2.483834
2462.000000;2.535305
2461.000000;2.519724
2460.000000;2.404894
2459.000000;2.365758
2458.000000;2.388064
2457.000000;2.540666
2456.000000;2.999064
2455.000000;2.878732
2454.000000;2.707637
2453.000000;2.601490
2452.000000;2.374133
2451.000000;2.294320
2450.000000;2.350709
2449.000000;2.503996
2448.000000;2.680158
2447.000000;2.857376
2446.000000;2.979825
2445.000000;3.283309
2444.000000;3.972886
2443.000000;3.230727
2442.000000;3.026197
2441.000000;2.796632
2440.000000;2.667457
2439.000000;2.829056
2438.000000;2.920200
2437.000000;2.656376
2436.000000;2.573882
2435.000000;2.628390
2434.000000;2.599386
2433.000000;2.497079
2432.000000;2.441973
2431.000000;2.428636
2430.000000;2.393347
2429.000000;2.354919
2428.000000;2.358644
2427.000000;2.450317
2426.000000;2.600589
2425.000000;2.723407
2424.000000;2.793556
2423.000000;2.931554
2422.000000;3.344368
2421.000000;3.098419
2420.000000;2.710243
2419.000000;2.680879
2418.000000;2.693103
2417.000000;2.445282
2416.000000;2.265650
2415.000000;2.229507
2414.000000;2.304862
2413.000000;2.452789
2412.000000;2.532339
2411.000000;2.474039
2410.000000;2.409988
2409.000000;2.427083
2408.000000;2.572049
2407.000000;2.937748
2406.000000;3.260595
2405.000000;3.005888
2404.000000;2.738013
2403.000000;2.542143
2402.000000;2.451446
2401.000000;2.437936
2400.000000;2.452075
2399.000000;2.510398
2398.000000;2.643736
2397.000000;2.948846
2396.000000;3.538583
2395.000000;3.269279
2394.000000;2.922828
2393.000000;2.713923
2392.000000;2.634381
2391.000000;2.657287
2390.000000;2.649692
2389.000000;2.686954
2388.000000;2.945273
2387.000000;2.941339
2386.000000;2.605716
2385.000000;2.445250
2384.000000;2.350531
2383.000000;2.314027
2382.000000;2.317663
2381.000000;2.328635
2380.000000;2.355202
2379.000000;2.393364
2378.000000;2.395914
2377.000000;2.315605
2376.000000;2.211589
2375.000000;2.153419
2374.000000;2.161675
2373.000000;2.254502
2372.000000;2.319882
2371.000000;2.212680
2370.000000;2.126153
2369.000000;2.166371
2368.000000;2.322529
2367.000000;2.662680
2366.000000;3.089795
2365.000000;2.756559
2364.000000;2.508250
2363.000000;2.335451
2362.000000;2.212316
2361.000000;2.151447
2360.000000;2.132075
2359.000000;2.152896
2358.000000;2.186202
2357.000000;2.195401
2356.000000;2.162440
2355.000000;2.129243
2354.000000;2.134531
2353.000000;2.190928
2352.000000;2.307752
2351.000000;2.447433
2350.000000;2.412023
2349.000000;2.244753
2348.000000;2.158018
2347.000000;2.195936
2346.000000;2.348233
2345.000000;2.475805
2344.000000;2.367228
2343.000000;2.210716
2342.000000;2.129617
2341.000000;2.115693
2340.000000;2.149945
2339.000000;2.180921
2338.000000;2.183027
2337.000000;2.174163
2336.000000;2.155327
2335.000000;2.140695
2334.000000;2.175266
2333.000000;2.284433
2332.000000;2.401252
2331.000000;2.394505
2330.000000;2.346373
2329.000000;2.399652
2328.000000;2.607549
2327.000000;2.729706
2326.000000;2.561019
2325.000000;2.449822
2324.000000;2.393484
2323.000000;2.359703
2322.000000;2.325719
2321.000000;2.306251
2320.000000;2.332774
2319.000000;2.344619
2318.000000;2.291958
2317.000000;2.181903
2316.000000;2.063343
2315.000000;1.971610
2314.000000;1.922240
2313.000000;1.909538
2312.000000;1.918432
2311.000000;1.931802
2310.000000;1.931745
2309.000000;1.925098
2308.000000;1.941900
2307.000000;2.019510
2306.000000;2.165354
2305.000000;2.353912
2304.000000;2.564098
2303.000000;2.665862
2302.000000;2.509508
2301.000000;2.393527
2300.000000;2.372435
2299.000000;2.528206
2298.000000;2.881623
2297.000000;2.575333
2296.000000;2.358268
2295.000000;2.359015
2294.000000;2.276383
2293.000000;2.139394
2292.000000;2.060466
2291.000000;2.055305
2290.000000;2.115473
2289.000000;2.221082
2288.000000;2.255270
2287.000000;2.237533
2286.000000;2.277388
2285.000000;2.479751
2284.000000;2.974144
2283.000000;2.699789
2282.000000;2.392214
2281.000000;2.317431
2280.000000;2.410885
2279.000000;2.526046
2278.000000;2.317408
2277.000000;2.167372
2276.000000;2.158916
2275.000000;2.209640
2274.000000;2.215079
2273.000000;2.173915
2272.000000;2.172789
2271.000000;2.217728
2270.000000;2.290802
2269.000000;2.384920
2268.000000;2.450231
2267.000000;2.441975
2266.000000;2.459823
2265.000000;2.722014
2264.000000;2.948222
2263.000000;2.553006
2262.000000;2.386254
2261.000000;2.417037
2260.000000;2.428779
2259.000000;2.235776
2258.000000;2.079919
2257.000000;2.045367
2256.000000;2.080827
2255.000000;2.087589
2254.000000;2.028129
2253.000000;2.003976
2252.000000;2.034383
2251.000000;2.065672
2250.000000;2.067939
2249.000000;2.065810
2248.000000;2.064160
2247.000000;2.047229
2246.000000;2.034790
2245.000000;2.065266
2244.000000;2.159015
2243.000000;2.285673
2242.000000;2.350755
2241.000000;2.321365
2240.000000;2.283376
2239.000000;2.313269
2238.000000;2.455014
2237.000000;2.791649
2236.000000;3.099069
2235.000000;2.795924
2234.000000;2.793566
2233.000000;2.878506
2232.000000;2.510796
2231.000000;2.299369
2230.000000;2.259999
2229.000000;2.422815
2228.000000;2.942157
2227.000000;2.907715
2226.000000;2.690251
2225.000000;2.648419
2224.000000;2.462715
2223.000000;2.379519
2222.000000;2.374540
2221.000000;2.385193
2220.000000;2.411854
2219.000000;2.403525
2218.000000;2.351916
2217.000000;2.277859
2216.000000;2.234068
2215.000000;2.263819
2214.000000;2.422651
2213.000000;2.685742
2212.000000;2.601413
2211.000000;2.458921
2210.000000;2.425294
2209.000000;2.515995
2208.000000;2.934446
2207.000000;2.850416
2206.000000;2.530586
2205.000000;2.465701
2204.000000;2.487735
2203.000000;2.487276
2202.000000;2.348789
2201.000000;2.210150
2200.000000;2.133537
2199.000000;2.103324
2198.000000;2.111524
2197.000000;2.154624
2196.000000;2.215563
2195.000000;2.240964
2194.000000;2.238766
2193.000000;2.273824
2192.000000;2.382014
2191.000000;2.564236
2190.000000;2.860440
2189.000000;3.158354
2188.000000;3.043773
2187.000000;3.014635
2186.000000;2.818124
2185.000000;2.492252
2184.000000;2.324588
2183.000000;2.287532
2182.000000;2.356745
2181.000000;2.487676
2180.000000;2.512975
2179.000000;2.436082
2178.000000;2.397169
2177.000000;2.456764
2176.000000;2.540080
2175.000000;2.401670
2174.000000;2.240599
2173.000000;2.188230
2172.000000;2.233278
2171.000000;2.409209
2170.000000;2.415861
2169.000000;2.162998
2168.000000;2.017286
2167.000000;1.971933
2166.000000;2.002720
2165.000000;2.070741
2164.000000;2.086642
2163.000000;2.077406
2162.000000;2.127492
2161.000000;2.271897
2160.000000;2.482456
2159.000000;2.577531
2158.000000;2.534983
2157.000000;2.559695
2156.000000;2.679733
2155.000000;2.806694
2154.000000;2.769890
2153.000000;2.661631
2152.000000;2.613418
2151.000000;2.683287
2150.000000;2.807795
2149.000000;3.167294
2148.000000;3.453633
2147.000000;2.783486
2146.000000;2.589313
2145.000000;2.498686
2144.000000;2.388734
2143.000000;2.282234
2142.000000;2.185322
2141.000000;2.106096
2140.000000;2.042842
2139.000000;2.021890
2138.000000;2.053549
2137.000000;2.124542
2136.000000;2.196419
2135.000000;2.250911
2134.000000;2.293414
2133.000000;2.285102
2132.000000;2.230995
2131.000000;2.196440
2130.000000;2.240264
2129.000000;2.337490
2128.000000;2.275810
2127.000000;2.148309
2126.000000;2.128664
2125.000000;2.236859
2124.000000;2.474180
2123.000000;2.574286
2122.000000;2.435575
2121.000000;2.361786
2120.000000;2.354243
2119.000000;2.414832
2118.000000;2.594823
2117.000000;2.871972
2116.000000;2.876888
2115.000000;2.946749
2114.000000;3.418531
2113.000000;3.107695
2112.000000;3.032204
2111.000000;3.043327
2110.000000;2.681972
2109.000000;2.479728
2108.000000;2.366582
2107.000000;2.256117
2106.000000;2.152794
2105.000000;2.100873
2104.000000;2.133912
2103.000000;2.248442
2102.000000;2.393167
2101.000000;2.466921
2100.000000;2.455860
2099.000000;2.434858
2098.000000;2.446200
2097.000000;2.444750
2096.000000;2.396729
2095.000000;2.380445
2094.000000;2.425009
2093.000000;2.489735
2092.000000;2.548117
2091.000000;2.624390
2090.000000;2.739232
2089.000000;2.716579
2088.000000;2.565517
2087.000000;2.514669
2086.000000;2.595060
2085.000000;2.766461
2084.000000;2.936788
2083.000000;3.045349
2082.000000;3.279852
2081.000000;3.363131
2080.000000;2.929326
2079.000000;2.651585
2078.000000;2.544373
2077.000000;2.565704
2076.000000;2.517967
2075.000000;2.354432
2074.000000;2.276925
2073.000000;2.331400
2072.000000;2.434886
2071.000000;2.411527
2070.000000;2.344035
2069.000000;2.348379
2068.000000;2.413516
2067.000000;2.548784
2066.000000;2.689283
2065.000000;2.665619
2064.000000;2.602115
2063.000000;2.590235
2062.000000;2.560714
2061.000000;2.482401
2060.000000;2.387978
2059.000000;2.298852
2058.000000;2.220193
2057.000000;2.190363
2056.000000;2.232248
2055.000000;2.323883
2054.000000;2.425858
2053.000000;2.534368
2052.000000;2.712649
2051.000000;2.838590
2050.000000;2.701355
2049.000000;2.581653
2048.000000;2.502740
2047.000000;2.437108
2046.000000;2.441496
2045.000000;2.534241
2044.000000;2.672760
2043.000000;2.746361
2042.000000;2.688298
2041.000000;2.543010
2040.000000;2.421102
2039.000000;2.398792
2038.000000;2.396994
2037.000000;2.344360
2036.000000;2.350276
2035.000000;2.486028
2034.000000;2.940439
2033.000000;3.264363
2032.000000;2.710700
2031.000000;2.532403
2030.000000;2.463994
2029.000000;2.495825
2028.000000;2.638759
2027.000000;2.703420
2026.000000;2.502969
2025.000000;2.281616
2024.000000;2.166439
2023.000000;2.144879
2022.000000;2.213231
2021.000000;2.292312
2020.000000;2.258012
2019.000000;2.228451
2018.000000;2.295251
2017.000000;2.325984
2016.000000;2.278725
2015.000000;2.286614
2014.000000;2.338903
2013.000000;2.354548
2012.000000;2.313020
2011.000000;2.277845
2010.000000;2.295603
2009.000000;2.310149
2008.000000;2.296474
2007.000000;2.337698
2006.000000;2.525240
2005.000000;2.648858
2004.000000;2.418097
2003.000000;2.253710
2002.000000;2.216168
2001.000000;2.252894
2000.000000;2.282573
1999.000000;2.244070
1998.000000;2.221955
1997.000000;2.286119
1996.000000;2.478891
1995.000000;2.594733
1994.000000;2.440784
1993.000000;2.355850
1992.000000;2.377525
1991.000000;2.420464
1990.000000;2.398243
1989.000000;2.381820
1988.000000;2.446609
1987.000000;2.476869
1986.000000;2.462640
1985.000000;2.498946
1984.000000;2.850055
1983.000000;3.461681
1982.000000;2.855908
1981.000000;2.710873
1980.000000;2.619101
1979.000000;2.613200
1978.000000;2.707969
1977.000000;2.675764
1976.000000;2.525922
1975.000000;2.393591
1974.000000;2.389005
1973.000000;2.476704
1972.000000;2.698815
1971.000000;2.745413
1970.000000;2.536828
1969.000000;2.397175
1968.000000;2.494239
1967.000000;2.994006
1966.000000;2.569795
1965.000000;2.341737
1964.000000;2.389815
1963.000000;2.635391
1962.000000;3.281748
1961.000000;2.782144
1960.000000;2.523645
1959.000000;2.405090
1958.000000;2.312503
1957.000000;2.287566
1956.000000;2.344926
1955.000000;2.479687
1954.000000;2.410930
1953.000000;2.203681
1952.000000;2.084041
1951.000000;2.071808
1950.000000;2.138785
1949.000000;2.134262
1948.000000;2.051306
1947.000000;2.033338
1946.000000;2.096341
1945.000000;2.183629
1944.000000;2.279833
1943.000000;2.392198
1942.000000;2.542765
1941.000000;2.818176
1940.000000;2.643455
1939.000000;2.348779
1938.000000;2.239006
1937.000000;2.245791
1936.000000;2.340261
1935.000000;2.322321
1934.000000;2.186259
1933.000000;2.126512
1932.000000;2.151259
1931.000000;2.214976
1930.000000;2.266674
1929.000000;2.265189
1928.000000;2.228878
1927.000000;2.213440
1926.000000;2.243231
1925.000000;2.295388
1924.000000;2.358932
1923.000000;2.491866
1922.000000;2.728056
1921.000000;2.843001
1920.000000;2.768658
1919.000000;2.644969
1918.000000;2.465814
1917.000000;2.355330
1916.000000;2.332093
1915.000000;2.417915
1914.000000;2.621055
1913.000000;2.985518
1912.000000;3.732239
1911.000000;2.954752
1910.000000;2.571094
1909.000000;2.408225
1908.000000;2.339197
1907.000000;2.378945
1906.000000;2.524477
1905.000000;2.789773
1904.000000;3.077023
1903.000000;3.048816
1902.000000;2.976493
1901.000000;2.824815
1900.000000;2.544622
1899.000000;2.415452
1898.000000;2.450958
1897.000000;2.666790
1896.000000;2.882593
1895.000000;2.675463
1894.000000;2.473730
1893.000000;2.404092
1892.000000;2.432275
1891.000000;2.488108
1890.000000;2.514697
1889.000000;2.607703
1888.000000;2.829227
1887.000000;2.797119
1886.000000;2.541435
1885.000000;2.370623
1884.000000;2.275958
1883.000000;2.270823
1882.000000;2.288734
1881.000000;2.211094
1880.000000;2.123022
1879.000000;2.112432
1878.000000;2.187746
1877.000000;2.281239
1876.000000;2.251449
1875.000000;2.181037
1874.000000;2.190316
1873.000000;2.290430
1872.000000;2.457576
1871.000000;2.566622
1870.000000;2.553799
1869.000000;2.545883
1868.000000;2.615287
1867.000000;2.753123
1866.000000;2.740902
1865.000000;2.619088
1864.000000;2.620995
1863.000000;2.619113
1862.000000;2.465425
1861.000000;2.335577
1860.000000;2.283297
1859.000000;2.272231
1858.000000;2.287519
1857.000000;2.333219
1856.000000;2.386748
1855.000000;2.360928
1854.000000;2.264906
1853.000000;2.228311
1852.000000;2.309645
1851.000000;2.627303
1850.000000;2.989723
1849.000000;2.646615
1848.000000;2.520710
1847.000000;2.559302
1846.000000;2.726787
1845.000000;2.894926
1844.000000;2.707927
1843.000000;2.475275
1842.000000;2.344191
1841.000000;2.331705
1840.000000;2.371602
1839.000000;2.300078
1838.000000;2.173285
1837.000000;2.130524
1836.000000;2.179484
1835.000000;2.241509
1834.000000;2.203437
1833.000000;2.141170
1832.000000;2.138014
1831.000000;2.183230
1830.000000;2.258319
1829.000000;2.349133
1828.000000;2.425924
1827.000000;2.467747
1826.000000;2.494694
1825.000000;2.519594
1824.000000;2.483464
1823.000000;2.417862
1822.000000;2.436684
1821.000000;2.604334
1820.000000;3.055784
1819.000000;3.336334
1818.000000;2.937889
1817.000000;2.772901
1816.000000;2.691907
1815.000000;2.653985
1814.000000;2.581374
1813.000000;2.481776
1812.000000;2.427146
1811.000000;2.481542
1810.000000;2.649895
1809.000000;2.725525
1808.000000;2.555535
1807.000000;2.366996
1806.000000;2.257348
1805.000000;2.219424
1804.000000;2.251424
1803.000000;2.354649
1802.000000;2.425002
1801.000000;2.376383
1800.000000;2.340051
1799.000000;2.325723
1798.000000;2.262532
1797.000000;2.162540
1796.000000;2.085944
1795.000000;2.063811
1794.000000;2.083129
1793.000000;2.117810
1792.000000;2.152424
1791.000000;2.190321
1790.000000;2.246797
1789.000000;2.342443
1788.000000;2.480403
1787.000000;2.565510
1786.000000;2.509881
1785.000000;2.450589
1784.000000;2.511915
1783.000000;2.638442
1782.000000;2.646060
1781.000000;2.563145
1780.000000;2.514849
1779.000000;2.537075
1778.000000;2.672386
1777.000000;3.049327
1776.000000;3.062985
1775.000000;2.725522
1774.000000;2.664799
1773.000000;2.719041
1772.000000;2.742382
1771.000000;2.668760
1770.000000;2.559554
1769.000000;2.485144
1768.000000;2.503000
1767.000000;2.668931
1766.000000;2.838073
1765.000000;2.783176
1764.000000;2.727966
1763.000000;2.755049
1762.000000;2.891359
1761.000000;3.115023
1760.000000;2.865759
1759.000000;2.515302
1758.000000;2.337927
1757.000000;2.287714
1756.000000;2.339694
1755.000000;2.429333
1754.000000;2.459041
1753.000000;2.419858
1752.000000;2.413740
1751.000000;2.525688
1750.000000;2.585629
1749.000000;2.486128
1748.000000;2.436240
1747.000000;2.453540
1746.000000;2.500877
1745.000000;2.575636
1744.000000;2.705363
1743.000000;2.854876
1742.000000;2.866839
1741.000000;2.912686
1740.000000;3.098118
1739.000000;2.860246
1738.000000;2.544233
1737.000000;2.400856
1736.000000;2.346512
1735.000000;2.362163
1734.000000;2.372252
1733.000000;2.314739
1732.000000;2.296223
1731.000000;2.362936
1730.000000;2.424186
1729.000000;2.364840
1728.000000;2.342811
1727.000000;2.532651
1726.000000;2.571428
1725.000000;2.290447
1724.000000;2.178191
1723.000000;2.211464
1722.000000;2.337654
1721.000000;2.520798
1720.000000;2.646578
1719.000000;2.672950
1718.000000;2.864065
1717.000000;2.995770
1716.000000;2.656593
1715.000000;2.538787
1714.000000;2.537797
1713.000000;2.547414
1712.000000;2.517030
1711.000000;2.420775
1710.000000;2.325619
1709.000000;2.268675
1708.000000;2.247377
1707.000000;2.245839
1706.000000;2.287975
1705.000000;2.387673
1704.000000;2.510584
1703.000000;2.583987
1702.000000;2.590060
1701.000000;2.587517
1700.000000;2.599534
1699.000000;2.581015
1698.000000;2.485416
1697.000000;2.302237
1696.000000;2.130982
1695.000000;2.094069
1694.000000;2.208824
1693.000000;2.351947
1692.000000;2.348102
1691.000000;2.322319
1690.000000;2.428432
1689.000000;2.788253
1688.000000;3.011027
1687.000000;2.768957
1686.000000;2.861421
1685.000000;3.073464
1684.000000;3.460551
1683.000000;3.313412
1682.000000;2.858203
1681.000000;2.636234
1680.000000;2.433174
1679.000000;2.349613
1678.000000;2.443504
1677.000000;2.819939
1676.000000;3.297859
1675.000000;2.869378
1674.000000;2.620362
1673.000000;2.512162
1672.000000;2.520556
1671.000000;2.629702
1670.000000;2.850830
1669.000000;3.330309
1668.000000;3.647747
1667.000000;3.689917
1666.000000;2.940697
1665.000000;2.499236
1664.000000;2.360209
1663.000000;2.418943
1662.000000;2.654742
1661.000000;2.788523
1660.000000;2.608382
1659.000000;2.681873
1658.000000;3.090139
1657.000000;2.812611
1656.000000;2.529111
1655.000000;2.572226
1654.000000;3.061648
1653.000000;3.097722
1652.000000;2.697603
1651.000000;2.829023
1650.000000;2.851895
1649.000000;2.579141
1648.000000;2.445584
1647.000000;2.457957
1646.000000;2.618670
1645.000000;2.727265
1644.000000;2.642922
1643.000000;2.587886
1642.000000;2.454015
1641.000000;2.310400
1640.000000;2.295886
1639.000000;2.446320
1638.000000;2.722686
1637.000000;2.734486
1636.000000;2.594021
1635.000000;2.570308
1634.000000;2.602506
1633.000000;2.630068
1632.000000;2.842080
1631.000000;2.872169
1630.000000;2.458001
1629.000000;2.323162
1628.000000;2.359881
1627.000000;2.450037
1626.000000;2.486746
1625.000000;2.488151
1624.000000;2.575319
1623.000000;2.843377
1622.000000;3.289601
1621.000000;3.084577
1620.000000;2.805581
1619.000000;2.579746
1618.000000;2.454651
1617.000000;2.431776
1616.000000;2.427794
1615.000000;2.414428
1614.000000;2.428457
1613.000000;2.517195
1612.000000;2.746978
1611.000000;2.945594
1610.000000;2.731492
1609.000000;2.587128
1608.000000;2.629957
1607.000000;2.713164
1606.000000;2.472920
1605.000000;2.197629
1604.000000;2.037503
1603.000000;1.967571
1602.000000;1.978281
1601.000000;2.040825
1600.000000;2.104481
1599.000000;2.168027
1598.000000;2.257581
1597.000000;2.354703
1596.000000;2.416622
1595.000000;2.593020
1594.000000;3.011119
1593.000000;2.753442
1592.000000;2.698370
1591.000000;2.741302
1590.000000;2.414286
1589.000000;2.250492
1588.000000;2.295473
1587.000000;2.408949
1586.000000;2.386902
1585.000000;2.322631
1584.000000;2.582147
1583.000000;3.268752
1582.000000;2.476589
1581.000000;2.293547
1580.000000;2.335240
1579.000000;2.669651
1578.000000;3.043277
1577.000000;2.454579
1576.000000;2.333202
1575.000000;2.394110
1574.000000;2.602709
1573.000000;2.788753
1572.000000;2.637825
1571.000000;2.469118
1570.000000;2.398675
1569.000000;2.401655
1568.000000;2.423951
1567.000000;2.441932
1566.000000;2.557861
1565.000000;2.957149
1564.000000;3.089698
1563.000000;2.860398
1562.000000;3.047625
1561.000000;3.529211
1560.000000;2.954670
1559.000000;2.683816
1558.000000;2.585803
1557.000000;2.484769
1556.000000;2.381206
1555.000000;2.328067
1554.000000;2.379855
1553.000000;2.441801
1552.000000;2.400220
1551.000000;2.377800
1550.000000;2.481217
1549.000000;2.645224
1548.000000;2.624469
1547.000000;2.528886
1546.000000;2.380241
1545.000000;2.167669
1544.000000;2.041902
1543.000000;2.044446
1542.000000;2.140747
1541.000000;2.239867
1540.000000;2.266575
1539.000000;2.282288
1538.000000;2.342511
1537.000000;2.512103
1536.000000;2.757393
1535.000000;2.573352
1534.000000;2.358127
1533.000000;2.299689
1532.000000;2.415275
1531.000000;2.815892
1530.000000;2.735753
1529.000000;2.449457
1528.000000;2.462008
1527.000000;2.628704
1526.000000;2.732216
1525.000000;2.777879
1524.000000;3.034559
1523.000000;2.961055
1522.000000;2.660944
1521.000000;2.533439
1520.000000;2.459191
1519.000000;2.403423
1518.000000;2.350476
1517.000000;2.322507
1516.000000;2.371578
1515.000000;2.530215
1514.000000;2.651872
1513.000000;2.622523
1512.000000;2.688836
1511.000000;2.698624
1510.000000;2.552443
1509.000000;2.515929
1508.000000;2.753064
1507.000000;2.949915
1506.000000;2.692924
1505.000000;2.617645
1504.000000;2.578290
1503.000000;2.511947
1502.000000;2.541782
1501.000000;2.658274
1500.000000;2.589905
1499.000000;2.477810
1498.000000;2.503343
1497.000000;2.675005
1496.000000;2.818646
1495.000000;2.653591
1494.000000;2.542409
1493.000000;2.476278
1492.000000;2.486518
1491.000000;2.610409
1490.000000;2.843840
1489.000000;3.462688
1488.000000;3.413221
1487.000000;2.994524
1486.000000;2.608921
1485.000000;2.395259
1484.000000;2.365029
1483.000000;2.612073
1482.000000;3.172681
1481.000000;2.578460
1480.000000;2.392284
1479.000000;2.498304
1478.000000;2.848892
1477.000000;2.692486
1476.000000;2.382618
1475.000000;2.331751
1474.000000;2.352819
1473.000000;2.390347
1472.000000;2.432817
1471.000000;2.586536
1470.000000;2.878940
1469.000000;2.714807
1468.000000;2.465826
1467.000000;2.572016
1466.000000;2.981039
1465.000000;2.675163
1464.000000;2.426201
1463.000000;2.452274
1462.000000;2.661280
1461.000000;2.996197
1460.000000;2.888496
1459.000000;2.667897
1458.000000;2.437608
1457.000000;2.251200
1456.000000;2.163967
1455.000000;2.147609
1454.000000;2.193935
1453.000000;2.314668
1452.000000;2.395808
1451.000000;2.261526
1450.000000;2.160064
1449.000000;2.183737
1448.000000;2.297877
1447.000000;2.605710
1446.000000;2.905327
1445.000000;2.513968
1444.000000;2.333937
1443.000000;2.285480
1442.000000;2.250514
1441.000000;2.180117
1440.000000;2.133088
1439.000000;2.177276
1438.000000;2.316009
1437.000000;2.559758
1436.000000;2.822218
1435.000000;2.910989
1434.000000;2.762134
1433.000000;2.432396
1432.000000;2.189811
1431.000000;2.089684
1430.000000;2.088391
1429.000000;2.142470
1428.000000;2.230641
1427.000000;2.352619
1426.000000;2.379719
1425.000000;2.315913
1424.000000;2.338223
1423.000000;2.589005
1422.000000;2.899186
1421.000000;2.515125
1420.000000;2.265098
1419.000000;2.095516
1418.000000;1.996025
1417.000000;1.982300
1416.000000;2.013528
1415.000000;2.049721
1414.000000;2.066530
1413.000000;2.082712
1412.000000;2.103001
1411.000000;2.100954
1410.000000;2.072937
1409.000000;2.064343
1408.000000;2.100280
1407.000000;2.171860
1406.000000;2.252894
1405.000000;2.325489
1404.000000;2.404429
1403.000000;2.490734
1402.000000;2.589026
1401.000000;2.631790
1400.000000;2.519434
1399.000000;2.424162
1398.000000;2.441389
1397.000000;2.460200
1396.000000;2.581592
1395.000000;2.888676
1394.000000;2.603603
1393.000000;2.421534
1392.000000;2.460457
1391.000000;2.582741
1390.000000;2.679107
1389.000000;2.581606
1388.000000;2.474583
1387.000000;2.461229
1386.000000;2.378803
1385.000000;2.268074
1384.000000;2.262565
1383.000000;2.354920
1382.000000;2.597786
1381.000000;2.654955
1380.000000;2.385314
1379.000000;2.249023
1378.000000;2.218688
1377.000000;2.263021
1376.000000;2.475764
1375.000000;2.686680
1374.000000;2.414603
1373.000000;2.305353
1372.000000;2.382263
1371.000000;2.609646
1370.000000;2.961893
1369.000000;3.163440
1368.000000;2.927432
1367.000000;2.538115
1366.000000;2.406651
1365.000000;2.320534
1364.000000;2.221912
1363.000000;2.221039
1362.000000;2.438961
1361.000000;2.847648
1360.000000;2.715904
1359.000000;2.561401
1358.000000;2.583688
1357.000000;2.853823
1356.000000;3.098721
1355.000000;2.598235
1354.000000;2.364603
1353.000000;2.318249
1352.000000;2.456445
1351.000000;2.717486
1350.000000;2.602703
1349.000000;2.528582
1348.000000;2.640243
1347.000000;2.619486
1346.000000;2.402639
1345.000000;2.235024
1344.000000;2.115263
1343.000000;2.023568
1342.000000;1.996828
1341.000000;2.055546
1340.000000;2.088472
1339.000000;2.020652
1338.000000;2.045674
1337.000000;2.219431
1336.000000;2.354249
1335.000000;2.263859
1334.000000;2.127028
1333.000000;2.017318
1332.000000;1.961541
1331.000000;1.985875
1330.000000;2.055343
1329.000000;2.087690
1328.000000;2.047290
1327.000000;2.037423
1326.000000;2.126925
1325.000000;2.406925
1324.000000;3.168312
1323.000000;2.916743
1322.000000;2.665359
1321.000000;2.541103
1320.000000;2.412433
1319.000000;2.340969
1318.000000;2.274094
1317.000000;2.275404
1316.000000;2.343748
1315.000000;2.428398
1314.000000;2.646315
1313.000000;2.759037
1312.000000;2.366523
1311.000000;2.192117
1310.000000;2.181216
1309.000000;2.334943
1308.000000;2.704044
1307.000000;2.668133
1306.000000;2.461801
1305.000000;2.499933
1304.000000;2.649785
1303.000000;2.725894
1302.000000;2.594515
1301.000000;2.490899
1300.000000;2.508072
1299.000000;2.545328
1298.000000;2.445393
1297.000000;2.365825
1296.000000;2.433237
1295.000000;2.433234
1294.000000;2.259353
1293.000000;2.146145
1292.000000;2.119049
1291.000000;2.153659
1290.000000;2.253678
1289.000000;2.428007
1288.000000;2.573712
1287.000000;2.551130
1286.000000;2.500793
1285.000000;2.396846
1284.000000;2.248849
1283.000000;2.150098
1282.000000;2.125201
1281.000000;2.190079
1280.000000;2.290775
1279.000000;2.227976
1278.000000;2.084109
1277.000000;1.998566
1276.000000;1.954815
1275.000000;1.922674
1274.000000;1.881819
1273.000000;1.848270
1272.000000;1.841095
1271.000000;1.856689
1270.000000;1.896297
1269.000000;1.973873
1268.000000;2.069388
1267.000000;2.110809
1266.000000;2.104552
1265.000000;2.124162
1264.000000;2.201016
1263.000000;2.332985
1262.000000;2.464460
1261.000000;2.462916
1260.000000;2.363438
1259.000000;2.284570
1258.000000;2.251464
1257.000000;2.207858
1256.000000;2.142138
1255.000000;2.116848
1254.000000;2.171943
1253.000000;2.440772
1252.000000;2.671731
1251.000000;2.357269
1250.000000;2.210670
1249.000000;2.129428
1248.000000;2.032960
1247.000000;1.969561
1246.000000;1.974682
1245.000000;2.029989
1244.000000;2.077014
1243.000000;2.084801
1242.000000;2.129032
1241.000000;2.226909
1240.000000;2.500908
1239.000000;3.404437
1238.000000;2.558228
1237.000000;2.299108
1236.000000;2.379733
1235.000000;2.757444
1234.000000;2.460619
1233.000000;2.210540
1232.000000;2.315741
1231.000000;2.696636
1230.000000;2.732001
1229.000000;2.692016
1228.000000;2.931702
1227.000000;2.564004
1226.000000;2.310174
1225.000000;2.214097
1224.000000;2.171785
1223.000000;2.106297
1222.000000;2.024527
1221.000000;1.988493
1220.000000;1.992842
1219.000000;2.016727
1218.000000;2.070976
1217.000000;2.184043
1216.000000;2.392422
1215.000000;2.605677
1214.000000;2.750352
1213.000000;2.884326
1212.000000;2.535758
1211.000000;2.338653
1210.000000;2.318481
1209.000000;2.326856
1208.000000;2.250127
1207.000000;2.118212
1206.000000;2.039141
1205.000000;2.062211
1204.000000;2.183819
1203.000000;2.315994
1202.000000;2.344545
1201.000000;2.404120
1200.000000;2.756855
