Criado como novo conjunto de dados;"1909daniel.spp","-4243122.6 Secs"
cm-1;Abs
10000.000000;1.913995
9999.000000;1.911679
9998.000000;1.909375
9997.000000;1.907083
9996.000000;1.904806
9995.000000;1.902530
9994.000000;1.900288
9993.000000;1.898016
9992.000000;1.895830
9991.000000;1.893524
9990.000000;1.891494
9989.000000;1.888417
9988.000000;1.884600
9987.000000;1.881945
9986.000000;1.880579
9985.000000;1.880143
9984.000000;1.879836
9983.000000;1.879022
9982.000000;1.877272
9981.000000;1.874772
9980.000000;1.872369
9979.000000;1.870941
9978.000000;1.870772
9977.000000;1.871709
9976.000000;1.873537
9975.000000;1.875735
9974.000000;1.877170
9973.000000;1.876927
9972.000000;1.875500
9971.000000;1.874154
9970.000000;1.872947
9969.000000;1.870491
9968.000000;1.866135
9967.000000;1.861440
9966.000000;1.858590
9965.000000;1.858013
9964.000000;1.858587
9963.000000;1.859552
9962.000000;1.860876
9961.000000;1.861838
9960.000000;1.860944
9959.000000;1.858020
9958.000000;1.855062
9957.000000;1.854104
9956.000000;1.855073
9955.000000;1.856520
9954.000000;1.857844
9953.000000;1.859695
9952.000000;1.862410
9951.000000;1.865117
9950.000000;1.866533
9949.000000;1.865958
9948.000000;1.863352
9947.000000;1.859140
9946.000000;1.854215
9945.000000;1.849762
9944.000000;1.846807
9943.000000;1.845972
9942.000000;1.847506
9941.000000;1.851026
9940.000000;1.855057
9939.000000;1.857507
9938.000000;1.857227
9937.000000;1.854912
9936.000000;1.852234
9935.000000;1.850367
9934.000000;1.849276
9933.000000;1.848010
9932.000000;1.845609
9931.000000;1.842153
9930.000000;1.839029
9929.000000;1.837724
9928.000000;1.838181
9927.000000;1.838758
9926.000000;1.838183
9925.000000;1.836921
9924.000000;1.835899
9923.000000;1.834783
9922.000000;1.832632
9921.000000;1.830009
9920.000000;1.829173
9919.000000;1.831504
9918.000000;1.835532
9917.000000;1.838412
9916.000000;1.839093
9915.000000;1.839065
9914.000000;1.839952
9913.000000;1.841311
9912.000000;1.841303
9911.000000;1.838994
9910.000000;1.835292
9909.000000;1.831703
9908.000000;1.828810
9907.000000;1.826228
9906.000000;1.823733
9905.000000;1.821907
9904.000000;1.821412
9903.000000;1.821841
9902.000000;1.821776
9901.000000;1.820339
9900.000000;1.818438
9899.000000;1.817989
9898.000000;1.819911
9897.000000;1.823098
9896.000000;1.825372
9895.000000;1.825351
9894.000000;1.823400
9893.000000;1.821146
9892.000000;1.820163
9891.000000;1.820745
9890.000000;1.821725
9889.000000;1.821600
9888.000000;1.820024
9887.000000;1.817994
9886.000000;1.816515
9885.000000;1.815619
9884.000000;1.814987
9883.000000;1.814985
9882.000000;1.816230
9881.000000;1.818080
9880.000000;1.818436
9879.000000;1.815620
9878.000000;1.810244
9877.000000;1.804838
9876.000000;1.801650
9875.000000;1.800931
9874.000000;1.801219
9873.000000;1.801264
9872.000000;1.801483
9871.000000;1.803103
9870.000000;1.805967
9869.000000;1.807848
9868.000000;1.806656
9867.000000;1.803112
9866.000000;1.800125
9865.000000;1.799431
9864.000000;1.799792
9863.000000;1.798928
9862.000000;1.796630
9861.000000;1.794883
9860.000000;1.795041
9859.000000;1.796007
9858.000000;1.795594
9857.000000;1.793129
9856.000000;1.790075
9855.000000;1.788190
9854.000000;1.787795
9853.000000;1.788043
9852.000000;1.788217
9851.000000;1.788327
9850.000000;1.788720
9849.000000;1.789519
9848.000000;1.790348
9847.000000;1.790279
9846.000000;1.788284
9845.000000;1.784212
9844.000000;1.779214
9843.000000;1.774910
9842.000000;1.772157
9841.000000;1.770673
9840.000000;1.769629
9839.000000;1.768230
9838.000000;1.765904
9837.000000;1.762757
9836.000000;1.760088
9835.000000;1.759689
9834.000000;1.761993
9833.000000;1.765259
9832.000000;1.767334
9831.000000;1.768032
9830.000000;1.768881
9829.000000;1.770583
9828.000000;1.771836
9827.000000;1.771086
9826.000000;1.768767
9825.000000;1.767053
9824.000000;1.767508
9823.000000;1.769441
9822.000000;1.770569
9821.000000;1.769232
9820.000000;1.765999
9819.000000;1.762998
9818.000000;1.761606
9817.000000;1.760992
9816.000000;1.759323
9815.000000;1.756342
9814.000000;1.753963
9813.000000;1.754121
9812.000000;1.756913
9811.000000;1.760926
9810.000000;1.764535
9809.000000;1.766567
9808.000000;1.766501
9807.000000;1.764817
9806.000000;1.762682
9805.000000;1.760622
9804.000000;1.758104
9803.000000;1.755091
9802.000000;1.753093
9801.000000;1.753445
9800.000000;1.755006
9799.000000;1.755050
9798.000000;1.752648
9797.000000;1.749798
9796.000000;1.748722
9795.000000;1.749292
9794.000000;1.749775
9793.000000;1.749146
9792.000000;1.747664
9791.000000;1.745857
9790.000000;1.744081
9789.000000;1.742669
9788.000000;1.741562
9787.000000;1.740129
9786.000000;1.738136
9785.000000;1.736708
9784.000000;1.737356
9783.000000;1.739898
9782.000000;1.742231
9781.000000;1.742451
9780.000000;1.740597
9779.000000;1.738047
9778.000000;1.735929
9777.000000;1.734748
9776.000000;1.734932
9775.000000;1.736628
9774.000000;1.738860
9773.000000;1.739759
9772.000000;1.738369
9771.000000;1.735956
9770.000000;1.734807
9769.000000;1.735630
9768.000000;1.736634
9767.000000;1.735596
9766.000000;1.732607
9765.000000;1.729938
9764.000000;1.729276
9763.000000;1.729958
9762.000000;1.730129
9761.000000;1.729100
9760.000000;1.727930
9759.000000;1.727896
9758.000000;1.729235
9757.000000;1.731250
9756.000000;1.732835
9755.000000;1.732743
9754.000000;1.730166
9753.000000;1.725584
9752.000000;1.720639
9751.000000;1.716852
9750.000000;1.714733
9749.000000;1.714150
9748.000000;1.714974
9747.000000;1.716922
9746.000000;1.719178
9745.000000;1.720774
9744.000000;1.721389
9743.000000;1.721048
9742.000000;1.719207
9741.000000;1.715402
9740.000000;1.710758
9739.000000;1.707685
9738.000000;1.707662
9737.000000;1.709724
9736.000000;1.711421
9735.000000;1.711080
9734.000000;1.708894
9733.000000;1.706201
9732.000000;1.704337
9731.000000;1.703936
9730.000000;1.704619
9729.000000;1.705266
9728.000000;1.705082
9727.000000;1.704392
9726.000000;1.704022
9725.000000;1.704090
9724.000000;1.704034
9723.000000;1.703746
9722.000000;1.703750
9721.000000;1.703918
9720.000000;1.703095
9719.000000;1.700732
9718.000000;1.698091
9717.000000;1.696898
9716.000000;1.697211
9715.000000;1.697454
9714.000000;1.696361
9713.000000;1.694146
9712.000000;1.691811
9711.000000;1.689959
9710.000000;1.688504
9709.000000;1.687313
9708.000000;1.686774
9707.000000;1.687681
9706.000000;1.690290
9705.000000;1.693162
9704.000000;1.693563
9703.000000;1.690104
9702.000000;1.684834
9701.000000;1.681497
9700.000000;1.681709
9699.000000;1.683829
9698.000000;1.685591
9697.000000;1.686611
9696.000000;1.687474
9695.000000;1.687562
9694.000000;1.685494
9693.000000;1.681470
9692.000000;1.677589
9691.000000;1.675537
9690.000000;1.675039
9689.000000;1.674840
9688.000000;1.674403
9687.000000;1.674120
9686.000000;1.674284
9685.000000;1.674633
9684.000000;1.674908
9683.000000;1.675324
9682.000000;1.676151
9681.000000;1.677004
9680.000000;1.677021
9679.000000;1.675931
9678.000000;1.674675
9677.000000;1.674468
9676.000000;1.675169
9675.000000;1.675095
9674.000000;1.672867
9673.000000;1.669083
9672.000000;1.665646
9671.000000;1.663765
9670.000000;1.663140
9669.000000;1.662767
9668.000000;1.661899
9667.000000;1.660382
9666.000000;1.658854
9665.000000;1.658654
9664.000000;1.660713
9663.000000;1.664095
9662.000000;1.666268
9661.000000;1.665503
9660.000000;1.662663
9659.000000;1.660016
9658.000000;1.658778
9657.000000;1.658430
9656.000000;1.657894
9655.000000;1.656592
9654.000000;1.654543
9653.000000;1.652154
9652.000000;1.650086
9651.000000;1.648811
9650.000000;1.648152
9649.000000;1.647584
9648.000000;1.646961
9647.000000;1.646535
9646.000000;1.646259
9645.000000;1.645670
9644.000000;1.644702
9643.000000;1.644110
9642.000000;1.644587
9641.000000;1.645731
9640.000000;1.646525
9639.000000;1.646883
9638.000000;1.648096
9637.000000;1.651237
9636.000000;1.655341
9635.000000;1.657666
9634.000000;1.656113
9633.000000;1.651227
9632.000000;1.645386
9631.000000;1.640417
9630.000000;1.636599
9629.000000;1.633653
9628.000000;1.631824
9627.000000;1.631593
9626.000000;1.632754
9625.000000;1.634371
9624.000000;1.635565
9623.000000;1.636050
9622.000000;1.636002
9621.000000;1.635765
9620.000000;1.635667
9619.000000;1.635717
9618.000000;1.635415
9617.000000;1.634248
9616.000000;1.632394
9615.000000;1.630576
9614.000000;1.629197
9613.000000;1.627990
9612.000000;1.626744
9611.000000;1.625880
9610.000000;1.625901
9609.000000;1.626597
9608.000000;1.627168
9607.000000;1.627007
9606.000000;1.626053
9605.000000;1.624514
9604.000000;1.622596
9603.000000;1.620463
9602.000000;1.618374
9601.000000;1.616877
9600.000000;1.616726
9599.000000;1.618285
9598.000000;1.620775
9597.000000;1.622416
9596.000000;1.621913
9595.000000;1.619855
9594.000000;1.618044
9593.000000;1.617412
9592.000000;1.617178
9591.000000;1.616083
9590.000000;1.613908
9589.000000;1.611513
9588.000000;1.609649
9587.000000;1.608162
9586.000000;1.606475
9585.000000;1.604629
9584.000000;1.603442
9583.000000;1.603629
9582.000000;1.605043
9581.000000;1.606919
9580.000000;1.608657
9579.000000;1.609967
9578.000000;1.610362
9577.000000;1.609287
9576.000000;1.607105
9575.000000;1.605253
9574.000000;1.604768
9573.000000;1.605092
9572.000000;1.605022
9571.000000;1.604557
9570.000000;1.604897
9569.000000;1.606501
9568.000000;1.608088
9567.000000;1.608056
9566.000000;1.606209
9565.000000;1.603536
9564.000000;1.600871
9563.000000;1.598451
9562.000000;1.596381
9561.000000;1.594896
9560.000000;1.594193
9559.000000;1.594257
9558.000000;1.594757
9557.000000;1.594984
9556.000000;1.594182
9555.000000;1.592325
9554.000000;1.590425
9553.000000;1.589816
9552.000000;1.591251
9551.000000;1.594510
9550.000000;1.598219
9549.000000;1.600024
9548.000000;1.598075
9547.000000;1.593116
9546.000000;1.588243
9545.000000;1.585812
9544.000000;1.585171
9543.000000;1.584056
9542.000000;1.581692
9541.000000;1.579576
9540.000000;1.579378
9539.000000;1.581202
9538.000000;1.583953
9537.000000;1.586386
9536.000000;1.587449
9535.000000;1.586481
9534.000000;1.583794
9533.000000;1.580639
9532.000000;1.578210
9531.000000;1.576919
9530.000000;1.576613
9529.000000;1.576878
9528.000000;1.577032
9527.000000;1.576534
9526.000000;1.575750
9525.000000;1.575708
9524.000000;1.576689
9523.000000;1.577629
9522.000000;1.577394
9521.000000;1.576085
9520.000000;1.574513
9519.000000;1.572993
9518.000000;1.571496
9517.000000;1.570593
9516.000000;1.571218
9515.000000;1.573362
9514.000000;1.575614
9513.000000;1.576286
9512.000000;1.574806
9511.000000;1.572033
9510.000000;1.569531
9509.000000;1.568488
9508.000000;1.568829
9507.000000;1.569181
9506.000000;1.568057
9505.000000;1.565298
9504.000000;1.562271
9503.000000;1.560636
9502.000000;1.561041
9501.000000;1.562703
9500.000000;1.563967
9499.000000;1.563578
9498.000000;1.561822
9497.000000;1.560253
9496.000000;1.559881
9495.000000;1.559940
9494.000000;1.558970
9493.000000;1.556839
9492.000000;1.554901
9491.000000;1.554119
9490.000000;1.553847
9489.000000;1.552820
9488.000000;1.550856
9487.000000;1.549058
9486.000000;1.548605
9485.000000;1.549799
9484.000000;1.552009
9483.000000;1.553923
9482.000000;1.553924
9481.000000;1.551065
9480.000000;1.546146
9479.000000;1.541463
9478.000000;1.539005
9477.000000;1.538881
9476.000000;1.539739
9475.000000;1.540574
9474.000000;1.541623
9473.000000;1.543419
9472.000000;1.545558
9471.000000;1.546842
9470.000000;1.546384
9469.000000;1.544190
9468.000000;1.540940
9467.000000;1.537634
9466.000000;1.535256
9465.000000;1.534220
9464.000000;1.534055
9463.000000;1.533993
9462.000000;1.533866
9461.000000;1.534017
9460.000000;1.534470
9459.000000;1.534839
9458.000000;1.535132
9457.000000;1.535929
9456.000000;1.537399
9455.000000;1.538663
9454.000000;1.538568
9453.000000;1.536801
9452.000000;1.534024
9451.000000;1.531327
9450.000000;1.529799
9449.000000;1.530056
9448.000000;1.531598
9447.000000;1.532957
9446.000000;1.533022
9445.000000;1.532083
9444.000000;1.531196
9443.000000;1.530810
9442.000000;1.530513
9441.000000;1.529903
9440.000000;1.529021
9439.000000;1.527968
9438.000000;1.526751
9437.000000;1.525691
9436.000000;1.525523
9435.000000;1.526761
9434.000000;1.528972
9433.000000;1.530747
9432.000000;1.530544
9431.000000;1.527903
9430.000000;1.523945
9429.000000;1.520465
9428.000000;1.518442
9427.000000;1.517591
9426.000000;1.517231
9425.000000;1.517084
9424.000000;1.516990
9423.000000;1.516485
9422.000000;1.515343
9421.000000;1.514262
9420.000000;1.514318
9419.000000;1.515699
9418.000000;1.517452
9417.000000;1.518499
9416.000000;1.518504
9415.000000;1.517745
9414.000000;1.516579
9413.000000;1.515128
9412.000000;1.513217
9411.000000;1.510620
9410.000000;1.507592
9409.000000;1.505080
9408.000000;1.504035
9407.000000;1.504511
9406.000000;1.505670
9405.000000;1.506619
9404.000000;1.507054
9403.000000;1.507232
9402.000000;1.507584
9401.000000;1.508228
9400.000000;1.508584
9399.000000;1.507721
9398.000000;1.505492
9397.000000;1.503067
9396.000000;1.501839
9395.000000;1.501969
9394.000000;1.502461
9393.000000;1.502450
9392.000000;1.501866
9391.000000;1.500913
9390.000000;1.499605
9389.000000;1.498038
9388.000000;1.496608
9387.000000;1.495738
9386.000000;1.495657
9385.000000;1.496435
9384.000000;1.497766
9383.000000;1.498700
9382.000000;1.498202
9381.000000;1.496321
9380.000000;1.494366
9379.000000;1.493585
9378.000000;1.493932
9377.000000;1.494261
9376.000000;1.493584
9375.000000;1.492031
9374.000000;1.490661
9373.000000;1.490282
9372.000000;1.490405
9371.000000;1.489672
9370.000000;1.487640
9369.000000;1.485741
9368.000000;1.485785
9367.000000;1.487712
9366.000000;1.489475
9365.000000;1.489191
9364.000000;1.486825
9363.000000;1.483673
9362.000000;1.481091
9361.000000;1.480071
9360.000000;1.481075
9359.000000;1.483482
9358.000000;1.485646
9357.000000;1.486228
9356.000000;1.485305
9355.000000;1.483773
9354.000000;1.482139
9353.000000;1.480491
9352.000000;1.479192
9351.000000;1.478773
9350.000000;1.479170
9349.000000;1.479679
9348.000000;1.479750
9347.000000;1.479345
9346.000000;1.478453
9345.000000;1.476815
9344.000000;1.474461
9343.000000;1.472205
9342.000000;1.471252
9341.000000;1.472257
9340.000000;1.474783
9339.000000;1.477570
9338.000000;1.479303
9337.000000;1.479320
9336.000000;1.477826
9335.000000;1.475554
9334.000000;1.473203
9333.000000;1.471094
9332.000000;1.469253
9331.000000;1.467825
9330.000000;1.467287
9329.000000;1.468004
9328.000000;1.469616
9327.000000;1.471205
9326.000000;1.472289
9325.000000;1.473260
9324.000000;1.474447
9323.000000;1.475118
9322.000000;1.474109
9321.000000;1.471346
9320.000000;1.468032
9319.000000;1.465342
9318.000000;1.463670
9317.000000;1.463146
9316.000000;1.463915
9315.000000;1.465440
9314.000000;1.466324
9313.000000;1.465551
9312.000000;1.463566
9311.000000;1.461549
9310.000000;1.460081
9309.000000;1.459122
9308.000000;1.458831
9307.000000;1.459507
9306.000000;1.460786
9305.000000;1.461714
9304.000000;1.461777
9303.000000;1.461238
9302.000000;1.460254
9301.000000;1.458387
9300.000000;1.455465
9299.000000;1.452461
9298.000000;1.450902
9297.000000;1.451439
9296.000000;1.453349
9295.000000;1.455378
9294.000000;1.456748
9293.000000;1.457376
9292.000000;1.457469
9291.000000;1.457141
9290.000000;1.456388
9289.000000;1.455169
9288.000000;1.453454
9287.000000;1.451555
9286.000000;1.450434
9285.000000;1.451121
9284.000000;1.453405
9283.000000;1.455412
9282.000000;1.455189
9281.000000;1.452799
9280.000000;1.450280
9279.000000;1.449461
9278.000000;1.450294
9277.000000;1.451365
9276.000000;1.451457
9275.000000;1.450301
9274.000000;1.448362
9273.000000;1.446465
9272.000000;1.445433
9271.000000;1.445584
9270.000000;1.446522
9269.000000;1.447486
9268.000000;1.447798
9267.000000;1.446995
9266.000000;1.444956
9265.000000;1.442211
9264.000000;1.439822
9263.000000;1.438519
9262.000000;1.438093
9261.000000;1.437909
9260.000000;1.437745
9259.000000;1.437674
9258.000000;1.437453
9257.000000;1.436739
9256.000000;1.435958
9255.000000;1.436271
9254.000000;1.438364
9253.000000;1.441576
9252.000000;1.444424
9251.000000;1.445802
9250.000000;1.445545
9249.000000;1.444172
9248.000000;1.442397
9247.000000;1.440759
9246.000000;1.439383
9245.000000;1.438002
9244.000000;1.436401
9243.000000;1.434922
9242.000000;1.434308
9241.000000;1.434961
9240.000000;1.436438
9239.000000;1.437652
9238.000000;1.437562
9237.000000;1.435736
9236.000000;1.432458
9235.000000;1.428599
9234.000000;1.425482
9233.000000;1.424436
9232.000000;1.425837
9231.000000;1.428498
9230.000000;1.430548
9229.000000;1.431201
9228.000000;1.431269
9227.000000;1.431745
9226.000000;1.432430
9225.000000;1.432303
9224.000000;1.430845
9223.000000;1.428525
9222.000000;1.426223
9221.000000;1.424663
9220.000000;1.424190
9219.000000;1.424520
9218.000000;1.424719
9217.000000;1.423962
9216.000000;1.422465
9215.000000;1.421358
9214.000000;1.421581
9213.000000;1.423153
9212.000000;1.425346
9211.000000;1.427267
9210.000000;1.428311
9209.000000;1.428332
9208.000000;1.427513
9207.000000;1.426033
9206.000000;1.423986
9205.000000;1.421792
9204.000000;1.420299
9203.000000;1.419943
9202.000000;1.419954
9201.000000;1.419072
9200.000000;1.417233
9199.000000;1.415964
9198.000000;1.416769
9197.000000;1.419435
9196.000000;1.422185
9195.000000;1.423196
9194.000000;1.421812
9193.000000;1.418671
9192.000000;1.415164
9191.000000;1.412710
9190.000000;1.412049
9189.000000;1.412948
9188.000000;1.414574
9187.000000;1.416133
9186.000000;1.417158
9185.000000;1.417423
9184.000000;1.416942
9183.000000;1.415990
9182.000000;1.414884
9181.000000;1.413820
9180.000000;1.412965
9179.000000;1.412542
9178.000000;1.412692
9177.000000;1.413301
9176.000000;1.413931
9175.000000;1.413962
9174.000000;1.413043
9173.000000;1.411601
9172.000000;1.410738
9171.000000;1.411246
9170.000000;1.412761
9169.000000;1.414128
9168.000000;1.414589
9167.000000;1.414289
9166.000000;1.413678
9165.000000;1.412990
9164.000000;1.412428
9163.000000;1.412239
9162.000000;1.412190
9161.000000;1.411389
9160.000000;1.409245
9159.000000;1.406488
9158.000000;1.404708
9157.000000;1.404789
9156.000000;1.406030
9155.000000;1.406730
9154.000000;1.405612
9153.000000;1.402954
9152.000000;1.400365
9151.000000;1.399310
9150.000000;1.399766
9149.000000;1.400477
9148.000000;1.400552
9147.000000;1.400270
9146.000000;1.400099
9145.000000;1.399728
9144.000000;1.398772
9143.000000;1.397942
9142.000000;1.398472
9141.000000;1.400390
9140.000000;1.402128
9139.000000;1.402080
9138.000000;1.400097
9137.000000;1.397333
9136.000000;1.395203
9135.000000;1.394657
9134.000000;1.395737
9133.000000;1.397388
9132.000000;1.398191
9131.000000;1.397702
9130.000000;1.396714
9129.000000;1.396049
9128.000000;1.395723
9127.000000;1.395530
9126.000000;1.395692
9125.000000;1.396344
9124.000000;1.396967
9123.000000;1.397076
9122.000000;1.397025
9121.000000;1.397313
9120.000000;1.397433
9119.000000;1.396423
9118.000000;1.394514
9117.000000;1.393216
9116.000000;1.393507
9115.000000;1.394700
9114.000000;1.395423
9113.000000;1.395162
9112.000000;1.394429
9111.000000;1.393760
9110.000000;1.393194
9109.000000;1.392644
9108.000000;1.392293
9107.000000;1.392362
9106.000000;1.392622
9105.000000;1.392419
9104.000000;1.391421
9103.000000;1.390262
9102.000000;1.390106
9101.000000;1.391378
9100.000000;1.393195
9099.000000;1.394321
9098.000000;1.394441
9097.000000;1.394078
9096.000000;1.393566
9095.000000;1.392841
9094.000000;1.392136
9093.000000;1.392056
9092.000000;1.392651
9091.000000;1.393028
9090.000000;1.392238
9089.000000;1.390294
9088.000000;1.388108
9087.000000;1.386658
9086.000000;1.386233
9085.000000;1.386155
9084.000000;1.385196
9083.000000;1.382799
9082.000000;1.380036
9081.000000;1.378796
9080.000000;1.379824
9079.000000;1.381972
9078.000000;1.383527
9077.000000;1.383804
9076.000000;1.383166
9075.000000;1.382153
9074.000000;1.381249
9073.000000;1.381027
9072.000000;1.381720
9071.000000;1.382755
9070.000000;1.383268
9069.000000;1.383031
9068.000000;1.382430
9067.000000;1.381716
9066.000000;1.380824
9065.000000;1.379835
9064.000000;1.379045
9063.000000;1.378556
9062.000000;1.378244
9061.000000;1.378085
9060.000000;1.378078
9059.000000;1.377974
9058.000000;1.377634
9057.000000;1.377538
9056.000000;1.378222
9055.000000;1.379189
9054.000000;1.379152
9053.000000;1.377675
9052.000000;1.375960
9051.000000;1.375504
9050.000000;1.376436
9049.000000;1.377694
9048.000000;1.378389
9047.000000;1.378423
9046.000000;1.377989
9045.000000;1.377073
9044.000000;1.375687
9043.000000;1.374245
9042.000000;1.373409
9041.000000;1.373611
9040.000000;1.374693
9039.000000;1.375889
9038.000000;1.376332
9037.000000;1.375820
9036.000000;1.375004
9035.000000;1.374684
9034.000000;1.374955
9033.000000;1.375190
9032.000000;1.374801
9031.000000;1.373810
9030.000000;1.372669
9029.000000;1.371714
9028.000000;1.370946
9027.000000;1.370287
9026.000000;1.369863
9025.000000;1.369910
9024.000000;1.370383
9023.000000;1.370835
9022.000000;1.370902
9021.000000;1.370862
9020.000000;1.371312
9019.000000;1.372158
9018.000000;1.372342
9017.000000;1.371033
9016.000000;1.368905
9015.000000;1.367576
9014.000000;1.367695
9013.000000;1.368190
9012.000000;1.367729
9011.000000;1.366462
9010.000000;1.365699
9009.000000;1.366161
9008.000000;1.367376
9007.000000;1.368701
9006.000000;1.370045
9005.000000;1.371213
9004.000000;1.371382
9003.000000;1.370068
9002.000000;1.368215
9001.000000;1.367336
9000.000000;1.367608
8999.000000;1.367627
8998.000000;1.366206
8997.000000;1.363787
8996.000000;1.361798
8995.000000;1.361212
8994.000000;1.362077
8993.000000;1.363793
8992.000000;1.365277
8991.000000;1.365380
8990.000000;1.363905
8989.000000;1.362046
8988.000000;1.361214
8987.000000;1.361547
8986.000000;1.362008
8985.000000;1.361830
8984.000000;1.361310
8983.000000;1.361113
8982.000000;1.361359
8981.000000;1.361698
8980.000000;1.361884
8979.000000;1.361948
8978.000000;1.361953
8977.000000;1.361860
8976.000000;1.361600
8975.000000;1.361150
8974.000000;1.360549
8973.000000;1.359869
8972.000000;1.359137
8971.000000;1.358346
8970.000000;1.357594
8969.000000;1.357134
8968.000000;1.357137
8967.000000;1.357484
8966.000000;1.357953
8965.000000;1.358514
8964.000000;1.359211
8963.000000;1.359796
8962.000000;1.359759
8961.000000;1.358856
8960.000000;1.357469
8959.000000;1.356421
8958.000000;1.356417
8957.000000;1.357503
8956.000000;1.358886
8955.000000;1.359505
8954.000000;1.359082
8953.000000;1.358445
8952.000000;1.358487
8951.000000;1.358985
8950.000000;1.358900
8949.000000;1.357812
8948.000000;1.356514
8947.000000;1.356000
8946.000000;1.356360
8945.000000;1.356991
8944.000000;1.357417
8943.000000;1.357426
8942.000000;1.356689
8941.000000;1.355025
8940.000000;1.353119
8939.000000;1.352286
8938.000000;1.353120
8937.000000;1.354645
8936.000000;1.355302
8935.000000;1.354767
8934.000000;1.354197
8933.000000;1.354510
8932.000000;1.355075
8931.000000;1.354604
8930.000000;1.352924
8929.000000;1.351154
8928.000000;1.350182
8927.000000;1.349757
8926.000000;1.349308
8925.000000;1.348984
8924.000000;1.349363
8923.000000;1.350533
8922.000000;1.351895
8921.000000;1.352688
8920.000000;1.352439
8919.000000;1.351206
8918.000000;1.349746
8917.000000;1.349095
8916.000000;1.349514
8915.000000;1.350137
8914.000000;1.350134
8913.000000;1.349935
8912.000000;1.350574
8911.000000;1.351993
8910.000000;1.352837
8909.000000;1.352164
8908.000000;1.350659
8907.000000;1.349739
8906.000000;1.349927
8905.000000;1.350447
8904.000000;1.350144
8903.000000;1.348600
8902.000000;1.346526
8901.000000;1.345214
8900.000000;1.345477
8899.000000;1.346953
8898.000000;1.348500
8897.000000;1.349254
8896.000000;1.349138
8895.000000;1.348556
8894.000000;1.348070
8893.000000;1.348305
8892.000000;1.349531
8891.000000;1.351154
8890.000000;1.352111
8889.000000;1.351944
8888.000000;1.351064
8887.000000;1.349841
8886.000000;1.348016
8885.000000;1.345397
8884.000000;1.342687
8883.000000;1.341098
8882.000000;1.341278
8881.000000;1.342890
8880.000000;1.345090
8879.000000;1.347174
8878.000000;1.348862
8877.000000;1.350137
8876.000000;1.350850
8875.000000;1.350618
8874.000000;1.349324
8873.000000;1.347544
8872.000000;1.346039
8871.000000;1.344905
8870.000000;1.343737
8869.000000;1.342661
8868.000000;1.342523
8867.000000;1.343739
8866.000000;1.345521
8865.000000;1.346671
8864.000000;1.346844
8863.000000;1.346609
8862.000000;1.346566
8861.000000;1.346823
8860.000000;1.347094
8859.000000;1.346971
8858.000000;1.346290
8857.000000;1.345448
8856.000000;1.345068
8855.000000;1.345119
8854.000000;1.344826
8853.000000;1.343792
8852.000000;1.342746
8851.000000;1.342644
8850.000000;1.343447
8849.000000;1.344374
8848.000000;1.345023
8847.000000;1.345530
8846.000000;1.345822
8845.000000;1.345561
8844.000000;1.344861
8843.000000;1.344296
8842.000000;1.343982
8841.000000;1.343266
8840.000000;1.341640
8839.000000;1.339527
8838.000000;1.337852
8837.000000;1.337163
8836.000000;1.337391
8835.000000;1.338171
8834.000000;1.339144
8833.000000;1.340135
8832.000000;1.341184
8831.000000;1.342301
8830.000000;1.343176
8829.000000;1.343399
8828.000000;1.342990
8827.000000;1.342413
8826.000000;1.341985
8825.000000;1.341612
8824.000000;1.341196
8823.000000;1.340958
8822.000000;1.341102
8821.000000;1.341465
8820.000000;1.341779
8819.000000;1.342081
8818.000000;1.342571
8817.000000;1.343221
8816.000000;1.343758
8815.000000;1.343996
8814.000000;1.343960
8813.000000;1.343727
8812.000000;1.343329
8811.000000;1.342822
8810.000000;1.342302
8809.000000;1.341884
8808.000000;1.341748
8807.000000;1.342101
8806.000000;1.342896
8805.000000;1.343633
8804.000000;1.343682
8803.000000;1.342929
8802.000000;1.341985
8801.000000;1.341633
8800.000000;1.342127
8799.000000;1.343120
8798.000000;1.344158
8797.000000;1.345049
8796.000000;1.345783
8795.000000;1.346325
8794.000000;1.346612
8793.000000;1.346568
8792.000000;1.346050
8791.000000;1.344989
8790.000000;1.343721
8789.000000;1.342948
8788.000000;1.343068
8787.000000;1.343645
8786.000000;1.343892
8785.000000;1.343698
8784.000000;1.343671
8783.000000;1.344088
8782.000000;1.344359
8781.000000;1.343873
8780.000000;1.342947
8779.000000;1.342444
8778.000000;1.342732
8777.000000;1.343497
8776.000000;1.344338
8775.000000;1.345043
8774.000000;1.345393
8773.000000;1.345208
8772.000000;1.344707
8771.000000;1.344409
8770.000000;1.344579
8769.000000;1.345039
8768.000000;1.345588
8767.000000;1.346332
8766.000000;1.347474
8765.000000;1.348941
8764.000000;1.350254
8763.000000;1.350676
8762.000000;1.349732
8761.000000;1.347869
8760.000000;1.346394
8759.000000;1.346250
8758.000000;1.346933
8757.000000;1.347064
8756.000000;1.346033
8755.000000;1.344576
8754.000000;1.343649
8753.000000;1.343384
8752.000000;1.343440
8751.000000;1.343827
8750.000000;1.344857
8749.000000;1.346581
8748.000000;1.348735
8747.000000;1.351069
8746.000000;1.353286
8745.000000;1.354768
8744.000000;1.354858
8743.000000;1.353560
8742.000000;1.351658
8741.000000;1.350035
8740.000000;1.349033
8739.000000;1.348488
8738.000000;1.348192
8737.000000;1.348260
8736.000000;1.349074
8735.000000;1.350813
8734.000000;1.352941
8733.000000;1.354301
8732.000000;1.353979
8731.000000;1.352155
8730.000000;1.349982
8729.000000;1.348633
8728.000000;1.348499
8727.000000;1.349172
8726.000000;1.349991
8725.000000;1.350581
8724.000000;1.350957
8723.000000;1.351258
8722.000000;1.351543
8721.000000;1.351826
8720.000000;1.352125
8719.000000;1.352334
8718.000000;1.352148
8717.000000;1.351398
8716.000000;1.350475
8715.000000;1.350156
8714.000000;1.350868
8713.000000;1.352262
8712.000000;1.353579
8711.000000;1.354240
8710.000000;1.354031
8709.000000;1.353075
8708.000000;1.351840
8707.000000;1.350970
8706.000000;1.350833
8705.000000;1.351318
8704.000000;1.352190
8703.000000;1.353412
8702.000000;1.354909
8701.000000;1.356224
8700.000000;1.356762
8699.000000;1.356339
8698.000000;1.355298
8697.000000;1.354196
8696.000000;1.353537
8695.000000;1.353585
8694.000000;1.354126
8693.000000;1.354630
8692.000000;1.354961
8691.000000;1.355695
8690.000000;1.357277
8689.000000;1.359048
8688.000000;1.359716
8687.000000;1.358878
8686.000000;1.357513
8685.000000;1.356757
8684.000000;1.356633
8683.000000;1.356286
8682.000000;1.355195
8681.000000;1.353803
8680.000000;1.353049
8679.000000;1.353512
8678.000000;1.354920
8677.000000;1.356308
8676.000000;1.356780
8675.000000;1.356287
8674.000000;1.355622
8673.000000;1.355546
8672.000000;1.356016
8671.000000;1.356312
8670.000000;1.355779
8669.000000;1.354377
8668.000000;1.352666
8667.000000;1.351394
8666.000000;1.351008
8665.000000;1.351461
8664.000000;1.352489
8663.000000;1.353934
8662.000000;1.355623
8661.000000;1.357009
8660.000000;1.357322
8659.000000;1.356315
8658.000000;1.354631
8657.000000;1.353191
8656.000000;1.352398
8655.000000;1.352133
8654.000000;1.352266
8653.000000;1.352807
8652.000000;1.353678
8651.000000;1.354673
8650.000000;1.355647
8649.000000;1.356450
8648.000000;1.356693
8647.000000;1.355930
8646.000000;1.354233
8645.000000;1.352348
8644.000000;1.351134
8643.000000;1.350949
8642.000000;1.351585
8641.000000;1.352526
8640.000000;1.353167
8639.000000;1.353068
8638.000000;1.352294
8637.000000;1.351470
8636.000000;1.351265
8635.000000;1.351747
8634.000000;1.352382
8633.000000;1.352663
8632.000000;1.352562
8631.000000;1.352347
8630.000000;1.352194
8629.000000;1.352140
8628.000000;1.352265
8627.000000;1.352683
8626.000000;1.353318
8625.000000;1.353827
8624.000000;1.353798
8623.000000;1.353006
8622.000000;1.351556
8621.000000;1.349905
8620.000000;1.348713
8619.000000;1.348437
8618.000000;1.348956
8617.000000;1.349681
8616.000000;1.350158
8615.000000;1.350486
8614.000000;1.351042
8613.000000;1.351917
8612.000000;1.352770
8611.000000;1.353197
8610.000000;1.353042
8609.000000;1.352375
8608.000000;1.351408
8607.000000;1.350534
8606.000000;1.350215
8605.000000;1.350603
8604.000000;1.351302
8603.000000;1.351671
8602.000000;1.351408
8601.000000;1.350775
8600.000000;1.350253
8599.000000;1.350052
8598.000000;1.349960
8597.000000;1.349696
8596.000000;1.349376
8595.000000;1.349518
8594.000000;1.350485
8593.000000;1.351953
8592.000000;1.353017
8591.000000;1.352894
8590.000000;1.351536
8589.000000;1.349631
8588.000000;1.348128
8587.000000;1.347692
8586.000000;1.348328
8585.000000;1.349416
8584.000000;1.350247
8583.000000;1.350594
8582.000000;1.350623
8581.000000;1.350300
8580.000000;1.349275
8579.000000;1.347540
8578.000000;1.345851
8577.000000;1.345106
8576.000000;1.345455
8575.000000;1.346300
8574.000000;1.347085
8573.000000;1.347728
8572.000000;1.348329
8571.000000;1.348858
8570.000000;1.349217
8569.000000;1.349320
8568.000000;1.349028
8567.000000;1.348333
8566.000000;1.347715
8565.000000;1.347947
8564.000000;1.349227
8563.000000;1.350747
8562.000000;1.351499
8561.000000;1.351382
8560.000000;1.351103
8559.000000;1.351044
8558.000000;1.350734
8557.000000;1.349587
8556.000000;1.347785
8555.000000;1.346133
8554.000000;1.345235
8553.000000;1.345117
8552.000000;1.345529
8551.000000;1.346236
8550.000000;1.346996
8549.000000;1.347585
8548.000000;1.347996
8547.000000;1.348388
8546.000000;1.348671
8545.000000;1.348382
8544.000000;1.347282
8543.000000;1.345880
8542.000000;1.345019
8541.000000;1.344934
8540.000000;1.345049
8539.000000;1.344789
8538.000000;1.344341
8537.000000;1.344398
8536.000000;1.345288
8535.000000;1.346583
8534.000000;1.347517
8533.000000;1.347671
8532.000000;1.347237
8531.000000;1.346763
8530.000000;1.346624
8529.000000;1.346721
8528.000000;1.346662
8527.000000;1.346268
8526.000000;1.345775
8525.000000;1.345444
8524.000000;1.345075
8523.000000;1.344206
8522.000000;1.342866
8521.000000;1.341861
8520.000000;1.342020
8519.000000;1.343199
8518.000000;1.344296
8517.000000;1.344400
8516.000000;1.343722
8515.000000;1.343131
8514.000000;1.342938
8513.000000;1.342586
8512.000000;1.341579
8511.000000;1.340298
8510.000000;1.339570
8509.000000;1.339711
8508.000000;1.340379
8507.000000;1.341206
8506.000000;1.342132
8505.000000;1.343116
8504.000000;1.343957
8503.000000;1.344538
8502.000000;1.344903
8501.000000;1.344942
8500.000000;1.344330
8499.000000;1.343042
8498.000000;1.341623
8497.000000;1.340698
8496.000000;1.340358
8495.000000;1.340220
8494.000000;1.339936
8493.000000;1.339472
8492.000000;1.339090
8491.000000;1.339262
8490.000000;1.340366
8489.000000;1.342132
8488.000000;1.343515
8487.000000;1.343511
8486.000000;1.342159
8485.000000;1.340515
8484.000000;1.339689
8483.000000;1.340067
8482.000000;1.341277
8481.000000;1.342566
8480.000000;1.343250
8479.000000;1.343075
8478.000000;1.342224
8477.000000;1.340923
8476.000000;1.339235
8475.000000;1.337463
8474.000000;1.336415
8473.000000;1.336761
8472.000000;1.338171
8471.000000;1.339559
8470.000000;1.340268
8469.000000;1.340523
8468.000000;1.340613
8467.000000;1.340232
8466.000000;1.339083
8465.000000;1.337683
8464.000000;1.336984
8463.000000;1.337282
8462.000000;1.337953
8461.000000;1.338283
8460.000000;1.338204
8459.000000;1.338096
8458.000000;1.338205
8457.000000;1.338487
8456.000000;1.338842
8455.000000;1.339236
8454.000000;1.339626
8453.000000;1.339971
8452.000000;1.340353
8451.000000;1.340863
8450.000000;1.341223
8449.000000;1.340714
8448.000000;1.338867
8447.000000;1.336332
8446.000000;1.334680
8445.000000;1.335005
8444.000000;1.336796
8443.000000;1.338419
8442.000000;1.338703
8441.000000;1.337840
8440.000000;1.336753
8439.000000;1.336010
8438.000000;1.335590
8437.000000;1.335354
8436.000000;1.335344
8435.000000;1.335568
8434.000000;1.335803
8433.000000;1.335825
8432.000000;1.335765
8431.000000;1.336020
8430.000000;1.336694
8429.000000;1.337287
8428.000000;1.337205
8427.000000;1.336532
8426.000000;1.335950
8425.000000;1.335815
8424.000000;1.335662
8423.000000;1.334921
8422.000000;1.333792
8421.000000;1.332985
8420.000000;1.332784
8419.000000;1.332860
8418.000000;1.332929
8417.000000;1.333059
8416.000000;1.333286
8415.000000;1.333470
8414.000000;1.333706
8413.000000;1.334380
8412.000000;1.335495
8411.000000;1.336357
8410.000000;1.336322
8409.000000;1.335621
8408.000000;1.335025
8407.000000;1.334908
8406.000000;1.335030
8405.000000;1.335090
8404.000000;1.335057
8403.000000;1.334989
8402.000000;1.334880
8401.000000;1.334765
8400.000000;1.334701
8399.000000;1.334614
8398.000000;1.334384
8397.000000;1.334079
8396.000000;1.333857
8395.000000;1.333634
8394.000000;1.333130
8393.000000;1.332355
8392.000000;1.331757
8391.000000;1.331743
8390.000000;1.332213
8389.000000;1.332747
8388.000000;1.333139
8387.000000;1.333559
8386.000000;1.334226
8385.000000;1.335076
8384.000000;1.335755
8383.000000;1.335909
8382.000000;1.335489
8381.000000;1.334814
8380.000000;1.334275
8379.000000;1.333926
8378.000000;1.333381
8377.000000;1.332276
8376.000000;1.330847
8375.000000;1.329882
8374.000000;1.329969
8373.000000;1.330868
8372.000000;1.331748
8371.000000;1.332039
8370.000000;1.331856
8369.000000;1.331543
8368.000000;1.331159
8367.000000;1.330673
8366.000000;1.330378
8365.000000;1.330660
8364.000000;1.331356
8363.000000;1.331817
8362.000000;1.331750
8361.000000;1.331635
8360.000000;1.332036
8359.000000;1.332796
8358.000000;1.333256
8357.000000;1.333078
8356.000000;1.332532
8355.000000;1.332031
8354.000000;1.331747
8353.000000;1.331701
8352.000000;1.331816
8351.000000;1.331753
8350.000000;1.331009
8349.000000;1.329502
8348.000000;1.327965
8347.000000;1.327492
8346.000000;1.328619
8345.000000;1.330864
8344.000000;1.333085
8343.000000;1.334270
8342.000000;1.334157
8341.000000;1.333273
8340.000000;1.332398
8339.000000;1.331871
8338.000000;1.331341
8337.000000;1.330282
8336.000000;1.328753
8335.000000;1.327490
8334.000000;1.327144
8333.000000;1.327577
8332.000000;1.328068
8331.000000;1.328138
8330.000000;1.327986
8329.000000;1.328126
8328.000000;1.328773
8327.000000;1.329653
8326.000000;1.330288
8325.000000;1.330396
8324.000000;1.330119
8323.000000;1.329881
8322.000000;1.329904
8321.000000;1.329898
8320.000000;1.329450
8319.000000;1.328693
8318.000000;1.328248
8317.000000;1.328396
8316.000000;1.328635
8315.000000;1.328352
8314.000000;1.327668
8313.000000;1.327237
8312.000000;1.327387
8311.000000;1.327887
8310.000000;1.328420
8309.000000;1.328823
8308.000000;1.328912
8307.000000;1.328587
8306.000000;1.328213
8305.000000;1.328370
8304.000000;1.329039
8303.000000;1.329438
8302.000000;1.328950
8301.000000;1.327893
8300.000000;1.327051
8299.000000;1.326770
8298.000000;1.326815
8297.000000;1.326845
8296.000000;1.326675
8295.000000;1.326252
8294.000000;1.325747
8293.000000;1.325587
8292.000000;1.326069
8291.000000;1.326949
8290.000000;1.327662
8289.000000;1.327914
8288.000000;1.327833
8287.000000;1.327617
8286.000000;1.327308
8285.000000;1.326914
8284.000000;1.326459
8283.000000;1.325864
8282.000000;1.325005
8281.000000;1.323998
8280.000000;1.323261
8279.000000;1.323173
8278.000000;1.323764
8277.000000;1.324741
8276.000000;1.325680
8275.000000;1.326196
8274.000000;1.326102
8273.000000;1.325543
8272.000000;1.324949
8271.000000;1.324752
8270.000000;1.325055
8269.000000;1.325503
8268.000000;1.325550
8267.000000;1.324978
8266.000000;1.324182
8265.000000;1.323741
8264.000000;1.323685
8263.000000;1.323475
8262.000000;1.322814
8261.000000;1.322148
8260.000000;1.322065
8259.000000;1.322473
8258.000000;1.322806
8257.000000;1.322913
8256.000000;1.323197
8255.000000;1.323770
8254.000000;1.324056
8253.000000;1.323544
8252.000000;1.322538
8251.000000;1.321787
8250.000000;1.321593
8249.000000;1.321676
8248.000000;1.321776
8247.000000;1.321979
8246.000000;1.322392
8245.000000;1.322856
8244.000000;1.323136
8243.000000;1.323228
8242.000000;1.323313
8241.000000;1.323517
8240.000000;1.323787
8239.000000;1.323916
8238.000000;1.323643
8237.000000;1.322859
8236.000000;1.321824
8235.000000;1.321089
8234.000000;1.321058
8233.000000;1.321609
8232.000000;1.322182
8231.000000;1.322253
8230.000000;1.321730
8229.000000;1.320954
8228.000000;1.320376
8227.000000;1.320183
8226.000000;1.320173
8225.000000;1.320015
8224.000000;1.319698
8223.000000;1.319672
8222.000000;1.320407
8221.000000;1.321790
8220.000000;1.323081
8219.000000;1.323542
8218.000000;1.323026
8217.000000;1.321925
8216.000000;1.320707
8215.000000;1.319667
8214.000000;1.318975
8213.000000;1.318723
8212.000000;1.318884
8211.000000;1.319365
8210.000000;1.320097
8209.000000;1.320948
8208.000000;1.321530
8207.000000;1.321340
8206.000000;1.320278
8205.000000;1.318934
8204.000000;1.318179
8203.000000;1.318429
8202.000000;1.319342
8201.000000;1.320215
8200.000000;1.320617
8199.000000;1.320591
8198.000000;1.320356
8197.000000;1.319994
8196.000000;1.319463
8195.000000;1.318847
8194.000000;1.318405
8193.000000;1.318321
8192.000000;1.318497
8191.000000;1.318687
8190.000000;1.318755
8189.000000;1.318716
8188.000000;1.318580
8187.000000;1.318335
8186.000000;1.318067
8185.000000;1.317963
8184.000000;1.318134
8183.000000;1.318515
8182.000000;1.318927
8181.000000;1.319149
8180.000000;1.318941
8179.000000;1.318188
8178.000000;1.317126
8177.000000;1.316304
8176.000000;1.316104
8175.000000;1.316331
8174.000000;1.316397
8173.000000;1.315985
8172.000000;1.315414
8171.000000;1.315259
8170.000000;1.315685
8169.000000;1.316259
8168.000000;1.316438
8167.000000;1.316139
8166.000000;1.315755
8165.000000;1.315684
8164.000000;1.316013
8163.000000;1.316563
8162.000000;1.317050
8161.000000;1.317194
8160.000000;1.316886
8159.000000;1.316381
8158.000000;1.316132
8157.000000;1.316287
8156.000000;1.316496
8155.000000;1.316363
8154.000000;1.315949
8153.000000;1.315646
8152.000000;1.315678
8151.000000;1.315968
8150.000000;1.316380
8149.000000;1.316790
8148.000000;1.316947
8147.000000;1.316612
8146.000000;1.315881
8145.000000;1.315114
8144.000000;1.314483
8143.000000;1.313853
8142.000000;1.313203
8141.000000;1.312922
8140.000000;1.313417
8139.000000;1.314568
8138.000000;1.315743
8137.000000;1.316350
8136.000000;1.316255
8135.000000;1.315750
8134.000000;1.315247
8133.000000;1.314998
8132.000000;1.314989
8131.000000;1.315046
8130.000000;1.315019
8129.000000;1.314852
8128.000000;1.314530
8127.000000;1.314063
8126.000000;1.313531
8125.000000;1.313053
8124.000000;1.312704
8123.000000;1.312551
8122.000000;1.312707
8121.000000;1.313215
8120.000000;1.313877
8119.000000;1.314402
8118.000000;1.314730
8117.000000;1.315037
8116.000000;1.315359
8115.000000;1.315412
8114.000000;1.314935
8113.000000;1.314102
8112.000000;1.313450
8111.000000;1.313416
8110.000000;1.313961
8109.000000;1.314573
8108.000000;1.314672
8107.000000;1.314141
8106.000000;1.313473
8105.000000;1.313284
8104.000000;1.313688
8103.000000;1.314261
8102.000000;1.314546
8101.000000;1.314382
8100.000000;1.313798
8099.000000;1.312932
8098.000000;1.312150
8097.000000;1.311895
8096.000000;1.312228
8095.000000;1.312691
8094.000000;1.312814
8093.000000;1.312586
8092.000000;1.312291
8091.000000;1.312066
8090.000000;1.311839
8089.000000;1.311546
8088.000000;1.311207
8087.000000;1.310879
8086.000000;1.310688
8085.000000;1.310804
8084.000000;1.311207
8083.000000;1.311576
8082.000000;1.311576
8081.000000;1.311218
8080.000000;1.310827
8079.000000;1.310719
8078.000000;1.311021
8077.000000;1.311689
8076.000000;1.312536
8075.000000;1.313267
8074.000000;1.313615
8073.000000;1.313455
8072.000000;1.312786
8071.000000;1.311788
8070.000000;1.310916
8069.000000;1.310711
8068.000000;1.311311
8067.000000;1.312256
8066.000000;1.312902
8065.000000;1.312903
8064.000000;1.312229
8063.000000;1.310992
8062.000000;1.309501
8061.000000;1.308285
8060.000000;1.307741
8059.000000;1.307835
8058.000000;1.308331
8057.000000;1.309141
8056.000000;1.310170
8055.000000;1.310975
8054.000000;1.311004
8053.000000;1.310224
8052.000000;1.309221
8051.000000;1.308623
8050.000000;1.308644
8049.000000;1.309136
8048.000000;1.309789
8047.000000;1.310227
8046.000000;1.310200
8045.000000;1.309851
8044.000000;1.309592
8043.000000;1.309635
8042.000000;1.309770
8041.000000;1.309700
8040.000000;1.309398
8039.000000;1.309017
8038.000000;1.308614
8037.000000;1.308157
8036.000000;1.307776
8035.000000;1.307835
8034.000000;1.308651
8033.000000;1.310090
8032.000000;1.311478
8031.000000;1.312049
8030.000000;1.311595
8029.000000;1.310618
8028.000000;1.309782
8027.000000;1.309266
8026.000000;1.308771
8025.000000;1.308065
8024.000000;1.307355
8023.000000;1.307064
8022.000000;1.307377
8021.000000;1.308046
8020.000000;1.308567
8019.000000;1.308593
8018.000000;1.308255
8017.000000;1.308086
8016.000000;1.308539
8015.000000;1.309555
8014.000000;1.310608
8013.000000;1.311087
8012.000000;1.310619
8011.000000;1.309219
8010.000000;1.307384
8009.000000;1.305925
8008.000000;1.305441
8007.000000;1.305866
8006.000000;1.306628
8005.000000;1.307194
8004.000000;1.307376
8003.000000;1.307212
8002.000000;1.306864
8001.000000;1.306604
8000.000000;1.306600
7999.000000;1.306633
7998.000000;1.306307
7997.000000;1.305639
7996.000000;1.305172
7995.000000;1.305327
7994.000000;1.305873
7993.000000;1.306241
7992.000000;1.306200
7991.000000;1.305973
7990.000000;1.305819
7989.000000;1.305773
7988.000000;1.305793
7987.000000;1.305888
7986.000000;1.306024
7985.000000;1.306070
7984.000000;1.305920
7983.000000;1.305610
7982.000000;1.305279
7981.000000;1.305108
7980.000000;1.305301
7979.000000;1.305971
7978.000000;1.306931
7977.000000;1.307687
7976.000000;1.307791
7975.000000;1.307232
7974.000000;1.306409
7973.000000;1.305714
7972.000000;1.305268
7971.000000;1.305074
7970.000000;1.305247
7969.000000;1.305874
7968.000000;1.306692
7967.000000;1.307173
7966.000000;1.307062
7965.000000;1.306677
7964.000000;1.306504
7963.000000;1.306580
7962.000000;1.306510
7961.000000;1.306055
7960.000000;1.305501
7959.000000;1.305297
7958.000000;1.305505
7957.000000;1.305772
7956.000000;1.305823
7955.000000;1.305800
7954.000000;1.306033
7953.000000;1.306580
7952.000000;1.307093
7951.000000;1.307158
7950.000000;1.306689
7949.000000;1.305969
7948.000000;1.305364
7947.000000;1.305039
7946.000000;1.304878
7945.000000;1.304624
7944.000000;1.304162
7943.000000;1.303726
7942.000000;1.303744
7941.000000;1.304360
7940.000000;1.305178
7939.000000;1.305666
7938.000000;1.305755
7937.000000;1.305826
7936.000000;1.306088
7935.000000;1.306310
7934.000000;1.306255
7933.000000;1.306088
7932.000000;1.306100
7931.000000;1.306257
7930.000000;1.306320
7929.000000;1.306286
7928.000000;1.306359
7927.000000;1.306553
7926.000000;1.306657
7925.000000;1.306637
7924.000000;1.306760
7923.000000;1.307150
7922.000000;1.307489
7921.000000;1.307365
7920.000000;1.306791
7919.000000;1.306179
7918.000000;1.305849
7917.000000;1.305682
7916.000000;1.305288
7915.000000;1.304456
7914.000000;1.303489
7913.000000;1.303074
7912.000000;1.303687
7911.000000;1.305037
7910.000000;1.306196
7909.000000;1.306425
7908.000000;1.305883
7907.000000;1.305412
7906.000000;1.305661
7905.000000;1.306525
7904.000000;1.307389
7903.000000;1.307742
7902.000000;1.307475
7901.000000;1.306747
7900.000000;1.305805
7899.000000;1.304958
7898.000000;1.304537
7897.000000;1.304681
7896.000000;1.305168
7895.000000;1.305568
7894.000000;1.305637
7893.000000;1.305491
7892.000000;1.305397
7891.000000;1.305447
7890.000000;1.305500
7889.000000;1.305410
7888.000000;1.305236
7887.000000;1.305190
7886.000000;1.305366
7885.000000;1.305562
7884.000000;1.305455
7883.000000;1.304988
7882.000000;1.304515
7881.000000;1.304458
7880.000000;1.304886
7879.000000;1.305526
7878.000000;1.306115
7877.000000;1.306559
7876.000000;1.306759
7875.000000;1.306576
7874.000000;1.306094
7873.000000;1.305704
7872.000000;1.305699
7871.000000;1.305888
7870.000000;1.305794
7869.000000;1.305226
7868.000000;1.304516
7867.000000;1.304185
7866.000000;1.304464
7865.000000;1.305104
7864.000000;1.305594
7863.000000;1.305602
7862.000000;1.305273
7861.000000;1.305059
7860.000000;1.305252
7859.000000;1.305751
7858.000000;1.306289
7857.000000;1.306707
7856.000000;1.306919
7855.000000;1.306789
7854.000000;1.306287
7853.000000;1.305689
7852.000000;1.305381
7851.000000;1.305433
7850.000000;1.305518
7849.000000;1.305316
7848.000000;1.304891
7847.000000;1.304620
7846.000000;1.304808
7845.000000;1.305391
7844.000000;1.305993
7843.000000;1.306265
7842.000000;1.306178
7841.000000;1.305929
7840.000000;1.305583
7839.000000;1.304976
7838.000000;1.304076
7837.000000;1.303253
7836.000000;1.303021
7835.000000;1.303579
7834.000000;1.304721
7833.000000;1.306081
7832.000000;1.307289
7831.000000;1.307990
7830.000000;1.307993
7829.000000;1.307473
7828.000000;1.306869
7827.000000;1.306530
7826.000000;1.306522
7825.000000;1.306733
7824.000000;1.306987
7823.000000;1.307108
7822.000000;1.307048
7821.000000;1.306975
7820.000000;1.307088
7819.000000;1.307321
7818.000000;1.307384
7817.000000;1.307102
7816.000000;1.306557
7815.000000;1.305933
7814.000000;1.305401
7813.000000;1.305179
7812.000000;1.305468
7811.000000;1.306201
7810.000000;1.307009
7809.000000;1.307522
7808.000000;1.307594
7807.000000;1.307220
7806.000000;1.306465
7805.000000;1.305600
7804.000000;1.305092
7803.000000;1.305237
7802.000000;1.305839
7801.000000;1.306415
7800.000000;1.306688
7799.000000;1.306755
7798.000000;1.306838
7797.000000;1.307019
7796.000000;1.307238
7795.000000;1.307391
7794.000000;1.307367
7793.000000;1.307108
7792.000000;1.306740
7791.000000;1.306588
7790.000000;1.306919
7789.000000;1.307619
7788.000000;1.308225
7787.000000;1.308365
7786.000000;1.308120
7785.000000;1.307857
7784.000000;1.307753
7783.000000;1.307659
7782.000000;1.307444
7781.000000;1.307268
7780.000000;1.307367
7779.000000;1.307733
7778.000000;1.308170
7777.000000;1.308548
7776.000000;1.308806
7775.000000;1.308802
7774.000000;1.308434
7773.000000;1.307887
7772.000000;1.307515
7771.000000;1.307446
7770.000000;1.307540
7769.000000;1.307779
7768.000000;1.308390
7767.000000;1.309423
7766.000000;1.310413
7765.000000;1.310719
7764.000000;1.310140
7763.000000;1.309048
7762.000000;1.307992
7761.000000;1.307316
7760.000000;1.307082
7759.000000;1.307120
7758.000000;1.307157
7757.000000;1.307047
7756.000000;1.306934
7755.000000;1.307090
7754.000000;1.307549
7753.000000;1.308030
7752.000000;1.308238
7751.000000;1.308194
7750.000000;1.308186
7749.000000;1.308462
7748.000000;1.309002
7747.000000;1.309558
7746.000000;1.309867
7745.000000;1.309844
7744.000000;1.309641
7743.000000;1.309522
7742.000000;1.309626
7741.000000;1.309823
7740.000000;1.309835
7739.000000;1.309550
7738.000000;1.309187
7737.000000;1.309094
7736.000000;1.309393
7735.000000;1.309873
7734.000000;1.310214
7733.000000;1.310245
7732.000000;1.310009
7731.000000;1.309709
7730.000000;1.309626
7729.000000;1.309907
7728.000000;1.310380
7727.000000;1.310675
7726.000000;1.310643
7725.000000;1.310546
7724.000000;1.310719
7723.000000;1.311185
7722.000000;1.311721
7721.000000;1.312170
7720.000000;1.312488
7719.000000;1.312596
7718.000000;1.312423
7717.000000;1.312081
7716.000000;1.311770
7715.000000;1.311567
7714.000000;1.311505
7713.000000;1.311800
7712.000000;1.312665
7711.000000;1.313808
7710.000000;1.314469
7709.000000;1.314188
7708.000000;1.313315
7707.000000;1.312601
7706.000000;1.312415
7705.000000;1.312573
7704.000000;1.312737
7703.000000;1.312754
7702.000000;1.312659
7701.000000;1.312566
7700.000000;1.312594
7699.000000;1.312750
7698.000000;1.312888
7697.000000;1.312874
7696.000000;1.312776
7695.000000;1.312803
7694.000000;1.313065
7693.000000;1.313479
7692.000000;1.313859
7691.000000;1.313993
7690.000000;1.313701
7689.000000;1.312992
7688.000000;1.312209
7687.000000;1.311893
7686.000000;1.312352
7685.000000;1.313346
7684.000000;1.314261
7683.000000;1.314633
7682.000000;1.314511
7681.000000;1.314332
7680.000000;1.314482
7679.000000;1.315012
7678.000000;1.315705
7677.000000;1.316285
7676.000000;1.316517
7675.000000;1.316270
7674.000000;1.315658
7673.000000;1.315077
7672.000000;1.314924
7671.000000;1.315224
7670.000000;1.315650
7669.000000;1.315912
7668.000000;1.316021
7667.000000;1.316132
7666.000000;1.316308
7665.000000;1.316519
7664.000000;1.316742
7663.000000;1.316945
7662.000000;1.317057
7661.000000;1.317021
7660.000000;1.316846
7659.000000;1.316564
7658.000000;1.316238
7657.000000;1.316061
7656.000000;1.316280
7655.000000;1.316934
7654.000000;1.317739
7653.000000;1.318320
7652.000000;1.318500
7651.000000;1.318328
7650.000000;1.317966
7649.000000;1.317655
7648.000000;1.317638
7647.000000;1.317953
7646.000000;1.318392
7645.000000;1.318779
7644.000000;1.319192
7643.000000;1.319752
7642.000000;1.320325
7641.000000;1.320649
7640.000000;1.320694
7639.000000;1.320682
7638.000000;1.320769
7637.000000;1.320932
7636.000000;1.321187
7635.000000;1.321692
7634.000000;1.322494
7633.000000;1.323299
7632.000000;1.323618
7631.000000;1.323165
7630.000000;1.322112
7629.000000;1.321023
7628.000000;1.320474
7627.000000;1.320596
7626.000000;1.321014
7625.000000;1.321326
7624.000000;1.321598
7623.000000;1.322211
7622.000000;1.323231
7621.000000;1.324190
7620.000000;1.324598
7619.000000;1.324482
7618.000000;1.324285
7617.000000;1.324351
7616.000000;1.324677
7615.000000;1.325080
7614.000000;1.325421
7613.000000;1.325664
7612.000000;1.325816
7611.000000;1.325885
7610.000000;1.325896
7609.000000;1.325925
7608.000000;1.326096
7607.000000;1.326447
7606.000000;1.326836
7605.000000;1.327068
7604.000000;1.327148
7603.000000;1.327265
7602.000000;1.327517
7601.000000;1.327765
7600.000000;1.327873
7599.000000;1.327911
7598.000000;1.328013
7597.000000;1.328143
7596.000000;1.328165
7595.000000;1.328096
7594.000000;1.328126
7593.000000;1.328391
7592.000000;1.328849
7591.000000;1.329350
7590.000000;1.329734
7589.000000;1.329873
7588.000000;1.329788
7587.000000;1.329696
7586.000000;1.329845
7585.000000;1.330247
7584.000000;1.330705
7583.000000;1.331092
7582.000000;1.331486
7581.000000;1.331974
7580.000000;1.332442
7579.000000;1.332651
7578.000000;1.332489
7577.000000;1.332114
7576.000000;1.331863
7575.000000;1.331987
7574.000000;1.332371
7573.000000;1.332575
7572.000000;1.332275
7571.000000;1.331700
7570.000000;1.331480
7569.000000;1.332003
7568.000000;1.333047
7567.000000;1.334077
7566.000000;1.334776
7565.000000;1.335163
7564.000000;1.335343
7563.000000;1.335382
7562.000000;1.335423
7561.000000;1.335738
7560.000000;1.336523
7559.000000;1.337657
7558.000000;1.338723
7557.000000;1.339353
7556.000000;1.339564
7555.000000;1.339717
7554.000000;1.340062
7553.000000;1.340405
7552.000000;1.340383
7551.000000;1.340041
7550.000000;1.339877
7549.000000;1.340209
7548.000000;1.340732
7547.000000;1.340917
7546.000000;1.340729
7545.000000;1.340654
7544.000000;1.341070
7543.000000;1.341848
7542.000000;1.342607
7541.000000;1.343113
7540.000000;1.343342
7539.000000;1.343348
7538.000000;1.343247
7537.000000;1.343232
7536.000000;1.343449
7535.000000;1.343893
7534.000000;1.344468
7533.000000;1.345095
7532.000000;1.345677
7531.000000;1.346001
7530.000000;1.345826
7529.000000;1.345155
7528.000000;1.344416
7527.000000;1.344266
7526.000000;1.345069
7525.000000;1.346489
7524.000000;1.347697
7523.000000;1.348122
7522.000000;1.347966
7521.000000;1.347908
7520.000000;1.348363
7519.000000;1.349175
7518.000000;1.349916
7517.000000;1.350306
7516.000000;1.350337
7515.000000;1.350219
7514.000000;1.350246
7513.000000;1.350551
7512.000000;1.350965
7511.000000;1.351263
7510.000000;1.351530
7509.000000;1.352060
7508.000000;1.352829
7507.000000;1.353387
7506.000000;1.353413
7505.000000;1.353147
7504.000000;1.353104
7503.000000;1.353548
7502.000000;1.354441
7501.000000;1.355653
7500.000000;1.356907
7499.000000;1.357695
7498.000000;1.357659
7497.000000;1.357079
7496.000000;1.356678
7495.000000;1.356868
7494.000000;1.357412
7493.000000;1.357842
7492.000000;1.357988
7491.000000;1.358025
7490.000000;1.358082
7489.000000;1.358394
7488.000000;1.358819
7487.000000;1.359204
7486.000000;1.359505
7485.000000;1.359882
7484.000000;1.360555
7483.000000;1.361493
7482.000000;1.362381
7481.000000;1.362918
7480.000000;1.363064
7479.000000;1.362951
7478.000000;1.362714
7477.000000;1.362498
7476.000000;1.362522
7475.000000;1.362969
7474.000000;1.363808
7473.000000;1.364777
7472.000000;1.365562
7471.000000;1.366005
7470.000000;1.366206
7469.000000;1.366423
7468.000000;1.366816
7467.000000;1.367261
7466.000000;1.367497
7465.000000;1.367463
7464.000000;1.367419
7463.000000;1.367665
7462.000000;1.368228
7461.000000;1.368880
7460.000000;1.369419
7459.000000;1.369835
7458.000000;1.370207
7457.000000;1.370531
7456.000000;1.370733
7455.000000;1.370821
7454.000000;1.370946
7453.000000;1.371235
7452.000000;1.371640
7451.000000;1.372044
7450.000000;1.372491
7449.000000;1.373132
7448.000000;1.373884
7447.000000;1.374318
7446.000000;1.374103
7445.000000;1.373473
7444.000000;1.373068
7443.000000;1.373288
7442.000000;1.373961
7441.000000;1.374654
7440.000000;1.375127
7439.000000;1.375399
7438.000000;1.375544
7437.000000;1.375599
7436.000000;1.375641
7435.000000;1.375800
7434.000000;1.376153
7433.000000;1.376644
7432.000000;1.377140
7431.000000;1.377570
7430.000000;1.377984
7429.000000;1.378489
7428.000000;1.379121
7427.000000;1.379806
7426.000000;1.380442
7425.000000;1.380961
7424.000000;1.381327
7423.000000;1.381534
7422.000000;1.381632
7421.000000;1.381697
7420.000000;1.381736
7419.000000;1.381685
7418.000000;1.381559
7417.000000;1.381542
7416.000000;1.381813
7415.000000;1.382349
7414.000000;1.382990
7413.000000;1.383658
7412.000000;1.384404
7411.000000;1.385250
7410.000000;1.386095
7409.000000;1.386738
7408.000000;1.386939
7407.000000;1.386552
7406.000000;1.385727
7405.000000;1.384921
7404.000000;1.384568
7403.000000;1.384742
7402.000000;1.385178
7401.000000;1.385542
7400.000000;1.385652
7399.000000;1.385558
7398.000000;1.385557
7397.000000;1.385983
7396.000000;1.386817
7395.000000;1.387653
7394.000000;1.388171
7393.000000;1.388410
7392.000000;1.388480
7391.000000;1.388324
7390.000000;1.387961
7389.000000;1.387684
7388.000000;1.387721
7387.000000;1.387868
7386.000000;1.387785
7385.000000;1.387483
7384.000000;1.387134
7383.000000;1.386617
7382.000000;1.385752
7381.000000;1.384906
7380.000000;1.384739
7379.000000;1.385185
7378.000000;1.385331
7377.000000;1.384684
7376.000000;1.383998
7375.000000;1.384432
7374.000000;1.386121
7373.000000;1.387975
7372.000000;1.388839
7371.000000;1.388530
7370.000000;1.387832
7369.000000;1.387781
7368.000000;1.388806
7367.000000;1.390294
7366.000000;1.391214
7365.000000;1.391283
7364.000000;1.391143
7363.000000;1.391424
7362.000000;1.392137
7361.000000;1.393001
7360.000000;1.393779
7359.000000;1.394049
7358.000000;1.393215
7357.000000;1.391413
7356.000000;1.389929
7355.000000;1.390017
7354.000000;1.391428
7353.000000;1.392765
7352.000000;1.393100
7351.000000;1.392592
7350.000000;1.391908
7349.000000;1.391678
7348.000000;1.392242
7347.000000;1.393173
7346.000000;1.393343
7345.000000;1.392192
7344.000000;1.390487
7343.000000;1.389060
7342.000000;1.387397
7341.000000;1.384699
7340.000000;1.381973
7339.000000;1.381520
7338.000000;1.384011
7337.000000;1.387596
7336.000000;1.390355
7335.000000;1.392227
7334.000000;1.394205
7333.000000;1.396669
7332.000000;1.399077
7331.000000;1.400551
7330.000000;1.400391
7329.000000;1.398812
7328.000000;1.397481
7327.000000;1.398161
7326.000000;1.400358
7325.000000;1.401722
7324.000000;1.401318
7323.000000;1.400887
7322.000000;1.402278
7321.000000;1.404984
7320.000000;1.407130
7319.000000;1.408013
7318.000000;1.408510
7317.000000;1.409570
7316.000000;1.411336
7315.000000;1.413451
7314.000000;1.415294
7313.000000;1.416111
7312.000000;1.415828
7311.000000;1.415425
7310.000000;1.415573
7309.000000;1.415457
7308.000000;1.414142
7307.000000;1.412523
7306.000000;1.412534
7305.000000;1.414514
7304.000000;1.416762
7303.000000;1.417911
7302.000000;1.418346
7301.000000;1.419084
7300.000000;1.420499
7299.000000;1.422433
7298.000000;1.424518
7297.000000;1.425830
7296.000000;1.425390
7295.000000;1.423711
7294.000000;1.422924
7293.000000;1.424473
7292.000000;1.427178
7291.000000;1.428770
7290.000000;1.428803
7289.000000;1.428872
7288.000000;1.430437
7287.000000;1.433376
7286.000000;1.436588
7285.000000;1.439231
7284.000000;1.441169
7283.000000;1.442720
7282.000000;1.444257
7281.000000;1.445904
7280.000000;1.447485
7279.000000;1.448805
7278.000000;1.450050
7277.000000;1.451611
7276.000000;1.453508
7275.000000;1.455313
7274.000000;1.456679
7273.000000;1.457705
7272.000000;1.458710
7271.000000;1.459800
7270.000000;1.460801
7269.000000;1.461634
7268.000000;1.462594
7267.000000;1.464077
7266.000000;1.465969
7265.000000;1.467503
7264.000000;1.468032
7263.000000;1.467946
7262.000000;1.468508
7261.000000;1.470549
7260.000000;1.473601
7259.000000;1.476587
7258.000000;1.479021
7257.000000;1.481081
7256.000000;1.482754
7255.000000;1.483606
7254.000000;1.483639
7253.000000;1.483837
7252.000000;1.485324
7251.000000;1.488125
7250.000000;1.491179
7249.000000;1.493541
7248.000000;1.495138
7247.000000;1.496265
7246.000000;1.496629
7245.000000;1.495413
7244.000000;1.492689
7243.000000;1.490282
7242.000000;1.490464
7241.000000;1.493569
7240.000000;1.497665
7239.000000;1.500958
7238.000000;1.503610
7237.000000;1.506681
7236.000000;1.509979
7235.000000;1.511798
7234.000000;1.511004
7233.000000;1.508938
7232.000000;1.508639
7231.000000;1.511873
7230.000000;1.517241
7229.000000;1.521800
7228.000000;1.524201
7227.000000;1.525724
7226.000000;1.528444
7225.000000;1.532882
7224.000000;1.537800
7223.000000;1.541946
7222.000000;1.545331
7221.000000;1.548857
7220.000000;1.553206
7219.000000;1.558236
7218.000000;1.563177
7217.000000;1.567308
7216.000000;1.570579
7215.000000;1.573589
7214.000000;1.576967
7213.000000;1.580839
7212.000000;1.584949
7211.000000;1.589169
7210.000000;1.593611
7209.000000;1.598129
7208.000000;1.602013
7207.000000;1.604602
7206.000000;1.606137
7205.000000;1.607787
7204.000000;1.610779
7203.000000;1.615400
7202.000000;1.620775
7201.000000;1.625691
7200.000000;1.629721
7199.000000;1.633476
7198.000000;1.637704
7197.000000;1.642325
7196.000000;1.646696
7195.000000;1.650785
7194.000000;1.655502
7193.000000;1.661508
7192.000000;1.668242
7191.000000;1.674670
7190.000000;1.680507
7189.000000;1.686023
7188.000000;1.691021
7187.000000;1.694975
7186.000000;1.698051
7185.000000;1.701033
7184.000000;1.704070
7183.000000;1.706447
7182.000000;1.707979
7181.000000;1.709721
7180.000000;1.712641
7179.000000;1.716388
7178.000000;1.720234
7177.000000;1.724418
7176.000000;1.729662
7175.000000;1.735866
7174.000000;1.742167
7173.000000;1.748073
7172.000000;1.753734
7171.000000;1.759177
7170.000000;1.764148
7169.000000;1.768755
7168.000000;1.773515
7167.000000;1.778680
7166.000000;1.783950
7165.000000;1.788838
7164.000000;1.792786
7163.000000;1.795302
7162.000000;1.796786
7161.000000;1.798989
7160.000000;1.803690
7159.000000;1.810781
7158.000000;1.818488
7157.000000;1.825519
7156.000000;1.832090
7155.000000;1.838814
7154.000000;1.845568
7153.000000;1.851881
7152.000000;1.857719
7151.000000;1.863322
7150.000000;1.868769
7149.000000;1.874128
7148.000000;1.879516
7147.000000;1.884774
7146.000000;1.889535
7145.000000;1.893828
7144.000000;1.898084
7143.000000;1.902293
7142.000000;1.905731
7141.000000;1.908113
7140.000000;1.910511
7139.000000;1.914300
7138.000000;1.919423
7137.000000;1.924566
7136.000000;1.929058
7135.000000;1.933563
7134.000000;1.938681
7133.000000;1.943838
7132.000000;1.948256
7131.000000;1.952447
7130.000000;1.957863
7129.000000;1.965141
7128.000000;1.973294
7127.000000;1.980831
7126.000000;1.987177
7125.000000;1.992548
7124.000000;1.996985
7123.000000;2.000278
7122.000000;2.002707
7121.000000;2.005011
7120.000000;2.007421
7119.000000;2.009523
7118.000000;2.011443
7117.000000;2.014353
7116.000000;2.019038
7115.000000;2.024502
7114.000000;2.029014
7113.000000;2.032221
7112.000000;2.035217
7111.000000;2.038665
7110.000000;2.041977
7109.000000;2.044568
7108.000000;2.046902
7107.000000;2.049843
7106.000000;2.053748
7105.000000;2.058646
7104.000000;2.064460
7103.000000;2.070489
7102.000000;2.075581
7101.000000;2.079512
7100.000000;2.083454
7099.000000;2.088348
7098.000000;2.093298
7097.000000;2.096573
7096.000000;2.098022
7095.000000;2.099394
7094.000000;2.102048
7093.000000;2.105362
7092.000000;2.107824
7091.000000;2.109056
7090.000000;2.110160
7089.000000;2.112447
7088.000000;2.116280
7087.000000;2.120977
7086.000000;2.125521
7085.000000;2.129390
7084.000000;2.132852
7083.000000;2.136539
7082.000000;2.140731
7081.000000;2.145002
7080.000000;2.148456
7079.000000;2.150344
7078.000000;2.150685
7077.000000;2.150425
7076.000000;2.150911
7075.000000;2.152950
7074.000000;2.156278
7073.000000;2.159953
7072.000000;2.163086
7071.000000;2.165131
7070.000000;2.166041
7069.000000;2.166553
7068.000000;2.167924
7067.000000;2.170854
7066.000000;2.174654
7065.000000;2.177732
7064.000000;2.179016
7063.000000;2.178818
7062.000000;2.178529
7061.000000;2.179742
7060.000000;2.183358
7059.000000;2.188985
7058.000000;2.195015
7057.000000;2.199509
7056.000000;2.201403
7055.000000;2.201140
7054.000000;2.200214
7053.000000;2.200053
7052.000000;2.200920
7051.000000;2.201641
7050.000000;2.200809
7049.000000;2.198675
7048.000000;2.197372
7047.000000;2.198768
7046.000000;2.202391
7045.000000;2.205962
7044.000000;2.207916
7043.000000;2.208776
7042.000000;2.209986
7041.000000;2.212189
7040.000000;2.214897
7039.000000;2.217185
7038.000000;2.218244
7037.000000;2.217704
7036.000000;2.216145
7035.000000;2.215226
7034.000000;2.216660
7033.000000;2.220641
7032.000000;2.225347
7031.000000;2.228435
7030.000000;2.229353
7029.000000;2.229902
7028.000000;2.232013
7027.000000;2.235184
7026.000000;2.236651
7025.000000;2.234545
7024.000000;2.230300
7023.000000;2.227158
7022.000000;2.227000
7021.000000;2.229292
7020.000000;2.232525
7019.000000;2.235731
7018.000000;2.238392
7017.000000;2.239867
7016.000000;2.239848
7015.000000;2.239182
7014.000000;2.239475
7013.000000;2.241640
7012.000000;2.245067
7011.000000;2.248258
7010.000000;2.250170
7009.000000;2.250875
7008.000000;2.251078
7007.000000;2.251313
7006.000000;2.251738
7005.000000;2.252338
7004.000000;2.252784
7003.000000;2.252209
7002.000000;2.249921
7001.000000;2.246842
7000.000000;2.245590
6999.000000;2.248182
6998.000000;2.253636
6997.000000;2.258508
6996.000000;2.260136
6995.000000;2.258802
6994.000000;2.256344
6993.000000;2.253914
6992.000000;2.251992
6991.000000;2.251396
6990.000000;2.252628
6989.000000;2.254492
6988.000000;2.254898
6987.000000;2.253467
6986.000000;2.252110
6985.000000;2.252340
6984.000000;2.253141
6983.000000;2.252533
6982.000000;2.250465
6981.000000;2.248830
6980.000000;2.249043
6979.000000;2.250800
6978.000000;2.252921
6977.000000;2.254356
6976.000000;2.254260
6975.000000;2.252251
6974.000000;2.249181
6973.000000;2.246912
6972.000000;2.246813
6971.000000;2.248830
6970.000000;2.252105
6969.000000;2.255746
6968.000000;2.258631
6967.000000;2.259531
6966.000000;2.258598
6965.000000;2.258168
6964.000000;2.260688
6963.000000;2.265724
6962.000000;2.269844
6961.000000;2.269948
6960.000000;2.266250
6959.000000;2.261485
6958.000000;2.257989
6957.000000;2.256156
6956.000000;2.255007
6955.000000;2.253555
6954.000000;2.251697
6953.000000;2.250245
6952.000000;2.250291
6951.000000;2.252321
6950.000000;2.255667
6949.000000;2.258763
6948.000000;2.260134
6947.000000;2.259355
6946.000000;2.257262
6945.000000;2.255175
6944.000000;2.253708
6943.000000;2.252572
6942.000000;2.251628
6941.000000;2.251612
6940.000000;2.253298
6939.000000;2.256153
6938.000000;2.258464
6937.000000;2.259088
6936.000000;2.258683
6935.000000;2.258772
6934.000000;2.259866
6933.000000;2.260942
6932.000000;2.260761
6931.000000;2.259398
6930.000000;2.258137
6929.000000;2.257871
6928.000000;2.258041
6927.000000;2.257474
6926.000000;2.256063
6925.000000;2.255008
6924.000000;2.255230
6923.000000;2.256083
6922.000000;2.256096
6921.000000;2.254696
6920.000000;2.252640
6919.000000;2.250889
6918.000000;2.249836
6917.000000;2.249707
6916.000000;2.250834
6915.000000;2.253043
6914.000000;2.255244
6913.000000;2.256010
6912.000000;2.254590
6911.000000;2.251427
6910.000000;2.247956
6909.000000;2.245773
6908.000000;2.245604
6907.000000;2.246979
6906.000000;2.248974
6905.000000;2.251197
6904.000000;2.253738
6903.000000;2.256083
6902.000000;2.256728
6901.000000;2.254603
6900.000000;2.250739
6899.000000;2.247813
6898.000000;2.247786
6897.000000;2.250131
6896.000000;2.252458
6895.000000;2.252902
6894.000000;2.251775
6893.000000;2.250693
6892.000000;2.250499
6891.000000;2.250567
6890.000000;2.249991
6889.000000;2.248899
6888.000000;2.248378
6887.000000;2.249240
6886.000000;2.251156
6885.000000;2.252770
6884.000000;2.252416
6883.000000;2.249313
6882.000000;2.244645
6881.000000;2.241043
6880.000000;2.240354
6879.000000;2.242031
6878.000000;2.243996
6877.000000;2.244934
6876.000000;2.245135
6875.000000;2.245110
6874.000000;2.244412
6873.000000;2.242409
6872.000000;2.239617
6871.000000;2.237526
6870.000000;2.237191
6869.000000;2.238324
6868.000000;2.239565
6867.000000;2.239468
6866.000000;2.237558
6865.000000;2.234759
6864.000000;2.232687
6863.000000;2.232322
6862.000000;2.233367
6861.000000;2.234838
6860.000000;2.236015
6859.000000;2.236720
6858.000000;2.237083
6857.000000;2.237444
6856.000000;2.238275
6855.000000;2.239640
6854.000000;2.240694
6853.000000;2.240156
6852.000000;2.237521
6851.000000;2.233562
6850.000000;2.229550
6849.000000;2.226264
6848.000000;2.223895
6847.000000;2.222600
6846.000000;2.222742
6845.000000;2.224419
6844.000000;2.226917
6843.000000;2.228894
6842.000000;2.229266
6841.000000;2.227890
6840.000000;2.225431
6839.000000;2.222669
6838.000000;2.219962
6837.000000;2.217234
6836.000000;2.214490
6835.000000;2.212338
6834.000000;2.211739
6833.000000;2.212994
6832.000000;2.215094
6831.000000;2.216339
6830.000000;2.215659
6829.000000;2.213297
6828.000000;2.210354
6827.000000;2.207969
6826.000000;2.206805
6825.000000;2.206846
6824.000000;2.207455
6823.000000;2.207850
6822.000000;2.207664
6821.000000;2.206857
6820.000000;2.205217
6819.000000;2.202496
6818.000000;2.199085
6817.000000;2.195991
6816.000000;2.193994
6815.000000;2.193233
6814.000000;2.193547
6813.000000;2.194525
6812.000000;2.195069
6811.000000;2.193842
6810.000000;2.190803
6809.000000;2.187608
6808.000000;2.185793
6807.000000;2.185201
6806.000000;2.184810
6805.000000;2.184351
6804.000000;2.184043
6803.000000;2.183238
6802.000000;2.180832
6801.000000;2.177172
6800.000000;2.174157
6799.000000;2.173053
6798.000000;2.173171
6797.000000;2.173077
6796.000000;2.172288
6795.000000;2.171192
6794.000000;2.169911
6793.000000;2.168073
6792.000000;2.165435
6791.000000;2.162215
6790.000000;2.159007
6789.000000;2.156641
6788.000000;2.155770
6787.000000;2.156236
6786.000000;2.157007
6785.000000;2.157021
6784.000000;2.155952
6783.000000;2.154040
6782.000000;2.151596
6781.000000;2.149037
6780.000000;2.146966
6779.000000;2.145603
6778.000000;2.144368
6777.000000;2.142613
6776.000000;2.140674
6775.000000;2.139515
6774.000000;2.139229
6773.000000;2.138442
6772.000000;2.135673
6771.000000;2.131128
6770.000000;2.126699
6769.000000;2.124091
6768.000000;2.123248
6767.000000;2.122730
6766.000000;2.121423
6765.000000;2.119508
6764.000000;2.117674
6763.000000;2.115916
6762.000000;2.113616
6761.000000;2.110612
6760.000000;2.107575
6759.000000;2.105215
6758.000000;2.103605
6757.000000;2.102426
6756.000000;2.101443
6755.000000;2.100505
6754.000000;2.099451
6753.000000;2.098324
6752.000000;2.097412
6751.000000;2.096764
6750.000000;2.095904
6749.000000;2.094372
6748.000000;2.092271
6747.000000;2.089854
6746.000000;2.086908
6745.000000;2.083188
6744.000000;2.079321
6743.000000;2.076509
6742.000000;2.075154
6741.000000;2.074343
6740.000000;2.073018
6739.000000;2.071247
6738.000000;2.069830
6737.000000;2.068946
6736.000000;2.067834
6735.000000;2.065798
6734.000000;2.062983
6733.000000;2.059997
6732.000000;2.057244
6731.000000;2.054896
6730.000000;2.053144
6729.000000;2.052003
6728.000000;2.051044
6727.000000;2.049724
6726.000000;2.047957
6725.000000;2.046019
6724.000000;2.044037
6723.000000;2.041990
6722.000000;2.040184
6721.000000;2.039171
6720.000000;2.038954
6719.000000;2.038625
6718.000000;2.037098
6717.000000;2.034087
6716.000000;2.030219
6715.000000;2.026473
6714.000000;2.023683
6713.000000;2.022235
6712.000000;2.021796
6711.000000;2.021419
6710.000000;2.020295
6709.000000;2.018410
6708.000000;2.016261
6707.000000;2.014084
6706.000000;2.011735
6705.000000;2.009312
6704.000000;2.007278
6703.000000;2.005927
6702.000000;2.004971
6701.000000;2.003835
6700.000000;2.002166
6699.000000;2.000062
6698.000000;1.997612
6697.000000;1.995025
6696.000000;1.992093
6695.000000;1.988991
6694.000000;1.986316
6693.000000;1.984579
6692.000000;1.983900
6691.000000;1.983623
6690.000000;1.982817
6689.000000;1.981046
6688.000000;1.978670
6687.000000;1.976303
6686.000000;1.974178
6685.000000;1.972144
6684.000000;1.970129
6683.000000;1.968384
6682.000000;1.967177
6681.000000;1.966337
6680.000000;1.965272
6679.000000;1.963539
6678.000000;1.961257
6677.000000;1.958807
6676.000000;1.956293
6675.000000;1.953588
6674.000000;1.950851
6673.000000;1.948582
6672.000000;1.947032
6671.000000;1.945901
6670.000000;1.944819
6669.000000;1.943755
6668.000000;1.942657
6667.000000;1.941056
6666.000000;1.938545
6665.000000;1.935498
6664.000000;1.932804
6663.000000;1.930892
6662.000000;1.929409
6661.000000;1.927872
6660.000000;1.926203
6659.000000;1.924559
6658.000000;1.923010
6657.000000;1.921540
6656.000000;1.920091
6655.000000;1.918465
6654.000000;1.916433
6653.000000;1.914064
6652.000000;1.911696
6651.000000;1.909499
6650.000000;1.907313
6649.000000;1.905055
6648.000000;1.902983
6647.000000;1.901385
6646.000000;1.900184
6645.000000;1.899054
6644.000000;1.897724
6643.000000;1.895994
6642.000000;1.893654
6641.000000;1.890739
6640.000000;1.887806
6639.000000;1.885681
6638.000000;1.884783
6637.000000;1.884766
6636.000000;1.884797
6635.000000;1.884196
6634.000000;1.882857
6633.000000;1.881148
6632.000000;1.879451
6631.000000;1.877835
6630.000000;1.876145
6629.000000;1.874300
6628.000000;1.872387
6627.000000;1.870521
6626.000000;1.868762
6625.000000;1.867128
6624.000000;1.865542
6623.000000;1.863816
6622.000000;1.861861
6621.000000;1.859886
6620.000000;1.858159
6619.000000;1.856563
6618.000000;1.854669
6617.000000;1.852331
6616.000000;1.849988
6615.000000;1.848216
6614.000000;1.847103
6613.000000;1.846196
6612.000000;1.844943
6611.000000;1.843115
6610.000000;1.840981
6609.000000;1.839133
6608.000000;1.837961
6607.000000;1.837190
6606.000000;1.836123
6605.000000;1.834459
6604.000000;1.832606
6603.000000;1.831014
6602.000000;1.829504
6601.000000;1.827637
6600.000000;1.825516
6599.000000;1.823701
6598.000000;1.822345
6597.000000;1.820896
6596.000000;1.818839
6595.000000;1.816419
6594.000000;1.814347
6593.000000;1.812986
6592.000000;1.812090
6591.000000;1.811201
6590.000000;1.810054
6589.000000;1.808602
6588.000000;1.806929
6587.000000;1.805231
6586.000000;1.803732
6585.000000;1.802496
6584.000000;1.801362
6583.000000;1.800126
6582.000000;1.798752
6581.000000;1.797322
6580.000000;1.795828
6579.000000;1.794146
6578.000000;1.792235
6577.000000;1.790270
6576.000000;1.788472
6575.000000;1.786851
6574.000000;1.785194
6573.000000;1.783325
6572.000000;1.781308
6571.000000;1.779404
6570.000000;1.777860
6569.000000;1.776739
6568.000000;1.775841
6567.000000;1.774792
6566.000000;1.773314
6565.000000;1.771514
6564.000000;1.769824
6563.000000;1.768613
6562.000000;1.767870
6561.000000;1.767302
6560.000000;1.766631
6559.000000;1.765695
6558.000000;1.764334
6557.000000;1.762401
6556.000000;1.759983
6555.000000;1.757505
6554.000000;1.755482
6553.000000;1.754154
6552.000000;1.753373
6551.000000;1.752775
6550.000000;1.752009
6549.000000;1.750868
6548.000000;1.749371
6547.000000;1.747743
6546.000000;1.746236
6545.000000;1.744908
6544.000000;1.743665
6543.000000;1.742519
6542.000000;1.741638
6541.000000;1.741036
6540.000000;1.740343
6539.000000;1.739109
6538.000000;1.737307
6537.000000;1.735315
6536.000000;1.733422
6535.000000;1.731615
6534.000000;1.729892
6533.000000;1.728466
6532.000000;1.727443
6531.000000;1.726495
6530.000000;1.725179
6529.000000;1.723515
6528.000000;1.721977
6527.000000;1.720883
6526.000000;1.720047
6525.000000;1.719109
6524.000000;1.718006
6523.000000;1.716954
6522.000000;1.716065
6521.000000;1.715140
6520.000000;1.713877
6519.000000;1.712197
6518.000000;1.710339
6517.000000;1.708607
6516.000000;1.707055
6515.000000;1.705519
6514.000000;1.703952
6513.000000;1.702585
6512.000000;1.701591
6511.000000;1.700719
6510.000000;1.699504
6509.000000;1.697850
6508.000000;1.696177
6507.000000;1.694901
6506.000000;1.693992
6505.000000;1.693151
6504.000000;1.692251
6503.000000;1.691396
6502.000000;1.690658
6501.000000;1.689973
6500.000000;1.689265
6499.000000;1.688488
6498.000000;1.687520
6497.000000;1.686225
6496.000000;1.684689
6495.000000;1.683241
6494.000000;1.682131
6493.000000;1.681244
6492.000000;1.680248
6491.000000;1.678992
6490.000000;1.677654
6489.000000;1.676480
6488.000000;1.675483
6487.000000;1.674453
6486.000000;1.673238
6485.000000;1.671923
6484.000000;1.670739
6483.000000;1.669824
6482.000000;1.669110
6481.000000;1.668399
6480.000000;1.667549
6479.000000;1.666585
6478.000000;1.665636
6477.000000;1.664742
6476.000000;1.663748
6475.000000;1.662446
6474.000000;1.660843
6473.000000;1.659229
6472.000000;1.657916
6471.000000;1.656945
6470.000000;1.656075
6469.000000;1.655042
6468.000000;1.653804
6467.000000;1.652568
6466.000000;1.651591
6465.000000;1.650915
6464.000000;1.650288
6463.000000;1.649400
6462.000000;1.648244
6461.000000;1.647142
6460.000000;1.646355
6459.000000;1.645741
6458.000000;1.644930
6457.000000;1.643752
6456.000000;1.642326
6455.000000;1.640803
6454.000000;1.639231
6453.000000;1.637713
6452.000000;1.636469
6451.000000;1.635610
6450.000000;1.634981
6449.000000;1.634343
6448.000000;1.633616
6447.000000;1.632848
6446.000000;1.632055
6445.000000;1.631221
6444.000000;1.630409
6443.000000;1.629704
6442.000000;1.629048
6441.000000;1.628258
6440.000000;1.627232
6439.000000;1.626053
6438.000000;1.624853
6437.000000;1.623699
6436.000000;1.622629
6435.000000;1.621714
6434.000000;1.620987
6433.000000;1.620328
6432.000000;1.619518
6431.000000;1.618437
6430.000000;1.617174
6429.000000;1.615922
6428.000000;1.614827
6427.000000;1.613967
6426.000000;1.613377
6425.000000;1.612988
6424.000000;1.612538
6423.000000;1.611723
6422.000000;1.610514
6421.000000;1.609238
6420.000000;1.608219
6419.000000;1.607442
6418.000000;1.606663
6417.000000;1.605780
6416.000000;1.604920
6415.000000;1.604167
6414.000000;1.603419
6413.000000;1.602583
6412.000000;1.601728
6411.000000;1.600949
6410.000000;1.600221
6409.000000;1.599495
6408.000000;1.598823
6407.000000;1.598236
6406.000000;1.597576
6405.000000;1.596636
6404.000000;1.595443
6403.000000;1.594258
6402.000000;1.593253
6401.000000;1.592333
6400.000000;1.591336
6399.000000;1.590313
6398.000000;1.589498
6397.000000;1.589021
6396.000000;1.588723
6395.000000;1.588286
6394.000000;1.587536
6393.000000;1.586585
6392.000000;1.585673
6391.000000;1.584894
6390.000000;1.584132
6389.000000;1.583259
6388.000000;1.582311
6387.000000;1.581438
6386.000000;1.580734
6385.000000;1.580171
6384.000000;1.579671
6383.000000;1.579165
6382.000000;1.578593
6381.000000;1.577905
6380.000000;1.577093
6379.000000;1.576202
6378.000000;1.575313
6377.000000;1.574499
6376.000000;1.573771
6375.000000;1.573061
6374.000000;1.572315
6373.000000;1.571586
6372.000000;1.570974
6371.000000;1.570462
6370.000000;1.569894
6369.000000;1.569179
6368.000000;1.568422
6367.000000;1.567755
6366.000000;1.567126
6365.000000;1.566366
6364.000000;1.565439
6363.000000;1.564509
6362.000000;1.563752
6361.000000;1.563206
6360.000000;1.562791
6359.000000;1.562403
6358.000000;1.561953
6357.000000;1.561398
6356.000000;1.560741
6355.000000;1.559969
6354.000000;1.559027
6353.000000;1.557935
6352.000000;1.556892
6351.000000;1.556126
6350.000000;1.555634
6349.000000;1.555206
6348.000000;1.554700
6347.000000;1.554175
6346.000000;1.553711
6345.000000;1.553247
6344.000000;1.552688
6343.000000;1.552071
6342.000000;1.551512
6341.000000;1.551044
6340.000000;1.550588
6339.000000;1.550031
6338.000000;1.549274
6337.000000;1.548269
6336.000000;1.547119
6335.000000;1.546080
6334.000000;1.545374
6333.000000;1.544998
6332.000000;1.544747
6331.000000;1.544379
6330.000000;1.543750
6329.000000;1.542885
6328.000000;1.541995
6327.000000;1.541347
6326.000000;1.541001
6325.000000;1.540723
6324.000000;1.540243
6323.000000;1.539547
6322.000000;1.538818
6321.000000;1.538183
6320.000000;1.537653
6319.000000;1.537268
6318.000000;1.537087
6317.000000;1.537014
6316.000000;1.536790
6315.000000;1.536218
6314.000000;1.535322
6313.000000;1.534242
6312.000000;1.533107
6311.000000;1.532053
6310.000000;1.531239
6309.000000;1.530740
6308.000000;1.530458
6307.000000;1.530220
6306.000000;1.529921
6305.000000;1.529544
6304.000000;1.529117
6303.000000;1.528687
6302.000000;1.528287
6301.000000;1.527890
6300.000000;1.527429
6299.000000;1.526883
6298.000000;1.526289
6297.000000;1.525651
6296.000000;1.524939
6295.000000;1.524190
6294.000000;1.523520
6293.000000;1.522957
6292.000000;1.522359
6291.000000;1.521584
6290.000000;1.520675
6289.000000;1.519805
6288.000000;1.519110
6287.000000;1.518662
6286.000000;1.518514
6285.000000;1.518640
6284.000000;1.518840
6283.000000;1.518824
6282.000000;1.518433
6281.000000;1.517738
6280.000000;1.516937
6279.000000;1.516212
6278.000000;1.515659
6277.000000;1.515245
6276.000000;1.514831
6275.000000;1.514286
6274.000000;1.513617
6273.000000;1.512946
6272.000000;1.512395
6271.000000;1.511998
6270.000000;1.511700
6269.000000;1.511385
6268.000000;1.510941
6267.000000;1.510364
6266.000000;1.509772
6265.000000;1.509257
6264.000000;1.508766
6263.000000;1.508195
6262.000000;1.507569
6261.000000;1.507010
6260.000000;1.506563
6259.000000;1.506161
6258.000000;1.505766
6257.000000;1.505442
6256.000000;1.505243
6255.000000;1.505107
6254.000000;1.504906
6253.000000;1.504562
6252.000000;1.504084
6251.000000;1.503561
6250.000000;1.503109
6249.000000;1.502770
6248.000000;1.502429
6247.000000;1.501925
6246.000000;1.501259
6245.000000;1.500630
6244.000000;1.500227
6243.000000;1.500046
6242.000000;1.499921
6241.000000;1.499675
6240.000000;1.499216
6239.000000;1.498588
6238.000000;1.497966
6237.000000;1.497517
6236.000000;1.497220
6235.000000;1.496879
6234.000000;1.496374
6233.000000;1.495805
6232.000000;1.495313
6231.000000;1.494868
6230.000000;1.494350
6229.000000;1.493803
6228.000000;1.493439
6227.000000;1.493368
6226.000000;1.493451
6225.000000;1.493440
6224.000000;1.493208
6223.000000;1.492778
6222.000000;1.492248
6221.000000;1.491719
6220.000000;1.491260
6219.000000;1.490854
6218.000000;1.490395
6217.000000;1.489794
6216.000000;1.489079
6215.000000;1.488372
6214.000000;1.487777
6213.000000;1.487327
6212.000000;1.487029
6211.000000;1.486897
6210.000000;1.486895
6209.000000;1.486892
6208.000000;1.486707
6207.000000;1.486244
6206.000000;1.485583
6205.000000;1.484922
6204.000000;1.484413
6203.000000;1.484050
6202.000000;1.483723
6201.000000;1.483375
6200.000000;1.483079
6199.000000;1.482941
6198.000000;1.482930
6197.000000;1.482857
6196.000000;1.482550
6195.000000;1.482027
6194.000000;1.481457
6193.000000;1.480951
6192.000000;1.480455
6191.000000;1.479881
6190.000000;1.479289
6189.000000;1.478866
6188.000000;1.478698
6187.000000;1.478628
6186.000000;1.478397
6185.000000;1.477919
6184.000000;1.477377
6183.000000;1.477025
6182.000000;1.476933
6181.000000;1.476943
6180.000000;1.476849
6179.000000;1.476586
6178.000000;1.476225
6177.000000;1.475841
6176.000000;1.475436
6175.000000;1.474985
6174.000000;1.474511
6173.000000;1.474085
6172.000000;1.473769
6171.000000;1.473560
6170.000000;1.473386
6169.000000;1.473172
6168.000000;1.472913
6167.000000;1.472673
6166.000000;1.472494
6165.000000;1.472327
6164.000000;1.472099
6163.000000;1.471817
6162.000000;1.471558
6161.000000;1.471341
6160.000000;1.471070
6159.000000;1.470623
6158.000000;1.469972
6157.000000;1.469214
6156.000000;1.468512
6155.000000;1.468019
6154.000000;1.467785
6153.000000;1.467700
6152.000000;1.467568
6151.000000;1.467295
6150.000000;1.466977
6149.000000;1.466766
6148.000000;1.466684
6147.000000;1.466604
6146.000000;1.466409
6145.000000;1.466113
6144.000000;1.465834
6143.000000;1.465682
6142.000000;1.465668
6141.000000;1.465682
6140.000000;1.465570
6139.000000;1.465259
6138.000000;1.464813
6137.000000;1.464356
6136.000000;1.463970
6135.000000;1.463673
6134.000000;1.463431
6133.000000;1.463184
6132.000000;1.462885
6131.000000;1.462569
6130.000000;1.462327
6129.000000;1.462178
6128.000000;1.462012
6127.000000;1.461718
6126.000000;1.461341
6125.000000;1.461033
6124.000000;1.460870
6123.000000;1.460785
6122.000000;1.460674
6121.000000;1.460470
6120.000000;1.460135
6119.000000;1.459664
6118.000000;1.459128
6117.000000;1.458647
6116.000000;1.458275
6115.000000;1.457944
6114.000000;1.457562
6113.000000;1.457130
6112.000000;1.456734
6111.000000;1.456444
6110.000000;1.456256
6109.000000;1.456138
6108.000000;1.456100
6107.000000;1.456185
6106.000000;1.456371
6105.000000;1.456489
6104.000000;1.456331
6103.000000;1.455874
6102.000000;1.455362
6101.000000;1.455077
6100.000000;1.455054
6099.000000;1.455070
6098.000000;1.454900
6097.000000;1.454504
6096.000000;1.454002
6095.000000;1.453558
6094.000000;1.453309
6093.000000;1.453307
6092.000000;1.453452
6091.000000;1.453547
6090.000000;1.453456
6089.000000;1.453199
6088.000000;1.452862
6087.000000;1.452470
6086.000000;1.452005
6085.000000;1.451501
6084.000000;1.451062
6083.000000;1.450775
6082.000000;1.450624
6081.000000;1.450508
6080.000000;1.450342
6079.000000;1.450142
6078.000000;1.449997
6077.000000;1.449941
6076.000000;1.449885
6075.000000;1.449731
6074.000000;1.449502
6073.000000;1.449314
6072.000000;1.449196
6071.000000;1.449035
6070.000000;1.448720
6069.000000;1.448289
6068.000000;1.447882
6067.000000;1.447601
6066.000000;1.447446
6065.000000;1.447366
6064.000000;1.447321
6063.000000;1.447289
6062.000000;1.447254
6061.000000;1.447197
6060.000000;1.447092
6059.000000;1.446934
6058.000000;1.446753
6057.000000;1.446584
6056.000000;1.446428
6055.000000;1.446260
6054.000000;1.446073
6053.000000;1.445864
6052.000000;1.445609
6051.000000;1.445287
6050.000000;1.444955
6049.000000;1.444726
6048.000000;1.444652
6047.000000;1.444671
6046.000000;1.444691
6045.000000;1.444695
6044.000000;1.444708
6043.000000;1.444712
6042.000000;1.444654
6041.000000;1.444512
6040.000000;1.444324
6039.000000;1.444138
6038.000000;1.443958
6037.000000;1.443746
6036.000000;1.443465
6035.000000;1.443121
6034.000000;1.442761
6033.000000;1.442428
6032.000000;1.442133
6031.000000;1.441885
6030.000000;1.441730
6029.000000;1.441703
6028.000000;1.441735
6027.000000;1.441680
6026.000000;1.441476
6025.000000;1.441239
6024.000000;1.441139
6023.000000;1.441205
6022.000000;1.441312
6021.000000;1.441363
6020.000000;1.441381
6019.000000;1.441411
6018.000000;1.441384
6017.000000;1.441196
6016.000000;1.440871
6015.000000;1.440572
6014.000000;1.440407
6013.000000;1.440310
6012.000000;1.440176
6011.000000;1.440046
6010.000000;1.440057
6009.000000;1.440218
6008.000000;1.440355
6007.000000;1.440307
6006.000000;1.440085
6005.000000;1.439795
6004.000000;1.439487
6003.000000;1.439158
6002.000000;1.438839
6001.000000;1.438568
6000.000000;1.438328
5999.000000;1.438088
5998.000000;1.437893
5997.000000;1.437820
5996.000000;1.437849
5995.000000;1.437887
5994.000000;1.437917
5993.000000;1.438019
5992.000000;1.438210
5991.000000;1.438362
5990.000000;1.438360
5989.000000;1.438253
5988.000000;1.438186
5987.000000;1.438214
5986.000000;1.438258
5985.000000;1.438230
5984.000000;1.438133
5983.000000;1.438050
5982.000000;1.438058
5981.000000;1.438171
5980.000000;1.438328
5979.000000;1.438448
5978.000000;1.438493
5977.000000;1.438477
5976.000000;1.438414
5975.000000;1.438284
5974.000000;1.438085
5973.000000;1.437871
5972.000000;1.437718
5971.000000;1.437639
5970.000000;1.437588
5969.000000;1.437523
5968.000000;1.437454
5967.000000;1.437425
5966.000000;1.437459
5965.000000;1.437541
5964.000000;1.437630
5963.000000;1.437687
5962.000000;1.437684
5961.000000;1.437607
5960.000000;1.437455
5959.000000;1.437252
5958.000000;1.437050
5957.000000;1.436912
5956.000000;1.436876
5955.000000;1.436941
5954.000000;1.437081
5953.000000;1.437286
5952.000000;1.437569
5951.000000;1.437916
5950.000000;1.438232
5949.000000;1.438382
5948.000000;1.438308
5947.000000;1.438097
5946.000000;1.437886
5945.000000;1.437713
5944.000000;1.437513
5943.000000;1.437253
5942.000000;1.436998
5941.000000;1.436806
5940.000000;1.436654
5939.000000;1.436501
5938.000000;1.436388
5937.000000;1.436400
5936.000000;1.436557
5935.000000;1.436797
5934.000000;1.437034
5933.000000;1.437202
5932.000000;1.437271
5931.000000;1.437275
5930.000000;1.437298
5929.000000;1.437373
5928.000000;1.437434
5927.000000;1.437401
5926.000000;1.437295
5925.000000;1.437205
5924.000000;1.437178
5923.000000;1.437204
5922.000000;1.437284
5921.000000;1.437436
5920.000000;1.437648
5919.000000;1.437875
5918.000000;1.438084
5917.000000;1.438239
5916.000000;1.438279
5915.000000;1.438189
5914.000000;1.438074
5913.000000;1.438092
5912.000000;1.438283
5911.000000;1.438539
5910.000000;1.438741
5909.000000;1.438851
5908.000000;1.438871
5907.000000;1.438783
5906.000000;1.438611
5905.000000;1.438472
5904.000000;1.438502
5903.000000;1.438728
5902.000000;1.439017
5901.000000;1.439176
5900.000000;1.439111
5899.000000;1.438937
5898.000000;1.438900
5897.000000;1.439135
5896.000000;1.439508
5895.000000;1.439747
5894.000000;1.439713
5893.000000;1.439507
5892.000000;1.439336
5891.000000;1.439331
5890.000000;1.439506
5889.000000;1.439774
5888.000000;1.439994
5887.000000;1.440073
5886.000000;1.440049
5885.000000;1.440030
5884.000000;1.440035
5883.000000;1.439981
5882.000000;1.439826
5881.000000;1.439660
5880.000000;1.439615
5879.000000;1.439742
5878.000000;1.440020
5877.000000;1.440401
5876.000000;1.440789
5875.000000;1.441038
5874.000000;1.441045
5873.000000;1.440850
5872.000000;1.440625
5871.000000;1.440564
5870.000000;1.440780
5869.000000;1.441239
5868.000000;1.441773
5867.000000;1.442214
5866.000000;1.442535
5865.000000;1.442819
5864.000000;1.443083
5863.000000;1.443224
5862.000000;1.443194
5861.000000;1.443128
5860.000000;1.443208
5859.000000;1.443440
5858.000000;1.443667
5857.000000;1.443788
5856.000000;1.443872
5855.000000;1.444035
5854.000000;1.444274
5853.000000;1.444467
5852.000000;1.444505
5851.000000;1.444396
5850.000000;1.444260
5849.000000;1.444228
5848.000000;1.444367
5847.000000;1.444644
5846.000000;1.444966
5845.000000;1.445227
5844.000000;1.445373
5843.000000;1.445446
5842.000000;1.445560
5841.000000;1.445802
5840.000000;1.446156
5839.000000;1.446533
5838.000000;1.446880
5837.000000;1.447200
5836.000000;1.447488
5835.000000;1.447697
5834.000000;1.447824
5833.000000;1.447957
5832.000000;1.448200
5831.000000;1.448551
5830.000000;1.448902
5829.000000;1.449166
5828.000000;1.449364
5827.000000;1.449582
5826.000000;1.449880
5825.000000;1.450236
5824.000000;1.450594
5823.000000;1.450914
5822.000000;1.451196
5821.000000;1.451458
5820.000000;1.451734
5819.000000;1.452058
5818.000000;1.452426
5817.000000;1.452776
5816.000000;1.453057
5815.000000;1.453314
5814.000000;1.453646
5813.000000;1.454048
5812.000000;1.454381
5811.000000;1.454551
5810.000000;1.454647
5809.000000;1.454821
5808.000000;1.455093
5807.000000;1.455373
5806.000000;1.455647
5805.000000;1.456010
5804.000000;1.456506
5803.000000;1.457041
5802.000000;1.457496
5801.000000;1.457850
5800.000000;1.458151
5799.000000;1.458425
5798.000000;1.458682
5797.000000;1.458957
5796.000000;1.459294
5795.000000;1.459695
5794.000000;1.460123
5793.000000;1.460514
5792.000000;1.460817
5791.000000;1.461058
5790.000000;1.461373
5789.000000;1.461894
5788.000000;1.462578
5787.000000;1.463202
5786.000000;1.463599
5785.000000;1.463837
5784.000000;1.464119
5783.000000;1.464535
5782.000000;1.464997
5781.000000;1.465379
5780.000000;1.465654
5779.000000;1.465892
5778.000000;1.466186
5777.000000;1.466601
5776.000000;1.467143
5775.000000;1.467763
5774.000000;1.468384
5773.000000;1.468962
5772.000000;1.469493
5771.000000;1.469970
5770.000000;1.470351
5769.000000;1.470599
5768.000000;1.470769
5767.000000;1.471022
5766.000000;1.471498
5765.000000;1.472166
5764.000000;1.472823
5763.000000;1.473275
5762.000000;1.473502
5761.000000;1.473637
5760.000000;1.473824
5759.000000;1.474138
5758.000000;1.474611
5757.000000;1.475249
5756.000000;1.475976
5755.000000;1.476641
5754.000000;1.477131
5753.000000;1.477514
5752.000000;1.478009
5751.000000;1.478787
5750.000000;1.479792
5749.000000;1.480749
5748.000000;1.481389
5747.000000;1.481675
5746.000000;1.481821
5745.000000;1.482092
5744.000000;1.482599
5743.000000;1.483273
5742.000000;1.483977
5741.000000;1.484613
5740.000000;1.485166
5739.000000;1.485689
5738.000000;1.486244
5737.000000;1.486822
5736.000000;1.487347
5735.000000;1.487768
5734.000000;1.488141
5733.000000;1.488581
5732.000000;1.489147
5731.000000;1.489799
5730.000000;1.490457
5729.000000;1.491079
5728.000000;1.491682
5727.000000;1.492308
5726.000000;1.492969
5725.000000;1.493637
5724.000000;1.494285
5723.000000;1.494948
5722.000000;1.495670
5721.000000;1.496419
5720.000000;1.497113
5719.000000;1.497732
5718.000000;1.498334
5717.000000;1.498948
5716.000000;1.499560
5715.000000;1.500229
5714.000000;1.501071
5713.000000;1.502049
5712.000000;1.502902
5711.000000;1.503427
5710.000000;1.503768
5709.000000;1.504245
5708.000000;1.504971
5707.000000;1.505771
5706.000000;1.506470
5705.000000;1.507076
5704.000000;1.507679
5703.000000;1.508327
5702.000000;1.509048
5701.000000;1.509872
5700.000000;1.510747
5699.000000;1.511553
5698.000000;1.512269
5697.000000;1.513008
5696.000000;1.513848
5695.000000;1.514668
5694.000000;1.515330
5693.000000;1.515761
5692.000000;1.516167
5691.000000;1.516715
5690.000000;1.517439
5689.000000;1.518376
5688.000000;1.519448
5687.000000;1.520524
5686.000000;1.521480
5685.000000;1.522290
5684.000000;1.522987
5683.000000;1.523595
5682.000000;1.524155
5681.000000;1.524756
5680.000000;1.525475
5679.000000;1.526285
5678.000000;1.527078
5677.000000;1.527793
5676.000000;1.528463
5675.000000;1.529146
5674.000000;1.529847
5673.000000;1.530526
5672.000000;1.531150
5671.000000;1.531737
5670.000000;1.532342
5669.000000;1.533012
5668.000000;1.533748
5667.000000;1.534513
5666.000000;1.535276
5665.000000;1.536039
5664.000000;1.536822
5663.000000;1.537625
5662.000000;1.538419
5661.000000;1.539160
5660.000000;1.539818
5659.000000;1.540390
5658.000000;1.540895
5657.000000;1.541344
5656.000000;1.541757
5655.000000;1.542180
5654.000000;1.542681
5653.000000;1.543318
5652.000000;1.544137
5651.000000;1.545167
5650.000000;1.546352
5649.000000;1.547501
5648.000000;1.548397
5647.000000;1.549011
5646.000000;1.549543
5645.000000;1.550208
5644.000000;1.551031
5643.000000;1.551895
5642.000000;1.552694
5641.000000;1.553359
5640.000000;1.553829
5639.000000;1.554118
5638.000000;1.554376
5637.000000;1.554775
5636.000000;1.555328
5635.000000;1.555918
5634.000000;1.556475
5633.000000;1.557022
5632.000000;1.557555
5631.000000;1.558018
5630.000000;1.558405
5629.000000;1.558810
5628.000000;1.559291
5627.000000;1.559795
5626.000000;1.560235
5625.000000;1.560602
5624.000000;1.560984
5623.000000;1.561494
5622.000000;1.562188
5621.000000;1.562987
5620.000000;1.563694
5619.000000;1.564160
5618.000000;1.564440
5617.000000;1.564709
5616.000000;1.565036
5615.000000;1.565323
5614.000000;1.565499
5613.000000;1.565651
5612.000000;1.565933
5611.000000;1.566396
5610.000000;1.566950
5609.000000;1.567464
5608.000000;1.567860
5607.000000;1.568150
5606.000000;1.568397
5605.000000;1.568634
5604.000000;1.568853
5603.000000;1.569073
5602.000000;1.569376
5601.000000;1.569804
5600.000000;1.570266
5599.000000;1.570619
5598.000000;1.570838
5597.000000;1.571031
5596.000000;1.571295
5595.000000;1.571631
5594.000000;1.571986
5593.000000;1.572304
5592.000000;1.572527
5591.000000;1.572635
5590.000000;1.572693
5589.000000;1.572811
5588.000000;1.573045
5587.000000;1.573390
5586.000000;1.573832
5585.000000;1.574337
5584.000000;1.574795
5583.000000;1.575080
5582.000000;1.575167
5581.000000;1.575139
5580.000000;1.575080
5579.000000;1.575039
5578.000000;1.575063
5577.000000;1.575165
5576.000000;1.575284
5575.000000;1.575362
5574.000000;1.575453
5573.000000;1.575633
5572.000000;1.575826
5571.000000;1.575864
5570.000000;1.575729
5569.000000;1.575593
5568.000000;1.575594
5567.000000;1.575714
5566.000000;1.575900
5565.000000;1.576170
5564.000000;1.576507
5563.000000;1.576783
5562.000000;1.576872
5561.000000;1.576771
5560.000000;1.576558
5559.000000;1.576321
5558.000000;1.576164
5557.000000;1.576190
5556.000000;1.576372
5555.000000;1.576538
5554.000000;1.576538
5553.000000;1.576357
5552.000000;1.576039
5551.000000;1.575605
5550.000000;1.575136
5549.000000;1.574824
5548.000000;1.574808
5547.000000;1.575042
5546.000000;1.575365
5545.000000;1.575659
5544.000000;1.575855
5543.000000;1.575922
5542.000000;1.575934
5541.000000;1.576063
5540.000000;1.576352
5539.000000;1.576599
5538.000000;1.576572
5537.000000;1.576299
5536.000000;1.575989
5535.000000;1.575748
5534.000000;1.575504
5533.000000;1.575179
5532.000000;1.574805
5531.000000;1.574504
5530.000000;1.574423
5529.000000;1.574670
5528.000000;1.575188
5527.000000;1.575740
5526.000000;1.576093
5525.000000;1.576194
5524.000000;1.576128
5523.000000;1.576002
5522.000000;1.575901
5521.000000;1.575858
5520.000000;1.575769
5519.000000;1.575456
5518.000000;1.574946
5517.000000;1.574539
5516.000000;1.574502
5515.000000;1.574789
5514.000000;1.575178
5513.000000;1.575568
5512.000000;1.575954
5511.000000;1.576194
5510.000000;1.576098
5509.000000;1.575714
5508.000000;1.575303
5507.000000;1.574991
5506.000000;1.574649
5505.000000;1.574180
5504.000000;1.573752
5503.000000;1.573604
5502.000000;1.573742
5501.000000;1.573992
5500.000000;1.574282
5499.000000;1.574717
5498.000000;1.575368
5497.000000;1.575988
5496.000000;1.576073
5495.000000;1.575352
5494.000000;1.574082
5493.000000;1.572768
5492.000000;1.571607
5491.000000;1.570402
5490.000000;1.569133
5489.000000;1.568221
5488.000000;1.568028
5487.000000;1.568435
5486.000000;1.569176
5485.000000;1.570323
5484.000000;1.572044
5483.000000;1.574094
5482.000000;1.575973
5481.000000;1.577585
5480.000000;1.579210
5479.000000;1.580679
5478.000000;1.581197
5477.000000;1.580249
5476.000000;1.578345
5475.000000;1.576601
5474.000000;1.575613
5473.000000;1.575134
5472.000000;1.574873
5471.000000;1.574936
5470.000000;1.575389
5469.000000;1.576001
5468.000000;1.576597
5467.000000;1.577311
5466.000000;1.578314
5465.000000;1.579341
5464.000000;1.579767
5463.000000;1.579287
5462.000000;1.578341
5461.000000;1.577732
5460.000000;1.577858
5459.000000;1.578477
5458.000000;1.579284
5457.000000;1.580382
5456.000000;1.581979
5455.000000;1.583952
5454.000000;1.585911
5453.000000;1.587515
5452.000000;1.588629
5451.000000;1.589333
5450.000000;1.589752
5449.000000;1.589779
5448.000000;1.589102
5447.000000;1.587764
5446.000000;1.586471
5445.000000;1.585744
5444.000000;1.585111
5443.000000;1.583923
5442.000000;1.582660
5441.000000;1.582540
5440.000000;1.583976
5439.000000;1.586066
5438.000000;1.587832
5437.000000;1.589275
5436.000000;1.590810
5435.000000;1.592506
5434.000000;1.594230
5433.000000;1.595748
5432.000000;1.596697
5431.000000;1.596887
5430.000000;1.596548
5429.000000;1.596258
5428.000000;1.596587
5427.000000;1.597740
5426.000000;1.599668
5425.000000;1.602303
5424.000000;1.605500
5423.000000;1.609012
5422.000000;1.612658
5421.000000;1.616387
5420.000000;1.620229
5419.000000;1.624132
5418.000000;1.627615
5417.000000;1.629784
5416.000000;1.630092
5415.000000;1.628926
5414.000000;1.627256
5413.000000;1.625670
5412.000000;1.624107
5411.000000;1.622736
5410.000000;1.622323
5409.000000;1.623309
5408.000000;1.625261
5407.000000;1.627784
5406.000000;1.631331
5405.000000;1.636377
5404.000000;1.642402
5403.000000;1.648410
5402.000000;1.654043
5401.000000;1.659472
5400.000000;1.664430
5399.000000;1.668320
5398.000000;1.670939
5397.000000;1.672532
5396.000000;1.673436
5395.000000;1.673990
5394.000000;1.674747
5393.000000;1.676251
5392.000000;1.678564
5391.000000;1.681513
5390.000000;1.685138
5389.000000;1.689405
5388.000000;1.693819
5387.000000;1.697902
5386.000000;1.701895
5385.000000;1.706351
5384.000000;1.711152
5383.000000;1.715704
5382.000000;1.720067
5381.000000;1.724764
5380.000000;1.729606
5379.000000;1.733869
5378.000000;1.737469
5377.000000;1.741147
5376.000000;1.745429
5375.000000;1.750030
5374.000000;1.754709
5373.000000;1.759968
5372.000000;1.766269
5371.000000;1.773337
5370.000000;1.780735
5369.000000;1.788575
5368.000000;1.797116
5367.000000;1.805981
5366.000000;1.814391
5365.000000;1.822002
5364.000000;1.829080
5363.000000;1.835982
5362.000000;1.842884
5361.000000;1.849875
5360.000000;1.857055
5359.000000;1.864545
5358.000000;1.872345
5357.000000;1.880202
5356.000000;1.887694
5355.000000;1.894657
5354.000000;1.901553
5353.000000;1.909065
5352.000000;1.917231
5351.000000;1.925553
5350.000000;1.934087
5349.000000;1.943367
5348.000000;1.953144
5347.000000;1.962407
5346.000000;1.970956
5345.000000;1.980004
5344.000000;1.990717
5343.000000;2.002491
5342.000000;2.013625
5341.000000;2.023698
5340.000000;2.033887
5339.000000;2.045271
5338.000000;2.058021
5337.000000;2.071856
5336.000000;2.086383
5335.000000;2.101122
5334.000000;2.115754
5333.000000;2.130417
5332.000000;2.145550
5331.000000;2.161239
5330.000000;2.177017
5329.000000;2.192369
5328.000000;2.207131
5327.000000;2.221537
5326.000000;2.235931
5325.000000;2.250480
5324.000000;2.265243
5323.000000;2.280404
5322.000000;2.296291
5321.000000;2.313088
5320.000000;2.330347
5319.000000;2.347030
5318.000000;2.362420
5317.000000;2.376780
5316.000000;2.390748
5315.000000;2.404420
5314.000000;2.417405
5313.000000;2.429480
5312.000000;2.440773
5311.000000;2.451497
5310.000000;2.462040
5309.000000;2.472973
5308.000000;2.484405
5307.000000;2.495549
5306.000000;2.505422
5305.000000;2.513864
5304.000000;2.521420
5303.000000;2.528473
5302.000000;2.534974
5301.000000;2.540867
5300.000000;2.546356
5299.000000;2.551734
5298.000000;2.557208
5297.000000;2.562916
5296.000000;2.569016
5295.000000;2.575579
5294.000000;2.582149
5293.000000;2.587662
5292.000000;2.591294
5291.000000;2.593376
5290.000000;2.594994
5289.000000;2.596368
5288.000000;2.596510
5287.000000;2.595131
5286.000000;2.593838
5285.000000;2.594551
5284.000000;2.597423
5283.000000;2.601300
5282.000000;2.605590
5281.000000;2.610237
5280.000000;2.614221
5279.000000;2.616036
5278.000000;2.616008
5277.000000;2.616436
5276.000000;2.618653
5275.000000;2.621193
5274.000000;2.621659
5273.000000;2.619570
5272.000000;2.616446
5271.000000;2.613779
5270.000000;2.612064
5269.000000;2.611333
5268.000000;2.611429
5267.000000;2.611869
5266.000000;2.612078
5265.000000;2.611719
5264.000000;2.610603
5263.000000;2.608576
5262.000000;2.605938
5261.000000;2.603808
5260.000000;2.603533
5259.000000;2.605470
5258.000000;2.608660
5257.000000;2.611828
5256.000000;2.614362
5255.000000;2.616399
5254.000000;2.618324
5253.000000;2.620082
5252.000000;2.620895
5251.000000;2.619911
5250.000000;2.617112
5249.000000;2.613630
5248.000000;2.610895
5247.000000;2.609327
5246.000000;2.608194
5245.000000;2.606798
5244.000000;2.605524
5243.000000;2.605437
5242.000000;2.607095
5241.000000;2.610081
5240.000000;2.613718
5239.000000;2.617641
5238.000000;2.621558
5237.000000;2.624859
5236.000000;2.626843
5235.000000;2.627385
5234.000000;2.627058
5233.000000;2.626480
5232.000000;2.625749
5231.000000;2.624743
5230.000000;2.623487
5229.000000;2.621863
5228.000000;2.619523
5227.000000;2.616546
5226.000000;2.613897
5225.000000;2.612826
5224.000000;2.613876
5223.000000;2.616663
5222.000000;2.620244
5221.000000;2.623236
5220.000000;2.624134
5219.000000;2.622420
5218.000000;2.619335
5217.000000;2.617041
5216.000000;2.616990
5215.000000;2.619185
5214.000000;2.622629
5213.000000;2.626004
5212.000000;2.628373
5211.000000;2.629743
5210.000000;2.630464
5209.000000;2.629912
5208.000000;2.626625
5207.000000;2.620401
5206.000000;2.613579
5205.000000;2.609232
5204.000000;2.608338
5203.000000;2.609570
5202.000000;2.611498
5201.000000;2.613891
5200.000000;2.616866
5199.000000;2.619828
5198.000000;2.621825
5197.000000;2.622597
5196.000000;2.622815
5195.000000;2.623256
5194.000000;2.624083
5193.000000;2.624886
5192.000000;2.625196
5191.000000;2.625023
5190.000000;2.624884
5189.000000;2.625294
5188.000000;2.626239
5187.000000;2.627159
5186.000000;2.627370
5185.000000;2.626586
5184.000000;2.625150
5183.000000;2.623692
5182.000000;2.622544
5181.000000;2.621770
5180.000000;2.621640
5179.000000;2.622511
5178.000000;2.623991
5177.000000;2.624861
5176.000000;2.624528
5175.000000;2.624041
5174.000000;2.624682
5173.000000;2.625926
5172.000000;2.625999
5171.000000;2.624462
5170.000000;2.623048
5169.000000;2.623494
5168.000000;2.625613
5167.000000;2.628014
5166.000000;2.629710
5165.000000;2.630424
5164.000000;2.630257
5163.000000;2.629832
5162.000000;2.629933
5161.000000;2.630249
5160.000000;2.629255
5159.000000;2.626244
5158.000000;2.622759
5157.000000;2.620996
5156.000000;2.621401
5155.000000;2.622645
5154.000000;2.623394
5153.000000;2.623171
5152.000000;2.621937
5151.000000;2.620193
5150.000000;2.619491
5149.000000;2.621549
5148.000000;2.626356
5147.000000;2.631735
5146.000000;2.635012
5145.000000;2.634940
5144.000000;2.632119
5143.000000;2.628220
5142.000000;2.625002
5141.000000;2.623361
5140.000000;2.622888
5139.000000;2.622745
5138.000000;2.623027
5137.000000;2.624556
5136.000000;2.627228
5135.000000;2.629448
5134.000000;2.629854
5133.000000;2.629023
5132.000000;2.628753
5131.000000;2.630024
5130.000000;2.632178
5129.000000;2.633810
5128.000000;2.634011
5127.000000;2.632716
5126.000000;2.630289
5125.000000;2.627294
5124.000000;2.624668
5123.000000;2.623493
5122.000000;2.624112
5121.000000;2.625546
5120.000000;2.626320
5119.000000;2.626022
5118.000000;2.625702
5117.000000;2.626555
5116.000000;2.628654
5115.000000;2.631155
5114.000000;2.633119
5113.000000;2.633787
5112.000000;2.632706
5111.000000;2.630194
5110.000000;2.627338
5109.000000;2.625102
5108.000000;2.623682
5107.000000;2.622932
5106.000000;2.622893
5105.000000;2.623518
5104.000000;2.624338
5103.000000;2.624834
5102.000000;2.624797
5101.000000;2.624031
5100.000000;2.622400
5099.000000;2.620784
5098.000000;2.621017
5097.000000;2.623763
5096.000000;2.627097
5095.000000;2.628376
5094.000000;2.627258
5093.000000;2.625494
5092.000000;2.624151
5091.000000;2.622752
5090.000000;2.621099
5089.000000;2.620141
5088.000000;2.620487
5087.000000;2.621448
5086.000000;2.622261
5085.000000;2.623152
5084.000000;2.624312
5083.000000;2.624786
5082.000000;2.623528
5081.000000;2.621092
5080.000000;2.619340
5079.000000;2.619686
5078.000000;2.622115
5077.000000;2.625457
5076.000000;2.628132
5075.000000;2.629035
5074.000000;2.628282
5073.000000;2.627011
5072.000000;2.626234
5071.000000;2.626087
5070.000000;2.626245
5069.000000;2.626454
5068.000000;2.626325
5067.000000;2.625182
5066.000000;2.622756
5065.000000;2.619968
5064.000000;2.618423
5063.000000;2.618945
5062.000000;2.620701
5061.000000;2.621647
5060.000000;2.620083
5059.000000;2.616275
5058.000000;2.612481
5057.000000;2.611002
5056.000000;2.612230
5055.000000;2.614709
5054.000000;2.616927
5053.000000;2.618447
5052.000000;2.619207
5051.000000;2.618780
5050.000000;2.617030
5049.000000;2.614854
5048.000000;2.613579
5047.000000;2.613811
5046.000000;2.615168
5045.000000;2.616812
5044.000000;2.617806
5043.000000;2.617403
5042.000000;2.615647
5041.000000;2.613500
5040.000000;2.611924
5039.000000;2.611048
5038.000000;2.610450
5037.000000;2.609893
5036.000000;2.609434
5035.000000;2.609159
5034.000000;2.609226
5033.000000;2.609815
5032.000000;2.610645
5031.000000;2.610973
5030.000000;2.610625
5029.000000;2.610487
5028.000000;2.611210
5027.000000;2.611900
5026.000000;2.610937
5025.000000;2.607998
5024.000000;2.604593
5023.000000;2.602635
5022.000000;2.603085
5021.000000;2.605597
5020.000000;2.608585
5019.000000;2.609805
5018.000000;2.608032
5017.000000;2.604465
5016.000000;2.601665
5015.000000;2.600944
5014.000000;2.601427
5013.000000;2.601678
5012.000000;2.601374
5011.000000;2.600928
5010.000000;2.600259
5009.000000;2.598800
5008.000000;2.596422
5007.000000;2.593694
5006.000000;2.591351
5005.000000;2.589916
5004.000000;2.589656
5003.000000;2.590452
5002.000000;2.591782
5001.000000;2.592948
5000.000000;2.593288
4999.000000;2.592280
4998.000000;2.589975
4997.000000;2.587264
4996.000000;2.585325
4995.000000;2.584480
4994.000000;2.583587
4993.000000;2.581464
4992.000000;2.578335
4991.000000;2.575497
4990.000000;2.573785
4989.000000;2.573074
4988.000000;2.572947
4987.000000;2.573084
4986.000000;2.573062
4985.000000;2.572494
4984.000000;2.571598
4983.000000;2.571092
4982.000000;2.571382
4981.000000;2.572329
4980.000000;2.573771
4979.000000;2.575572
4978.000000;2.577064
4977.000000;2.577273
4976.000000;2.576044
4975.000000;2.574260
4974.000000;2.572521
4973.000000;2.570350
4972.000000;2.567229
4971.000000;2.563678
4970.000000;2.560623
4969.000000;2.558251
4968.000000;2.556192
4967.000000;2.554394
4966.000000;2.553055
4965.000000;2.551989
4964.000000;2.550908
4963.000000;2.550188
4962.000000;2.550455
4961.000000;2.551402
4960.000000;2.551791
4959.000000;2.550815
4958.000000;2.548827
4957.000000;2.546600
4956.000000;2.544610
4955.000000;2.543213
4954.000000;2.542733
4953.000000;2.542891
4952.000000;2.542609
4951.000000;2.540912
4950.000000;2.537944
4949.000000;2.534896
4948.000000;2.533028
4947.000000;2.532709
4946.000000;2.532894
4945.000000;2.531631
4944.000000;2.527841
4943.000000;2.522834
4942.000000;2.519354
4941.000000;2.518890
4940.000000;2.520345
4939.000000;2.521501
4938.000000;2.521319
4937.000000;2.520339
4936.000000;2.519245
4935.000000;2.517870
4934.000000;2.515673
4933.000000;2.512745
4932.000000;2.510099
4931.000000;2.508848
4930.000000;2.508869
4929.000000;2.508418
4928.000000;2.505680
4927.000000;2.500830
4926.000000;2.495949
4925.000000;2.492784
4924.000000;2.491310
4923.000000;2.490604
4922.000000;2.490204
4921.000000;2.489936
4920.000000;2.489145
4919.000000;2.487217
4918.000000;2.484589
4917.000000;2.482307
4916.000000;2.480803
4915.000000;2.479826
4914.000000;2.479266
4913.000000;2.479159
4912.000000;2.478921
4911.000000;2.477423
4910.000000;2.474124
4909.000000;2.469656
4908.000000;2.465184
4907.000000;2.461557
4906.000000;2.459027
4905.000000;2.457287
4904.000000;2.455770
4903.000000;2.454259
4902.000000;2.453144
4901.000000;2.452712
4900.000000;2.452334
4899.000000;2.450980
4898.000000;2.448480
4897.000000;2.445632
4896.000000;2.443099
4895.000000;2.440767
4894.000000;2.438242
4893.000000;2.435502
4892.000000;2.432883
4891.000000;2.430725
4890.000000;2.429127
4889.000000;2.427785
4888.000000;2.426170
4887.000000;2.424216
4886.000000;2.422634
4885.000000;2.421983
4884.000000;2.421528
4883.000000;2.419776
4882.000000;2.416354
4881.000000;2.412581
4880.000000;2.409827
4879.000000;2.407988
4878.000000;2.406004
4877.000000;2.403342
4876.000000;2.400346
4875.000000;2.397379
4874.000000;2.394303
4873.000000;2.390909
4872.000000;2.387485
4871.000000;2.384713
4870.000000;2.383053
4869.000000;2.382227
4868.000000;2.381332
4867.000000;2.379570
4866.000000;2.376915
4865.000000;2.374003
4864.000000;2.371464
4863.000000;2.369537
4862.000000;2.368157
4861.000000;2.366956
4860.000000;2.365164
4859.000000;2.362090
4858.000000;2.357931
4857.000000;2.353788
4856.000000;2.350717
4855.000000;2.348958
4854.000000;2.348033
4853.000000;2.347167
4852.000000;2.345535
4851.000000;2.342634
4850.000000;2.338810
4849.000000;2.335150
4848.000000;2.332479
4847.000000;2.330644
4846.000000;2.329007
4845.000000;2.327331
4844.000000;2.325799
4843.000000;2.324371
4842.000000;2.322660
4841.000000;2.320525
4840.000000;2.318390
4839.000000;2.316723
4838.000000;2.315358
4837.000000;2.313536
4836.000000;2.310645
4835.000000;2.306836
4834.000000;2.302853
4833.000000;2.299318
4832.000000;2.296286
4831.000000;2.293493
4830.000000;2.290844
4829.000000;2.288425
4828.000000;2.286204
4827.000000;2.284081
4826.000000;2.282182
4825.000000;2.280665
4824.000000;2.279165
4823.000000;2.276921
4822.000000;2.273703
4821.000000;2.270191
4820.000000;2.267114
4819.000000;2.264455
4818.000000;2.261830
4817.000000;2.259266
4816.000000;2.257046
4815.000000;2.255014
4814.000000;2.252725
4813.000000;2.250268
4812.000000;2.248252
4811.000000;2.246794
4810.000000;2.245077
4809.000000;2.242283
4808.000000;2.238567
4807.000000;2.234741
4806.000000;2.231339
4805.000000;2.228440
4804.000000;2.226100
4803.000000;2.224379
4802.000000;2.222895
4801.000000;2.220890
4800.000000;2.218008
4799.000000;2.214793
4798.000000;2.212163
4797.000000;2.210496
4796.000000;2.209350
4795.000000;2.207891
4794.000000;2.205499
4793.000000;2.202218
4792.000000;2.198859
4791.000000;2.196486
4790.000000;2.195387
4789.000000;2.194566
4788.000000;2.192595
4787.000000;2.189103
4786.000000;2.185125
4785.000000;2.181894
4784.000000;2.179662
4783.000000;2.177817
4782.000000;2.175724
4781.000000;2.173178
4780.000000;2.170321
4779.000000;2.167529
4778.000000;2.165228
4777.000000;2.163494
4776.000000;2.161924
4775.000000;2.160174
4774.000000;2.158414
4773.000000;2.156877
4772.000000;2.155147
4771.000000;2.152435
4770.000000;2.148620
4769.000000;2.144557
4768.000000;2.141227
4767.000000;2.138915
4766.000000;2.137302
4765.000000;2.135951
4764.000000;2.134514
4763.000000;2.132759
4762.000000;2.130675
4761.000000;2.128452
4760.000000;2.126247
4759.000000;2.124134
4758.000000;2.122240
4757.000000;2.120606
4756.000000;2.118804
4755.000000;2.116137
4754.000000;2.112501
4753.000000;2.108718
4752.000000;2.105689
4751.000000;2.103501
4750.000000;2.101679
4749.000000;2.100049
4748.000000;2.098830
4747.000000;2.097975
4746.000000;2.096913
4745.000000;2.095124
4744.000000;2.092648
4743.000000;2.089928
4742.000000;2.087372
4741.000000;2.085156
4740.000000;2.083204
4739.000000;2.081222
4738.000000;2.078911
4737.000000;2.076301
4736.000000;2.073747
4735.000000;2.071480
4734.000000;2.069286
4733.000000;2.066771
4732.000000;2.063860
4731.000000;2.060953
4730.000000;2.058586
4729.000000;2.056924
4728.000000;2.055564
4727.000000;2.053873
4726.000000;2.051585
4725.000000;2.049055
4724.000000;2.046853
4723.000000;2.045156
4722.000000;2.043650
4721.000000;2.041981
4720.000000;2.040129
4719.000000;2.038280
4718.000000;2.036497
4717.000000;2.034657
4716.000000;2.032671
4715.000000;2.030607
4714.000000;2.028563
4713.000000;2.026490
4712.000000;2.024229
4711.000000;2.021738
4710.000000;2.019242
4709.000000;2.017075
4708.000000;2.015348
4707.000000;2.013801
4706.000000;2.012030
4705.000000;2.009903
4704.000000;2.007721
4703.000000;2.005951
4702.000000;2.004784
4701.000000;2.003958
4700.000000;2.002994
4699.000000;2.001605
4698.000000;1.999853
4697.000000;1.997941
4696.000000;1.995949
4695.000000;1.993856
4694.000000;1.991719
4693.000000;1.989704
4692.000000;1.987952
4691.000000;1.986526
4690.000000;1.985436
4689.000000;1.984517
4688.000000;1.983291
4687.000000;1.981239
4686.000000;1.978404
4685.000000;1.975556
4684.000000;1.973513
4683.000000;1.972320
4682.000000;1.971279
4681.000000;1.969730
4680.000000;1.967638
4679.000000;1.965380
4678.000000;1.963189
4677.000000;1.961008
4676.000000;1.958839
4675.000000;1.957031
4674.000000;1.956069
4673.000000;1.956049
4672.000000;1.956437
4671.000000;1.956465
4670.000000;1.955753
4669.000000;1.954481
4668.000000;1.952984
4667.000000;1.951350
4666.000000;1.949486
4665.000000;1.947414
4664.000000;1.945340
4663.000000;1.943498
4662.000000;1.942029
4661.000000;1.940930
4660.000000;1.939983
4659.000000;1.938793
4658.000000;1.937083
4657.000000;1.934980
4656.000000;1.932922
4655.000000;1.931272
4654.000000;1.930069
4653.000000;1.929116
4652.000000;1.928195
4651.000000;1.927201
4650.000000;1.926152
4649.000000;1.925082
4648.000000;1.923902
4647.000000;1.922436
4646.000000;1.920696
4645.000000;1.919017
4644.000000;1.917773
4643.000000;1.916973
4642.000000;1.916277
4641.000000;1.915396
4640.000000;1.914283
4639.000000;1.912899
4638.000000;1.911058
4637.000000;1.908721
4636.000000;1.906317
4635.000000;1.904521
4634.000000;1.903606
4633.000000;1.903135
4632.000000;1.902379
4631.000000;1.901015
4630.000000;1.899388
4629.000000;1.898053
4628.000000;1.897172
4627.000000;1.896407
4626.000000;1.895390
4625.000000;1.894128
4624.000000;1.892883
4623.000000;1.891770
4622.000000;1.890674
4621.000000;1.889512
4620.000000;1.888392
4619.000000;1.887447
4618.000000;1.886660
4617.000000;1.885965
4616.000000;1.885396
4615.000000;1.884983
4614.000000;1.884534
4613.000000;1.883710
4612.000000;1.882351
4611.000000;1.880635
4610.000000;1.878894
4609.000000;1.877337
4608.000000;1.876050
4607.000000;1.875131
4606.000000;1.874702
4605.000000;1.874724
4604.000000;1.874859
4603.000000;1.874602
4602.000000;1.873603
4601.000000;1.871918
4600.000000;1.870009
4599.000000;1.868467
4598.000000;1.867598
4597.000000;1.867182
4596.000000;1.866683
4595.000000;1.865765
4594.000000;1.864605
4593.000000;1.863603
4592.000000;1.862849
4591.000000;1.862025
4590.000000;1.860850
4589.000000;1.859449
4588.000000;1.858156
4587.000000;1.857103
4586.000000;1.856199
4585.000000;1.855447
4584.000000;1.855038
4583.000000;1.855033
4582.000000;1.855127
4581.000000;1.854872
4580.000000;1.854106
4579.000000;1.853062
4578.000000;1.852100
4577.000000;1.851421
4576.000000;1.851006
4575.000000;1.850674
4574.000000;1.850149
4573.000000;1.849213
4572.000000;1.847912
4571.000000;1.846572
4570.000000;1.845485
4569.000000;1.844622
4568.000000;1.843747
4567.000000;1.842774
4566.000000;1.841854
4565.000000;1.841099
4564.000000;1.840406
4563.000000;1.839639
4562.000000;1.838886
4561.000000;1.838392
4560.000000;1.838292
4559.000000;1.838485
4558.000000;1.838682
4557.000000;1.838514
4556.000000;1.837737
4555.000000;1.836493
4554.000000;1.835247
4553.000000;1.834276
4552.000000;1.833343
4551.000000;1.832113
4550.000000;1.830800
4549.000000;1.830068
4548.000000;1.830269
4547.000000;1.831057
4546.000000;1.831835
4545.000000;1.832287
4544.000000;1.832336
4543.000000;1.831876
4542.000000;1.830820
4541.000000;1.829313
4540.000000;1.827657
4539.000000;1.826100
4538.000000;1.824841
4537.000000;1.824106
4536.000000;1.823992
4535.000000;1.824257
4534.000000;1.824439
4533.000000;1.824182
4532.000000;1.823427
4531.000000;1.822387
4530.000000;1.821456
4529.000000;1.821027
4528.000000;1.821191
4527.000000;1.821648
4526.000000;1.822013
4525.000000;1.822121
4524.000000;1.821964
4523.000000;1.821489
4522.000000;1.820677
4521.000000;1.819743
4520.000000;1.818974
4519.000000;1.818382
4518.000000;1.817749
4517.000000;1.817034
4516.000000;1.816566
4515.000000;1.816712
4514.000000;1.817464
4513.000000;1.818391
4512.000000;1.818946
4511.000000;1.818815
4510.000000;1.818084
4509.000000;1.817104
4508.000000;1.816159
4507.000000;1.815298
4506.000000;1.814542
4505.000000;1.814119
4504.000000;1.814262
4503.000000;1.814797
4502.000000;1.815158
4501.000000;1.814977
4500.000000;1.814496
4499.000000;1.814257
4498.000000;1.814432
4497.000000;1.814636
4496.000000;1.814445
4495.000000;1.813977
4494.000000;1.813783
4493.000000;1.814215
4492.000000;1.815013
4491.000000;1.815598
4490.000000;1.815681
4489.000000;1.815471
4488.000000;1.815315
4487.000000;1.815325
4486.000000;1.815390
4485.000000;1.815389
4484.000000;1.815307
4483.000000;1.815263
4482.000000;1.815488
4481.000000;1.816112
4480.000000;1.816878
4479.000000;1.817227
4478.000000;1.816830
4477.000000;1.815929
4476.000000;1.815088
4475.000000;1.814708
4474.000000;1.814874
4473.000000;1.815441
4472.000000;1.816042
4471.000000;1.816240
4470.000000;1.815957
4469.000000;1.815709
4468.000000;1.816137
4467.000000;1.817317
4466.000000;1.818707
4465.000000;1.819708
4464.000000;1.820122
4463.000000;1.820111
4462.000000;1.819994
4461.000000;1.820101
4460.000000;1.820615
4459.000000;1.821457
4458.000000;1.822406
4457.000000;1.823265
4456.000000;1.823806
4455.000000;1.823734
4454.000000;1.823003
4453.000000;1.822182
4452.000000;1.822155
4451.000000;1.823316
4450.000000;1.825174
4449.000000;1.826789
4448.000000;1.827508
4447.000000;1.827318
4446.000000;1.826734
4445.000000;1.826425
4444.000000;1.826798
4443.000000;1.827778
4442.000000;1.829003
4441.000000;1.830198
4440.000000;1.831298
4439.000000;1.832263
4438.000000;1.832958
4437.000000;1.833279
4436.000000;1.833274
4435.000000;1.833139
4434.000000;1.833170
4433.000000;1.833652
4432.000000;1.834622
4431.000000;1.835763
4430.000000;1.836673
4429.000000;1.837230
4428.000000;1.837576
4427.000000;1.837843
4426.000000;1.838095
4425.000000;1.838435
4424.000000;1.838903
4423.000000;1.839341
4422.000000;1.839680
4421.000000;1.840346
4420.000000;1.841908
4419.000000;1.844132
4418.000000;1.845786
4417.000000;1.845808
4416.000000;1.844581
4415.000000;1.843684
4414.000000;1.844350
4413.000000;1.846343
4412.000000;1.848351
4411.000000;1.849344
4410.000000;1.849533
4409.000000;1.850003
4408.000000;1.851483
4407.000000;1.853544
4406.000000;1.855043
4405.000000;1.855279
4404.000000;1.854614
4403.000000;1.854021
4402.000000;1.854255
4401.000000;1.855475
4400.000000;1.857395
4399.000000;1.859547
4398.000000;1.861478
4397.000000;1.862871
4396.000000;1.863602
4395.000000;1.863746
4394.000000;1.863583
4393.000000;1.863521
4392.000000;1.863884
4391.000000;1.864681
4390.000000;1.865600
4389.000000;1.866253
4388.000000;1.866518
4387.000000;1.866691
4386.000000;1.867196
4385.000000;1.868048
4384.000000;1.868753
4383.000000;1.868951
4382.000000;1.869011
4381.000000;1.869607
4380.000000;1.870720
4379.000000;1.871585
4378.000000;1.871817
4377.000000;1.872040
4376.000000;1.873025
4375.000000;1.874656
4374.000000;1.876243
4373.000000;1.877496
4372.000000;1.878610
4371.000000;1.879615
4370.000000;1.880305
4369.000000;1.880679
4368.000000;1.880904
4367.000000;1.880929
4366.000000;1.880687
4365.000000;1.880555
4364.000000;1.880983
4363.000000;1.881681
4362.000000;1.881936
4361.000000;1.881818
4360.000000;1.882204
4359.000000;1.883400
4358.000000;1.884562
4357.000000;1.884915
4356.000000;1.884848
4355.000000;1.885173
4354.000000;1.885924
4353.000000;1.886603
4352.000000;1.887212
4351.000000;1.888256
4350.000000;1.889823
4349.000000;1.891351
4348.000000;1.892421
4347.000000;1.893329
4346.000000;1.894621
4345.000000;1.896283
4344.000000;1.897603
4343.000000;1.897789
4342.000000;1.896819
4341.000000;1.895634
4340.000000;1.895178
4339.000000;1.895180
4338.000000;1.894392
4337.000000;1.892380
4336.000000;1.890587
4335.000000;1.891005
4334.000000;1.893988
4333.000000;1.897733
4332.000000;1.899950
4331.000000;1.899986
4330.000000;1.899193
4329.000000;1.899299
4328.000000;1.900685
4327.000000;1.902213
4326.000000;1.902637
4325.000000;1.902012
4324.000000;1.901531
4323.000000;1.901992
4322.000000;1.902801
4321.000000;1.902789
4320.000000;1.901806
4319.000000;1.900969
4318.000000;1.901322
4317.000000;1.902797
4316.000000;1.904500
4315.000000;1.905612
4314.000000;1.905900
4313.000000;1.905585
4312.000000;1.904997
4311.000000;1.904345
4310.000000;1.903609
4309.000000;1.902628
4308.000000;1.901504
4307.000000;1.900888
4306.000000;1.901556
4305.000000;1.903416
4304.000000;1.905033
4303.000000;1.904724
4302.000000;1.902352
4301.000000;1.899491
4300.000000;1.897594
4299.000000;1.896747
4298.000000;1.896547
4297.000000;1.897354
4296.000000;1.899740
4295.000000;1.903099
4294.000000;1.905774
4293.000000;1.906741
4292.000000;1.906324
4291.000000;1.905142
4290.000000;1.903372
4289.000000;1.901419
4288.000000;1.900277
4287.000000;1.900385
4286.000000;1.900627
4285.000000;1.899458
4284.000000;1.896909
4283.000000;1.894435
4282.000000;1.892848
4281.000000;1.891432
4280.000000;1.889263
4279.000000;1.886779
4278.000000;1.885345
4277.000000;1.885300
4276.000000;1.885063
4275.000000;1.882653
4274.000000;1.878022
4273.000000;1.873253
4272.000000;1.870382
4271.000000;1.869552
4270.000000;1.869462
4269.000000;1.869116
4268.000000;1.868663
4267.000000;1.868670
4266.000000;1.868993
4265.000000;1.868724
4264.000000;1.866937
4263.000000;1.863268
4262.000000;1.857977
4261.000000;1.851376
4260.000000;1.843337
4259.000000;1.833967
4258.000000;1.824930
4257.000000;1.819180
4256.000000;1.818475
4255.000000;1.821171
4254.000000;1.823178
4253.000000;1.821682
4252.000000;1.817455
4251.000000;1.813139
4250.000000;1.810380
4249.000000;1.809067
4248.000000;1.808164
4247.000000;1.806575
4246.000000;1.803713
4245.000000;1.799836
4244.000000;1.795846
4243.000000;1.792187
4242.000000;1.788139
4241.000000;1.782046
4240.000000;1.772961
4239.000000;1.762227
4238.000000;1.752979
4237.000000;1.747367
4236.000000;1.744511
4235.000000;1.741663
4234.000000;1.737213
4233.000000;1.731863
4232.000000;1.726688
4231.000000;1.721165
4230.000000;1.713717
4229.000000;1.703172
4228.000000;1.688871
4227.000000;1.670660
4226.000000;1.650348
4225.000000;1.632034
4224.000000;1.618912
4223.000000;1.609921
4222.000000;1.600936
4221.000000;1.589325
4220.000000;1.575848
4219.000000;1.561793
4218.000000;1.546507
4217.000000;1.529327
4216.000000;1.512211
4215.000000;1.497748
4214.000000;1.484394
4213.000000;1.465965
4212.000000;1.437690
4211.000000;1.402029
4210.000000;1.366422
4209.000000;1.335678
4208.000000;1.307760
4207.000000;1.276463
4206.000000;1.237482
4205.000000;1.191336
4204.000000;1.141257
4203.000000;1.089333
4202.000000;1.034069
4201.000000;0.972822
4200.000000;0.909525
4199.000000;0.859793
4198.000000;0.842550
4197.000000;0.865475
4196.000000;0.920906
4195.000000;0.991099
4194.000000;1.061455
4193.000000;1.127572
4192.000000;1.188416
4191.000000;1.241169
4190.000000;1.286206
4189.000000;1.330028
4188.000000;1.377258
4187.000000;1.423561
4186.000000;1.461699
4185.000000;1.492322
4184.000000;1.523474
4183.000000;1.560851
4182.000000;1.603278
4181.000000;1.646312
4180.000000;1.685228
4179.000000;1.715593
4178.000000;1.736745
4177.000000;1.753902
4176.000000;1.772249
4175.000000;1.790305
4174.000000;1.802901
4173.000000;1.809861
4172.000000;1.817075
4171.000000;1.829235
4170.000000;1.846464
4169.000000;1.867438
4168.000000;1.890844
4167.000000;1.914259
4166.000000;1.935345
4165.000000;1.954161
4164.000000;1.973093
4163.000000;1.993822
4162.000000;2.015666
4161.000000;2.037849
4160.000000;2.059857
4159.000000;2.077840
4158.000000;2.086083
4157.000000;2.085699
4156.000000;2.086404
4155.000000;2.096841
4154.000000;2.117128
4153.000000;2.140183
4152.000000;2.157650
4151.000000;2.166757
4150.000000;2.173073
4149.000000;2.183702
4148.000000;2.199521
4147.000000;2.216102
4146.000000;2.230601
4145.000000;2.245885
4144.000000;2.264825
4143.000000;2.282460
4142.000000;2.291056
4141.000000;2.292499
4140.000000;2.296018
4139.000000;2.303769
4138.000000;2.307907
4137.000000;2.305697
4136.000000;2.309303
4135.000000;2.330788
4134.000000;2.365734
4133.000000;2.396006
4132.000000;2.407690
4131.000000;2.403917
4130.000000;2.397073
4129.000000;2.395687
4128.000000;2.399978
4127.000000;2.404502
4126.000000;2.405991
4125.000000;2.408874
4124.000000;2.418648
4123.000000;2.430961
4122.000000;2.434023
4121.000000;2.425907
4120.000000;2.419216
4119.000000;2.424378
4118.000000;2.437775
4117.000000;2.447045
4116.000000;2.447013
4115.000000;2.446586
4114.000000;2.457674
4113.000000;2.482547
4112.000000;2.510198
4111.000000;2.523385
4110.000000;2.515739
4109.000000;2.499203
4108.000000;2.488948
4107.000000;2.489898
4106.000000;2.500541
4105.000000;2.522818
4104.000000;2.560910
4103.000000;2.608959
4102.000000;2.646399
4101.000000;2.653141
4100.000000;2.630633
4099.000000;2.596349
4098.000000;2.563873
4097.000000;2.544011
4096.000000;2.548269
4095.000000;2.579021
4094.000000;2.621678
4093.000000;2.653333
4092.000000;2.668969
4091.000000;2.685861
4090.000000;2.716469
4089.000000;2.751222
4088.000000;2.767523
4087.000000;2.756419
4086.000000;2.726955
4085.000000;2.691724
4084.000000;2.660587
4083.000000;2.638518
4082.000000;2.628508
4081.000000;2.636189
4080.000000;2.666979
4079.000000;2.716828
4078.000000;2.765708
4077.000000;2.790236
4076.000000;2.793030
4075.000000;2.792922
4074.000000;2.794067
4073.000000;2.792154
4072.000000;2.791620
4071.000000;2.798843
4070.000000;2.805726
4069.000000;2.795862
4068.000000;2.770648
4067.000000;2.749593
4066.000000;2.743729
4065.000000;2.745945
4064.000000;2.747436
4063.000000;2.753789
4062.000000;2.774273
4061.000000;2.803155
4060.000000;2.820075
4059.000000;2.812569
4058.000000;2.793977
4057.000000;2.787585
4056.000000;2.803720
4055.000000;2.834758
4054.000000;2.862114
4053.000000;2.870483
4052.000000;2.857974
4051.000000;2.830062
4050.000000;2.794466
4049.000000;2.764181
4048.000000;2.754909
4047.000000;2.776907
4046.000000;2.828076
4045.000000;2.892715
4044.000000;2.947673
4043.000000;2.973737
4042.000000;2.964970
4041.000000;2.933818
4040.000000;2.908749
4039.000000;2.913175
4038.000000;2.944585
4037.000000;2.974251
4036.000000;2.973813
4035.000000;2.947168
4034.000000;2.921274
4033.000000;2.917158
4032.000000;2.940990
4031.000000;2.979915
4030.000000;3.005260
4029.000000;2.999436
4028.000000;2.977763
4027.000000;2.973212
4026.000000;3.004143
4025.000000;3.059899
4024.000000;3.112047
4023.000000;3.140731
4022.000000;3.147616
4021.000000;3.138370
4020.000000;3.110217
4019.000000;3.068984
4018.000000;3.035074
4017.000000;3.024312
4016.000000;3.034227
4015.000000;3.047383
4014.000000;3.048307
4013.000000;3.037734
4012.000000;3.026516
4011.000000;3.022820
4010.000000;3.031632
4009.000000;3.058356
4008.000000;3.098453
4007.000000;3.123751
4006.000000;3.116887
4005.000000;3.110262
4004.000000;3.136475
4003.000000;3.191805
4002.000000;3.250887
4001.000000;3.295491
4000.000000;3.324756
3999.000000;3.335751
3998.000000;3.311364
3997.000000;3.257649
3996.000000;3.204769
3995.000000;3.158228
3994.000000;3.112669
3993.000000;3.082405
3992.000000;3.088760
3991.000000;3.133786
3990.000000;3.188466
3989.000000;3.220161
3988.000000;3.233564
3987.000000;3.258150
3986.000000;3.307337
3985.000000;3.356603
3984.000000;3.356592
3983.000000;3.299850
3982.000000;3.229482
3981.000000;3.178752
3980.000000;3.170725
3979.000000;3.223496
3978.000000;3.334068
3977.000000;3.453430
3976.000000;3.495606
3975.000000;3.430287
3974.000000;3.319695
3973.000000;3.235864
3972.000000;3.202241
3971.000000;3.207498
3970.000000;3.225750
3969.000000;3.231470
3968.000000;3.214357
3967.000000;3.186772
3966.000000;3.170633
3965.000000;3.180311
3964.000000;3.224364
3963.000000;3.296756
3962.000000;3.360728
3961.000000;3.375430
3960.000000;3.337872
3959.000000;3.293986
3958.000000;3.275665
3957.000000;3.270405
3956.000000;3.270441
3955.000000;3.286155
3954.000000;3.316515
3953.000000;3.346448
3952.000000;3.369130
3951.000000;3.398510
3950.000000;3.433776
3949.000000;3.442652
3948.000000;3.420644
3947.000000;3.391756
3946.000000;3.370588
3945.000000;3.354225
3944.000000;3.324133
3943.000000;3.273635
3942.000000;3.226015
3941.000000;3.209782
3940.000000;3.227630
3939.000000;3.258370
3938.000000;3.283270
3937.000000;3.303837
3936.000000;3.343024
3935.000000;3.421917
3934.000000;3.515369
3933.000000;3.552245
3932.000000;3.513258
3931.000000;3.471389
3930.000000;3.493567
3929.000000;3.574106
3928.000000;3.635405
3927.000000;3.624297
3926.000000;3.585968
3925.000000;3.583781
3924.000000;3.647357
3923.000000;3.788739
3922.000000;3.951974
3921.000000;3.918695
3920.000000;3.731455
3919.000000;3.547367
3918.000000;3.406013
3917.000000;3.333929
3916.000000;3.342793
3915.000000;3.386340
3914.000000;3.374574
3913.000000;3.348284
3912.000000;3.382999
3911.000000;3.466675
3910.000000;3.554801
3909.000000;3.601248
3908.000000;3.605143
3907.000000;3.612592
3906.000000;3.679353
3905.000000;3.738647
3904.000000;3.671464
3903.000000;3.587086
3902.000000;3.644456
3901.000000;3.705797
3900.000000;3.456356
3899.000000;3.287087
3898.000000;3.284924
3897.000000;3.427522
3896.000000;3.726803
3895.000000;4.163248
3894.000000;4.375666
3893.000000;4.225496
3892.000000;4.190114
3891.000000;4.127933
3890.000000;3.937457
3889.000000;3.726372
3888.000000;3.603964
3887.000000;3.677224
3886.000000;4.001540
3885.000000;3.783305
3884.000000;3.473698
3883.000000;3.443348
3882.000000;3.617841
3881.000000;3.748577
3880.000000;3.649102
3879.000000;3.564239
3878.000000;3.590655
3877.000000;3.658160
3876.000000;3.525332
3875.000000;3.445686
3874.000000;3.461929
3873.000000;3.410195
3872.000000;3.386261
3871.000000;3.494756
3870.000000;3.877210
3869.000000;4.384588
3868.000000;3.883282
3867.000000;3.668903
3866.000000;3.574636
3865.000000;3.574443
3864.000000;3.654419
3863.000000;3.782609
3862.000000;3.845144
3861.000000;3.739199
3860.000000;3.682110
3859.000000;3.812933
3858.000000;3.977899
3857.000000;3.755239
3856.000000;3.609103
3855.000000;3.708004
3854.000000;4.033650
3853.000000;4.020737
3852.000000;3.836075
3851.000000;3.849630
3850.000000;4.021902
3849.000000;4.332089
3848.000000;4.609534
3847.000000;4.435686
3846.000000;4.126146
3845.000000;3.977719
3844.000000;3.921900
3843.000000;3.777964
3842.000000;3.680415
3841.000000;3.680903
3840.000000;3.890951
3839.000000;4.066067
3838.000000;3.815271
3837.000000;3.823921
3836.000000;3.966436
3835.000000;4.084283
3834.000000;4.197051
3833.000000;4.433823
3832.000000;4.076050
3831.000000;3.660168
3830.000000;3.560142
3829.000000;3.582063
3828.000000;3.542335
3827.000000;3.494317
3826.000000;3.490028
3825.000000;3.488828
3824.000000;3.484614
3823.000000;3.525754
3822.000000;3.639903
3821.000000;3.815287
3820.000000;4.029421
3819.000000;3.755459
3818.000000;3.547869
3817.000000;3.515356
3816.000000;3.443284
3815.000000;3.467572
3814.000000;3.586186
3813.000000;3.710258
3812.000000;3.799900
3811.000000;3.893653
3810.000000;4.003303
3809.000000;4.065598
3808.000000;4.526493
3807.000000;4.314431
3806.000000;3.793423
3805.000000;3.743902
3804.000000;3.840493
3803.000000;4.009908
3802.000000;4.093228
3801.000000;3.793429
3800.000000;3.579254
3799.000000;3.548922
3798.000000;3.658420
3797.000000;3.816332
3796.000000;3.850633
3795.000000;3.688752
3794.000000;3.503334
3793.000000;3.417974
3792.000000;3.459482
3791.000000;3.568213
3790.000000;3.625730
3789.000000;3.582161
3788.000000;3.496199
3787.000000;3.458440
3786.000000;3.501253
3785.000000;3.736831
3784.000000;4.197421
3783.000000;3.992092
3782.000000;3.756921
3781.000000;3.660957
3780.000000;3.586862
3779.000000;3.602733
3778.000000;3.706798
3777.000000;3.901271
3776.000000;4.434010
3775.000000;4.407361
3774.000000;3.942384
3773.000000;3.747002
3772.000000;3.542797
3771.000000;3.377684
3770.000000;3.293202
3769.000000;3.305155
3768.000000;3.429511
3767.000000;3.643945
3766.000000;3.728541
3765.000000;3.795850
3764.000000;4.108318
3763.000000;3.931798
3762.000000;3.634983
3761.000000;3.579762
3760.000000;3.634785
3759.000000;3.667196
3758.000000;3.615123
3757.000000;3.517803
3756.000000;3.464642
3755.000000;3.453783
3754.000000;3.428418
3753.000000;3.424372
3752.000000;3.529237
3751.000000;3.889295
3750.000000;4.216838
3749.000000;3.947693
3748.000000;3.898831
3747.000000;4.034228
3746.000000;4.268326
3745.000000;4.367250
3744.000000;4.320419
3743.000000;4.201452
3742.000000;3.974904
3741.000000;3.943801
3740.000000;4.259594
3739.000000;4.326659
3738.000000;3.972503
3737.000000;3.833522
3736.000000;3.887220
3735.000000;4.061529
3734.000000;3.961803
3733.000000;3.768375
3732.000000;3.637494
3731.000000;3.513990
3730.000000;3.440273
3729.000000;3.482873
3728.000000;3.631155
3727.000000;3.763343
3726.000000;3.919185
3725.000000;4.216379
3724.000000;4.212548
3723.000000;4.125019
3722.000000;4.212264
3721.000000;4.034422
3720.000000;3.805622
3719.000000;3.693532
3718.000000;3.662579
3717.000000;3.622160
3716.000000;3.643220
3715.000000;3.850681
3714.000000;4.148555
3713.000000;4.223328
3712.000000;3.869458
3711.000000;3.561048
3710.000000;3.444345
3709.000000;3.475705
3708.000000;3.605985
3707.000000;3.967061
3706.000000;4.066514
3705.000000;3.657043
3704.000000;3.590687
3703.000000;3.630865
3702.000000;3.635356
3701.000000;3.567167
3700.000000;3.416963
3699.000000;3.287926
3698.000000;3.258884
3697.000000;3.337494
3696.000000;3.424012
3695.000000;3.464952
3694.000000;3.523126
3693.000000;3.636045
3692.000000;3.844897
3691.000000;4.008408
3690.000000;3.702073
3689.000000;3.510173
3688.000000;3.521270
3687.000000;3.599769
3686.000000;3.711538
3685.000000;3.845790
3684.000000;4.080239
3683.000000;4.238814
3682.000000;3.855377
3681.000000;3.634377
3680.000000;3.580519
3679.000000;3.644097
3678.000000;3.607511
3677.000000;3.444804
3676.000000;3.397133
3675.000000;3.437708
3674.000000;3.490867
3673.000000;3.492288
3672.000000;3.714668
3671.000000;4.052289
3670.000000;3.751317
3669.000000;3.717166
3668.000000;3.962621
3667.000000;4.410070
3666.000000;4.070207
3665.000000;3.772260
3664.000000;3.793779
3663.000000;3.792043
3662.000000;3.686879
3661.000000;3.680461
3660.000000;3.860712
3659.000000;3.959842
3658.000000;3.744777
3657.000000;3.661457
3656.000000;3.679897
3655.000000;3.735584
3654.000000;3.827948
3653.000000;3.741234
3652.000000;3.618038
3651.000000;3.605693
3650.000000;3.820239
3649.000000;3.815994
3648.000000;3.431530
3647.000000;3.428594
3646.000000;3.529651
3645.000000;3.456931
3644.000000;3.403607
3643.000000;3.422309
3642.000000;3.581848
3641.000000;3.872078
3640.000000;4.213953
3639.000000;4.208910
3638.000000;3.982479
3637.000000;3.867218
3636.000000;3.901083
3635.000000;4.095781
3634.000000;4.228541
3633.000000;3.919774
3632.000000;3.704462
3631.000000;3.622641
3630.000000;3.589684
3629.000000;3.535953
3628.000000;3.412947
3627.000000;3.288397
3626.000000;3.299685
3625.000000;3.482940
3624.000000;3.867167
3623.000000;4.136790
3622.000000;3.828836
3621.000000;3.664406
3620.000000;3.630537
3619.000000;3.721941
3618.000000;3.856098
3617.000000;4.130814
3616.000000;4.089745
3615.000000;3.667142
3614.000000;3.521336
3613.000000;3.549777
3612.000000;3.652715
3611.000000;3.650079
3610.000000;3.551079
3609.000000;3.529874
3608.000000;3.665219
3607.000000;3.776007
3606.000000;3.679928
3605.000000;3.723874
3604.000000;3.819296
3603.000000;3.675525
3602.000000;3.486103
3601.000000;3.412137
3600.000000;3.453597
3599.000000;3.521124
3598.000000;3.586647
3597.000000;3.742226
3596.000000;4.090115
3595.000000;4.504515
3594.000000;4.176331
3593.000000;3.819300
3592.000000;3.654449
3591.000000;3.666711
3590.000000;3.770718
3589.000000;3.750340
3588.000000;3.681112
3587.000000;3.743019
3586.000000;3.883232
3585.000000;3.865386
3584.000000;3.832801
3583.000000;3.742799
3582.000000;3.636465
3581.000000;3.565907
3580.000000;3.687338
3579.000000;4.188348
3578.000000;3.751478
3577.000000;3.469623
3576.000000;3.437689
3575.000000;3.522329
3574.000000;3.721037
3573.000000;3.873471
3572.000000;3.835914
3571.000000;3.671392
3570.000000;3.547881
3569.000000;3.440435
3568.000000;3.359554
3567.000000;3.350987
3566.000000;3.494439
3565.000000;4.041798
3564.000000;4.551865
3563.000000;4.133055
3562.000000;4.240165
3561.000000;4.246767
3560.000000;4.069912
3559.000000;3.966867
3558.000000;3.910163
3557.000000;3.819101
3556.000000;3.817349
3555.000000;4.017711
3554.000000;4.300524
3553.000000;4.077600
3552.000000;3.865312
3551.000000;3.783651
3550.000000;3.745173
3549.000000;3.692414
3548.000000;3.608939
3547.000000;3.574012
3546.000000;3.674725
3545.000000;4.087740
3544.000000;4.122296
3543.000000;3.724164
3542.000000;3.610568
3541.000000;3.553982
3540.000000;3.600362
3539.000000;3.732998
3538.000000;3.606621
3537.000000;3.472739
3536.000000;3.624275
3535.000000;3.889197
3534.000000;3.770563
3533.000000;3.690523
3532.000000;3.820092
3531.000000;4.164899
3530.000000;3.924359
3529.000000;3.614236
3528.000000;3.514245
3527.000000;3.505539
3526.000000;3.533858
3525.000000;3.540887
3524.000000;3.529177
3523.000000;3.543406
3522.000000;3.633527
3521.000000;3.805185
3520.000000;3.914320
3519.000000;3.915320
3518.000000;3.922154
3517.000000;3.796039
3516.000000;3.643548
3515.000000;3.586048
3514.000000;3.621405
3513.000000;3.748579
3512.000000;3.670140
3511.000000;3.448469
3510.000000;3.359402
3509.000000;3.377109
3508.000000;3.448762
3507.000000;3.540086
3506.000000;3.653837
3505.000000;3.830280
3504.000000;4.023704
3503.000000;3.838220
3502.000000;3.579735
3501.000000;3.455868
3500.000000;3.432922
3499.000000;3.464382
3498.000000;3.520072
3497.000000;3.582782
3496.000000;3.748954
3495.000000;4.051215
3494.000000;3.773478
3493.000000;3.602649
3492.000000;3.649808
3491.000000;3.915001
3490.000000;4.479635
3489.000000;4.103876
3488.000000;3.839106
3487.000000;3.779270
3486.000000;3.788431
3485.000000;3.761095
3484.000000;3.582815
3483.000000;3.406807
3482.000000;3.333154
3481.000000;3.339438
3480.000000;3.379742
3479.000000;3.423748
3478.000000;3.483715
3477.000000;3.551187
3476.000000;3.467841
3475.000000;3.345713
3474.000000;3.363136
3473.000000;3.497815
3472.000000;3.538850
3471.000000;3.470321
3470.000000;3.443669
3469.000000;3.494270
3468.000000;3.592711
3467.000000;3.569613
3466.000000;3.514387
3465.000000;3.634967
3464.000000;4.032536
3463.000000;4.004607
3462.000000;3.623910
3461.000000;3.461462
3460.000000;3.377535
3459.000000;3.375437
3458.000000;3.442073
3457.000000;3.527228
3456.000000;3.557241
3455.000000;3.551480
3454.000000;3.599590
3453.000000;3.599497
3452.000000;3.470516
3451.000000;3.423313
3450.000000;3.544518
3449.000000;3.805469
3448.000000;4.167771
3447.000000;4.055645
3446.000000;3.769376
3445.000000;3.660019
3444.000000;3.626609
3443.000000;3.638792
3442.000000;3.687760
3441.000000;3.921210
3440.000000;4.373472
3439.000000;3.758890
3438.000000;3.449706
3437.000000;3.286758
3436.000000;3.224364
3435.000000;3.244039
3434.000000;3.282525
3433.000000;3.302866
3432.000000;3.378674
3431.000000;3.510275
3430.000000;3.503628
3429.000000;3.477185
3428.000000;3.607464
3427.000000;3.883266
3426.000000;3.952528
3425.000000;3.903847
3424.000000;3.955162
3423.000000;3.841005
3422.000000;3.749006
3421.000000;3.700169
3420.000000;3.582824
3419.000000;3.479594
3418.000000;3.476131
3417.000000;3.661584
3416.000000;4.018696
3415.000000;3.836546
3414.000000;3.961524
3413.000000;4.670787
3412.000000;4.113899
3411.000000;4.025322
3410.000000;3.942809
3409.000000;3.646912
3408.000000;3.386109
3407.000000;3.251229
3406.000000;3.213135
3405.000000;3.230130
3404.000000;3.288203
3403.000000;3.408856
3402.000000;3.591683
3401.000000;3.863973
3400.000000;4.138722
3399.000000;3.748064
3398.000000;3.460786
3397.000000;3.326250
3396.000000;3.242100
3395.000000;3.189625
3394.000000;3.186294
3393.000000;3.280400
3392.000000;3.579201
3391.000000;3.782587
3390.000000;3.474297
3389.000000;3.378471
3388.000000;3.389284
3387.000000;3.410792
3386.000000;3.417341
3385.000000;3.450917
3384.000000;3.563631
3383.000000;3.690406
3382.000000;3.627753
3381.000000;3.552728
3380.000000;3.624151
3379.000000;3.696645
3378.000000;3.566730
3377.000000;3.474665
3376.000000;3.511809
3375.000000;3.594312
3374.000000;3.577703
3373.000000;3.461336
3372.000000;3.394704
3371.000000;3.448549
3370.000000;3.756876
3369.000000;4.044218
3368.000000;3.606673
3367.000000;3.434560
3366.000000;3.443070
3365.000000;3.578026
3364.000000;3.830976
3363.000000;4.101976
3362.000000;4.248454
3361.000000;4.030785
3360.000000;3.776884
3359.000000;3.668669
3358.000000;3.700366
3357.000000;3.740944
3356.000000;3.667799
3355.000000;3.646067
3354.000000;3.740363
3353.000000;3.868628
3352.000000;3.822764
3351.000000;3.691783
3350.000000;3.604362
3349.000000;3.553366
3348.000000;3.501512
3347.000000;3.440013
3346.000000;3.401311
3345.000000;3.407413
3344.000000;3.489609
3343.000000;3.760148
3342.000000;4.227203
3341.000000;3.764262
3340.000000;3.570337
3339.000000;3.507575
3338.000000;3.477973
3337.000000;3.530042
3336.000000;3.611914
3335.000000;3.561480
3334.000000;3.387894
3333.000000;3.325065
3332.000000;3.443191
3331.000000;3.772148
3330.000000;3.940882
3329.000000;3.718714
3328.000000;3.604970
3327.000000;3.597405
3326.000000;3.652955
3325.000000;3.737535
3324.000000;3.987292
3323.000000;3.742481
3322.000000;3.448033
3321.000000;3.385183
3320.000000;3.424830
3319.000000;3.531382
3318.000000;3.604758
3317.000000;3.646470
3316.000000;3.693708
3315.000000;3.568572
3314.000000;3.427529
3313.000000;3.424868
3312.000000;3.564093
3311.000000;3.753628
3310.000000;3.797087
3309.000000;3.750826
3308.000000;3.697301
3307.000000;3.734854
3306.000000;3.932535
3305.000000;4.321476
3304.000000;5.068336
3303.000000;4.287824
3302.000000;4.411988
3301.000000;4.302135
3300.000000;3.510969
3299.000000;3.257081
3298.000000;3.168070
3297.000000;3.192712
3296.000000;3.246631
3295.000000;3.305807
3294.000000;3.381076
3293.000000;3.338728
3292.000000;3.241324
3291.000000;3.241088
3290.000000;3.349844
3289.000000;3.517335
3288.000000;3.576356
3287.000000;3.532787
3286.000000;3.524899
3285.000000;3.565184
3284.000000;3.576095
3283.000000;3.492110
3282.000000;3.388160
3281.000000;3.336465
3280.000000;3.349478
3279.000000;3.412699
3278.000000;3.513039
3277.000000;3.711033
3276.000000;3.920566
3275.000000;3.696905
3274.000000;3.577004
3273.000000;3.639423
3272.000000;3.871108
3271.000000;3.805440
3270.000000;3.579882
3269.000000;3.492933
3268.000000;3.337566
3267.000000;3.185507
3266.000000;3.140000
3265.000000;3.233893
3264.000000;3.468780
3263.000000;4.100912
3262.000000;4.104971
3261.000000;3.666716
3260.000000;3.533299
3259.000000;3.570179
3258.000000;3.615745
3257.000000;3.466522
3256.000000;3.393965
3255.000000;3.460101
3254.000000;3.710467
3253.000000;4.294539
3252.000000;3.812928
3251.000000;3.715255
3250.000000;3.718559
3249.000000;3.530216
3248.000000;3.351068
3247.000000;3.312802
3246.000000;3.462715
3245.000000;3.843294
3244.000000;3.623475
3243.000000;3.319998
3242.000000;3.203653
3241.000000;3.151279
3240.000000;3.170362
3239.000000;3.249840
3238.000000;3.370117
3237.000000;3.455612
3236.000000;3.494223
3235.000000;3.533019
3234.000000;3.482934
3233.000000;3.404869
3232.000000;3.404003
3231.000000;3.440770
3230.000000;3.450357
3229.000000;3.476362
3228.000000;3.577833
3227.000000;3.618483
3226.000000;3.554054
3225.000000;3.706123
3224.000000;4.353461
3223.000000;3.645777
3222.000000;3.402303
3221.000000;3.319795
3220.000000;3.341020
3219.000000;3.414737
3218.000000;3.475063
3217.000000;3.479358
3216.000000;3.473931
3215.000000;3.526598
3214.000000;3.533765
3213.000000;3.393590
3212.000000;3.274998
3211.000000;3.243513
3210.000000;3.312439
3209.000000;3.494069
3208.000000;3.442263
3207.000000;3.320004
3206.000000;3.327789
3205.000000;3.359470
3204.000000;3.320268
3203.000000;3.264964
3202.000000;3.276250
3201.000000;3.328818
3200.000000;3.328131
3199.000000;3.321045
3198.000000;3.408472
3197.000000;3.678139
3196.000000;4.021741
3195.000000;3.764226
3194.000000;3.758184
3193.000000;3.948536
3192.000000;3.765255
3191.000000;3.404715
3190.000000;3.256889
3189.000000;3.248363
3188.000000;3.368259
3187.000000;3.577538
3186.000000;3.711085
3185.000000;3.650062
3184.000000;3.525953
3183.000000;3.433358
3182.000000;3.435754
3181.000000;3.498860
3180.000000;3.464452
3179.000000;3.442968
3178.000000;3.653078
3177.000000;3.552469
3176.000000;3.283635
3175.000000;3.180688
3174.000000;3.174544
3173.000000;3.236322
3172.000000;3.334394
3171.000000;3.426581
3170.000000;3.554489
3169.000000;3.697971
3168.000000;3.653142
3167.000000;3.565925
3166.000000;3.614315
3165.000000;3.615660
3164.000000;3.501867
3163.000000;3.512037
3162.000000;3.733673
3161.000000;4.002673
3160.000000;3.821769
3159.000000;3.736923
3158.000000;4.229901
3157.000000;3.754466
3156.000000;3.326594
3155.000000;3.162793
3154.000000;3.148694
3153.000000;3.290028
3152.000000;3.918721
3151.000000;3.776228
3150.000000;3.500112
3149.000000;3.451511
3148.000000;3.438366
3147.000000;3.547753
3146.000000;3.866159
3145.000000;3.902597
3144.000000;3.746248
3143.000000;3.797701
3142.000000;4.184663
3141.000000;4.511363
3140.000000;3.923526
3139.000000;3.787163
3138.000000;3.639322
3137.000000;3.640695
3136.000000;3.864513
3135.000000;3.680965
3134.000000;3.373170
3133.000000;3.318300
3132.000000;3.412063
3131.000000;3.570160
3130.000000;3.609460
3129.000000;3.652945
3128.000000;3.994115
3127.000000;4.010342
3126.000000;3.724560
3125.000000;3.618414
3124.000000;3.470357
3123.000000;3.332752
3122.000000;3.258012
3121.000000;3.254606
3120.000000;3.367813
3119.000000;3.683829
3118.000000;3.932482
3117.000000;3.777109
3116.000000;3.868024
3115.000000;3.799246
3114.000000;3.588854
3113.000000;3.455163
3112.000000;3.462038
3111.000000;3.703538
3110.000000;4.220794
3109.000000;4.175703
3108.000000;4.225610
3107.000000;4.220820
3106.000000;3.910113
3105.000000;3.605145
3104.000000;3.381651
3103.000000;3.250676
3102.000000;3.183496
3101.000000;3.200067
3100.000000;3.332475
3099.000000;3.644834
3098.000000;3.804774
3097.000000;3.601185
3096.000000;3.489389
3095.000000;3.453439
3094.000000;3.463286
3093.000000;3.487075
3092.000000;3.524188
3091.000000;3.523559
3090.000000;3.406830
3089.000000;3.356164
3088.000000;3.494200
3087.000000;3.964589
3086.000000;3.844639
3085.000000;3.490280
3084.000000;3.437892
3083.000000;3.461019
3082.000000;3.672978
3081.000000;4.185119
3080.000000;3.878762
3079.000000;3.590108
3078.000000;3.557254
3077.000000;3.591970
3076.000000;3.715264
3075.000000;3.625135
3074.000000;3.392491
3073.000000;3.280868
3072.000000;3.290416
3071.000000;3.392727
3070.000000;3.476574
3069.000000;3.347110
3068.000000;3.164907
3067.000000;3.047602
3066.000000;3.018508
3065.000000;3.092239
3064.000000;3.241942
3063.000000;3.284512
3062.000000;3.230350
3061.000000;3.248252
3060.000000;3.495002
3059.000000;3.923864
3058.000000;3.469876
3057.000000;3.351456
3056.000000;3.393424
3055.000000;3.470633
3054.000000;3.563438
3053.000000;3.996801
3052.000000;3.923557
3051.000000;3.443605
3050.000000;3.243507
3049.000000;3.109166
3048.000000;3.049126
3047.000000;3.097638
3046.000000;3.325132
3045.000000;3.601000
3044.000000;3.411501
3043.000000;3.347045
3042.000000;3.510631
3041.000000;3.972780
3040.000000;3.389828
3039.000000;3.150700
3038.000000;3.114995
3037.000000;3.215215
3036.000000;3.439418
3035.000000;3.778801
3034.000000;3.711813
3033.000000;3.415597
3032.000000;3.319439
3031.000000;3.362679
3030.000000;3.674787
3029.000000;3.885858
3028.000000;3.511725
3027.000000;3.435731
3026.000000;3.573552
3025.000000;4.022733
3024.000000;3.713812
3023.000000;3.433583
3022.000000;3.426444
3021.000000;3.574598
3020.000000;3.466495
3019.000000;3.238983
3018.000000;3.195175
3017.000000;3.326077
3016.000000;3.661888
3015.000000;4.183708
3014.000000;3.956012
3013.000000;3.813577
3012.000000;3.697160
3011.000000;3.499148
3010.000000;3.409095
3009.000000;3.445703
3008.000000;3.515104
3007.000000;3.640952
3006.000000;3.976406
3005.000000;3.805340
3004.000000;3.574188
3003.000000;3.642534
3002.000000;3.660892
3001.000000;3.460201
3000.000000;3.361034
2999.000000;3.472646
2998.000000;3.824271
2997.000000;4.558543
2996.000000;3.871453
2995.000000;3.412655
2994.000000;3.248517
2993.000000;3.227356
2992.000000;3.313614
2991.000000;3.501543
2990.000000;3.845699
2989.000000;4.485346
2988.000000;4.017207
2987.000000;3.706208
2986.000000;3.574958
2985.000000;3.527079
2984.000000;3.514700
2983.000000;3.493827
2982.000000;3.452702
2981.000000;3.451351
2980.000000;3.494305
2979.000000;3.430214
2978.000000;3.385210
2977.000000;3.636244
2976.000000;3.673843
2975.000000;3.308398
2974.000000;3.193730
2973.000000;3.178674
2972.000000;3.299021
2971.000000;3.573321
2970.000000;3.538198
2969.000000;3.351070
2968.000000;3.299739
2967.000000;3.324412
2966.000000;3.445354
2965.000000;3.618513
2964.000000;3.727016
2963.000000;3.979222
2962.000000;3.757900
2961.000000;3.393781
2960.000000;3.208216
2959.000000;3.114050
2958.000000;3.088012
2957.000000;3.125083
2956.000000;3.207802
2955.000000;3.282521
2954.000000;3.325410
2953.000000;3.395765
2952.000000;3.511355
2951.000000;3.735349
2950.000000;3.840944
2949.000000;3.546736
2948.000000;3.420354
2947.000000;3.423596
2946.000000;3.462092
2945.000000;3.540606
2944.000000;3.646454
2943.000000;3.603007
2942.000000;3.448911
2941.000000;3.296224
2940.000000;3.181233
2939.000000;3.159142
2938.000000;3.272914
2937.000000;3.568778
2936.000000;4.062572
2935.000000;4.201166
2934.000000;3.971233
2933.000000;4.077639
2932.000000;4.122032
2931.000000;3.779858
2930.000000;3.742098
2929.000000;3.829576
2928.000000;3.696640
2927.000000;3.486708
2926.000000;3.498154
2925.000000;3.670890
2924.000000;3.443460
2923.000000;3.218482
2922.000000;3.175544
2921.000000;3.204502
2920.000000;3.232162
2919.000000;3.231465
2918.000000;3.254070
2917.000000;3.338401
2916.000000;3.415974
2915.000000;3.421353
2914.000000;3.421492
2913.000000;3.438838
2912.000000;3.411337
2911.000000;3.334109
2910.000000;3.290284
2909.000000;3.326145
2908.000000;3.425015
2907.000000;3.559703
2906.000000;3.620618
2905.000000;3.518937
2904.000000;3.444122
2903.000000;3.399807
2902.000000;3.310531
2901.000000;3.213445
2900.000000;3.175984
2899.000000;3.197861
2898.000000;3.218183
2897.000000;3.193737
2896.000000;3.184226
2895.000000;3.256765
2894.000000;3.458343
2893.000000;3.903990
2892.000000;4.094500
2891.000000;3.834729
2890.000000;3.844598
2889.000000;4.021640
2888.000000;3.920272
2887.000000;3.580299
2886.000000;3.403235
2885.000000;3.364405
2884.000000;3.496767
2883.000000;3.922673
2882.000000;4.050884
2881.000000;3.870611
2880.000000;3.840714
2879.000000;3.743126
2878.000000;3.585845
2877.000000;3.470372
2876.000000;3.436627
2875.000000;3.463823
2874.000000;3.434954
2873.000000;3.308815
2872.000000;3.208000
2871.000000;3.185255
2870.000000;3.241166
2869.000000;3.373492
2868.000000;3.750545
2867.000000;3.875948
2866.000000;3.482969
2865.000000;3.412272
2864.000000;3.469390
2863.000000;3.563526
2862.000000;3.561131
2861.000000;3.527875
2860.000000;3.773772
2859.000000;3.954075
2858.000000;3.477302
2857.000000;3.300712
2856.000000;3.316688
2855.000000;3.480763
2854.000000;3.707456
2853.000000;3.425621
2852.000000;3.206125
2851.000000;3.137604
2850.000000;3.153228
2849.000000;3.239292
2848.000000;3.382273
2847.000000;3.615199
2846.000000;3.849698
2845.000000;3.709437
2844.000000;3.518921
2843.000000;3.493275
2842.000000;3.649575
2841.000000;3.878260
2840.000000;4.048050
2839.000000;4.131646
2838.000000;3.954870
2837.000000;3.744753
2836.000000;3.663456
2835.000000;3.931259
2834.000000;3.889619
2833.000000;3.581056
2832.000000;3.592530
2831.000000;3.559326
2830.000000;3.372625
2829.000000;3.273367
2828.000000;3.270734
2827.000000;3.351795
2826.000000;3.500528
2825.000000;3.538013
2824.000000;3.435275
2823.000000;3.494927
2822.000000;3.619478
2821.000000;3.363774
2820.000000;3.156371
2819.000000;3.096793
2818.000000;3.145062
2817.000000;3.309322
2816.000000;3.697752
2815.000000;3.678090
2814.000000;3.260457
2813.000000;3.100604
2812.000000;3.072414
2811.000000;3.171875
2810.000000;3.366247
2809.000000;3.495753
2808.000000;3.448390
2807.000000;3.349041
2806.000000;3.273123
2805.000000;3.213403
2804.000000;3.216876
2803.000000;3.296164
2802.000000;3.391010
2801.000000;3.428203
2800.000000;3.445690
2799.000000;3.475608
2798.000000;3.468599
2797.000000;3.469817
2796.000000;3.562883
2795.000000;3.785216
2794.000000;4.050834
2793.000000;4.093319
2792.000000;3.768708
2791.000000;3.449690
2790.000000;3.320095
2789.000000;3.349778
2788.000000;3.484508
2787.000000;3.613998
2786.000000;3.664976
2785.000000;3.554158
2784.000000;3.397782
2783.000000;3.376372
2782.000000;3.472041
2781.000000;3.598718
2780.000000;3.887834
2779.000000;4.101009
2778.000000;3.645991
2777.000000;3.444780
2776.000000;3.419879
2775.000000;3.500075
2774.000000;3.499323
2773.000000;3.316159
2772.000000;3.229308
2771.000000;3.276961
2770.000000;3.404166
2769.000000;3.491375
2768.000000;3.531377
2767.000000;3.653644
2766.000000;3.704986
2765.000000;3.604021
2764.000000;3.531389
2763.000000;3.739113
2762.000000;4.036945
2761.000000;3.599653
2760.000000;3.449381
2759.000000;3.564983
2758.000000;3.646395
2757.000000;3.455685
2756.000000;3.321379
2755.000000;3.285238
2754.000000;3.263345
2753.000000;3.212574
2752.000000;3.166945
2751.000000;3.207116
2750.000000;3.388222
2749.000000;3.759873
2748.000000;3.893433
2747.000000;3.670517
2746.000000;3.591518
2745.000000;3.573846
2744.000000;3.525624
2743.000000;3.489792
2742.000000;3.528603
2741.000000;3.677706
2740.000000;3.652849
2739.000000;3.401306
2738.000000;3.245320
2737.000000;3.174433
2736.000000;3.179344
2735.000000;3.272365
2734.000000;3.434884
2733.000000;3.618482
2732.000000;3.722425
2731.000000;3.774177
2730.000000;3.736264
2729.000000;3.847740
2728.000000;4.229817
2727.000000;3.948825
2726.000000;4.017128
2725.000000;3.971496
2724.000000;3.472961
2723.000000;3.264938
2722.000000;3.187906
2721.000000;3.195354
2720.000000;3.255959
2719.000000;3.419019
2718.000000;3.652288
2717.000000;3.507601
2716.000000;3.437392
2715.000000;3.592211
2714.000000;3.691931
2713.000000;3.640932
2712.000000;3.646602
2711.000000;3.669718
2710.000000;3.693839
2709.000000;3.689646
2708.000000;3.582836
2707.000000;3.470339
2706.000000;3.453601
2705.000000;3.728930
2704.000000;3.909608
2703.000000;3.550371
2702.000000;3.431204
2701.000000;3.414867
2700.000000;3.514604
2699.000000;3.648388
2698.000000;3.473509
2697.000000;3.360598
2696.000000;3.421392
2695.000000;3.568665
2694.000000;3.681205
2693.000000;3.728017
2692.000000;3.735349
2691.000000;3.699633
2690.000000;3.685439
2689.000000;3.552152
2688.000000;3.440615
2687.000000;3.511294
2686.000000;3.912207
2685.000000;5.187196
2684.000000;4.389249
2683.000000;3.979024
2682.000000;3.925058
2681.000000;3.973049
2680.000000;3.601844
2679.000000;3.377736
2678.000000;3.365595
2677.000000;3.444917
2676.000000;3.468563
2675.000000;3.444955
2674.000000;3.499314
2673.000000;3.676317
2672.000000;3.821455
2671.000000;3.806174
2670.000000;3.849690
2669.000000;4.084833
2668.000000;4.714958
2667.000000;3.846379
2666.000000;3.417635
2665.000000;3.227686
2664.000000;3.159056
2663.000000;3.228866
2662.000000;3.389221
2661.000000;3.450037
2660.000000;3.365723
2659.000000;3.251713
2658.000000;3.174732
2657.000000;3.182580
2656.000000;3.246745
2655.000000;3.350195
2654.000000;3.393356
2653.000000;3.310402
2652.000000;3.304487
2651.000000;3.500787
2650.000000;3.908058
2649.000000;3.834766
2648.000000;3.622291
2647.000000;3.538063
2646.000000;3.568289
2645.000000;3.598016
2644.000000;3.684297
2643.000000;4.119979
2642.000000;3.778580
2641.000000;3.471143
2640.000000;3.576103
2639.000000;4.180193
2638.000000;3.842038
2637.000000;3.686507
2636.000000;3.868288
2635.000000;3.512411
2634.000000;3.336543
2633.000000;3.320344
2632.000000;3.554467
2631.000000;4.085760
2630.000000;3.546306
2629.000000;3.252027
2628.000000;3.136708
2627.000000;3.107651
2626.000000;3.178543
2625.000000;3.298409
2624.000000;3.409038
2623.000000;3.389249
2622.000000;3.479732
2621.000000;3.780197
2620.000000;3.458596
2619.000000;3.202458
2618.000000;3.221584
2617.000000;3.357377
2616.000000;3.669938
2615.000000;4.549846
2614.000000;3.970927
2613.000000;3.691506
2612.000000;3.670821
2611.000000;3.637149
2610.000000;3.656639
2609.000000;3.655850
2608.000000;3.675939
2607.000000;3.755731
2606.000000;3.977512
2605.000000;4.311044
2604.000000;4.002479
2603.000000;3.722284
2602.000000;3.609469
2601.000000;3.959785
2600.000000;4.281498
2599.000000;3.527192
2598.000000;3.375848
2597.000000;3.402396
2596.000000;3.646509
2595.000000;4.239283
2594.000000;3.904343
2593.000000;3.694540
2592.000000;3.678456
2591.000000;3.703277
2590.000000;3.839495
2589.000000;3.818529
2588.000000;3.656574
2587.000000;3.577983
2586.000000;3.522861
2585.000000;3.526041
2584.000000;3.682550
2583.000000;4.032488
2582.000000;4.020459
2581.000000;3.717899
2580.000000;3.490997
2579.000000;3.360964
2578.000000;3.320911
2577.000000;3.508846
2576.000000;3.816147
2575.000000;3.472158
2574.000000;3.303979
2573.000000;3.340731
2572.000000;3.504592
2571.000000;3.630781
2570.000000;3.552205
2569.000000;3.577417
2568.000000;3.809546
2567.000000;4.053483
2566.000000;3.811253
2565.000000;3.652448
2564.000000;3.621861
2563.000000;3.684199
2562.000000;3.840369
2561.000000;3.697577
2560.000000;3.458156
2559.000000;3.359665
2558.000000;3.364330
2557.000000;3.378928
2556.000000;3.359586
2555.000000;3.350933
2554.000000;3.426309
2553.000000;3.458462
2552.000000;3.257568
2551.000000;3.097579
2550.000000;3.063969
2549.000000;3.141998
2548.000000;3.327664
2547.000000;3.858435
2546.000000;4.257843
2545.000000;3.637935
2544.000000;3.483639
2543.000000;3.345137
2542.000000;3.271320
2541.000000;3.316852
2540.000000;3.466011
2539.000000;3.323323
2538.000000;3.111251
2537.000000;3.102655
2536.000000;3.256775
2535.000000;3.543044
2534.000000;3.779765
2533.000000;3.904388
2532.000000;3.967091
2531.000000;3.843923
2530.000000;3.752762
2529.000000;3.803148
2528.000000;4.140652
2527.000000;4.321136
2526.000000;3.840614
2525.000000;3.656852
2524.000000;3.598309
2523.000000;3.643268
2522.000000;3.797431
2521.000000;3.974115
2520.000000;4.180068
2519.000000;4.258468
2518.000000;3.991647
2517.000000;3.763678
2516.000000;3.674087
2515.000000;3.687789
2514.000000;3.758818
2513.000000;3.787357
2512.000000;3.732693
2511.000000;3.665786
2510.000000;3.680803
2509.000000;3.819362
2508.000000;3.953634
2507.000000;3.924303
2506.000000;3.797205
2505.000000;3.657023
2504.000000;3.577985
2503.000000;3.570677
2502.000000;3.591921
2501.000000;3.665595
2500.000000;3.755503
2499.000000;3.658489
2498.000000;3.538532
2497.000000;3.807087
2496.000000;4.016027
2495.000000;3.492140
2494.000000;3.424081
2493.000000;3.510178
2492.000000;3.596508
2491.000000;3.616334
2490.000000;3.564518
2489.000000;3.523723
2488.000000;3.478874
2487.000000;3.468352
2486.000000;3.475134
2485.000000;3.483477
2484.000000;3.483923
2483.000000;3.515566
2482.000000;3.537273
2481.000000;3.536526
2480.000000;3.548311
2479.000000;3.726894
2478.000000;4.074325
2477.000000;3.696652
2476.000000;3.515996
2475.000000;3.538013
2474.000000;3.647127
2473.000000;3.815232
2472.000000;3.900324
2471.000000;4.047595
2470.000000;3.959567
2469.000000;3.713560
2468.000000;3.780929
2467.000000;3.982002
2466.000000;3.866402
2465.000000;3.700214
2464.000000;3.479145
2463.000000;3.299211
2462.000000;3.242424
2461.000000;3.300904
2460.000000;3.481360
2459.000000;3.762692
2458.000000;3.816900
2457.000000;3.667397
2456.000000;3.591826
2455.000000;3.562349
2454.000000;3.584151
2453.000000;3.732400
2452.000000;3.956920
2451.000000;3.885104
2450.000000;3.733056
2449.000000;3.658116
2448.000000;3.736471
2447.000000;4.127829
2446.000000;4.425478
2445.000000;4.211416
2444.000000;4.091859
2443.000000;3.781241
2442.000000;3.552472
2441.000000;3.457795
2440.000000;3.496370
2439.000000;3.663721
2438.000000;3.756115
2437.000000;3.622197
2436.000000;3.489962
2435.000000;3.468316
2434.000000;3.544314
2433.000000;3.610692
2432.000000;3.577218
2431.000000;3.649682
2430.000000;4.197681
2429.000000;3.793294
2428.000000;3.419657
2427.000000;3.333693
2426.000000;3.350181
2425.000000;3.478539
2424.000000;3.740347
2423.000000;3.936416
2422.000000;3.844782
2421.000000;3.952649
2420.000000;3.856326
2419.000000;3.576523
2418.000000;3.501056
2417.000000;3.585623
2416.000000;3.691006
2415.000000;3.584911
2414.000000;3.460945
2413.000000;3.405928
2412.000000;3.396066
2411.000000;3.454372
2410.000000;3.595851
2409.000000;3.927865
2408.000000;4.179271
2407.000000;3.976683
2406.000000;4.222794
2405.000000;4.028608
2404.000000;3.642913
2403.000000;3.536399
2402.000000;3.545882
2401.000000;3.649174
2400.000000;3.905245
2399.000000;3.919668
2398.000000;3.570561
2397.000000;3.386768
2396.000000;3.348770
2395.000000;3.400592
2394.000000;3.445330
2393.000000;3.416646
2392.000000;3.402793
2391.000000;3.472692
2390.000000;3.567637
2389.000000;3.547008
2388.000000;3.511788
2387.000000;3.511630
2386.000000;3.439841
2385.000000;3.321050
2384.000000;3.267924
2383.000000;3.326117
2382.000000;3.516321
2381.000000;3.834617
2380.000000;4.047691
2379.000000;4.039311
2378.000000;4.020902
2377.000000;3.958832
2376.000000;3.892578
2375.000000;3.880109
2374.000000;3.951460
2373.000000;4.047073
2372.000000;4.023908
2371.000000;3.979020
2370.000000;3.957101
2369.000000;3.867170
2368.000000;3.771721
2367.000000;3.766235
2366.000000;3.859259
2365.000000;3.967185
2364.000000;3.986228
2363.000000;4.011157
2362.000000;4.301974
2361.000000;4.271295
2360.000000;3.855894
2359.000000;3.786381
2358.000000;3.840269
2357.000000;3.911518
2356.000000;3.979546
2355.000000;4.133501
2354.000000;4.419214
2353.000000;4.745216
2352.000000;4.624754
2351.000000;4.240786
2350.000000;3.986039
2349.000000;3.818409
2348.000000;3.758024
2347.000000;3.818559
2346.000000;3.975018
2345.000000;4.121168
2344.000000;4.246692
2343.000000;4.317005
2342.000000;4.273615
2341.000000;4.155004
2340.000000;3.994525
2339.000000;3.933303
2338.000000;3.969460
2337.000000;4.055932
2336.000000;4.224345
2335.000000;4.481907
2334.000000;4.253787
2333.000000;4.033405
2332.000000;3.967572
2331.000000;4.003036
2330.000000;4.109738
2329.000000;4.087998
2328.000000;3.981832
2327.000000;3.963249
2326.000000;4.050281
2325.000000;4.283450
2324.000000;4.535754
2323.000000;4.421489
2322.000000;4.111758
2321.000000;3.853215
2320.000000;3.727253
2319.000000;3.763865
2318.000000;4.206107
2317.000000;4.116367
2316.000000;3.739575
2315.000000;3.674822
2314.000000;3.790120
2313.000000;4.005076
2312.000000;3.816868
2311.000000;3.643995
2310.000000;3.656100
2309.000000;3.845866
2308.000000;3.931814
2307.000000;3.729066
2306.000000;3.662498
2305.000000;3.706261
2304.000000;3.815947
2303.000000;4.117528
2302.000000;4.425249
2301.000000;3.989251
2300.000000;3.789494
2299.000000;3.690947
2298.000000;3.636972
2297.000000;3.652365
2296.000000;3.732076
2295.000000;3.791206
2294.000000;3.761336
2293.000000;3.756021
2292.000000;3.868777
2291.000000;3.863066
2290.000000;3.742742
2289.000000;3.723156
2288.000000;3.759596
2287.000000;3.765781
2286.000000;3.700759
2285.000000;3.535450
2284.000000;3.416548
2283.000000;3.449814
2282.000000;3.689071
2281.000000;3.867659
2280.000000;3.648083
2279.000000;3.550533
2278.000000;3.541604
2277.000000;3.643098
2276.000000;3.715330
2275.000000;3.688117
2274.000000;3.728197
2273.000000;3.838057
2272.000000;3.873252
2271.000000;3.767005
2270.000000;3.694642
2269.000000;3.702088
2268.000000;3.738799
2267.000000;3.786454
2266.000000;3.756404
2265.000000;3.720483
2264.000000;3.889952
2263.000000;4.130804
2262.000000;3.724382
2261.000000;3.552159
2260.000000;3.575296
2259.000000;3.799070
2258.000000;4.330327
2257.000000;4.015593
2256.000000;3.817284
2255.000000;3.772037
2254.000000;3.767097
2253.000000;3.780045
2252.000000;3.828920
2251.000000;4.065304
2250.000000;4.379174
2249.000000;3.932197
2248.000000;3.742821
2247.000000;3.784131
2246.000000;4.007793
2245.000000;4.056225
2244.000000;3.783595
2243.000000;3.580768
2242.000000;3.471059
2241.000000;3.417257
2240.000000;3.394068
2239.000000;3.404306
2238.000000;3.454666
2237.000000;3.571029
2236.000000;3.755963
2235.000000;3.761713
2234.000000;3.680223
2233.000000;3.669660
2232.000000;3.716109
2231.000000;3.910496
2230.000000;4.168790
2229.000000;3.977639
2228.000000;3.963695
2227.000000;3.899379
2226.000000;3.835439
2225.000000;3.970970
2224.000000;4.104681
2223.000000;3.958609
2222.000000;4.301462
2221.000000;4.518197
2220.000000;4.101751
2219.000000;3.892576
2218.000000;3.568592
2217.000000;3.450958
2216.000000;3.490870
2215.000000;3.625612
2214.000000;3.713272
2213.000000;3.730406
2212.000000;3.764491
2211.000000;3.792757
2210.000000;3.753174
2209.000000;3.682353
2208.000000;3.645374
2207.000000;3.703935
2206.000000;3.895738
2205.000000;4.000356
2204.000000;4.003917
2203.000000;4.155169
2202.000000;4.013368
2201.000000;3.844283
2200.000000;3.755375
2199.000000;3.675963
2198.000000;3.620878
2197.000000;3.638774
2196.000000;3.730682
2195.000000;3.744776
2194.000000;3.662066
2193.000000;3.658975
2192.000000;3.731394
2191.000000;4.068680
2190.000000;4.319631
2189.000000;3.918645
2188.000000;3.867029
2187.000000;3.979279
2186.000000;3.932169
2185.000000;3.782621
2184.000000;3.711149
2183.000000;3.766325
2182.000000;4.242507
2181.000000;4.129670
2180.000000;3.849229
2179.000000;3.930091
2178.000000;3.961620
2177.000000;3.874377
2176.000000;4.125876
2175.000000;4.732297
2174.000000;4.012214
2173.000000;4.184831
2172.000000;4.288958
2171.000000;3.923503
2170.000000;3.843558
2169.000000;3.928194
2168.000000;4.094060
2167.000000;4.459668
2166.000000;4.647334
2165.000000;4.038611
2164.000000;3.803920
2163.000000;3.701479
2162.000000;3.670515
2161.000000;3.724966
2160.000000;3.934579
2159.000000;4.218721
2158.000000;3.983162
2157.000000;3.762334
2156.000000;3.636085
2155.000000;3.574190
2154.000000;3.579651
2153.000000;3.662434
2152.000000;3.883146
2151.000000;4.297909
2150.000000;3.792073
2149.000000;3.658604
2148.000000;3.838793
2147.000000;4.445625
2146.000000;3.917033
2145.000000;3.805824
2144.000000;3.763384
2143.000000;3.710380
2142.000000;3.634555
2141.000000;3.571522
2140.000000;3.555616
2139.000000;3.616347
2138.000000;3.742407
2137.000000;3.728043
2136.000000;3.633525
2135.000000;3.645674
2134.000000;3.693004
2133.000000;3.692367
2132.000000;3.684236
2131.000000;3.670858
2130.000000;3.623668
2129.000000;3.570754
2128.000000;3.556189
2127.000000;3.583415
2126.000000;3.608145
2125.000000;3.625733
2124.000000;3.696917
2123.000000;3.896952
2122.000000;4.228496
2121.000000;3.899678
2120.000000;3.638350
2119.000000;3.499901
2118.000000;3.434291
2117.000000;3.416827
2116.000000;3.430696
2115.000000;3.470284
2114.000000;3.515565
2113.000000;3.563381
2112.000000;3.590779
2111.000000;3.914440
2110.000000;4.129955
2109.000000;3.617217
2108.000000;3.495690
2107.000000;3.583282
2106.000000;3.842789
2105.000000;3.890344
2104.000000;3.722917
2103.000000;3.659859
2102.000000;3.714774
2101.000000;4.111932
2100.000000;4.053060
2099.000000;3.711881
2098.000000;3.686296
2097.000000;3.849567
2096.000000;3.992283
2095.000000;3.734526
2094.000000;3.536902
2093.000000;3.437785
2092.000000;3.423488
2091.000000;3.468688
2090.000000;3.537825
2089.000000;3.606254
2088.000000;3.709357
2087.000000;3.812474
2086.000000;3.830267
2085.000000;3.969014
2084.000000;3.835013
2083.000000;3.596804
2082.000000;3.548777
2081.000000;3.557530
2080.000000;3.576904
2079.000000;3.616640
2078.000000;3.682356
2077.000000;3.795456
2076.000000;4.069324
2075.000000;4.088511
2074.000000;3.969202
2073.000000;4.102408
2072.000000;3.823659
2071.000000;3.605576
2070.000000;3.559478
2069.000000;3.623342
2068.000000;3.828740
2067.000000;4.102375
2066.000000;3.742930
2065.000000;3.584693
2064.000000;3.617131
2063.000000;3.764419
2062.000000;3.754100
2061.000000;3.618138
2060.000000;3.551331
2059.000000;3.546635
2058.000000;3.612528
2057.000000;3.780725
2056.000000;3.812231
2055.000000;3.650687
2054.000000;3.534797
2053.000000;3.465921
2052.000000;3.463704
2051.000000;3.542651
2050.000000;3.728435
2049.000000;3.966795
2048.000000;4.138112
2047.000000;4.059898
2046.000000;3.784421
2045.000000;3.710914
2044.000000;3.841604
2043.000000;4.303791
2042.000000;4.335117
2041.000000;3.978310
2040.000000;3.983850
2039.000000;4.124103
2038.000000;4.282790
2037.000000;4.321905
2036.000000;4.229063
2035.000000;4.028948
2034.000000;3.768563
2033.000000;3.588058
2032.000000;3.547109
2031.000000;3.666152
2030.000000;3.906812
2029.000000;3.967797
2028.000000;3.927870
2027.000000;3.978781
2026.000000;4.069078
2025.000000;4.203786
2024.000000;4.281514
2023.000000;4.227069
2022.000000;4.360143
2021.000000;4.620060
2020.000000;4.032194
2019.000000;3.722223
2018.000000;3.536410
2017.000000;3.434892
2016.000000;3.407277
2015.000000;3.440144
2014.000000;3.514922
2013.000000;3.611550
2012.000000;3.709064
2011.000000;3.766666
2010.000000;3.787872
2009.000000;3.804952
2008.000000;3.802848
2007.000000;3.836646
2006.000000;4.169770
2005.000000;4.572863
2004.000000;4.165843
2003.000000;3.700480
2002.000000;3.375289
2001.000000;3.247084
2000.000000;3.246329
1999.000000;3.330283
1998.000000;3.443609
1997.000000;3.527949
1996.000000;3.564473
1995.000000;3.613433
1994.000000;3.752437
1993.000000;3.839300
1992.000000;3.668826
1991.000000;3.526642
1990.000000;3.475192
1989.000000;3.512362
1988.000000;3.605492
1987.000000;3.667193
1986.000000;3.621172
1985.000000;3.531882
1984.000000;3.490047
1983.000000;3.513206
1982.000000;3.607385
1981.000000;3.849030
1980.000000;4.225757
1979.000000;4.010964
1978.000000;3.787098
1977.000000;3.752582
1976.000000;3.828872
1975.000000;4.009222
1974.000000;4.017662
1973.000000;3.790197
1972.000000;3.601456
1971.000000;3.515834
1970.000000;3.557921
1969.000000;3.747295
1968.000000;4.248925
1967.000000;4.366961
1966.000000;3.861307
1965.000000;3.589441
1964.000000;3.439581
1963.000000;3.389841
1962.000000;3.433764
1961.000000;3.584923
1960.000000;3.948143
1959.000000;4.473762
1958.000000;4.084058
1957.000000;3.915869
1956.000000;3.811312
1955.000000;4.038907
1954.000000;4.111467
1953.000000;3.739489
1952.000000;3.709602
1951.000000;3.849758
1950.000000;4.148423
1949.000000;4.760870
1948.000000;4.329497
1947.000000;3.882403
1946.000000;3.741415
1945.000000;3.772678
1944.000000;3.940550
1943.000000;4.034351
1942.000000;3.959263
1941.000000;3.893863
1940.000000;3.957307
1939.000000;4.066275
1938.000000;4.005026
1937.000000;3.936293
1936.000000;3.873648
1935.000000;3.820068
1934.000000;3.855681
1933.000000;4.196548
1932.000000;4.432269
1931.000000;3.862557
1930.000000;3.786693
1929.000000;3.885869
1928.000000;4.227751
1927.000000;4.063930
1926.000000;3.720037
1925.000000;3.639754
1924.000000;3.702814
1923.000000;3.899057
1922.000000;4.017468
1921.000000;3.957409
1920.000000;3.899606
1919.000000;3.887885
1918.000000;3.917980
1917.000000;3.947897
1916.000000;4.033177
1915.000000;4.373448
1914.000000;4.112990
1913.000000;3.846222
1912.000000;3.847766
1911.000000;4.059850
1910.000000;4.326918
1909.000000;4.145345
1908.000000;3.894441
1907.000000;3.794622
1906.000000;3.816320
1905.000000;4.152074
1904.000000;4.375315
1903.000000;3.827431
1902.000000;3.826517
1901.000000;3.979213
1900.000000;4.230356
1899.000000;4.268348
1898.000000;3.949611
1897.000000;3.811815
1896.000000;3.761468
1895.000000;3.682910
1894.000000;3.639054
1893.000000;3.730809
1892.000000;3.981849
1891.000000;4.237592
1890.000000;4.149668
1889.000000;4.071463
1888.000000;4.248309
1887.000000;4.049436
1886.000000;3.779526
1885.000000;3.809087
1884.000000;4.108331
1883.000000;3.832616
1882.000000;3.624641
1881.000000;3.623036
1880.000000;3.719802
1879.000000;3.849881
1878.000000;3.923236
1877.000000;3.909232
1876.000000;3.821897
1875.000000;3.768559
1874.000000;3.834735
1873.000000;4.123979
1872.000000;4.718204
1871.000000;4.669504
1870.000000;4.431716
1869.000000;4.226461
1868.000000;4.059107
1867.000000;3.985161
1866.000000;4.020410
1865.000000;4.100257
1864.000000;3.910930
1863.000000;3.710331
1862.000000;3.697388
1861.000000;3.973871
1860.000000;4.043965
1859.000000;3.681813
1858.000000;3.544446
1857.000000;3.553746
1856.000000;3.667875
1855.000000;3.808005
1854.000000;3.850013
1853.000000;3.785347
1852.000000;3.611132
1851.000000;3.490046
1850.000000;3.484924
1849.000000;3.559021
1848.000000;3.717791
1847.000000;3.802578
1846.000000;3.660991
1845.000000;3.604750
1844.000000;3.663721
1843.000000;3.796974
1842.000000;3.826993
1841.000000;3.723458
1840.000000;3.700294
1839.000000;3.746222
1838.000000;3.860026
1837.000000;4.134455
1836.000000;4.043368
1835.000000;3.778441
1834.000000;3.730702
1833.000000;3.842274
1832.000000;3.978761
1831.000000;3.972534
1830.000000;3.935703
1829.000000;3.895520
1828.000000;3.863293
1827.000000;3.876901
1826.000000;3.906438
1825.000000;3.891197
1824.000000;3.818946
1823.000000;3.713130
1822.000000;3.615553
1821.000000;3.564651
1820.000000;3.557484
1819.000000;3.579306
1818.000000;3.640641
1817.000000;3.760492
1816.000000;3.829580
1815.000000;3.802603
1814.000000;3.862996
1813.000000;4.036616
1812.000000;4.143693
1811.000000;4.087471
1810.000000;3.961056
1809.000000;3.940758
1808.000000;4.177979
1807.000000;4.130565
1806.000000;3.810094
1805.000000;3.683761
1804.000000;3.654197
1803.000000;3.646249
1802.000000;3.667093
1801.000000;3.730852
1800.000000;3.802280
1799.000000;3.851033
1798.000000;3.901079
1797.000000;3.956832
1796.000000;3.959706
1795.000000;3.884715
1794.000000;3.805396
1793.000000;3.761432
1792.000000;3.745748
1791.000000;3.751187
1790.000000;3.797546
1789.000000;3.873622
1788.000000;3.851438
1787.000000;3.741016
1786.000000;3.664959
1785.000000;3.649744
1784.000000;3.671493
1783.000000;3.711833
1782.000000;3.812487
1781.000000;4.067685
1780.000000;4.372914
1779.000000;4.153958
1778.000000;4.136041
1777.000000;4.599932
1776.000000;4.532963
1775.000000;4.253490
1774.000000;4.261758
1773.000000;4.242365
1772.000000;4.045172
1771.000000;3.859085
1770.000000;3.779968
1769.000000;3.787322
1768.000000;3.807175
1767.000000;3.980979
1766.000000;4.313970
1765.000000;3.972297
1764.000000;3.810550
1763.000000;3.893071
1762.000000;4.091515
1761.000000;4.226451
1760.000000;3.949469
1759.000000;3.750250
1758.000000;3.665981
1757.000000;3.616526
1756.000000;3.581062
1755.000000;3.599051
1754.000000;3.720301
1753.000000;3.872189
1752.000000;3.894815
1751.000000;3.764416
1750.000000;3.622565
1749.000000;3.593067
1748.000000;3.743153
1747.000000;4.092258
1746.000000;4.142028
1745.000000;3.976683
1744.000000;4.036345
1743.000000;4.326716
1742.000000;4.440787
1741.000000;4.164580
1740.000000;4.110463
1739.000000;4.216392
1738.000000;4.662287
1737.000000;4.632212
1736.000000;4.179502
1735.000000;4.133124
1734.000000;4.386262
1733.000000;4.239715
1732.000000;3.972877
1731.000000;4.110963
1730.000000;4.527475
1729.000000;4.615225
1728.000000;4.021383
1727.000000;3.755232
1726.000000;3.748321
1725.000000;3.970280
1724.000000;4.146091
1723.000000;4.143301
1722.000000;4.535525
1721.000000;4.497475
1720.000000;4.429289
1719.000000;4.944687
1718.000000;4.633049
1717.000000;4.514205
1716.000000;4.416491
1715.000000;4.149191
1714.000000;3.948989
1713.000000;3.788785
1712.000000;3.702689
1711.000000;3.710271
1710.000000;3.784541
1709.000000;3.786464
1708.000000;3.706239
1707.000000;3.665906
1706.000000;3.672024
1705.000000;3.717119
1704.000000;3.867566
1703.000000;4.190456
1702.000000;4.357146
1701.000000;4.322586
1700.000000;4.306250
1699.000000;4.307411
1698.000000;4.359509
1697.000000;4.590753
1696.000000;5.635179
1695.000000;4.516195
1694.000000;4.168603
1693.000000;4.114233
1692.000000;4.082254
1691.000000;4.279023
1690.000000;4.527754
1689.000000;3.968645
1688.000000;3.700009
1687.000000;3.640142
1686.000000;3.649030
1685.000000;3.681940
1684.000000;3.709621
1683.000000;3.735755
1682.000000;3.753624
1681.000000;3.820021
1680.000000;3.903359
1679.000000;3.993949
1678.000000;4.413255
1677.000000;4.329289
1676.000000;3.941089
1675.000000;3.856984
1674.000000;3.961697
1673.000000;4.263649
1672.000000;4.501382
1671.000000;4.714089
1670.000000;4.224045
1669.000000;3.878964
1668.000000;3.729405
1667.000000;3.663370
1666.000000;3.686927
1665.000000;3.773222
1664.000000;4.059953
1663.000000;4.631299
1662.000000;4.223519
1661.000000;4.027307
1660.000000;3.967598
1659.000000;3.945029
1658.000000;4.122636
1657.000000;4.602551
1656.000000;4.562185
1655.000000;4.242489
1654.000000;4.047175
1653.000000;3.830769
1652.000000;3.744580
1651.000000;3.977715
1650.000000;4.460884
1649.000000;4.368981
1648.000000;4.453692
1647.000000;4.316670
1646.000000;4.089635
1645.000000;4.048283
1644.000000;4.190051
1643.000000;4.234083
1642.000000;4.062375
1641.000000;3.943297
1640.000000;4.029533
1639.000000;4.140190
1638.000000;3.980187
1637.000000;3.956845
1636.000000;4.105085
1635.000000;4.328903
1634.000000;4.225881
1633.000000;4.232333
1632.000000;4.509877
1631.000000;4.134851
1630.000000;3.937528
1629.000000;3.975617
1628.000000;4.053078
1627.000000;4.066843
1626.000000;4.059368
1625.000000;4.187860
1624.000000;4.477608
1623.000000;4.850336
1622.000000;4.824332
1621.000000;4.305422
1620.000000;3.972015
1619.000000;3.864185
1618.000000;3.914729
1617.000000;4.200921
1616.000000;4.897499
1615.000000;4.421107
1614.000000;4.069006
1613.000000;3.849905
1612.000000;3.702511
1611.000000;3.671935
1610.000000;3.758361
1609.000000;3.916707
1608.000000;3.960156
1607.000000;3.838868
1606.000000;3.706827
1605.000000;3.637276
1604.000000;3.590738
1603.000000;3.559883
1602.000000;3.567882
1601.000000;3.621062
1600.000000;3.668273
1599.000000;3.654121
1598.000000;3.592390
1597.000000;3.579036
1596.000000;3.668361
1595.000000;3.916615
1594.000000;4.425372
1593.000000;4.313093
1592.000000;4.090346
1591.000000;4.084734
1590.000000;4.057133
1589.000000;4.042685
1588.000000;4.168582
1587.000000;4.581970
1586.000000;4.837724
1585.000000;4.531522
1584.000000;4.284585
1583.000000;4.229190
1582.000000;4.358089
1581.000000;4.629740
1580.000000;4.771224
1579.000000;4.377597
1578.000000;4.150748
1577.000000;4.071333
1576.000000;4.345003
1575.000000;4.512633
1574.000000;4.000976
1573.000000;3.861536
1572.000000;3.882717
1571.000000;3.997646
1570.000000;4.029032
1569.000000;3.823997
1568.000000;3.707066
1567.000000;3.701331
1566.000000;3.794337
1565.000000;3.951390
1564.000000;4.240747
1563.000000;4.929156
1562.000000;4.555532
1561.000000;4.409385
1560.000000;4.341080
1559.000000;4.132787
1558.000000;4.053906
1557.000000;4.010855
1556.000000;3.984027
1555.000000;3.986449
1554.000000;4.023346
1553.000000;4.030729
1552.000000;3.992913
1551.000000;4.003913
1550.000000;4.050297
1549.000000;4.069432
1548.000000;4.051749
1547.000000;3.961066
1546.000000;3.831593
1545.000000;3.720364
1544.000000;3.706453
1543.000000;3.833840
1542.000000;4.157545
1541.000000;4.631765
1540.000000;4.604666
1539.000000;4.657428
1538.000000;4.440341
1537.000000;4.145885
1536.000000;4.155624
1535.000000;4.252193
1534.000000;4.202286
1533.000000;4.137369
1532.000000;4.270845
1531.000000;4.397750
1530.000000;4.177141
1529.000000;4.068184
1528.000000;4.012174
1527.000000;3.982524
1526.000000;4.036550
1525.000000;4.212927
1524.000000;4.642232
1523.000000;4.789774
1522.000000;4.433524
1521.000000;4.165397
1520.000000;3.910361
1519.000000;3.814488
1518.000000;3.860882
1517.000000;3.886277
1516.000000;3.821132
1515.000000;3.746282
1514.000000;3.735304
1513.000000;3.802738
1512.000000;3.936823
1511.000000;4.050445
1510.000000;3.997446
1509.000000;3.906612
1508.000000;3.892583
1507.000000;3.894532
1506.000000;3.927438
1505.000000;3.938564
1504.000000;4.138591
1503.000000;4.725744
1502.000000;4.177532
1501.000000;3.980329
1500.000000;4.023842
1499.000000;4.194821
1498.000000;4.420368
1497.000000;4.665640
1496.000000;4.744798
1495.000000;3.980049
1494.000000;3.635668
1493.000000;3.508724
1492.000000;3.506686
1491.000000;3.582374
1490.000000;3.737743
1489.000000;4.042615
1488.000000;4.254733
1487.000000;4.075013
1486.000000;3.916872
1485.000000;3.789542
1484.000000;3.718860
1483.000000;3.754733
1482.000000;4.028003
1481.000000;4.375689
1480.000000;4.006065
1479.000000;4.170917
1478.000000;4.249651
1477.000000;3.719011
1476.000000;3.551379
1475.000000;3.518021
1474.000000;3.537806
1473.000000;3.572034
1472.000000;3.602940
1471.000000;3.686601
1470.000000;3.891365
1469.000000;4.180079
1468.000000;4.732569
1467.000000;4.587213
1466.000000;3.971081
1465.000000;3.809607
1464.000000;3.747472
1463.000000;3.707326
1462.000000;3.732200
1461.000000;3.845817
1460.000000;4.061829
1459.000000;4.136166
1458.000000;3.971449
1457.000000;3.793295
1456.000000;3.729871
1455.000000;3.765178
1454.000000;4.031435
1453.000000;4.750552
1452.000000;4.018748
1451.000000;3.682357
1450.000000;3.569112
1449.000000;3.580055
1448.000000;3.686369
1447.000000;3.792803
1446.000000;3.821539
1445.000000;3.722861
1444.000000;3.600107
1443.000000;3.530469
1442.000000;3.528733
1441.000000;3.566681
1440.000000;3.602444
1439.000000;3.629273
1438.000000;3.668903
1437.000000;3.733971
1436.000000;3.811492
1435.000000;3.831471
1434.000000;3.802325
1433.000000;3.820870
1432.000000;3.921434
1431.000000;4.199524
1430.000000;4.729713
1429.000000;4.576833
1428.000000;4.213770
1427.000000;3.948639
1426.000000;3.861444
1425.000000;3.873414
1424.000000;3.807095
1423.000000;3.749192
1422.000000;3.764682
1421.000000;3.769048
1420.000000;3.755337
1419.000000;3.784175
1418.000000;4.000701
1417.000000;4.477372
1416.000000;4.177867
1415.000000;3.923306
1414.000000;3.919168
1413.000000;3.872510
1412.000000;3.739630
1411.000000;3.677408
1410.000000;3.727475
1409.000000;3.962406
1408.000000;4.113629
1407.000000;3.899080
1406.000000;3.895226
1405.000000;4.217478
1404.000000;4.586867
1403.000000;4.399381
1402.000000;4.229634
1401.000000;3.996679
1400.000000;3.821569
1399.000000;3.788476
1398.000000;3.876428
1397.000000;3.951273
1396.000000;3.942643
1395.000000;3.985936
1394.000000;4.108738
1393.000000;4.297815
1392.000000;4.382661
1391.000000;4.138807
1390.000000;3.959058
1389.000000;3.946686
1388.000000;4.057162
1387.000000;4.180654
1386.000000;4.163990
1385.000000;4.141782
1384.000000;4.174936
1383.000000;4.185558
1382.000000;4.165747
1381.000000;4.234340
1380.000000;4.309781
1379.000000;4.095227
1378.000000;3.946576
1377.000000;3.964654
1376.000000;4.069078
1375.000000;4.137531
1374.000000;4.184643
1373.000000;4.115294
1372.000000;3.862924
1371.000000;3.687702
1370.000000;3.617292
1369.000000;3.630385
1368.000000;3.758276
1367.000000;3.974723
1366.000000;4.431007
1365.000000;4.608430
1364.000000;3.893521
1363.000000;3.687154
1362.000000;3.610207
1361.000000;3.602218
1360.000000;3.647336
1359.000000;3.747910
1358.000000;3.904321
1357.000000;4.100811
1356.000000;4.650136
1355.000000;4.390153
1354.000000;3.984899
1353.000000;3.955894
1352.000000;4.214285
1351.000000;4.227998
1350.000000;3.947823
1349.000000;3.862552
1348.000000;3.877551
1347.000000;4.067345
1346.000000;4.474434
1345.000000;4.369379
1344.000000;4.116169
1343.000000;3.811726
1342.000000;3.666728
1341.000000;3.665210
1340.000000;3.733065
1339.000000;3.841797
1338.000000;4.070529
1337.000000;4.122190
1336.000000;3.802634
1335.000000;3.618149
1334.000000;3.528645
1333.000000;3.517595
1332.000000;3.576957
1331.000000;3.684850
1330.000000;3.823971
1329.000000;3.921123
1328.000000;3.869584
1327.000000;3.793741
1326.000000;3.827432
1325.000000;3.939445
1324.000000;3.941134
1323.000000;3.872710
1322.000000;3.920044
1321.000000;4.112459
1320.000000;4.054198
1319.000000;3.841169
1318.000000;3.759490
1317.000000;3.781062
1316.000000;3.838372
1315.000000;3.842387
1314.000000;3.840450
1313.000000;3.889201
1312.000000;3.998160
1311.000000;4.139732
1310.000000;4.079254
1309.000000;3.873931
1308.000000;3.714761
1307.000000;3.647021
1306.000000;3.652183
1305.000000;3.663770
1304.000000;3.683256
1303.000000;3.757061
1302.000000;3.876899
1301.000000;3.952726
1300.000000;3.973510
1299.000000;3.926998
1298.000000;3.814205
1297.000000;3.789505
1296.000000;3.976960
1295.000000;4.431845
1294.000000;4.149521
1293.000000;3.877085
1292.000000;3.734419
1291.000000;3.646489
1290.000000;3.585380
1289.000000;3.540822
1288.000000;3.508979
1287.000000;3.468399
1286.000000;3.431661
1285.000000;3.439455
1284.000000;3.540015
1283.000000;3.724187
1282.000000;4.140459
1281.000000;4.377422
1280.000000;3.831653
1279.000000;3.703780
1278.000000;3.796289
1277.000000;4.346844
1276.000000;4.184479
1275.000000;3.831944
1274.000000;3.805914
1273.000000;3.779611
1272.000000;3.901448
1271.000000;4.626102
1270.000000;4.024473
1269.000000;3.780476
1268.000000;3.886821
1267.000000;4.143937
1266.000000;4.243485
1265.000000;3.962148
1264.000000;3.708948
1263.000000;3.573913
1262.000000;3.557342
1261.000000;3.687733
1260.000000;3.962364
1259.000000;3.864758
1258.000000;3.644468
1257.000000;3.599844
1256.000000;3.662286
1255.000000;3.788302
1254.000000;3.962672
1253.000000;4.354204
1252.000000;4.167269
1251.000000;3.873012
1250.000000;4.102905
1249.000000;3.889313
1248.000000;3.530151
1247.000000;3.419066
1246.000000;3.426041
1245.000000;3.513939
1244.000000;3.663853
1243.000000;3.863124
1242.000000;3.792372
1241.000000;3.657886
1240.000000;3.685241
1239.000000;3.810488
1238.000000;3.845215
1237.000000;3.913089
1236.000000;4.294414
1235.000000;4.248884
1234.000000;4.042579
1233.000000;4.099467
1232.000000;3.863113
1231.000000;3.650778
1230.000000;3.586780
1229.000000;3.639167
1228.000000;3.826669
1227.000000;4.122737
1226.000000;4.300743
1225.000000;4.390647
1224.000000;4.223555
1223.000000;4.047412
1222.000000;4.058366
1221.000000;4.178808
1220.000000;4.476313
1219.000000;4.411679
1218.000000;4.053726
1217.000000;3.855064
1216.000000;3.799231
1215.000000;3.904604
1214.000000;4.211287
1213.000000;3.957936
1212.000000;3.712103
1211.000000;3.607613
1210.000000;3.561778
1209.000000;3.564424
1208.000000;3.615033
1207.000000;3.652724
1206.000000;3.618143
1205.000000;3.621967
1204.000000;3.775684
1203.000000;3.977833
1202.000000;3.963982
1201.000000;4.152727
1200.000000;4.135938
