Criado como novo conjunto de dados;"1909daniel.spp","-4288305.0 Secs"
cm-1;Abs
10000.000000;1.361703
9999.000000;1.361602
9998.000000;1.361502
9997.000000;1.361401
9996.000000;1.361301
9995.000000;1.361202
9994.000000;1.361099
9993.000000;1.361003
9992.000000;1.360894
9991.000000;1.360809
9990.000000;1.360680
9989.000000;1.360676
9988.000000;1.360433
9987.000000;1.359679
9986.000000;1.359016
9985.000000;1.358806
9984.000000;1.358779
9983.000000;1.358457
9982.000000;1.357868
9981.000000;1.357318
9980.000000;1.356747
9979.000000;1.355719
9978.000000;1.354099
9977.000000;1.352396
9976.000000;1.351220
9975.000000;1.350608
9974.000000;1.350091
9973.000000;1.349315
9972.000000;1.348376
9971.000000;1.347602
9970.000000;1.347179
9969.000000;1.346967
9968.000000;1.346484
9967.000000;1.345164
9966.000000;1.342970
9965.000000;1.340715
9964.000000;1.339444
9963.000000;1.339388
9962.000000;1.339778
9961.000000;1.339714
9960.000000;1.338942
9959.000000;1.337712
9958.000000;1.336409
9957.000000;1.335595
9956.000000;1.335934
9955.000000;1.337493
9954.000000;1.339314
9953.000000;1.340154
9952.000000;1.339599
9951.000000;1.338089
9950.000000;1.336119
9949.000000;1.334000
9948.000000;1.332263
9947.000000;1.331530
9946.000000;1.331738
9945.000000;1.331948
9944.000000;1.331258
9943.000000;1.329660
9942.000000;1.327830
9941.000000;1.326386
9940.000000;1.325534
9939.000000;1.325214
9938.000000;1.325307
9937.000000;1.325667
9936.000000;1.326021
9935.000000;1.325912
9934.000000;1.324895
9933.000000;1.323047
9932.000000;1.321196
9931.000000;1.320339
9930.000000;1.320639
9929.000000;1.321151
9928.000000;1.320678
9927.000000;1.318909
9926.000000;1.316740
9925.000000;1.315467
9924.000000;1.315601
9923.000000;1.316391
9922.000000;1.316633
9921.000000;1.315940
9920.000000;1.314966
9919.000000;1.314337
9918.000000;1.313868
9917.000000;1.313085
9916.000000;1.312046
9915.000000;1.311089
9914.000000;1.310112
9913.000000;1.308742
9912.000000;1.307033
9911.000000;1.305429
9910.000000;1.304174
9909.000000;1.303277
9908.000000;1.302849
9907.000000;1.302784
9906.000000;1.302282
9905.000000;1.300636
9904.000000;1.298542
9903.000000;1.297651
9902.000000;1.298488
9901.000000;1.299648
9900.000000;1.299567
9899.000000;1.298430
9898.000000;1.297623
9897.000000;1.297828
9896.000000;1.298487
9895.000000;1.298817
9894.000000;1.298568
9893.000000;1.297791
9892.000000;1.296472
9891.000000;1.294656
9890.000000;1.292585
9889.000000;1.290594
9888.000000;1.288978
9887.000000;1.287953
9886.000000;1.287598
9885.000000;1.287773
9884.000000;1.288193
9883.000000;1.288554
9882.000000;1.288588
9881.000000;1.288160
9880.000000;1.287407
9879.000000;1.286612
9878.000000;1.285868
9877.000000;1.285082
9876.000000;1.284319
9875.000000;1.283773
9874.000000;1.283242
9873.000000;1.282078
9872.000000;1.280021
9871.000000;1.277788
9870.000000;1.276425
9869.000000;1.276215
9868.000000;1.276598
9867.000000;1.276972
9866.000000;1.277063
9865.000000;1.276527
9864.000000;1.274901
9863.000000;1.272367
9862.000000;1.270167
9861.000000;1.269673
9860.000000;1.270954
9859.000000;1.272544
9858.000000;1.272807
9857.000000;1.271389
9856.000000;1.269167
9855.000000;1.267001
9854.000000;1.265119
9853.000000;1.263695
9852.000000;1.263271
9851.000000;1.264074
9850.000000;1.265345
9849.000000;1.265988
9848.000000;1.265817
9847.000000;1.265487
9846.000000;1.265200
9845.000000;1.264262
9844.000000;1.262215
9843.000000;1.259774
9842.000000;1.258073
9841.000000;1.257365
9840.000000;1.256996
9839.000000;1.256434
9838.000000;1.255825
9837.000000;1.255575
9836.000000;1.255759
9835.000000;1.256052
9834.000000;1.256019
9833.000000;1.255439
9832.000000;1.254454
9831.000000;1.253370
9830.000000;1.252281
9829.000000;1.251018
9828.000000;1.249515
9827.000000;1.248012
9826.000000;1.246745
9825.000000;1.245690
9824.000000;1.244823
9823.000000;1.244415
9822.000000;1.244725
9821.000000;1.245515
9820.000000;1.246163
9819.000000;1.246210
9818.000000;1.245524
9817.000000;1.244119
9816.000000;1.242200
9815.000000;1.240370
9814.000000;1.239269
9813.000000;1.238808
9812.000000;1.238151
9811.000000;1.236784
9810.000000;1.235364
9809.000000;1.235063
9808.000000;1.236104
9807.000000;1.237311
9806.000000;1.237308
9805.000000;1.235962
9804.000000;1.234373
9803.000000;1.233558
9802.000000;1.233445
9801.000000;1.233196
9800.000000;1.232197
9799.000000;1.230568
9798.000000;1.228830
9797.000000;1.227370
9796.000000;1.226247
9795.000000;1.225339
9794.000000;1.224568
9793.000000;1.224002
9792.000000;1.223734
9791.000000;1.223633
9790.000000;1.223353
9789.000000;1.222694
9788.000000;1.221888
9787.000000;1.221356
9786.000000;1.221249
9785.000000;1.221396
9784.000000;1.221650
9783.000000;1.222025
9782.000000;1.222413
9781.000000;1.222474
9780.000000;1.221968
9779.000000;1.220967
9778.000000;1.219591
9777.000000;1.217805
9776.000000;1.215741
9775.000000;1.214018
9774.000000;1.213292
9773.000000;1.213430
9772.000000;1.213505
9771.000000;1.212770
9770.000000;1.211401
9769.000000;1.210026
9768.000000;1.208814
9767.000000;1.207431
9766.000000;1.205829
9765.000000;1.204582
9764.000000;1.204199
9763.000000;1.204427
9762.000000;1.204527
9761.000000;1.204059
9760.000000;1.203155
9759.000000;1.202202
9758.000000;1.201547
9757.000000;1.201360
9756.000000;1.201395
9755.000000;1.200999
9754.000000;1.199777
9753.000000;1.198214
9752.000000;1.197225
9751.000000;1.197080
9750.000000;1.197225
9749.000000;1.197159
9748.000000;1.196936
9747.000000;1.196590
9746.000000;1.195725
9745.000000;1.194198
9744.000000;1.192780
9743.000000;1.192497
9742.000000;1.193422
9741.000000;1.194545
9740.000000;1.194707
9739.000000;1.193442
9738.000000;1.191125
9737.000000;1.188720
9736.000000;1.187216
9735.000000;1.186879
9734.000000;1.187028
9733.000000;1.186762
9732.000000;1.185804
9731.000000;1.184457
9730.000000;1.183125
9729.000000;1.182251
9728.000000;1.182330
9727.000000;1.183268
9726.000000;1.183900
9725.000000;1.182950
9724.000000;1.180573
9723.000000;1.178284
9722.000000;1.177275
9721.000000;1.177368
9720.000000;1.177604
9719.000000;1.177266
9718.000000;1.176191
9717.000000;1.174715
9716.000000;1.173630
9715.000000;1.173679
9714.000000;1.174686
9713.000000;1.175528
9712.000000;1.175313
9711.000000;1.174311
9710.000000;1.173422
9709.000000;1.173024
9708.000000;1.172706
9707.000000;1.171875
9706.000000;1.170261
9705.000000;1.168036
9704.000000;1.165795
9703.000000;1.164328
9702.000000;1.164031
9701.000000;1.164468
9700.000000;1.164710
9699.000000;1.164167
9698.000000;1.163048
9697.000000;1.162012
9696.000000;1.161468
9695.000000;1.161227
9694.000000;1.160820
9693.000000;1.160130
9692.000000;1.159565
9691.000000;1.159494
9690.000000;1.159700
9689.000000;1.159609
9688.000000;1.158952
9687.000000;1.157903
9686.000000;1.156672
9685.000000;1.155343
9684.000000;1.154090
9683.000000;1.153123
9682.000000;1.152349
9681.000000;1.151457
9680.000000;1.150508
9679.000000;1.150046
9678.000000;1.150394
9677.000000;1.151101
9676.000000;1.151317
9675.000000;1.150591
9674.000000;1.149204
9673.000000;1.147873
9672.000000;1.147182
9671.000000;1.147075
9670.000000;1.146844
9669.000000;1.145883
9668.000000;1.144478
9667.000000;1.143483
9666.000000;1.143188
9665.000000;1.142964
9664.000000;1.142196
9663.000000;1.141072
9662.000000;1.140154
9661.000000;1.139586
9660.000000;1.139135
9659.000000;1.138711
9658.000000;1.138351
9657.000000;1.137877
9656.000000;1.137020
9655.000000;1.135855
9654.000000;1.134736
9653.000000;1.133833
9652.000000;1.133037
9651.000000;1.132274
9650.000000;1.131599
9649.000000;1.130983
9648.000000;1.130305
9647.000000;1.129679
9646.000000;1.129524
9645.000000;1.130122
9644.000000;1.131138
9643.000000;1.131748
9642.000000;1.131333
9641.000000;1.130089
9640.000000;1.128852
9639.000000;1.128210
9638.000000;1.127809
9637.000000;1.126747
9636.000000;1.124657
9635.000000;1.122210
9634.000000;1.120442
9633.000000;1.119800
9632.000000;1.119938
9631.000000;1.120233
9630.000000;1.120275
9629.000000;1.119947
9628.000000;1.119296
9627.000000;1.118444
9626.000000;1.117580
9625.000000;1.116904
9624.000000;1.116462
9623.000000;1.115984
9622.000000;1.115074
9621.000000;1.113711
9620.000000;1.112426
9619.000000;1.111692
9618.000000;1.111252
9617.000000;1.110386
9616.000000;1.108849
9615.000000;1.107213
9614.000000;1.106225
9613.000000;1.106107
9612.000000;1.106552
9611.000000;1.107051
9610.000000;1.107143
9609.000000;1.106684
9608.000000;1.106074
9607.000000;1.105895
9606.000000;1.106124
9605.000000;1.106019
9604.000000;1.105003
9603.000000;1.103366
9602.000000;1.101847
9601.000000;1.100830
9600.000000;1.100204
9599.000000;1.099757
9598.000000;1.099328
9597.000000;1.098740
9596.000000;1.097942
9595.000000;1.097157
9594.000000;1.096662
9593.000000;1.096450
9592.000000;1.096283
9591.000000;1.095939
9590.000000;1.095243
9589.000000;1.094079
9588.000000;1.092621
9587.000000;1.091374
9586.000000;1.090704
9585.000000;1.090415
9584.000000;1.090063
9583.000000;1.089531
9582.000000;1.089018
9581.000000;1.088561
9580.000000;1.087962
9579.000000;1.087214
9578.000000;1.086660
9577.000000;1.086626
9576.000000;1.087050
9575.000000;1.087558
9574.000000;1.087733
9573.000000;1.087313
9572.000000;1.086291
9571.000000;1.084907
9570.000000;1.083475
9569.000000;1.082177
9568.000000;1.081064
9567.000000;1.080202
9566.000000;1.079697
9565.000000;1.079553
9564.000000;1.079561
9563.000000;1.079381
9562.000000;1.078791
9561.000000;1.077942
9560.000000;1.077325
9559.000000;1.077329
9558.000000;1.077772
9557.000000;1.077993
9556.000000;1.077459
9555.000000;1.076165
9554.000000;1.074465
9553.000000;1.072742
9552.000000;1.071313
9551.000000;1.070301
9550.000000;1.069473
9549.000000;1.068489
9548.000000;1.067473
9547.000000;1.067038
9546.000000;1.067489
9545.000000;1.068294
9544.000000;1.068636
9543.000000;1.068250
9542.000000;1.067396
9541.000000;1.066287
9540.000000;1.064969
9539.000000;1.063639
9538.000000;1.062623
9537.000000;1.062014
9536.000000;1.061638
9535.000000;1.061365
9534.000000;1.061155
9533.000000;1.060846
9532.000000;1.060228
9531.000000;1.059355
9530.000000;1.058495
9529.000000;1.057778
9528.000000;1.057164
9527.000000;1.056694
9526.000000;1.056456
9525.000000;1.056279
9524.000000;1.055826
9523.000000;1.055099
9522.000000;1.054501
9521.000000;1.054255
9520.000000;1.054027
9519.000000;1.053313
9518.000000;1.052015
9517.000000;1.050477
9516.000000;1.049163
9515.000000;1.048483
9514.000000;1.048693
9513.000000;1.049629
9512.000000;1.050617
9511.000000;1.050885
9510.000000;1.050149
9509.000000;1.048702
9508.000000;1.046988
9507.000000;1.045266
9506.000000;1.043675
9505.000000;1.042418
9504.000000;1.041699
9503.000000;1.041531
9502.000000;1.041707
9501.000000;1.041973
9500.000000;1.042160
9499.000000;1.042116
9498.000000;1.041697
9497.000000;1.040949
9496.000000;1.040218
9495.000000;1.039835
9494.000000;1.039717
9493.000000;1.039447
9492.000000;1.038782
9491.000000;1.037851
9490.000000;1.036804
9489.000000;1.035620
9488.000000;1.034394
9487.000000;1.033540
9486.000000;1.033357
9485.000000;1.033585
9484.000000;1.033667
9483.000000;1.033356
9482.000000;1.032779
9481.000000;1.031990
9480.000000;1.030874
9479.000000;1.029523
9478.000000;1.028360
9477.000000;1.027716
9476.000000;1.027480
9475.000000;1.027294
9474.000000;1.026944
9473.000000;1.026467
9472.000000;1.025988
9471.000000;1.025556
9470.000000;1.025095
9469.000000;1.024494
9468.000000;1.023795
9467.000000;1.023273
9466.000000;1.023207
9465.000000;1.023546
9464.000000;1.023868
9463.000000;1.023647
9462.000000;1.022563
9461.000000;1.020708
9460.000000;1.018584
9459.000000;1.016811
9458.000000;1.015658
9457.000000;1.014969
9456.000000;1.014603
9455.000000;1.014704
9454.000000;1.015287
9453.000000;1.015818
9452.000000;1.015667
9451.000000;1.014944
9450.000000;1.014431
9449.000000;1.014588
9448.000000;1.015038
9447.000000;1.015204
9446.000000;1.014987
9445.000000;1.014551
9444.000000;1.013835
9443.000000;1.012712
9442.000000;1.011402
9441.000000;1.010323
9440.000000;1.009608
9439.000000;1.009100
9438.000000;1.008757
9437.000000;1.008733
9436.000000;1.008996
9435.000000;1.009144
9434.000000;1.008757
9433.000000;1.007802
9432.000000;1.006574
9431.000000;1.005346
9430.000000;1.004205
9429.000000;1.003186
9428.000000;1.002413
9427.000000;1.002017
9426.000000;1.001910
9425.000000;1.001745
9424.000000;1.001192
9423.000000;1.000243
9422.000000;0.999197
9421.000000;0.998382
9420.000000;0.997974
9419.000000;0.997987
9418.000000;0.998217
9417.000000;0.998218
9416.000000;0.997585
9415.000000;0.996369
9414.000000;0.995052
9413.000000;0.994065
9412.000000;0.993507
9411.000000;0.993360
9410.000000;0.993656
9409.000000;0.994225
9408.000000;0.994554
9407.000000;0.994209
9406.000000;0.993305
9405.000000;0.992292
9404.000000;0.991394
9403.000000;0.990509
9402.000000;0.989597
9401.000000;0.988846
9400.000000;0.988412
9399.000000;0.988240
9398.000000;0.988178
9397.000000;0.988095
9396.000000;0.987843
9395.000000;0.987309
9394.000000;0.986566
9393.000000;0.985799
9392.000000;0.985051
9391.000000;0.984214
9390.000000;0.983308
9389.000000;0.982596
9388.000000;0.982315
9387.000000;0.982419
9386.000000;0.982655
9385.000000;0.982786
9384.000000;0.982678
9383.000000;0.982298
9382.000000;0.981712
9381.000000;0.981025
9380.000000;0.980289
9379.000000;0.979562
9378.000000;0.978961
9377.000000;0.978478
9376.000000;0.977815
9375.000000;0.976737
9374.000000;0.975593
9373.000000;0.975099
9372.000000;0.975403
9371.000000;0.975727
9370.000000;0.975282
9369.000000;0.974266
9368.000000;0.973496
9367.000000;0.973210
9366.000000;0.972780
9365.000000;0.971686
9364.000000;0.970296
9363.000000;0.969429
9362.000000;0.969435
9361.000000;0.969924
9360.000000;0.970223
9359.000000;0.969885
9358.000000;0.968979
9357.000000;0.968080
9356.000000;0.967815
9355.000000;0.968182
9354.000000;0.968447
9353.000000;0.967940
9352.000000;0.966848
9351.000000;0.965956
9350.000000;0.965667
9349.000000;0.965597
9348.000000;0.965133
9347.000000;0.964075
9346.000000;0.962643
9345.000000;0.961193
9344.000000;0.960119
9343.000000;0.959760
9342.000000;0.960064
9341.000000;0.960475
9340.000000;0.960431
9339.000000;0.959953
9338.000000;0.959498
9337.000000;0.959268
9336.000000;0.958986
9335.000000;0.958382
9334.000000;0.957588
9333.000000;0.956874
9332.000000;0.956197
9331.000000;0.955275
9330.000000;0.954056
9329.000000;0.952903
9328.000000;0.952306
9327.000000;0.952503
9326.000000;0.953309
9325.000000;0.954161
9324.000000;0.954421
9323.000000;0.953883
9322.000000;0.953041
9321.000000;0.952658
9320.000000;0.952962
9319.000000;0.953395
9318.000000;0.953297
9317.000000;0.952734
9316.000000;0.952381
9315.000000;0.952549
9314.000000;0.952582
9313.000000;0.951454
9312.000000;0.948987
9311.000000;0.946249
9310.000000;0.944607
9309.000000;0.944466
9308.000000;0.945033
9307.000000;0.945237
9306.000000;0.944714
9305.000000;0.943872
9304.000000;0.943236
9303.000000;0.942988
9302.000000;0.943032
9301.000000;0.943222
9300.000000;0.943397
9299.000000;0.943362
9298.000000;0.943041
9297.000000;0.942593
9296.000000;0.942261
9295.000000;0.942098
9294.000000;0.941956
9293.000000;0.941720
9292.000000;0.941410
9291.000000;0.940991
9290.000000;0.940220
9289.000000;0.938889
9288.000000;0.937225
9287.000000;0.935896
9286.000000;0.935484
9285.000000;0.935995
9284.000000;0.936928
9283.000000;0.937741
9282.000000;0.938120
9281.000000;0.937916
9280.000000;0.937135
9279.000000;0.936116
9278.000000;0.935442
9277.000000;0.935396
9276.000000;0.935581
9275.000000;0.935278
9274.000000;0.934188
9273.000000;0.932662
9272.000000;0.931278
9271.000000;0.930373
9270.000000;0.929990
9269.000000;0.930021
9268.000000;0.930274
9267.000000;0.930513
9266.000000;0.930559
9265.000000;0.930350
9264.000000;0.929955
9263.000000;0.929601
9262.000000;0.929572
9261.000000;0.929840
9260.000000;0.929876
9259.000000;0.929125
9258.000000;0.927731
9257.000000;0.926466
9256.000000;0.925812
9255.000000;0.925479
9254.000000;0.925031
9253.000000;0.924603
9252.000000;0.924584
9251.000000;0.924859
9250.000000;0.924923
9249.000000;0.924686
9248.000000;0.924582
9247.000000;0.924720
9246.000000;0.924414
9245.000000;0.922949
9244.000000;0.920597
9243.000000;0.918540
9242.000000;0.917794
9241.000000;0.918364
9240.000000;0.919396
9239.000000;0.919958
9238.000000;0.919706
9237.000000;0.918939
9236.000000;0.918138
9235.000000;0.917556
9234.000000;0.917285
9233.000000;0.917477
9232.000000;0.918171
9231.000000;0.918915
9230.000000;0.918956
9229.000000;0.918023
9228.000000;0.916689
9227.000000;0.915739
9226.000000;0.915385
9225.000000;0.915336
9224.000000;0.915400
9223.000000;0.915599
9222.000000;0.915762
9221.000000;0.915470
9220.000000;0.914556
9219.000000;0.913375
9218.000000;0.912417
9217.000000;0.911836
9216.000000;0.911494
9215.000000;0.911217
9214.000000;0.910845
9213.000000;0.910218
9212.000000;0.909394
9211.000000;0.908733
9210.000000;0.908526
9209.000000;0.908570
9208.000000;0.908374
9207.000000;0.907763
9206.000000;0.907046
9205.000000;0.906593
9204.000000;0.906495
9203.000000;0.906693
9202.000000;0.907122
9201.000000;0.907560
9200.000000;0.907591
9199.000000;0.907006
9198.000000;0.906166
9197.000000;0.905671
9196.000000;0.905667
9195.000000;0.905685
9194.000000;0.905170
9193.000000;0.904057
9192.000000;0.902832
9191.000000;0.902131
9190.000000;0.902280
9189.000000;0.903045
9188.000000;0.903793
9187.000000;0.903993
9186.000000;0.903648
9185.000000;0.903155
9184.000000;0.902792
9183.000000;0.902471
9182.000000;0.902003
9181.000000;0.901450
9180.000000;0.901087
9179.000000;0.901078
9178.000000;0.901222
9177.000000;0.901037
9176.000000;0.900149
9175.000000;0.898700
9174.000000;0.897279
9173.000000;0.896380
9172.000000;0.896010
9171.000000;0.895935
9170.000000;0.896133
9169.000000;0.896699
9168.000000;0.897393
9167.000000;0.897703
9166.000000;0.897420
9165.000000;0.896823
9164.000000;0.896142
9163.000000;0.895253
9162.000000;0.894130
9161.000000;0.893226
9160.000000;0.892991
9159.000000;0.893204
9158.000000;0.893182
9157.000000;0.892585
9156.000000;0.891685
9155.000000;0.890919
9154.000000;0.890485
9153.000000;0.890369
9152.000000;0.890447
9151.000000;0.890518
9150.000000;0.890463
9149.000000;0.890388
9148.000000;0.890420
9147.000000;0.890400
9146.000000;0.890033
9145.000000;0.889323
9144.000000;0.888588
9143.000000;0.888039
9142.000000;0.887620
9141.000000;0.887313
9140.000000;0.887282
9139.000000;0.887569
9138.000000;0.887894
9137.000000;0.887910
9136.000000;0.887537
9135.000000;0.886920
9134.000000;0.886255
9133.000000;0.885737
9132.000000;0.885496
9131.000000;0.885436
9130.000000;0.885278
9129.000000;0.884897
9128.000000;0.884510
9127.000000;0.884390
9126.000000;0.884518
9125.000000;0.884627
9124.000000;0.884481
9123.000000;0.884013
9122.000000;0.883302
9121.000000;0.882556
9120.000000;0.882056
9119.000000;0.881976
9118.000000;0.882250
9117.000000;0.882655
9116.000000;0.882960
9115.000000;0.882993
9114.000000;0.882711
9113.000000;0.882294
9112.000000;0.881991
9111.000000;0.881743
9110.000000;0.881129
9109.000000;0.879903
9108.000000;0.878526
9107.000000;0.877896
9106.000000;0.878497
9105.000000;0.879900
9104.000000;0.881141
9103.000000;0.881528
9102.000000;0.881080
9101.000000;0.880279
9100.000000;0.879495
9099.000000;0.878723
9098.000000;0.877874
9097.000000;0.877142
9096.000000;0.876899
9095.000000;0.877189
9094.000000;0.877525
9093.000000;0.877334
9092.000000;0.876532
9091.000000;0.875532
9090.000000;0.874718
9089.000000;0.874083
9088.000000;0.873415
9087.000000;0.872713
9086.000000;0.872306
9085.000000;0.872496
9084.000000;0.873125
9083.000000;0.873624
9082.000000;0.873599
9081.000000;0.873271
9080.000000;0.873142
9079.000000;0.873264
9078.000000;0.873118
9077.000000;0.872327
9076.000000;0.871221
9075.000000;0.870477
9074.000000;0.870338
9073.000000;0.870476
9072.000000;0.870563
9071.000000;0.870686
9070.000000;0.871081
9069.000000;0.871651
9068.000000;0.871948
9067.000000;0.871621
9066.000000;0.870787
9065.000000;0.869909
9064.000000;0.869313
9063.000000;0.868893
9062.000000;0.868370
9061.000000;0.867775
9060.000000;0.867487
9059.000000;0.867725
9058.000000;0.868198
9057.000000;0.868403
9056.000000;0.868136
9055.000000;0.867551
9054.000000;0.866843
9053.000000;0.866097
9052.000000;0.865420
9051.000000;0.864953
9050.000000;0.864706
9049.000000;0.864542
9048.000000;0.864429
9047.000000;0.864540
9046.000000;0.864984
9045.000000;0.865559
9044.000000;0.865891
9043.000000;0.865776
9042.000000;0.865332
9041.000000;0.864866
9040.000000;0.864609
9039.000000;0.864504
9038.000000;0.864217
9037.000000;0.863471
9036.000000;0.862433
9035.000000;0.861618
9034.000000;0.861315
9033.000000;0.861254
9032.000000;0.861014
9031.000000;0.860614
9030.000000;0.860427
9029.000000;0.860562
9028.000000;0.860642
9027.000000;0.860337
9026.000000;0.859847
9025.000000;0.859636
9024.000000;0.859827
9023.000000;0.860115
9022.000000;0.860217
9021.000000;0.860153
9020.000000;0.860081
9019.000000;0.860028
9018.000000;0.859895
9017.000000;0.859580
9016.000000;0.859036
9015.000000;0.858286
9014.000000;0.857485
9013.000000;0.856905
9012.000000;0.856753
9011.000000;0.856995
9010.000000;0.857368
9009.000000;0.857538
9008.000000;0.857276
9007.000000;0.856593
9006.000000;0.855773
9005.000000;0.855203
9004.000000;0.855078
9003.000000;0.855259
9002.000000;0.855424
9001.000000;0.855324
9000.000000;0.854947
8999.000000;0.854552
8998.000000;0.854553
8997.000000;0.855158
8996.000000;0.856037
8995.000000;0.856490
8994.000000;0.856110
8993.000000;0.855202
8992.000000;0.854402
8991.000000;0.853995
8990.000000;0.853800
8989.000000;0.853616
8988.000000;0.853494
8987.000000;0.853502
8986.000000;0.853467
8985.000000;0.853119
8984.000000;0.852451
8983.000000;0.851819
8982.000000;0.851652
8981.000000;0.852045
8980.000000;0.852635
8979.000000;0.852903
8978.000000;0.852660
8977.000000;0.852180
8976.000000;0.851846
8975.000000;0.851780
8974.000000;0.851914
8973.000000;0.852251
8972.000000;0.852759
8971.000000;0.853092
8970.000000;0.852728
8969.000000;0.851572
8968.000000;0.850209
8967.000000;0.849360
8966.000000;0.849167
8965.000000;0.849169
8964.000000;0.848924
8963.000000;0.848486
8962.000000;0.848245
8961.000000;0.848392
8960.000000;0.848665
8959.000000;0.848631
8958.000000;0.848201
8957.000000;0.847773
8956.000000;0.847812
8955.000000;0.848305
8954.000000;0.848755
8953.000000;0.848701
8952.000000;0.848132
8951.000000;0.847351
8950.000000;0.846594
8949.000000;0.845928
8948.000000;0.845433
8947.000000;0.845283
8946.000000;0.845525
8945.000000;0.845866
8944.000000;0.845826
8943.000000;0.845185
8942.000000;0.844273
8941.000000;0.843733
8940.000000;0.843944
8939.000000;0.844695
8938.000000;0.845404
8937.000000;0.845627
8936.000000;0.845347
8935.000000;0.844898
8934.000000;0.844654
8933.000000;0.844712
8932.000000;0.844767
8931.000000;0.844367
8930.000000;0.843396
8929.000000;0.842258
8928.000000;0.841487
8927.000000;0.841257
8926.000000;0.841353
8925.000000;0.841504
8924.000000;0.841588
8923.000000;0.841616
8922.000000;0.841751
8921.000000;0.842273
8920.000000;0.843293
8919.000000;0.844461
8918.000000;0.845194
8917.000000;0.845251
8916.000000;0.844869
8915.000000;0.844352
8914.000000;0.843772
8913.000000;0.843200
8912.000000;0.842904
8911.000000;0.843063
8910.000000;0.843460
8909.000000;0.843700
8908.000000;0.843669
8907.000000;0.843578
8906.000000;0.843595
8905.000000;0.843614
8904.000000;0.843383
8903.000000;0.842752
8902.000000;0.841792
8901.000000;0.840757
8900.000000;0.839895
8899.000000;0.839245
8898.000000;0.838657
8897.000000;0.838072
8896.000000;0.837674
8895.000000;0.837694
8894.000000;0.838155
8893.000000;0.838901
8892.000000;0.839776
8891.000000;0.840611
8890.000000;0.841118
8889.000000;0.840980
8888.000000;0.840118
8887.000000;0.838776
8886.000000;0.837343
8885.000000;0.836186
8884.000000;0.835573
8883.000000;0.835597
8882.000000;0.836111
8881.000000;0.836840
8880.000000;0.837613
8879.000000;0.838404
8878.000000;0.839147
8877.000000;0.839641
8876.000000;0.839725
8875.000000;0.839488
8874.000000;0.839197
8873.000000;0.839018
8872.000000;0.838861
8871.000000;0.838532
8870.000000;0.837990
8869.000000;0.837410
8868.000000;0.836998
8867.000000;0.836808
8866.000000;0.836780
8865.000000;0.836879
8864.000000;0.837098
8863.000000;0.837365
8862.000000;0.837553
8861.000000;0.837608
8860.000000;0.837581
8859.000000;0.837509
8858.000000;0.837361
8857.000000;0.837152
8856.000000;0.836964
8855.000000;0.836807
8854.000000;0.836547
8853.000000;0.836116
8852.000000;0.835690
8851.000000;0.835529
8850.000000;0.835655
8849.000000;0.835815
8848.000000;0.835779
8847.000000;0.835571
8846.000000;0.835416
8845.000000;0.835531
8844.000000;0.835974
8843.000000;0.836587
8842.000000;0.837075
8841.000000;0.837201
8840.000000;0.836965
8839.000000;0.836580
8838.000000;0.836250
8837.000000;0.835980
8836.000000;0.835619
8835.000000;0.835059
8834.000000;0.834398
8833.000000;0.833914
8832.000000;0.833889
8831.000000;0.834403
8830.000000;0.835277
8829.000000;0.836182
8828.000000;0.836805
8827.000000;0.836975
8826.000000;0.836740
8825.000000;0.836345
8824.000000;0.836080
8823.000000;0.836095
8822.000000;0.836367
8821.000000;0.836798
8820.000000;0.837304
8819.000000;0.837774
8818.000000;0.838073
8817.000000;0.838095
8816.000000;0.837767
8815.000000;0.837019
8814.000000;0.835892
8813.000000;0.834713
8812.000000;0.833995
8811.000000;0.834046
8810.000000;0.834712
8809.000000;0.835576
8808.000000;0.836302
8807.000000;0.836755
8806.000000;0.836941
8805.000000;0.837007
8804.000000;0.837160
8803.000000;0.837444
8802.000000;0.837675
8801.000000;0.837744
8800.000000;0.837842
8799.000000;0.838156
8798.000000;0.838468
8797.000000;0.838381
8796.000000;0.837940
8795.000000;0.837701
8794.000000;0.838074
8793.000000;0.838852
8792.000000;0.839518
8791.000000;0.839813
8790.000000;0.839841
8789.000000;0.839787
8788.000000;0.839736
8787.000000;0.839676
8786.000000;0.839526
8785.000000;0.839193
8784.000000;0.838770
8783.000000;0.838587
8782.000000;0.838924
8781.000000;0.839678
8780.000000;0.840446
8779.000000;0.840920
8778.000000;0.841105
8777.000000;0.841156
8776.000000;0.841135
8775.000000;0.840954
8774.000000;0.840513
8773.000000;0.839866
8772.000000;0.839298
8771.000000;0.839163
8770.000000;0.839577
8769.000000;0.840262
8768.000000;0.840774
8767.000000;0.840892
8766.000000;0.840740
8765.000000;0.840597
8764.000000;0.840659
8763.000000;0.840959
8762.000000;0.841406
8761.000000;0.841879
8760.000000;0.842300
8759.000000;0.842628
8758.000000;0.842774
8757.000000;0.842640
8756.000000;0.842333
8755.000000;0.842234
8754.000000;0.842666
8753.000000;0.843490
8752.000000;0.844180
8751.000000;0.844363
8750.000000;0.844130
8749.000000;0.843799
8748.000000;0.843558
8747.000000;0.843467
8746.000000;0.843636
8745.000000;0.844164
8744.000000;0.844932
8743.000000;0.845629
8742.000000;0.846025
8741.000000;0.846108
8740.000000;0.845957
8739.000000;0.845629
8738.000000;0.845247
8737.000000;0.845067
8736.000000;0.845287
8735.000000;0.845784
8734.000000;0.846158
8733.000000;0.846108
8732.000000;0.845765
8731.000000;0.845572
8730.000000;0.845813
8729.000000;0.846269
8728.000000;0.846429
8727.000000;0.846045
8726.000000;0.845438
8725.000000;0.845195
8724.000000;0.845571
8723.000000;0.846276
8722.000000;0.846840
8721.000000;0.847115
8720.000000;0.847326
8719.000000;0.847657
8718.000000;0.847966
8717.000000;0.847988
8716.000000;0.847770
8715.000000;0.847719
8714.000000;0.848162
8713.000000;0.848972
8712.000000;0.849728
8711.000000;0.850164
8710.000000;0.850339
8709.000000;0.850391
8708.000000;0.850334
8707.000000;0.850167
8706.000000;0.850030
8705.000000;0.850089
8704.000000;0.850319
8703.000000;0.850500
8702.000000;0.850464
8701.000000;0.850276
8700.000000;0.850155
8699.000000;0.850249
8698.000000;0.850497
8697.000000;0.850689
8696.000000;0.850704
8695.000000;0.850696
8694.000000;0.850948
8693.000000;0.851495
8692.000000;0.851997
8691.000000;0.852091
8690.000000;0.851801
8689.000000;0.851433
8688.000000;0.851154
8687.000000;0.850877
8686.000000;0.850583
8685.000000;0.850484
8684.000000;0.850758
8683.000000;0.851267
8682.000000;0.851733
8681.000000;0.852041
8680.000000;0.852223
8679.000000;0.852240
8678.000000;0.852056
8677.000000;0.851900
8676.000000;0.852185
8675.000000;0.853011
8674.000000;0.853943
8673.000000;0.854452
8672.000000;0.854488
8671.000000;0.854432
8670.000000;0.854530
8669.000000;0.854581
8668.000000;0.854237
8667.000000;0.853502
8666.000000;0.852787
8665.000000;0.852519
8664.000000;0.852795
8663.000000;0.853392
8662.000000;0.853999
8661.000000;0.854379
8660.000000;0.854419
8659.000000;0.854150
8658.000000;0.853741
8657.000000;0.853391
8656.000000;0.853183
8655.000000;0.853075
8654.000000;0.853022
8653.000000;0.853051
8652.000000;0.853179
8651.000000;0.853318
8650.000000;0.853360
8649.000000;0.853296
8648.000000;0.853184
8647.000000;0.853012
8646.000000;0.852735
8645.000000;0.852450
8644.000000;0.852410
8643.000000;0.852765
8642.000000;0.853333
8641.000000;0.853721
8640.000000;0.853679
8639.000000;0.853266
8638.000000;0.852768
8637.000000;0.852516
8636.000000;0.852714
8635.000000;0.853260
8634.000000;0.853709
8633.000000;0.853623
8632.000000;0.853025
8631.000000;0.852400
8630.000000;0.852142
8629.000000;0.852133
8628.000000;0.852035
8627.000000;0.851852
8626.000000;0.851948
8625.000000;0.852445
8624.000000;0.852911
8623.000000;0.852815
8622.000000;0.852202
8621.000000;0.851682
8620.000000;0.851768
8619.000000;0.852358
8618.000000;0.852929
8617.000000;0.853115
8616.000000;0.852987
8615.000000;0.852824
8614.000000;0.852755
8613.000000;0.852707
8612.000000;0.852604
8611.000000;0.852488
8610.000000;0.852398
8609.000000;0.852247
8608.000000;0.851914
8607.000000;0.851449
8606.000000;0.851060
8605.000000;0.850893
8604.000000;0.850878
8603.000000;0.850817
8602.000000;0.850571
8601.000000;0.850174
8600.000000;0.849825
8599.000000;0.849780
8598.000000;0.850144
8597.000000;0.850734
8596.000000;0.851231
8595.000000;0.851496
8594.000000;0.851683
8593.000000;0.851981
8592.000000;0.852337
8591.000000;0.852478
8590.000000;0.852162
8589.000000;0.851363
8588.000000;0.850289
8587.000000;0.849286
8586.000000;0.848655
8585.000000;0.848461
8584.000000;0.848539
8583.000000;0.848710
8582.000000;0.848954
8581.000000;0.849286
8580.000000;0.849583
8579.000000;0.849649
8578.000000;0.849415
8577.000000;0.848984
8576.000000;0.848493
8575.000000;0.848028
8574.000000;0.847630
8573.000000;0.847295
8572.000000;0.846990
8571.000000;0.846758
8570.000000;0.846760
8569.000000;0.847113
8568.000000;0.847697
8567.000000;0.848239
8566.000000;0.848572
8565.000000;0.848692
8564.000000;0.848616
8563.000000;0.848359
8562.000000;0.848067
8561.000000;0.847973
8560.000000;0.848143
8559.000000;0.848379
8558.000000;0.848474
8557.000000;0.848436
8556.000000;0.848389
8555.000000;0.848353
8554.000000;0.848252
8553.000000;0.848061
8552.000000;0.847822
8551.000000;0.847531
8550.000000;0.847120
8549.000000;0.846583
8548.000000;0.846065
8547.000000;0.845807
8546.000000;0.845974
8545.000000;0.846498
8544.000000;0.847072
8543.000000;0.847344
8542.000000;0.847163
8541.000000;0.846621
8540.000000;0.845916
8539.000000;0.845256
8538.000000;0.844860
8537.000000;0.844874
8536.000000;0.845190
8535.000000;0.845444
8534.000000;0.845347
8533.000000;0.844988
8532.000000;0.844750
8531.000000;0.844917
8530.000000;0.845436
8529.000000;0.845998
8528.000000;0.846305
8527.000000;0.846269
8526.000000;0.846049
8525.000000;0.845882
8524.000000;0.845863
8523.000000;0.845878
8522.000000;0.845791
8521.000000;0.845638
8520.000000;0.845573
8519.000000;0.845645
8518.000000;0.845716
8517.000000;0.845583
8516.000000;0.845163
8515.000000;0.844563
8514.000000;0.844025
8513.000000;0.843790
8512.000000;0.843922
8511.000000;0.844235
8510.000000;0.844437
8509.000000;0.844391
8508.000000;0.844235
8507.000000;0.844214
8506.000000;0.844397
8505.000000;0.844587
8504.000000;0.844524
8503.000000;0.844185
8502.000000;0.843819
8501.000000;0.843648
8500.000000;0.843611
8499.000000;0.843481
8498.000000;0.843199
8497.000000;0.842956
8496.000000;0.842906
8495.000000;0.842958
8494.000000;0.842957
8493.000000;0.842984
8492.000000;0.843276
8491.000000;0.843868
8490.000000;0.844453
8489.000000;0.844687
8488.000000;0.844513
8487.000000;0.844132
8486.000000;0.843721
8485.000000;0.843309
8484.000000;0.842901
8483.000000;0.842616
8482.000000;0.842625
8481.000000;0.842961
8480.000000;0.843431
8479.000000;0.843734
8478.000000;0.843679
8477.000000;0.843318
8476.000000;0.842896
8475.000000;0.842654
8474.000000;0.842634
8473.000000;0.842652
8472.000000;0.842476
8471.000000;0.842088
8470.000000;0.841727
8469.000000;0.841640
8468.000000;0.841785
8467.000000;0.841866
8466.000000;0.841672
8465.000000;0.841326
8464.000000;0.841131
8463.000000;0.841222
8462.000000;0.841449
8461.000000;0.841605
8460.000000;0.841659
8459.000000;0.841717
8458.000000;0.841804
8457.000000;0.841804
8456.000000;0.841611
8455.000000;0.841274
8454.000000;0.840933
8453.000000;0.840684
8452.000000;0.840548
8451.000000;0.840525
8450.000000;0.840604
8449.000000;0.840722
8448.000000;0.840803
8447.000000;0.840828
8446.000000;0.840828
8445.000000;0.840770
8444.000000;0.840567
8443.000000;0.840231
8442.000000;0.839954
8441.000000;0.839945
8440.000000;0.840209
8439.000000;0.840558
8438.000000;0.840842
8437.000000;0.841083
8436.000000;0.841355
8435.000000;0.841612
8434.000000;0.841689
8433.000000;0.841483
8432.000000;0.841050
8431.000000;0.840530
8430.000000;0.840024
8429.000000;0.839597
8428.000000;0.839355
8427.000000;0.839395
8426.000000;0.839644
8425.000000;0.839863
8424.000000;0.839904
8423.000000;0.839847
8422.000000;0.839798
8421.000000;0.839634
8420.000000;0.839191
8419.000000;0.838656
8418.000000;0.838510
8417.000000;0.838970
8416.000000;0.839674
8415.000000;0.840028
8414.000000;0.839764
8413.000000;0.839027
8412.000000;0.838083
8411.000000;0.837159
8410.000000;0.836488
8409.000000;0.836265
8408.000000;0.836503
8407.000000;0.837021
8406.000000;0.837586
8405.000000;0.838007
8404.000000;0.838161
8403.000000;0.838078
8402.000000;0.837974
8401.000000;0.838069
8400.000000;0.838361
8399.000000;0.838658
8398.000000;0.838816
8397.000000;0.838874
8396.000000;0.838953
8395.000000;0.839140
8394.000000;0.839430
8393.000000;0.839694
8392.000000;0.839704
8391.000000;0.839291
8390.000000;0.838503
8389.000000;0.837590
8388.000000;0.836873
8387.000000;0.836619
8386.000000;0.836914
8385.000000;0.837527
8384.000000;0.838013
8383.000000;0.838120
8382.000000;0.838012
8381.000000;0.837956
8380.000000;0.837906
8379.000000;0.837604
8378.000000;0.837044
8377.000000;0.836548
8376.000000;0.836376
8375.000000;0.836477
8374.000000;0.836672
8373.000000;0.836838
8372.000000;0.836881
8371.000000;0.836751
8370.000000;0.836571
8369.000000;0.836560
8368.000000;0.836717
8367.000000;0.836756
8366.000000;0.836478
8365.000000;0.836036
8364.000000;0.835738
8363.000000;0.835743
8362.000000;0.836048
8361.000000;0.836572
8360.000000;0.837087
8359.000000;0.837233
8358.000000;0.836853
8357.000000;0.836230
8356.000000;0.835806
8355.000000;0.835722
8354.000000;0.835796
8353.000000;0.835887
8352.000000;0.836054
8351.000000;0.836336
8350.000000;0.836566
8349.000000;0.836491
8348.000000;0.836020
8347.000000;0.835313
8346.000000;0.834712
8345.000000;0.834542
8344.000000;0.834878
8343.000000;0.835448
8342.000000;0.835839
8341.000000;0.835837
8340.000000;0.835560
8339.000000;0.835275
8338.000000;0.835150
8337.000000;0.835169
8336.000000;0.835219
8335.000000;0.835224
8334.000000;0.835185
8333.000000;0.835099
8332.000000;0.834904
8331.000000;0.834578
8330.000000;0.834286
8329.000000;0.834288
8328.000000;0.834629
8327.000000;0.834995
8326.000000;0.835019
8325.000000;0.834699
8324.000000;0.834425
8323.000000;0.834559
8322.000000;0.835047
8321.000000;0.835446
8320.000000;0.835334
8319.000000;0.834701
8318.000000;0.833975
8317.000000;0.833626
8316.000000;0.833735
8315.000000;0.833947
8314.000000;0.833888
8313.000000;0.833545
8312.000000;0.833197
8311.000000;0.833035
8310.000000;0.832957
8309.000000;0.832742
8308.000000;0.832337
8307.000000;0.831910
8306.000000;0.831667
8305.000000;0.831704
8304.000000;0.832025
8303.000000;0.832604
8302.000000;0.833322
8301.000000;0.833887
8300.000000;0.833967
8299.000000;0.833500
8298.000000;0.832793
8297.000000;0.832253
8296.000000;0.832053
8295.000000;0.832073
8294.000000;0.832086
8293.000000;0.831909
8292.000000;0.831518
8291.000000;0.831122
8290.000000;0.831029
8289.000000;0.831296
8288.000000;0.831586
8287.000000;0.831566
8286.000000;0.831365
8285.000000;0.831371
8284.000000;0.831641
8283.000000;0.831817
8282.000000;0.831671
8281.000000;0.831409
8280.000000;0.831284
8279.000000;0.831212
8278.000000;0.831009
8277.000000;0.830783
8276.000000;0.830794
8275.000000;0.831033
8274.000000;0.831211
8273.000000;0.831139
8272.000000;0.830907
8271.000000;0.830685
8270.000000;0.830541
8269.000000;0.830477
8268.000000;0.830473
8267.000000;0.830458
8266.000000;0.830354
8265.000000;0.830185
8264.000000;0.830072
8263.000000;0.830103
8262.000000;0.830271
8261.000000;0.830515
8260.000000;0.830744
8259.000000;0.830873
8258.000000;0.830916
8257.000000;0.831009
8256.000000;0.831229
8255.000000;0.831434
8254.000000;0.831384
8253.000000;0.831005
8252.000000;0.830434
8251.000000;0.829847
8250.000000;0.829376
8249.000000;0.829164
8248.000000;0.829328
8247.000000;0.829814
8246.000000;0.830400
8245.000000;0.830900
8244.000000;0.831272
8243.000000;0.831513
8242.000000;0.831579
8241.000000;0.831460
8240.000000;0.831240
8239.000000;0.830982
8238.000000;0.830645
8237.000000;0.830189
8236.000000;0.829720
8235.000000;0.829406
8234.000000;0.829263
8233.000000;0.829126
8232.000000;0.828869
8231.000000;0.828591
8230.000000;0.828499
8229.000000;0.828639
8228.000000;0.828817
8227.000000;0.828810
8226.000000;0.828616
8225.000000;0.828398
8224.000000;0.828246
8223.000000;0.828089
8222.000000;0.827878
8221.000000;0.827732
8220.000000;0.827822
8219.000000;0.828146
8218.000000;0.828504
8217.000000;0.828672
8216.000000;0.828551
8215.000000;0.828195
8214.000000;0.827769
8213.000000;0.827454
8212.000000;0.827307
8211.000000;0.827211
8210.000000;0.827031
8209.000000;0.826800
8208.000000;0.826664
8207.000000;0.826655
8206.000000;0.826658
8205.000000;0.826638
8204.000000;0.826761
8203.000000;0.827188
8202.000000;0.827807
8201.000000;0.828296
8200.000000;0.828432
8199.000000;0.828227
8198.000000;0.827786
8197.000000;0.827207
8196.000000;0.826673
8195.000000;0.826485
8194.000000;0.826801
8193.000000;0.827366
8192.000000;0.827659
8191.000000;0.827384
8190.000000;0.826748
8189.000000;0.826233
8188.000000;0.826174
8187.000000;0.826553
8186.000000;0.827086
8185.000000;0.827407
8184.000000;0.827289
8183.000000;0.826812
8182.000000;0.826310
8181.000000;0.826068
8180.000000;0.826083
8179.000000;0.826168
8178.000000;0.826219
8177.000000;0.826283
8176.000000;0.826373
8175.000000;0.826392
8174.000000;0.826250
8173.000000;0.825978
8172.000000;0.825699
8171.000000;0.825544
8170.000000;0.825607
8169.000000;0.825870
8168.000000;0.826175
8167.000000;0.826319
8166.000000;0.826224
8165.000000;0.825953
8164.000000;0.825596
8163.000000;0.825243
8162.000000;0.825042
8161.000000;0.825131
8160.000000;0.825454
8159.000000;0.825771
8158.000000;0.825886
8157.000000;0.825788
8156.000000;0.825542
8155.000000;0.825182
8154.000000;0.824785
8153.000000;0.824515
8152.000000;0.824451
8151.000000;0.824450
8150.000000;0.824317
8149.000000;0.824078
8148.000000;0.823974
8147.000000;0.824154
8146.000000;0.824469
8145.000000;0.824625
8144.000000;0.824499
8143.000000;0.824266
8142.000000;0.824191
8141.000000;0.824298
8140.000000;0.824322
8139.000000;0.824019
8138.000000;0.823482
8137.000000;0.823052
8136.000000;0.822931
8135.000000;0.823008
8134.000000;0.823091
8133.000000;0.823163
8132.000000;0.823335
8131.000000;0.823625
8130.000000;0.823900
8129.000000;0.824013
8128.000000;0.823945
8127.000000;0.823815
8126.000000;0.823756
8125.000000;0.823759
8124.000000;0.823667
8123.000000;0.823380
8122.000000;0.823055
8121.000000;0.822995
8120.000000;0.823305
8119.000000;0.823753
8118.000000;0.824003
8117.000000;0.823918
8116.000000;0.823630
8115.000000;0.823381
8114.000000;0.823348
8113.000000;0.823520
8112.000000;0.823735
8111.000000;0.823859
8110.000000;0.823923
8109.000000;0.823976
8108.000000;0.823897
8107.000000;0.823530
8106.000000;0.823028
8105.000000;0.822790
8104.000000;0.822965
8103.000000;0.823219
8102.000000;0.823165
8101.000000;0.822839
8100.000000;0.822582
8099.000000;0.822581
8098.000000;0.822756
8097.000000;0.822975
8096.000000;0.823151
8095.000000;0.823199
8094.000000;0.823081
8093.000000;0.822912
8092.000000;0.822820
8091.000000;0.822751
8090.000000;0.822580
8089.000000;0.822408
8088.000000;0.822503
8087.000000;0.822902
8086.000000;0.823262
8085.000000;0.823239
8084.000000;0.822869
8083.000000;0.822479
8082.000000;0.822323
8081.000000;0.822409
8080.000000;0.822617
8079.000000;0.822841
8078.000000;0.823013
8077.000000;0.823082
8076.000000;0.823021
8075.000000;0.822878
8074.000000;0.822770
8073.000000;0.822813
8072.000000;0.822999
8071.000000;0.823172
8070.000000;0.823164
8069.000000;0.822928
8068.000000;0.822534
8067.000000;0.822070
8066.000000;0.821587
8065.000000;0.821146
8064.000000;0.820823
8063.000000;0.820679
8062.000000;0.820728
8061.000000;0.820940
8060.000000;0.821234
8059.000000;0.821479
8058.000000;0.821569
8057.000000;0.821515
8056.000000;0.821426
8055.000000;0.821393
8054.000000;0.821386
8053.000000;0.821253
8052.000000;0.820857
8051.000000;0.820257
8050.000000;0.819765
8049.000000;0.819722
8048.000000;0.820158
8047.000000;0.820733
8046.000000;0.821090
8045.000000;0.821214
8044.000000;0.821370
8043.000000;0.821711
8042.000000;0.822078
8041.000000;0.822193
8040.000000;0.821951
8039.000000;0.821487
8038.000000;0.821010
8037.000000;0.820639
8036.000000;0.820390
8035.000000;0.820281
8034.000000;0.820372
8033.000000;0.820667
8032.000000;0.821013
8031.000000;0.821192
8030.000000;0.821142
8029.000000;0.821036
8028.000000;0.821069
8027.000000;0.821232
8026.000000;0.821340
8025.000000;0.821238
8024.000000;0.820914
8023.000000;0.820496
8022.000000;0.820200
8021.000000;0.820236
8020.000000;0.820619
8019.000000;0.821073
8018.000000;0.821221
8017.000000;0.820930
8016.000000;0.820438
8015.000000;0.820112
8014.000000;0.820127
8013.000000;0.820385
8012.000000;0.820686
8011.000000;0.820900
8010.000000;0.820990
8009.000000;0.820941
8008.000000;0.820762
8007.000000;0.820559
8006.000000;0.820515
8005.000000;0.820700
8004.000000;0.820925
8003.000000;0.820910
8002.000000;0.820597
8001.000000;0.820220
8000.000000;0.820048
7999.000000;0.820132
7998.000000;0.820356
7997.000000;0.820596
7996.000000;0.820772
7995.000000;0.820826
7994.000000;0.820743
7993.000000;0.820563
7992.000000;0.820323
7991.000000;0.820056
7990.000000;0.819851
7989.000000;0.819837
7988.000000;0.820005
7987.000000;0.820169
7986.000000;0.820195
7985.000000;0.820169
7984.000000;0.820233
7983.000000;0.820328
7982.000000;0.820274
7981.000000;0.820052
7980.000000;0.819850
7979.000000;0.819809
7978.000000;0.819871
7977.000000;0.819905
7976.000000;0.819874
7975.000000;0.819827
7974.000000;0.819803
7973.000000;0.819798
7972.000000;0.819786
7971.000000;0.819728
7970.000000;0.819612
7969.000000;0.819476
7968.000000;0.819368
7967.000000;0.819319
7966.000000;0.819373
7965.000000;0.819607
7964.000000;0.820009
7963.000000;0.820378
7962.000000;0.820458
7961.000000;0.820202
7960.000000;0.819844
7959.000000;0.819686
7958.000000;0.819866
7957.000000;0.820296
7956.000000;0.820746
7955.000000;0.820961
7954.000000;0.820830
7953.000000;0.820468
7952.000000;0.820125
7951.000000;0.819963
7950.000000;0.819964
7949.000000;0.820004
7948.000000;0.819986
7947.000000;0.819900
7946.000000;0.819822
7945.000000;0.819841
7944.000000;0.819936
7943.000000;0.819953
7942.000000;0.819781
7941.000000;0.819518
7940.000000;0.819362
7939.000000;0.819384
7938.000000;0.819503
7937.000000;0.819676
7936.000000;0.819971
7935.000000;0.820377
7934.000000;0.820711
7933.000000;0.820783
7932.000000;0.820607
7931.000000;0.820365
7930.000000;0.820211
7929.000000;0.820171
7928.000000;0.820186
7927.000000;0.820185
7926.000000;0.820171
7925.000000;0.820252
7924.000000;0.820534
7923.000000;0.820932
7922.000000;0.821171
7921.000000;0.821083
7920.000000;0.820823
7919.000000;0.820682
7918.000000;0.820726
7917.000000;0.820736
7916.000000;0.820527
7915.000000;0.820190
7914.000000;0.819968
7913.000000;0.819989
7912.000000;0.820183
7911.000000;0.820413
7910.000000;0.820579
7909.000000;0.820645
7908.000000;0.820630
7907.000000;0.820601
7906.000000;0.820619
7905.000000;0.820667
7904.000000;0.820676
7903.000000;0.820631
7902.000000;0.820599
7901.000000;0.820640
7900.000000;0.820732
7899.000000;0.820824
7898.000000;0.820920
7897.000000;0.821054
7896.000000;0.821221
7895.000000;0.821382
7894.000000;0.821508
7893.000000;0.821578
7892.000000;0.821561
7891.000000;0.821438
7890.000000;0.821247
7889.000000;0.821035
7888.000000;0.820802
7887.000000;0.820549
7886.000000;0.820361
7885.000000;0.820329
7884.000000;0.820390
7883.000000;0.820367
7882.000000;0.820215
7881.000000;0.820096
7880.000000;0.820148
7879.000000;0.820293
7878.000000;0.820368
7877.000000;0.820381
7876.000000;0.820508
7875.000000;0.820845
7874.000000;0.821276
7873.000000;0.821621
7872.000000;0.821815
7871.000000;0.821922
7870.000000;0.822003
7869.000000;0.822025
7868.000000;0.821894
7867.000000;0.821593
7866.000000;0.821259
7865.000000;0.821067
7864.000000;0.821038
7863.000000;0.821008
7862.000000;0.820842
7861.000000;0.820630
7860.000000;0.820599
7859.000000;0.820864
7858.000000;0.821314
7857.000000;0.821705
7856.000000;0.821825
7855.000000;0.821629
7854.000000;0.821308
7853.000000;0.821187
7852.000000;0.821454
7851.000000;0.821948
7850.000000;0.822279
7849.000000;0.822192
7848.000000;0.821792
7847.000000;0.821403
7846.000000;0.821279
7845.000000;0.821429
7844.000000;0.821694
7843.000000;0.821926
7842.000000;0.822091
7841.000000;0.822229
7840.000000;0.822324
7839.000000;0.822295
7838.000000;0.822116
7837.000000;0.821889
7836.000000;0.821774
7835.000000;0.821841
7834.000000;0.822064
7833.000000;0.822367
7832.000000;0.822638
7831.000000;0.822747
7830.000000;0.822656
7829.000000;0.822528
7828.000000;0.822587
7827.000000;0.822866
7826.000000;0.823150
7825.000000;0.823226
7824.000000;0.823138
7823.000000;0.823123
7822.000000;0.823316
7821.000000;0.823603
7820.000000;0.823768
7819.000000;0.823728
7818.000000;0.823587
7817.000000;0.823479
7816.000000;0.823425
7815.000000;0.823381
7814.000000;0.823351
7813.000000;0.823364
7812.000000;0.823390
7811.000000;0.823386
7810.000000;0.823429
7809.000000;0.823641
7808.000000;0.823951
7807.000000;0.824066
7806.000000;0.823790
7805.000000;0.823294
7804.000000;0.822937
7803.000000;0.822899
7802.000000;0.823103
7801.000000;0.823434
7800.000000;0.823825
7799.000000;0.824143
7798.000000;0.824204
7797.000000;0.823993
7796.000000;0.823758
7795.000000;0.823760
7794.000000;0.824018
7793.000000;0.824353
7792.000000;0.824641
7791.000000;0.824908
7790.000000;0.825200
7789.000000;0.825452
7788.000000;0.825520
7787.000000;0.825331
7786.000000;0.824991
7785.000000;0.824716
7784.000000;0.824655
7783.000000;0.824783
7782.000000;0.824986
7781.000000;0.825213
7780.000000;0.825480
7779.000000;0.825764
7778.000000;0.825965
7777.000000;0.826018
7776.000000;0.825966
7775.000000;0.825907
7774.000000;0.825915
7773.000000;0.826028
7772.000000;0.826253
7771.000000;0.826544
7770.000000;0.826820
7769.000000;0.827032
7768.000000;0.827168
7767.000000;0.827183
7766.000000;0.827007
7765.000000;0.826694
7764.000000;0.826464
7763.000000;0.826505
7762.000000;0.826755
7761.000000;0.826980
7760.000000;0.827060
7759.000000;0.827106
7758.000000;0.827273
7757.000000;0.827542
7756.000000;0.827760
7755.000000;0.827830
7754.000000;0.827811
7753.000000;0.827824
7752.000000;0.827953
7751.000000;0.828213
7750.000000;0.828550
7749.000000;0.828831
7748.000000;0.828905
7747.000000;0.828731
7746.000000;0.828450
7745.000000;0.828281
7744.000000;0.828338
7743.000000;0.828579
7742.000000;0.828892
7741.000000;0.829182
7740.000000;0.829375
7739.000000;0.829433
7738.000000;0.829401
7737.000000;0.829374
7736.000000;0.829382
7735.000000;0.829359
7734.000000;0.829273
7733.000000;0.829214
7732.000000;0.829295
7731.000000;0.829500
7730.000000;0.829707
7729.000000;0.829853
7728.000000;0.829968
7727.000000;0.830086
7726.000000;0.830184
7725.000000;0.830246
7724.000000;0.830307
7723.000000;0.830416
7722.000000;0.830592
7721.000000;0.830833
7720.000000;0.831103
7719.000000;0.831315
7718.000000;0.831391
7717.000000;0.831346
7716.000000;0.831290
7715.000000;0.831309
7714.000000;0.831408
7713.000000;0.831568
7712.000000;0.831792
7711.000000;0.832060
7710.000000;0.832293
7709.000000;0.832404
7708.000000;0.832381
7707.000000;0.832275
7706.000000;0.832171
7705.000000;0.832175
7704.000000;0.832372
7703.000000;0.832738
7702.000000;0.833113
7701.000000;0.833336
7700.000000;0.833391
7699.000000;0.833387
7698.000000;0.833456
7697.000000;0.833675
7696.000000;0.834059
7695.000000;0.834520
7694.000000;0.834874
7693.000000;0.834957
7692.000000;0.834770
7691.000000;0.834451
7690.000000;0.834132
7689.000000;0.833877
7688.000000;0.833750
7687.000000;0.833853
7686.000000;0.834224
7685.000000;0.834759
7684.000000;0.835275
7683.000000;0.835628
7682.000000;0.835758
7681.000000;0.835705
7680.000000;0.835614
7679.000000;0.835678
7678.000000;0.835982
7677.000000;0.836409
7676.000000;0.836759
7675.000000;0.836954
7674.000000;0.837063
7673.000000;0.837177
7672.000000;0.837320
7671.000000;0.837504
7670.000000;0.837736
7669.000000;0.837943
7668.000000;0.837983
7667.000000;0.837804
7666.000000;0.837556
7665.000000;0.837461
7664.000000;0.837597
7663.000000;0.837859
7662.000000;0.838125
7661.000000;0.838370
7660.000000;0.838628
7659.000000;0.838895
7658.000000;0.839120
7657.000000;0.839251
7656.000000;0.839289
7655.000000;0.839308
7654.000000;0.839416
7653.000000;0.839661
7652.000000;0.839977
7651.000000;0.840255
7650.000000;0.840461
7649.000000;0.840648
7648.000000;0.840860
7647.000000;0.841069
7646.000000;0.841241
7645.000000;0.841408
7644.000000;0.841635
7643.000000;0.841939
7642.000000;0.842266
7641.000000;0.842547
7640.000000;0.842750
7639.000000;0.842888
7638.000000;0.842983
7637.000000;0.843054
7636.000000;0.843133
7635.000000;0.843275
7634.000000;0.843525
7633.000000;0.843830
7632.000000;0.844046
7631.000000;0.844076
7630.000000;0.843980
7629.000000;0.843918
7628.000000;0.843984
7627.000000;0.844160
7626.000000;0.844418
7625.000000;0.844759
7624.000000;0.845154
7623.000000;0.845502
7622.000000;0.845722
7621.000000;0.845831
7620.000000;0.845895
7619.000000;0.845948
7618.000000;0.846006
7617.000000;0.846123
7616.000000;0.846359
7615.000000;0.846699
7614.000000;0.847044
7613.000000;0.847312
7612.000000;0.847500
7611.000000;0.847663
7610.000000;0.847845
7609.000000;0.848064
7608.000000;0.848341
7607.000000;0.848704
7606.000000;0.849133
7605.000000;0.849526
7604.000000;0.849770
7603.000000;0.849870
7602.000000;0.849970
7601.000000;0.850212
7600.000000;0.850606
7599.000000;0.851077
7598.000000;0.851559
7597.000000;0.851999
7596.000000;0.852280
7595.000000;0.852282
7594.000000;0.852039
7593.000000;0.851762
7592.000000;0.851673
7591.000000;0.851871
7590.000000;0.852331
7589.000000;0.852956
7588.000000;0.853581
7587.000000;0.854041
7586.000000;0.854317
7585.000000;0.854564
7584.000000;0.854929
7583.000000;0.855374
7582.000000;0.855733
7581.000000;0.855905
7580.000000;0.855928
7579.000000;0.855901
7578.000000;0.855922
7577.000000;0.856082
7576.000000;0.856438
7575.000000;0.856934
7574.000000;0.857398
7573.000000;0.857663
7572.000000;0.857714
7571.000000;0.857718
7570.000000;0.857909
7569.000000;0.858396
7568.000000;0.859096
7567.000000;0.859834
7566.000000;0.860481
7565.000000;0.860972
7564.000000;0.861262
7563.000000;0.861356
7562.000000;0.861386
7561.000000;0.861552
7560.000000;0.861926
7559.000000;0.862378
7558.000000;0.862731
7557.000000;0.862948
7556.000000;0.863121
7555.000000;0.863347
7554.000000;0.863656
7553.000000;0.864013
7552.000000;0.864339
7551.000000;0.864560
7550.000000;0.864676
7549.000000;0.864773
7548.000000;0.864950
7547.000000;0.865233
7546.000000;0.865588
7545.000000;0.865973
7544.000000;0.866356
7543.000000;0.866738
7542.000000;0.867139
7541.000000;0.867543
7540.000000;0.867849
7539.000000;0.867968
7538.000000;0.867972
7537.000000;0.868071
7536.000000;0.868400
7535.000000;0.868905
7534.000000;0.869458
7533.000000;0.870007
7532.000000;0.870553
7531.000000;0.871068
7530.000000;0.871512
7529.000000;0.871878
7528.000000;0.872171
7527.000000;0.872386
7526.000000;0.872572
7525.000000;0.872845
7524.000000;0.873274
7523.000000;0.873810
7522.000000;0.874375
7521.000000;0.874946
7520.000000;0.875477
7519.000000;0.875858
7518.000000;0.876030
7517.000000;0.876112
7516.000000;0.876288
7515.000000;0.876605
7514.000000;0.876963
7513.000000;0.877276
7512.000000;0.877560
7511.000000;0.877890
7510.000000;0.878351
7509.000000;0.878964
7508.000000;0.879609
7507.000000;0.880059
7506.000000;0.880221
7505.000000;0.880272
7504.000000;0.880479
7503.000000;0.880906
7502.000000;0.881403
7501.000000;0.881841
7500.000000;0.882233
7499.000000;0.882644
7498.000000;0.883106
7497.000000;0.883640
7496.000000;0.884255
7495.000000;0.884917
7494.000000;0.885572
7493.000000;0.886186
7492.000000;0.886696
7491.000000;0.886987
7490.000000;0.886947
7489.000000;0.886847
7488.000000;0.886876
7487.000000;0.887107
7486.000000;0.887441
7485.000000;0.887803
7484.000000;0.888238
7483.000000;0.888750
7482.000000;0.889215
7481.000000;0.889535
7480.000000;0.889784
7479.000000;0.890130
7478.000000;0.890664
7477.000000;0.891349
7476.000000;0.892063
7475.000000;0.892663
7474.000000;0.893080
7473.000000;0.893411
7472.000000;0.893855
7471.000000;0.894500
7470.000000;0.895197
7469.000000;0.895708
7468.000000;0.895951
7467.000000;0.896091
7466.000000;0.896394
7465.000000;0.896991
7464.000000;0.897760
7463.000000;0.898427
7462.000000;0.898809
7461.000000;0.898930
7460.000000;0.898921
7459.000000;0.898878
7458.000000;0.898887
7457.000000;0.899062
7456.000000;0.899459
7455.000000;0.899960
7454.000000;0.900390
7453.000000;0.900719
7452.000000;0.901066
7451.000000;0.901507
7450.000000;0.902005
7449.000000;0.902510
7448.000000;0.903019
7447.000000;0.903494
7446.000000;0.903847
7445.000000;0.904067
7444.000000;0.904252
7443.000000;0.904496
7442.000000;0.904801
7441.000000;0.905146
7440.000000;0.905555
7439.000000;0.906046
7438.000000;0.906587
7437.000000;0.907124
7436.000000;0.907627
7435.000000;0.908075
7434.000000;0.908468
7433.000000;0.908867
7432.000000;0.909334
7431.000000;0.909837
7430.000000;0.910278
7429.000000;0.910637
7428.000000;0.910996
7427.000000;0.911389
7426.000000;0.911738
7425.000000;0.911971
7424.000000;0.912119
7423.000000;0.912250
7422.000000;0.912368
7421.000000;0.912449
7420.000000;0.912528
7419.000000;0.912661
7418.000000;0.912852
7417.000000;0.913100
7416.000000;0.913481
7415.000000;0.914115
7414.000000;0.915015
7413.000000;0.916009
7412.000000;0.916834
7411.000000;0.917321
7410.000000;0.917509
7409.000000;0.917522
7408.000000;0.917390
7407.000000;0.917081
7406.000000;0.916744
7405.000000;0.916730
7404.000000;0.917228
7403.000000;0.917993
7402.000000;0.918588
7401.000000;0.918847
7400.000000;0.918959
7399.000000;0.919140
7398.000000;0.919405
7397.000000;0.919642
7396.000000;0.919760
7395.000000;0.919797
7394.000000;0.919976
7393.000000;0.920526
7392.000000;0.921350
7391.000000;0.922047
7390.000000;0.922370
7389.000000;0.922487
7388.000000;0.922669
7387.000000;0.922882
7386.000000;0.922937
7385.000000;0.922820
7384.000000;0.922581
7383.000000;0.922081
7382.000000;0.921288
7381.000000;0.920689
7380.000000;0.920834
7379.000000;0.921394
7378.000000;0.921306
7377.000000;0.920189
7376.000000;0.919091
7375.000000;0.919434
7374.000000;0.921416
7373.000000;0.923826
7372.000000;0.925318
7371.000000;0.925491
7370.000000;0.924903
7369.000000;0.924516
7368.000000;0.925010
7367.000000;0.926242
7366.000000;0.927436
7365.000000;0.928093
7364.000000;0.928424
7363.000000;0.928813
7362.000000;0.929308
7361.000000;0.929809
7360.000000;0.930336
7359.000000;0.930723
7358.000000;0.930419
7357.000000;0.929241
7356.000000;0.928084
7355.000000;0.928220
7354.000000;0.929810
7353.000000;0.931687
7352.000000;0.932667
7351.000000;0.932506
7350.000000;0.931701
7349.000000;0.930941
7348.000000;0.930715
7347.000000;0.930880
7346.000000;0.930665
7345.000000;0.929611
7344.000000;0.928183
7343.000000;0.926909
7342.000000;0.925396
7341.000000;0.923213
7340.000000;0.921469
7339.000000;0.922169
7338.000000;0.925633
7337.000000;0.929878
7336.000000;0.932985
7335.000000;0.934914
7334.000000;0.936710
7333.000000;0.938820
7332.000000;0.940708
7331.000000;0.941510
7330.000000;0.940655
7329.000000;0.938511
7328.000000;0.936766
7327.000000;0.937194
7326.000000;0.939467
7325.000000;0.941356
7324.000000;0.941664
7323.000000;0.941655
7322.000000;0.943005
7321.000000;0.945492
7320.000000;0.947571
7319.000000;0.948558
7318.000000;0.949184
7317.000000;0.950313
7316.000000;0.952015
7315.000000;0.953786
7314.000000;0.955010
7313.000000;0.955275
7312.000000;0.954871
7311.000000;0.954754
7310.000000;0.955301
7309.000000;0.955531
7308.000000;0.954547
7307.000000;0.953283
7306.000000;0.953668
7305.000000;0.956089
7304.000000;0.958831
7303.000000;0.960301
7302.000000;0.960664
7301.000000;0.961094
7300.000000;0.962367
7299.000000;0.964419
7298.000000;0.966538
7297.000000;0.967609
7296.000000;0.966957
7295.000000;0.965460
7294.000000;0.965161
7293.000000;0.967164
7292.000000;0.970227
7291.000000;0.972266
7290.000000;0.972787
7289.000000;0.973035
7288.000000;0.974257
7287.000000;0.976533
7286.000000;0.979117
7285.000000;0.981361
7284.000000;0.983181
7283.000000;0.984923
7282.000000;0.986906
7281.000000;0.989057
7280.000000;0.991027
7279.000000;0.992610
7278.000000;0.993979
7277.000000;0.995364
7276.000000;0.996668
7275.000000;0.997700
7274.000000;0.998618
7273.000000;0.999851
7272.000000;1.001602
7271.000000;1.003599
7270.000000;1.005359
7269.000000;1.006651
7268.000000;1.007694
7267.000000;1.008906
7266.000000;1.010404
7265.000000;1.011805
7264.000000;1.012686
7263.000000;1.013238
7262.000000;1.014236
7261.000000;1.016205
7260.000000;1.018817
7259.000000;1.021335
7258.000000;1.023419
7257.000000;1.025201
7256.000000;1.026736
7255.000000;1.027819
7254.000000;1.028486
7253.000000;1.029367
7252.000000;1.031212
7251.000000;1.034115
7250.000000;1.037410
7249.000000;1.040340
7248.000000;1.042576
7247.000000;1.044055
7246.000000;1.044462
7245.000000;1.043283
7244.000000;1.040820
7243.000000;1.038850
7242.000000;1.039467
7241.000000;1.042937
7240.000000;1.047424
7239.000000;1.051232
7238.000000;1.054466
7237.000000;1.058001
7236.000000;1.061495
7235.000000;1.063262
7234.000000;1.062342
7233.000000;1.060304
7232.000000;1.060387
7231.000000;1.064425
7230.000000;1.070874
7229.000000;1.076512
7228.000000;1.079760
7227.000000;1.081819
7226.000000;1.084838
7225.000000;1.089478
7224.000000;1.094552
7223.000000;1.098677
7222.000000;1.101668
7221.000000;1.104415
7220.000000;1.107966
7219.000000;1.112730
7218.000000;1.118181
7217.000000;1.123273
7216.000000;1.127394
7215.000000;1.130907
7214.000000;1.134611
7213.000000;1.138789
7212.000000;1.143018
7211.000000;1.146927
7210.000000;1.150758
7209.000000;1.154877
7208.000000;1.159009
7207.000000;1.162431
7206.000000;1.164925
7205.000000;1.167245
7204.000000;1.170563
7203.000000;1.175453
7202.000000;1.181391
7201.000000;1.187262
7200.000000;1.192357
7199.000000;1.196817
7198.000000;1.201141
7197.000000;1.205500
7196.000000;1.209782
7195.000000;1.214181
7194.000000;1.219285
7193.000000;1.225308
7192.000000;1.231649
7191.000000;1.237550
7190.000000;1.242924
7189.000000;1.248182
7188.000000;1.253516
7187.000000;1.258786
7186.000000;1.263820
7185.000000;1.268305
7184.000000;1.271595
7183.000000;1.273424
7182.000000;1.274919
7181.000000;1.278091
7180.000000;1.283808
7179.000000;1.290885
7178.000000;1.297660
7177.000000;1.303766
7176.000000;1.309861
7175.000000;1.316291
7174.000000;1.322708
7173.000000;1.328793
7172.000000;1.334666
7171.000000;1.340437
7170.000000;1.345852
7169.000000;1.350613
7168.000000;1.354857
7167.000000;1.359231
7166.000000;1.364403
7165.000000;1.370374
7164.000000;1.376212
7163.000000;1.380856
7162.000000;1.384454
7161.000000;1.388464
7160.000000;1.394069
7159.000000;1.400898
7158.000000;1.407858
7157.000000;1.414700
7156.000000;1.421944
7155.000000;1.429588
7154.000000;1.436811
7153.000000;1.443094
7152.000000;1.448961
7151.000000;1.455297
7150.000000;1.462370
7149.000000;1.469748
7148.000000;1.476731
7147.000000;1.482753
7146.000000;1.487750
7145.000000;1.492301
7144.000000;1.497072
7143.000000;1.502019
7142.000000;1.506441
7141.000000;1.510032
7140.000000;1.513627
7139.000000;1.518498
7138.000000;1.524955
7137.000000;1.532040
7136.000000;1.538733
7135.000000;1.545027
7134.000000;1.551576
7133.000000;1.558620
7132.000000;1.565653
7131.000000;1.572165
7130.000000;1.578342
7129.000000;1.584796
7128.000000;1.591742
7127.000000;1.598752
7126.000000;1.605315
7125.000000;1.611299
7124.000000;1.616843
7123.000000;1.622107
7122.000000;1.627162
7121.000000;1.631805
7120.000000;1.635484
7119.000000;1.637903
7118.000000;1.639953
7117.000000;1.643438
7116.000000;1.649259
7115.000000;1.656288
7114.000000;1.662782
7113.000000;1.668448
7112.000000;1.674344
7111.000000;1.680999
7110.000000;1.687509
7109.000000;1.692671
7108.000000;1.696393
7107.000000;1.699685
7106.000000;1.703687
7105.000000;1.708859
7104.000000;1.714691
7103.000000;1.720039
7102.000000;1.724187
7101.000000;1.727685
7100.000000;1.731739
7099.000000;1.736746
7098.000000;1.741764
7097.000000;1.745596
7096.000000;1.748221
7095.000000;1.750841
7094.000000;1.754561
7093.000000;1.759304
7092.000000;1.764105
7091.000000;1.768282
7090.000000;1.772105
7089.000000;1.776262
7088.000000;1.780853
7087.000000;1.785306
7086.000000;1.789324
7085.000000;1.793410
7084.000000;1.798112
7083.000000;1.803174
7082.000000;1.807942
7081.000000;1.812232
7080.000000;1.816213
7079.000000;1.819705
7078.000000;1.822284
7077.000000;1.824024
7076.000000;1.825479
7075.000000;1.827003
7074.000000;1.828706
7073.000000;1.830977
7072.000000;1.834285
7071.000000;1.838383
7070.000000;1.842427
7069.000000;1.846083
7068.000000;1.849698
7067.000000;1.853261
7066.000000;1.856147
7065.000000;1.858207
7064.000000;1.860237
7063.000000;1.862909
7062.000000;1.866071
7061.000000;1.869570
7060.000000;1.873823
7059.000000;1.878786
7058.000000;1.883123
7057.000000;1.885413
7056.000000;1.885848
7055.000000;1.885880
7054.000000;1.886501
7053.000000;1.887722
7052.000000;1.889455
7051.000000;1.891842
7050.000000;1.894619
7049.000000;1.897021
7048.000000;1.898627
7047.000000;1.899868
7046.000000;1.901427
7045.000000;1.903463
7044.000000;1.905679
7043.000000;1.907951
7042.000000;1.910548
7041.000000;1.913604
7040.000000;1.916543
7039.000000;1.918324
7038.000000;1.918575
7037.000000;1.918351
7036.000000;1.919257
7035.000000;1.921753
7034.000000;1.924818
7033.000000;1.927362
7032.000000;1.929371
7031.000000;1.931243
7030.000000;1.932703
7029.000000;1.933186
7028.000000;1.933033
7027.000000;1.933434
7026.000000;1.935009
7025.000000;1.937015
7024.000000;1.938273
7023.000000;1.938541
7022.000000;1.938663
7021.000000;1.939481
7020.000000;1.940946
7019.000000;1.942465
7018.000000;1.943958
7017.000000;1.946134
7016.000000;1.949455
7015.000000;1.953145
7014.000000;1.955750
7013.000000;1.956699
7012.000000;1.956904
7011.000000;1.957706
7010.000000;1.959638
7009.000000;1.962181
7008.000000;1.964213
7007.000000;1.964626
7006.000000;1.963120
7005.000000;1.960692
7004.000000;1.958947
7003.000000;1.958753
7002.000000;1.959854
7001.000000;1.961733
7000.000000;1.964227
6999.000000;1.967125
6998.000000;1.969820
6997.000000;1.971781
6996.000000;1.972848
6995.000000;1.972802
6994.000000;1.971384
6993.000000;1.969271
6992.000000;1.968259
6991.000000;1.969468
6990.000000;1.971690
6989.000000;1.972505
6988.000000;1.971075
6987.000000;1.968990
6986.000000;1.968229
6985.000000;1.969172
6984.000000;1.970859
6983.000000;1.972453
6982.000000;1.973893
6981.000000;1.975363
6980.000000;1.976634
6979.000000;1.977157
6978.000000;1.976705
6977.000000;1.975710
6976.000000;1.974885
6975.000000;1.974599
6974.000000;1.974698
6973.000000;1.974896
6972.000000;1.975149
6971.000000;1.975643
6970.000000;1.976620
6969.000000;1.978219
6968.000000;1.980187
6967.000000;1.981677
6966.000000;1.981799
6965.000000;1.980714
6964.000000;1.979762
6963.000000;1.980150
6962.000000;1.981746
6961.000000;1.983299
6960.000000;1.983598
6959.000000;1.982227
6958.000000;1.979628
6957.000000;1.976928
6956.000000;1.975409
6955.000000;1.975557
6954.000000;1.976554
6953.000000;1.977125
6952.000000;1.976933
6951.000000;1.976751
6950.000000;1.977411
6949.000000;1.979020
6948.000000;1.981016
6947.000000;1.982505
6946.000000;1.982646
6945.000000;1.981316
6944.000000;1.979587
6943.000000;1.979002
6942.000000;1.980089
6941.000000;1.981815
6940.000000;1.982614
6939.000000;1.981769
6938.000000;1.979698
6937.000000;1.977255
6936.000000;1.975168
6935.000000;1.973945
6934.000000;1.973815
6933.000000;1.974548
6932.000000;1.975514
6931.000000;1.976121
6930.000000;1.976234
6929.000000;1.976145
6928.000000;1.976247
6927.000000;1.976830
6926.000000;1.978050
6925.000000;1.979770
6924.000000;1.981268
6923.000000;1.981459
6922.000000;1.979827
6921.000000;1.977063
6920.000000;1.974365
6919.000000;1.972138
6918.000000;1.969819
6917.000000;1.967075
6916.000000;1.964672
6915.000000;1.963707
6914.000000;1.964334
6913.000000;1.965799
6912.000000;1.967502
6911.000000;1.969381
6910.000000;1.971149
6909.000000;1.971866
6908.000000;1.970842
6907.000000;1.968772
6906.000000;1.967338
6905.000000;1.967469
6904.000000;1.968344
6903.000000;1.968334
6902.000000;1.966832
6901.000000;1.964847
6900.000000;1.963765
6899.000000;1.963846
6898.000000;1.964207
6897.000000;1.964054
6896.000000;1.963443
6895.000000;1.962774
6894.000000;1.962078
6893.000000;1.961187
6892.000000;1.960316
6891.000000;1.959922
6890.000000;1.959937
6889.000000;1.959618
6888.000000;1.958425
6887.000000;1.956816
6886.000000;1.955843
6885.000000;1.956027
6884.000000;1.956897
6883.000000;1.957655
6882.000000;1.957980
6881.000000;1.958047
6880.000000;1.958013
6879.000000;1.957857
6878.000000;1.957718
6877.000000;1.957988
6876.000000;1.958774
6875.000000;1.959471
6874.000000;1.959169
6873.000000;1.957512
6872.000000;1.955027
6871.000000;1.952596
6870.000000;1.950800
6869.000000;1.949754
6868.000000;1.949308
6867.000000;1.949222
6866.000000;1.949229
6865.000000;1.949077
6864.000000;1.948620
6863.000000;1.947836
6862.000000;1.946755
6861.000000;1.945360
6860.000000;1.943545
6859.000000;1.941277
6858.000000;1.938826
6857.000000;1.936734
6856.000000;1.935474
6855.000000;1.935162
6854.000000;1.935572
6853.000000;1.936285
6852.000000;1.936834
6851.000000;1.936919
6850.000000;1.936650
6849.000000;1.936392
6848.000000;1.936165
6847.000000;1.935386
6846.000000;1.933535
6845.000000;1.930981
6844.000000;1.928717
6843.000000;1.927218
6842.000000;1.925957
6841.000000;1.924244
6840.000000;1.922274
6839.000000;1.920941
6838.000000;1.920675
6837.000000;1.920747
6836.000000;1.919943
6835.000000;1.917878
6834.000000;1.915415
6833.000000;1.913674
6832.000000;1.912831
6831.000000;1.912082
6830.000000;1.910714
6829.000000;1.908934
6828.000000;1.907405
6827.000000;1.906270
6826.000000;1.904995
6825.000000;1.903074
6824.000000;1.900511
6823.000000;1.897702
6822.000000;1.895185
6821.000000;1.893471
6820.000000;1.892708
6819.000000;1.892372
6818.000000;1.891634
6817.000000;1.890194
6816.000000;1.888544
6815.000000;1.887237
6814.000000;1.886113
6813.000000;1.884472
6812.000000;1.881885
6811.000000;1.878576
6810.000000;1.875093
6809.000000;1.871831
6808.000000;1.868874
6807.000000;1.866156
6806.000000;1.863772
6805.000000;1.862138
6804.000000;1.861692
6803.000000;1.862314
6802.000000;1.863041
6801.000000;1.862516
6800.000000;1.859900
6799.000000;1.855476
6798.000000;1.850464
6797.000000;1.846204
6796.000000;1.843316
6795.000000;1.841491
6794.000000;1.840039
6793.000000;1.838615
6792.000000;1.837364
6791.000000;1.836412
6790.000000;1.835479
6789.000000;1.834090
6788.000000;1.832023
6787.000000;1.829397
6786.000000;1.826454
6785.000000;1.823416
6784.000000;1.820471
6783.000000;1.817722
6782.000000;1.815158
6781.000000;1.812817
6780.000000;1.810907
6779.000000;1.809606
6778.000000;1.808685
6777.000000;1.807527
6776.000000;1.805655
6775.000000;1.803196
6774.000000;1.800690
6773.000000;1.798478
6772.000000;1.796379
6771.000000;1.793960
6770.000000;1.791018
6769.000000;1.787750
6768.000000;1.784529
6767.000000;1.781654
6766.000000;1.779251
6765.000000;1.777233
6764.000000;1.775257
6763.000000;1.772932
6762.000000;1.770226
6761.000000;1.767637
6760.000000;1.765767
6759.000000;1.764674
6758.000000;1.763700
6757.000000;1.761981
6756.000000;1.759159
6755.000000;1.755654
6754.000000;1.752324
6753.000000;1.749776
6752.000000;1.747858
6751.000000;1.745799
6750.000000;1.742968
6749.000000;1.739547
6748.000000;1.736349
6747.000000;1.733935
6746.000000;1.732010
6745.000000;1.729771
6744.000000;1.726823
6743.000000;1.723678
6742.000000;1.721286
6741.000000;1.720043
6740.000000;1.719309
6739.000000;1.717959
6738.000000;1.715470
6737.000000;1.712311
6736.000000;1.709218
6735.000000;1.706332
6734.000000;1.703322
6733.000000;1.700183
6732.000000;1.697477
6731.000000;1.695625
6730.000000;1.694216
6729.000000;1.692299
6728.000000;1.689327
6727.000000;1.685658
6726.000000;1.682153
6725.000000;1.679456
6724.000000;1.677613
6723.000000;1.676175
6722.000000;1.674617
6721.000000;1.672739
6720.000000;1.670695
6719.000000;1.668664
6718.000000;1.666586
6717.000000;1.664272
6716.000000;1.661681
6715.000000;1.658970
6714.000000;1.656315
6713.000000;1.653821
6712.000000;1.651545
6711.000000;1.649465
6710.000000;1.647413
6709.000000;1.645145
6708.000000;1.642560
6707.000000;1.639775
6706.000000;1.636965
6705.000000;1.634258
6704.000000;1.631698
6703.000000;1.629324
6702.000000;1.627222
6701.000000;1.625439
6700.000000;1.623838
6699.000000;1.622112
6698.000000;1.619860
6697.000000;1.617173
6696.000000;1.614336
6695.000000;1.611811
6694.000000;1.609666
6693.000000;1.607496
6692.000000;1.605158
6691.000000;1.602908
6690.000000;1.600967
6689.000000;1.599107
6688.000000;1.596974
6687.000000;1.594631
6686.000000;1.592468
6685.000000;1.590602
6684.000000;1.588668
6683.000000;1.586296
6682.000000;1.583579
6681.000000;1.580952
6680.000000;1.578737
6679.000000;1.576891
6678.000000;1.575066
6677.000000;1.572875
6676.000000;1.570203
6675.000000;1.567356
6674.000000;1.564765
6673.000000;1.562521
6672.000000;1.560318
6671.000000;1.557940
6670.000000;1.555602
6669.000000;1.553658
6668.000000;1.552064
6667.000000;1.550359
6666.000000;1.548146
6665.000000;1.545458
6664.000000;1.542651
6663.000000;1.540126
6662.000000;1.538129
6661.000000;1.536659
6660.000000;1.535409
6659.000000;1.533895
6658.000000;1.531789
6657.000000;1.529179
6656.000000;1.526506
6655.000000;1.524184
6654.000000;1.522231
6653.000000;1.520287
6652.000000;1.518035
6651.000000;1.515585
6650.000000;1.513328
6649.000000;1.511399
6648.000000;1.509485
6647.000000;1.507267
6646.000000;1.504912
6645.000000;1.502877
6644.000000;1.501293
6643.000000;1.499766
6642.000000;1.497829
6641.000000;1.495458
6640.000000;1.493031
6639.000000;1.490872
6638.000000;1.488909
6637.000000;1.486806
6636.000000;1.484379
6635.000000;1.481896
6634.000000;1.479866
6633.000000;1.478469
6632.000000;1.477270
6631.000000;1.475602
6630.000000;1.473216
6629.000000;1.470492
6628.000000;1.468035
6627.000000;1.466164
6626.000000;1.464724
6625.000000;1.463246
6624.000000;1.461319
6623.000000;1.458951
6622.000000;1.456599
6621.000000;1.454743
6620.000000;1.453411
6619.000000;1.452194
6618.000000;1.450687
6617.000000;1.448794
6616.000000;1.446635
6615.000000;1.444339
6614.000000;1.441997
6613.000000;1.439682
6612.000000;1.437476
6611.000000;1.435490
6610.000000;1.433854
6609.000000;1.432528
6608.000000;1.431164
6607.000000;1.429351
6606.000000;1.427072
6605.000000;1.424743
6604.000000;1.422740
6603.000000;1.421022
6602.000000;1.419300
6601.000000;1.417414
6600.000000;1.415414
6599.000000;1.413395
6598.000000;1.411431
6597.000000;1.409598
6596.000000;1.407934
6595.000000;1.406381
6594.000000;1.404841
6593.000000;1.403267
6592.000000;1.401626
6591.000000;1.399862
6590.000000;1.398000
6589.000000;1.396223
6588.000000;1.394729
6587.000000;1.393512
6586.000000;1.392344
6585.000000;1.390984
6584.000000;1.389350
6583.000000;1.387528
6582.000000;1.385668
6581.000000;1.383855
6580.000000;1.382051
6579.000000;1.380171
6578.000000;1.378248
6577.000000;1.376433
6576.000000;1.374786
6575.000000;1.373163
6574.000000;1.371387
6573.000000;1.369490
6572.000000;1.367655
6571.000000;1.365966
6570.000000;1.364337
6569.000000;1.362688
6568.000000;1.361070
6567.000000;1.359564
6566.000000;1.358131
6565.000000;1.356654
6564.000000;1.355084
6563.000000;1.353483
6562.000000;1.351916
6561.000000;1.350375
6560.000000;1.348831
6559.000000;1.347326
6558.000000;1.345943
6557.000000;1.344640
6556.000000;1.343221
6555.000000;1.341525
6554.000000;1.339643
6553.000000;1.337836
6552.000000;1.336240
6551.000000;1.334741
6550.000000;1.333169
6549.000000;1.331529
6548.000000;1.329959
6547.000000;1.328537
6546.000000;1.327198
6545.000000;1.325848
6544.000000;1.324459
6543.000000;1.323043
6542.000000;1.321575
6541.000000;1.320005
6540.000000;1.318344
6539.000000;1.316731
6538.000000;1.315350
6537.000000;1.314233
6536.000000;1.313167
6535.000000;1.311865
6534.000000;1.310252
6533.000000;1.308547
6532.000000;1.307033
6531.000000;1.305799
6530.000000;1.304711
6529.000000;1.303571
6528.000000;1.302242
6527.000000;1.300683
6526.000000;1.298931
6525.000000;1.297097
6524.000000;1.295333
6523.000000;1.293774
6522.000000;1.292438
6521.000000;1.291189
6520.000000;1.289835
6519.000000;1.288329
6518.000000;1.286833
6517.000000;1.285521
6516.000000;1.284345
6515.000000;1.283095
6514.000000;1.281674
6513.000000;1.280206
6512.000000;1.278834
6511.000000;1.277514
6510.000000;1.276090
6509.000000;1.274513
6508.000000;1.272895
6507.000000;1.271405
6506.000000;1.270133
6505.000000;1.269044
6504.000000;1.268007
6503.000000;1.266903
6502.000000;1.265725
6501.000000;1.264560
6500.000000;1.263456
6499.000000;1.262374
6498.000000;1.261269
6497.000000;1.260149
6496.000000;1.259007
6495.000000;1.257779
6494.000000;1.256447
6493.000000;1.255115
6492.000000;1.253878
6491.000000;1.252684
6490.000000;1.251407
6489.000000;1.250057
6488.000000;1.248793
6487.000000;1.247705
6486.000000;1.246673
6485.000000;1.245495
6484.000000;1.244126
6483.000000;1.242724
6482.000000;1.241475
6481.000000;1.240419
6480.000000;1.239454
6479.000000;1.238467
6478.000000;1.237402
6477.000000;1.236247
6476.000000;1.235010
6475.000000;1.233740
6474.000000;1.232500
6473.000000;1.231266
6472.000000;1.229929
6471.000000;1.228482
6470.000000;1.227134
6469.000000;1.226119
6468.000000;1.225389
6467.000000;1.224617
6466.000000;1.223543
6465.000000;1.222203
6464.000000;1.220798
6463.000000;1.219461
6462.000000;1.218235
6461.000000;1.217156
6460.000000;1.216245
6459.000000;1.215434
6458.000000;1.214608
6457.000000;1.213698
6456.000000;1.212697
6455.000000;1.211618
6454.000000;1.210484
6453.000000;1.209337
6452.000000;1.208207
6451.000000;1.207102
6450.000000;1.206056
6449.000000;1.205124
6448.000000;1.204285
6447.000000;1.203400
6446.000000;1.202354
6445.000000;1.201179
6444.000000;1.199970
6443.000000;1.198751
6442.000000;1.197514
6441.000000;1.196350
6440.000000;1.195416
6439.000000;1.194735
6438.000000;1.194143
6437.000000;1.193440
6436.000000;1.192552
6435.000000;1.191514
6434.000000;1.190381
6433.000000;1.189202
6432.000000;1.188039
6431.000000;1.186955
6430.000000;1.185962
6429.000000;1.185002
6428.000000;1.183985
6427.000000;1.182856
6426.000000;1.181672
6425.000000;1.180560
6424.000000;1.179584
6423.000000;1.178682
6422.000000;1.177761
6421.000000;1.176844
6420.000000;1.176030
6419.000000;1.175354
6418.000000;1.174733
6417.000000;1.174083
6416.000000;1.173384
6415.000000;1.172630
6414.000000;1.171770
6413.000000;1.170772
6412.000000;1.169677
6411.000000;1.168562
6410.000000;1.167471
6409.000000;1.166433
6408.000000;1.165488
6407.000000;1.164635
6406.000000;1.163802
6405.000000;1.162927
6404.000000;1.162065
6403.000000;1.161315
6402.000000;1.160641
6401.000000;1.159868
6400.000000;1.158910
6399.000000;1.157907
6398.000000;1.157064
6397.000000;1.156393
6396.000000;1.155721
6395.000000;1.154924
6394.000000;1.154051
6393.000000;1.153199
6392.000000;1.152358
6391.000000;1.151456
6390.000000;1.150475
6389.000000;1.149475
6388.000000;1.148523
6387.000000;1.147655
6386.000000;1.146889
6385.000000;1.146211
6384.000000;1.145560
6383.000000;1.144872
6382.000000;1.144133
6381.000000;1.143362
6380.000000;1.142566
6379.000000;1.141744
6378.000000;1.140942
6377.000000;1.140215
6376.000000;1.139550
6375.000000;1.138874
6374.000000;1.138150
6373.000000;1.137437
6372.000000;1.136810
6371.000000;1.136255
6370.000000;1.135660
6369.000000;1.134915
6368.000000;1.134015
6367.000000;1.133080
6366.000000;1.132261
6365.000000;1.131611
6364.000000;1.131056
6363.000000;1.130500
6362.000000;1.129923
6361.000000;1.129340
6360.000000;1.128707
6359.000000;1.127942
6358.000000;1.127038
6357.000000;1.126079
6356.000000;1.125148
6355.000000;1.124266
6354.000000;1.123431
6353.000000;1.122657
6352.000000;1.121942
6351.000000;1.121244
6350.000000;1.120516
6349.000000;1.119742
6348.000000;1.118944
6347.000000;1.118180
6346.000000;1.117538
6345.000000;1.117065
6344.000000;1.116685
6343.000000;1.116235
6342.000000;1.115615
6341.000000;1.114869
6340.000000;1.114112
6339.000000;1.113415
6338.000000;1.112764
6337.000000;1.112097
6336.000000;1.111357
6335.000000;1.110564
6334.000000;1.109835
6333.000000;1.109275
6332.000000;1.108843
6331.000000;1.108380
6330.000000;1.107794
6329.000000;1.107172
6328.000000;1.106644
6327.000000;1.106207
6326.000000;1.105735
6325.000000;1.105136
6324.000000;1.104427
6323.000000;1.103691
6322.000000;1.102984
6321.000000;1.102295
6320.000000;1.101576
6319.000000;1.100811
6318.000000;1.100081
6317.000000;1.099512
6316.000000;1.099127
6315.000000;1.098778
6314.000000;1.098294
6313.000000;1.097656
6312.000000;1.096989
6311.000000;1.096398
6310.000000;1.095879
6309.000000;1.095377
6308.000000;1.094881
6307.000000;1.094416
6306.000000;1.093976
6305.000000;1.093496
6304.000000;1.092908
6303.000000;1.092219
6302.000000;1.091536
6301.000000;1.090976
6300.000000;1.090541
6299.000000;1.090100
6298.000000;1.089535
6297.000000;1.088887
6296.000000;1.088304
6295.000000;1.087860
6294.000000;1.087459
6293.000000;1.086961
6292.000000;1.086348
6291.000000;1.085757
6290.000000;1.085334
6289.000000;1.085087
6288.000000;1.084880
6287.000000;1.084548
6286.000000;1.084025
6285.000000;1.083358
6284.000000;1.082639
6283.000000;1.081913
6282.000000;1.081170
6281.000000;1.080389
6280.000000;1.079606
6279.000000;1.078911
6278.000000;1.078396
6277.000000;1.078078
6276.000000;1.077856
6275.000000;1.077560
6274.000000;1.077079
6273.000000;1.076449
6272.000000;1.075828
6271.000000;1.075348
6270.000000;1.074995
6269.000000;1.074640
6268.000000;1.074180
6267.000000;1.073646
6266.000000;1.073132
6265.000000;1.072665
6264.000000;1.072177
6263.000000;1.071620
6262.000000;1.071069
6261.000000;1.070649
6260.000000;1.070401
6259.000000;1.070228
6258.000000;1.069994
6257.000000;1.069623
6256.000000;1.069125
6255.000000;1.068541
6254.000000;1.067913
6253.000000;1.067284
6252.000000;1.066706
6251.000000;1.066225
6250.000000;1.065846
6249.000000;1.065515
6248.000000;1.065156
6247.000000;1.064733
6246.000000;1.064261
6245.000000;1.063775
6244.000000;1.063304
6243.000000;1.062881
6242.000000;1.062528
6241.000000;1.062220
6240.000000;1.061881
6239.000000;1.061468
6238.000000;1.061026
6237.000000;1.060644
6236.000000;1.060342
6235.000000;1.060050
6234.000000;1.059689
6233.000000;1.059248
6232.000000;1.058790
6231.000000;1.058385
6230.000000;1.058039
6229.000000;1.057684
6228.000000;1.057251
6227.000000;1.056767
6226.000000;1.056353
6225.000000;1.056086
6224.000000;1.055907
6223.000000;1.055671
6222.000000;1.055284
6221.000000;1.054761
6220.000000;1.054191
6219.000000;1.053669
6218.000000;1.053238
6217.000000;1.052863
6216.000000;1.052468
6215.000000;1.052021
6214.000000;1.051556
6213.000000;1.051102
6212.000000;1.050638
6211.000000;1.050162
6210.000000;1.049755
6209.000000;1.049491
6208.000000;1.049315
6207.000000;1.049091
6206.000000;1.048775
6205.000000;1.048448
6204.000000;1.048204
6203.000000;1.048031
6202.000000;1.047848
6201.000000;1.047576
6200.000000;1.047191
6199.000000;1.046726
6198.000000;1.046269
6197.000000;1.045886
6196.000000;1.045563
6195.000000;1.045234
6194.000000;1.044869
6193.000000;1.044493
6192.000000;1.044131
6191.000000;1.043766
6190.000000;1.043368
6189.000000;1.042917
6188.000000;1.042400
6187.000000;1.041841
6186.000000;1.041328
6185.000000;1.040959
6184.000000;1.040750
6183.000000;1.040626
6182.000000;1.040509
6181.000000;1.040367
6180.000000;1.040180
6179.000000;1.039919
6178.000000;1.039575
6177.000000;1.039172
6176.000000;1.038739
6175.000000;1.038300
6174.000000;1.037892
6173.000000;1.037540
6172.000000;1.037217
6171.000000;1.036889
6170.000000;1.036587
6169.000000;1.036390
6168.000000;1.036300
6167.000000;1.036212
6166.000000;1.036019
6165.000000;1.035693
6164.000000;1.035246
6163.000000;1.034698
6162.000000;1.034116
6161.000000;1.033632
6160.000000;1.033343
6159.000000;1.033204
6158.000000;1.033062
6157.000000;1.032807
6156.000000;1.032459
6155.000000;1.032139
6154.000000;1.031947
6153.000000;1.031863
6152.000000;1.031746
6151.000000;1.031459
6150.000000;1.031016
6149.000000;1.030569
6148.000000;1.030250
6147.000000;1.030072
6146.000000;1.029976
6145.000000;1.029916
6144.000000;1.029849
6143.000000;1.029694
6142.000000;1.029375
6141.000000;1.028900
6140.000000;1.028358
6139.000000;1.027844
6138.000000;1.027407
6137.000000;1.027055
6136.000000;1.026771
6135.000000;1.026543
6134.000000;1.026378
6133.000000;1.026286
6132.000000;1.026234
6131.000000;1.026138
6130.000000;1.025934
6129.000000;1.025637
6128.000000;1.025321
6127.000000;1.025048
6126.000000;1.024829
6125.000000;1.024630
6124.000000;1.024400
6123.000000;1.024105
6122.000000;1.023765
6121.000000;1.023437
6120.000000;1.023173
6119.000000;1.022982
6118.000000;1.022850
6117.000000;1.022764
6116.000000;1.022695
6115.000000;1.022580
6114.000000;1.022371
6113.000000;1.022085
6112.000000;1.021797
6111.000000;1.021571
6110.000000;1.021400
6109.000000;1.021213
6108.000000;1.020935
6107.000000;1.020552
6106.000000;1.020146
6105.000000;1.019836
6104.000000;1.019682
6103.000000;1.019630
6102.000000;1.019553
6101.000000;1.019351
6100.000000;1.019025
6099.000000;1.018668
6098.000000;1.018381
6097.000000;1.018184
6096.000000;1.018006
6095.000000;1.017772
6094.000000;1.017491
6093.000000;1.017245
6092.000000;1.017105
6091.000000;1.017070
6090.000000;1.017076
6089.000000;1.017045
6088.000000;1.016909
6087.000000;1.016647
6086.000000;1.016308
6085.000000;1.015984
6084.000000;1.015741
6083.000000;1.015575
6082.000000;1.015436
6081.000000;1.015275
6080.000000;1.015073
6079.000000;1.014835
6078.000000;1.014584
6077.000000;1.014347
6076.000000;1.014153
6075.000000;1.014012
6074.000000;1.013899
6073.000000;1.013756
6072.000000;1.013538
6071.000000;1.013272
6070.000000;1.013037
6069.000000;1.012872
6068.000000;1.012729
6067.000000;1.012547
6066.000000;1.012346
6065.000000;1.012197
6064.000000;1.012127
6063.000000;1.012098
6062.000000;1.012060
6061.000000;1.011977
6060.000000;1.011812
6059.000000;1.011540
6058.000000;1.011197
6057.000000;1.010883
6056.000000;1.010694
6055.000000;1.010656
6054.000000;1.010723
6053.000000;1.010805
6052.000000;1.010794
6051.000000;1.010615
6050.000000;1.010265
6049.000000;1.009814
6048.000000;1.009352
6047.000000;1.008967
6046.000000;1.008727
6045.000000;1.008652
6044.000000;1.008677
6043.000000;1.008688
6042.000000;1.008608
6041.000000;1.008456
6040.000000;1.008321
6039.000000;1.008270
6038.000000;1.008285
6037.000000;1.008268
6036.000000;1.008123
6035.000000;1.007864
6034.000000;1.007591
6033.000000;1.007372
6032.000000;1.007182
6031.000000;1.006990
6030.000000;1.006832
6029.000000;1.006749
6028.000000;1.006691
6027.000000;1.006587
6026.000000;1.006457
6025.000000;1.006376
6024.000000;1.006338
6023.000000;1.006261
6022.000000;1.006142
6021.000000;1.006101
6020.000000;1.006218
6019.000000;1.006411
6018.000000;1.006528
6017.000000;1.006508
6016.000000;1.006393
6015.000000;1.006255
6014.000000;1.006140
6013.000000;1.006064
6012.000000;1.005996
6011.000000;1.005890
6010.000000;1.005746
6009.000000;1.005618
6008.000000;1.005527
6007.000000;1.005417
6006.000000;1.005246
6005.000000;1.005065
6004.000000;1.004955
6003.000000;1.004914
6002.000000;1.004861
6001.000000;1.004745
6000.000000;1.004590
5999.000000;1.004432
5998.000000;1.004269
5997.000000;1.004088
5996.000000;1.003909
5995.000000;1.003803
5994.000000;1.003838
5993.000000;1.004007
5992.000000;1.004203
5991.000000;1.004277
5990.000000;1.004176
5989.000000;1.003990
5988.000000;1.003867
5987.000000;1.003879
5986.000000;1.003994
5985.000000;1.004126
5984.000000;1.004195
5983.000000;1.004153
5982.000000;1.004017
5981.000000;1.003874
5980.000000;1.003821
5979.000000;1.003885
5978.000000;1.004001
5977.000000;1.004067
5976.000000;1.004012
5975.000000;1.003826
5974.000000;1.003577
5973.000000;1.003376
5972.000000;1.003291
5971.000000;1.003279
5970.000000;1.003238
5969.000000;1.003129
5968.000000;1.003021
5967.000000;1.002998
5966.000000;1.003059
5965.000000;1.003149
5964.000000;1.003239
5963.000000;1.003340
5962.000000;1.003447
5961.000000;1.003518
5960.000000;1.003520
5959.000000;1.003452
5958.000000;1.003321
5957.000000;1.003139
5956.000000;1.002959
5955.000000;1.002863
5954.000000;1.002893
5953.000000;1.003002
5952.000000;1.003124
5951.000000;1.003259
5950.000000;1.003430
5949.000000;1.003597
5948.000000;1.003674
5947.000000;1.003633
5946.000000;1.003541
5945.000000;1.003478
5944.000000;1.003465
5943.000000;1.003483
5942.000000;1.003511
5941.000000;1.003532
5940.000000;1.003549
5939.000000;1.003600
5938.000000;1.003728
5937.000000;1.003898
5936.000000;1.004026
5935.000000;1.004084
5934.000000;1.004123
5933.000000;1.004167
5932.000000;1.004167
5931.000000;1.004086
5930.000000;1.003980
5929.000000;1.003938
5928.000000;1.003977
5927.000000;1.004073
5926.000000;1.004225
5925.000000;1.004427
5924.000000;1.004623
5923.000000;1.004759
5922.000000;1.004873
5921.000000;1.005045
5920.000000;1.005279
5919.000000;1.005500
5918.000000;1.005646
5917.000000;1.005702
5916.000000;1.005663
5915.000000;1.005542
5914.000000;1.005408
5913.000000;1.005352
5912.000000;1.005389
5911.000000;1.005456
5910.000000;1.005502
5909.000000;1.005525
5908.000000;1.005533
5907.000000;1.005509
5906.000000;1.005450
5905.000000;1.005393
5904.000000;1.005385
5903.000000;1.005462
5902.000000;1.005638
5901.000000;1.005874
5900.000000;1.006080
5899.000000;1.006199
5898.000000;1.006292
5897.000000;1.006481
5896.000000;1.006794
5895.000000;1.007118
5894.000000;1.007331
5893.000000;1.007411
5892.000000;1.007413
5891.000000;1.007387
5890.000000;1.007357
5889.000000;1.007349
5888.000000;1.007393
5887.000000;1.007523
5886.000000;1.007766
5885.000000;1.008110
5884.000000;1.008462
5883.000000;1.008696
5882.000000;1.008785
5881.000000;1.008860
5880.000000;1.009102
5879.000000;1.009553
5878.000000;1.010053
5877.000000;1.010372
5876.000000;1.010421
5875.000000;1.010310
5874.000000;1.010222
5873.000000;1.010221
5872.000000;1.010237
5871.000000;1.010209
5870.000000;1.010195
5869.000000;1.010291
5868.000000;1.010503
5867.000000;1.010750
5866.000000;1.010977
5865.000000;1.011184
5864.000000;1.011375
5863.000000;1.011527
5862.000000;1.011635
5861.000000;1.011731
5860.000000;1.011864
5859.000000;1.012064
5858.000000;1.012341
5857.000000;1.012665
5856.000000;1.012972
5855.000000;1.013212
5854.000000;1.013405
5853.000000;1.013611
5852.000000;1.013846
5851.000000;1.014069
5850.000000;1.014230
5849.000000;1.014316
5848.000000;1.014369
5847.000000;1.014478
5846.000000;1.014741
5845.000000;1.015174
5844.000000;1.015677
5843.000000;1.016124
5842.000000;1.016489
5841.000000;1.016825
5840.000000;1.017151
5839.000000;1.017420
5838.000000;1.017592
5837.000000;1.017694
5836.000000;1.017784
5835.000000;1.017923
5834.000000;1.018161
5833.000000;1.018509
5832.000000;1.018906
5831.000000;1.019266
5830.000000;1.019568
5829.000000;1.019865
5828.000000;1.020197
5827.000000;1.020532
5826.000000;1.020816
5825.000000;1.021035
5824.000000;1.021223
5823.000000;1.021432
5822.000000;1.021702
5821.000000;1.022036
5820.000000;1.022389
5819.000000;1.022714
5818.000000;1.023012
5817.000000;1.023314
5816.000000;1.023631
5815.000000;1.023958
5814.000000;1.024305
5813.000000;1.024681
5812.000000;1.025068
5811.000000;1.025437
5810.000000;1.025798
5809.000000;1.026189
5808.000000;1.026610
5807.000000;1.027024
5806.000000;1.027398
5805.000000;1.027736
5804.000000;1.028057
5803.000000;1.028388
5802.000000;1.028757
5801.000000;1.029148
5800.000000;1.029511
5799.000000;1.029834
5798.000000;1.030204
5797.000000;1.030697
5796.000000;1.031260
5795.000000;1.031759
5794.000000;1.032158
5793.000000;1.032549
5792.000000;1.033003
5791.000000;1.033470
5790.000000;1.033864
5789.000000;1.034176
5788.000000;1.034472
5787.000000;1.034816
5786.000000;1.035242
5785.000000;1.035750
5784.000000;1.036299
5783.000000;1.036836
5782.000000;1.037342
5781.000000;1.037826
5780.000000;1.038262
5779.000000;1.038613
5778.000000;1.038910
5777.000000;1.039271
5776.000000;1.039779
5775.000000;1.040383
5774.000000;1.040954
5773.000000;1.041402
5772.000000;1.041744
5771.000000;1.042070
5770.000000;1.042485
5769.000000;1.043028
5768.000000;1.043643
5767.000000;1.044230
5766.000000;1.044750
5765.000000;1.045252
5764.000000;1.045786
5763.000000;1.046338
5762.000000;1.046873
5761.000000;1.047401
5760.000000;1.047956
5759.000000;1.048553
5758.000000;1.049183
5757.000000;1.049850
5756.000000;1.050559
5755.000000;1.051274
5754.000000;1.051927
5753.000000;1.052469
5752.000000;1.052917
5751.000000;1.053337
5750.000000;1.053782
5749.000000;1.054247
5748.000000;1.054688
5747.000000;1.055103
5746.000000;1.055563
5745.000000;1.056152
5744.000000;1.056882
5743.000000;1.057678
5742.000000;1.058440
5741.000000;1.059108
5740.000000;1.059686
5739.000000;1.060225
5738.000000;1.060787
5737.000000;1.061402
5736.000000;1.062061
5735.000000;1.062740
5734.000000;1.063428
5733.000000;1.064110
5732.000000;1.064771
5731.000000;1.065433
5730.000000;1.066133
5729.000000;1.066848
5728.000000;1.067475
5727.000000;1.067965
5726.000000;1.068427
5725.000000;1.069033
5724.000000;1.069829
5723.000000;1.070690
5722.000000;1.071477
5721.000000;1.072172
5720.000000;1.072837
5719.000000;1.073521
5718.000000;1.074214
5717.000000;1.074894
5716.000000;1.075560
5715.000000;1.076254
5714.000000;1.077023
5713.000000;1.077867
5712.000000;1.078730
5711.000000;1.079565
5710.000000;1.080386
5709.000000;1.081210
5708.000000;1.081997
5707.000000;1.082708
5706.000000;1.083402
5705.000000;1.084208
5704.000000;1.085177
5703.000000;1.086205
5702.000000;1.087150
5701.000000;1.087954
5700.000000;1.088664
5699.000000;1.089349
5698.000000;1.090041
5697.000000;1.090732
5696.000000;1.091425
5695.000000;1.092150
5694.000000;1.092984
5693.000000;1.093897
5692.000000;1.094869
5691.000000;1.095820
5690.000000;1.096681
5689.000000;1.097500
5688.000000;1.098310
5687.000000;1.099127
5686.000000;1.099952
5685.000000;1.100770
5684.000000;1.101537
5683.000000;1.102204
5682.000000;1.102787
5681.000000;1.103371
5680.000000;1.104047
5679.000000;1.104844
5678.000000;1.105735
5677.000000;1.106666
5676.000000;1.107593
5675.000000;1.108503
5674.000000;1.109419
5673.000000;1.110373
5672.000000;1.111369
5671.000000;1.112377
5670.000000;1.113332
5669.000000;1.114145
5668.000000;1.114770
5667.000000;1.115276
5666.000000;1.115830
5665.000000;1.116570
5664.000000;1.117495
5663.000000;1.118485
5662.000000;1.119403
5661.000000;1.120158
5660.000000;1.120738
5659.000000;1.121226
5658.000000;1.121755
5657.000000;1.122405
5656.000000;1.123148
5655.000000;1.123919
5654.000000;1.124711
5653.000000;1.125561
5652.000000;1.126467
5651.000000;1.127362
5650.000000;1.128166
5649.000000;1.128830
5648.000000;1.129359
5647.000000;1.129830
5646.000000;1.130372
5645.000000;1.131060
5644.000000;1.131854
5643.000000;1.132648
5642.000000;1.133363
5641.000000;1.133980
5640.000000;1.134522
5639.000000;1.135070
5638.000000;1.135740
5637.000000;1.136571
5636.000000;1.137458
5635.000000;1.138243
5634.000000;1.138859
5633.000000;1.139356
5632.000000;1.139818
5631.000000;1.140312
5630.000000;1.140885
5629.000000;1.141529
5628.000000;1.142143
5627.000000;1.142620
5626.000000;1.142974
5625.000000;1.143355
5624.000000;1.143902
5623.000000;1.144633
5622.000000;1.145438
5621.000000;1.146155
5620.000000;1.146672
5619.000000;1.147014
5618.000000;1.147338
5617.000000;1.147780
5616.000000;1.148328
5615.000000;1.148856
5614.000000;1.149275
5613.000000;1.149602
5612.000000;1.149914
5611.000000;1.150287
5610.000000;1.150758
5609.000000;1.151301
5608.000000;1.151821
5607.000000;1.152231
5606.000000;1.152520
5605.000000;1.152754
5604.000000;1.153020
5603.000000;1.153386
5602.000000;1.153858
5601.000000;1.154347
5600.000000;1.154708
5599.000000;1.154888
5598.000000;1.154992
5597.000000;1.155176
5596.000000;1.155506
5595.000000;1.155959
5594.000000;1.156480
5593.000000;1.156997
5592.000000;1.157420
5591.000000;1.157726
5590.000000;1.157984
5589.000000;1.158248
5588.000000;1.158453
5587.000000;1.158526
5586.000000;1.158535
5585.000000;1.158642
5584.000000;1.158914
5583.000000;1.159287
5582.000000;1.159687
5581.000000;1.160090
5580.000000;1.160469
5579.000000;1.160785
5578.000000;1.161027
5577.000000;1.161201
5576.000000;1.161274
5575.000000;1.161230
5574.000000;1.161163
5573.000000;1.161241
5572.000000;1.161534
5571.000000;1.161956
5570.000000;1.162363
5569.000000;1.162643
5568.000000;1.162754
5567.000000;1.162749
5566.000000;1.162774
5565.000000;1.162941
5564.000000;1.163193
5563.000000;1.163380
5562.000000;1.163466
5561.000000;1.163553
5560.000000;1.163705
5559.000000;1.163861
5558.000000;1.163950
5557.000000;1.163992
5556.000000;1.164004
5555.000000;1.163924
5554.000000;1.163700
5553.000000;1.163407
5552.000000;1.163198
5551.000000;1.163145
5550.000000;1.163205
5549.000000;1.163298
5548.000000;1.163363
5547.000000;1.163363
5546.000000;1.163301
5545.000000;1.163259
5544.000000;1.163371
5543.000000;1.163713
5542.000000;1.164208
5541.000000;1.164626
5540.000000;1.164751
5539.000000;1.164570
5538.000000;1.164290
5537.000000;1.164131
5536.000000;1.164108
5535.000000;1.164082
5534.000000;1.163974
5533.000000;1.163845
5532.000000;1.163787
5531.000000;1.163827
5530.000000;1.163951
5529.000000;1.164123
5528.000000;1.164284
5527.000000;1.164396
5526.000000;1.164497
5525.000000;1.164610
5524.000000;1.164656
5523.000000;1.164557
5522.000000;1.164393
5521.000000;1.164331
5520.000000;1.164374
5519.000000;1.164366
5518.000000;1.164249
5517.000000;1.164153
5516.000000;1.164172
5515.000000;1.164253
5514.000000;1.164364
5513.000000;1.164615
5512.000000;1.165045
5511.000000;1.165435
5510.000000;1.165537
5509.000000;1.165406
5508.000000;1.165304
5507.000000;1.165327
5506.000000;1.165311
5505.000000;1.165140
5504.000000;1.164967
5503.000000;1.165045
5502.000000;1.165414
5501.000000;1.165930
5500.000000;1.166508
5499.000000;1.167187
5498.000000;1.167928
5497.000000;1.168418
5496.000000;1.168241
5495.000000;1.167355
5494.000000;1.166194
5493.000000;1.165239
5492.000000;1.164538
5491.000000;1.163816
5490.000000;1.163038
5489.000000;1.162532
5488.000000;1.162526
5487.000000;1.162913
5486.000000;1.163572
5485.000000;1.164636
5484.000000;1.166204
5483.000000;1.168021
5482.000000;1.169684
5481.000000;1.171061
5480.000000;1.172229
5479.000000;1.172992
5478.000000;1.172931
5477.000000;1.171982
5476.000000;1.170672
5475.000000;1.169703
5474.000000;1.169319
5473.000000;1.169283
5472.000000;1.169453
5471.000000;1.169964
5470.000000;1.170818
5469.000000;1.171739
5468.000000;1.172515
5467.000000;1.173236
5466.000000;1.174098
5465.000000;1.174983
5464.000000;1.175411
5463.000000;1.175077
5462.000000;1.174309
5461.000000;1.173832
5460.000000;1.174089
5459.000000;1.174910
5458.000000;1.175948
5457.000000;1.177154
5456.000000;1.178607
5455.000000;1.180206
5454.000000;1.181744
5453.000000;1.183102
5452.000000;1.184266
5451.000000;1.185249
5450.000000;1.186005
5449.000000;1.186313
5448.000000;1.185889
5447.000000;1.184844
5446.000000;1.183862
5445.000000;1.183427
5444.000000;1.183150
5443.000000;1.182505
5442.000000;1.181925
5441.000000;1.182385
5440.000000;1.184082
5439.000000;1.186127
5438.000000;1.187736
5437.000000;1.189084
5436.000000;1.190643
5435.000000;1.192400
5434.000000;1.194068
5433.000000;1.195394
5432.000000;1.196230
5431.000000;1.196663
5430.000000;1.196991
5429.000000;1.197520
5428.000000;1.198396
5427.000000;1.199665
5426.000000;1.201514
5425.000000;1.204188
5424.000000;1.207558
5423.000000;1.211127
5422.000000;1.214561
5421.000000;1.217946
5420.000000;1.221485
5419.000000;1.225059
5418.000000;1.228081
5417.000000;1.229859
5416.000000;1.230240
5415.000000;1.229761
5414.000000;1.229115
5413.000000;1.228493
5412.000000;1.227705
5411.000000;1.227044
5410.000000;1.227398
5409.000000;1.229227
5408.000000;1.232039
5407.000000;1.235293
5406.000000;1.239228
5405.000000;1.244191
5404.000000;1.249719
5403.000000;1.254953
5402.000000;1.259640
5401.000000;1.264076
5400.000000;1.268258
5399.000000;1.271861
5398.000000;1.274770
5397.000000;1.277058
5396.000000;1.278798
5395.000000;1.280184
5394.000000;1.281745
5393.000000;1.283980
5392.000000;1.286820
5391.000000;1.290017
5390.000000;1.293722
5389.000000;1.298149
5388.000000;1.302993
5387.000000;1.307759
5386.000000;1.312507
5385.000000;1.317640
5384.000000;1.323046
5383.000000;1.328207
5382.000000;1.333163
5381.000000;1.338372
5380.000000;1.343706
5379.000000;1.348609
5378.000000;1.353090
5377.000000;1.357777
5376.000000;1.362965
5375.000000;1.368247
5374.000000;1.373389
5373.000000;1.378902
5372.000000;1.385281
5371.000000;1.392451
5370.000000;1.400248
5369.000000;1.408793
5368.000000;1.417992
5367.000000;1.427152
5366.000000;1.435630
5365.000000;1.443542
5364.000000;1.451477
5363.000000;1.459732
5362.000000;1.468244
5361.000000;1.476908
5360.000000;1.485683
5359.000000;1.494564
5358.000000;1.503557
5357.000000;1.512580
5356.000000;1.521398
5355.000000;1.529881
5354.000000;1.538370
5353.000000;1.547416
5352.000000;1.557082
5351.000000;1.567082
5350.000000;1.577649
5349.000000;1.589258
5348.000000;1.601434
5347.000000;1.613076
5346.000000;1.624175
5345.000000;1.636124
5344.000000;1.649823
5343.000000;1.664210
5342.000000;1.677680
5341.000000;1.690456
5340.000000;1.704047
5339.000000;1.719033
5338.000000;1.734700
5337.000000;1.750523
5336.000000;1.766889
5335.000000;1.784329
5334.000000;1.802798
5333.000000;1.821856
5332.000000;1.841189
5331.000000;1.860769
5330.000000;1.880781
5329.000000;1.901394
5328.000000;1.922373
5327.000000;1.943069
5326.000000;1.962961
5325.000000;1.982213
5324.000000;2.001692
5323.000000;2.022338
5322.000000;2.044371
5321.000000;2.067064
5320.000000;2.089294
5319.000000;2.110577
5318.000000;2.131476
5317.000000;2.152676
5316.000000;2.173952
5315.000000;2.194691
5314.000000;2.215123
5313.000000;2.236007
5312.000000;2.257164
5311.000000;2.277350
5310.000000;2.295891
5309.000000;2.313335
5308.000000;2.330280
5307.000000;2.346783
5306.000000;2.363079
5305.000000;2.379640
5304.000000;2.396215
5303.000000;2.411941
5302.000000;2.426550
5301.000000;2.440447
5300.000000;2.453717
5299.000000;2.466337
5298.000000;2.479116
5297.000000;2.492736
5296.000000;2.505932
5295.000000;2.516150
5294.000000;2.522068
5293.000000;2.524514
5292.000000;2.525402
5291.000000;2.527056
5290.000000;2.531798
5289.000000;2.540012
5288.000000;2.548986
5287.000000;2.555612
5286.000000;2.559500
5285.000000;2.561868
5284.000000;2.562836
5283.000000;2.562261
5282.000000;2.562224
5281.000000;2.565738
5280.000000;2.572987
5279.000000;2.580788
5278.000000;2.585997
5277.000000;2.587995
5276.000000;2.587814
5275.000000;2.586837
5274.000000;2.586471
5273.000000;2.587261
5272.000000;2.588352
5271.000000;2.588983
5270.000000;2.590092
5269.000000;2.592932
5268.000000;2.596216
5267.000000;2.596765
5266.000000;2.593399
5265.000000;2.588257
5264.000000;2.584173
5263.000000;2.582323
5262.000000;2.582439
5261.000000;2.583818
5260.000000;2.585764
5259.000000;2.588021
5258.000000;2.591166
5257.000000;2.595758
5256.000000;2.600827
5255.000000;2.603987
5254.000000;2.603660
5253.000000;2.600753
5252.000000;2.597876
5251.000000;2.597496
5250.000000;2.600238
5249.000000;2.603783
5248.000000;2.604133
5247.000000;2.599876
5246.000000;2.594189
5245.000000;2.591172
5244.000000;2.592026
5243.000000;2.595355
5242.000000;2.599636
5241.000000;2.604043
5240.000000;2.607608
5239.000000;2.609469
5238.000000;2.610238
5237.000000;2.611683
5236.000000;2.614675
5235.000000;2.618212
5234.000000;2.620496
5233.000000;2.620671
5232.000000;2.619502
5231.000000;2.618636
5230.000000;2.619119
5229.000000;2.620349
5228.000000;2.620828
5227.000000;2.620063
5226.000000;2.619201
5225.000000;2.619726
5224.000000;2.622019
5223.000000;2.625228
5222.000000;2.627627
5221.000000;2.627072
5220.000000;2.622979
5219.000000;2.618228
5218.000000;2.617117
5217.000000;2.620984
5216.000000;2.627354
5215.000000;2.633486
5214.000000;2.638688
5213.000000;2.642506
5212.000000;2.643586
5211.000000;2.642021
5210.000000;2.640087
5209.000000;2.638721
5208.000000;2.635693
5207.000000;2.629821
5206.000000;2.624870
5205.000000;2.625750
5204.000000;2.632219
5203.000000;2.639154
5202.000000;2.642415
5201.000000;2.642445
5200.000000;2.642244
5199.000000;2.643836
5198.000000;2.646661
5197.000000;2.647940
5196.000000;2.645395
5195.000000;2.640668
5194.000000;2.638533
5193.000000;2.641600
5192.000000;2.647028
5191.000000;2.650173
5190.000000;2.650432
5189.000000;2.650791
5188.000000;2.652632
5187.000000;2.653970
5186.000000;2.652494
5185.000000;2.648422
5184.000000;2.644225
5183.000000;2.642728
5182.000000;2.645251
5181.000000;2.650332
5180.000000;2.654486
5179.000000;2.655667
5178.000000;2.655576
5177.000000;2.657094
5176.000000;2.660463
5175.000000;2.663351
5174.000000;2.663715
5173.000000;2.661395
5172.000000;2.657680
5171.000000;2.654546
5170.000000;2.653815
5169.000000;2.655646
5168.000000;2.658120
5167.000000;2.659404
5166.000000;2.659470
5165.000000;2.658551
5164.000000;2.655636
5163.000000;2.650524
5162.000000;2.645833
5161.000000;2.644756
5160.000000;2.647533
5159.000000;2.651507
5158.000000;2.654310
5157.000000;2.655791
5156.000000;2.656957
5155.000000;2.658307
5154.000000;2.659344
5153.000000;2.659041
5152.000000;2.657127
5151.000000;2.655180
5150.000000;2.655421
5149.000000;2.657811
5148.000000;2.659372
5147.000000;2.657698
5146.000000;2.654284
5145.000000;2.652740
5144.000000;2.654799
5143.000000;2.659066
5142.000000;2.662264
5141.000000;2.661267
5140.000000;2.655626
5139.000000;2.648738
5138.000000;2.645121
5137.000000;2.646006
5136.000000;2.648718
5135.000000;2.650821
5134.000000;2.652996
5133.000000;2.656459
5132.000000;2.659878
5131.000000;2.661198
5130.000000;2.660845
5129.000000;2.660461
5128.000000;2.659773
5127.000000;2.657412
5126.000000;2.653754
5125.000000;2.650584
5124.000000;2.648962
5123.000000;2.649180
5122.000000;2.651613
5121.000000;2.655646
5120.000000;2.658559
5119.000000;2.657934
5118.000000;2.654957
5117.000000;2.653008
5116.000000;2.653411
5115.000000;2.654460
5114.000000;2.654155
5113.000000;2.652334
5112.000000;2.650411
5111.000000;2.650348
5110.000000;2.653441
5109.000000;2.658525
5108.000000;2.661625
5107.000000;2.659393
5106.000000;2.652989
5105.000000;2.646771
5104.000000;2.643786
5103.000000;2.644039
5102.000000;2.646136
5101.000000;2.648858
5100.000000;2.651409
5099.000000;2.653669
5098.000000;2.656222
5097.000000;2.659168
5096.000000;2.661216
5095.000000;2.660919
5094.000000;2.658645
5093.000000;2.656293
5092.000000;2.655327
5091.000000;2.655825
5090.000000;2.656848
5089.000000;2.656947
5088.000000;2.655123
5087.000000;2.652217
5086.000000;2.650356
5085.000000;2.650179
5084.000000;2.649858
5083.000000;2.647697
5082.000000;2.644467
5081.000000;2.642015
5080.000000;2.640985
5079.000000;2.641181
5078.000000;2.642691
5077.000000;2.645123
5076.000000;2.646850
5075.000000;2.646709
5074.000000;2.645509
5073.000000;2.644393
5072.000000;2.643137
5071.000000;2.641466
5070.000000;2.640466
5069.000000;2.641036
5068.000000;2.642300
5067.000000;2.643294
5066.000000;2.644887
5065.000000;2.647913
5064.000000;2.650627
5063.000000;2.650371
5062.000000;2.647005
5061.000000;2.642433
5060.000000;2.637765
5059.000000;2.633444
5058.000000;2.630972
5057.000000;2.631655
5056.000000;2.634116
5055.000000;2.635601
5054.000000;2.635714
5053.000000;2.636271
5052.000000;2.637343
5051.000000;2.636447
5050.000000;2.632663
5049.000000;2.629101
5048.000000;2.629600
5047.000000;2.634291
5046.000000;2.639279
5045.000000;2.640232
5044.000000;2.636273
5043.000000;2.630505
5042.000000;2.626917
5041.000000;2.627149
5040.000000;2.630092
5039.000000;2.633752
5038.000000;2.636680
5037.000000;2.637839
5036.000000;2.636583
5035.000000;2.633430
5034.000000;2.629326
5033.000000;2.623808
5032.000000;2.616456
5031.000000;2.610389
5030.000000;2.611096
5029.000000;2.620144
5028.000000;2.631015
5027.000000;2.634061
5026.000000;2.627060
5025.000000;2.616945
5024.000000;2.610912
5023.000000;2.610525
5022.000000;2.613023
5021.000000;2.614442
5020.000000;2.611971
5019.000000;2.606212
5018.000000;2.601343
5017.000000;2.601283
5016.000000;2.605665
5015.000000;2.610573
5014.000000;2.612969
5013.000000;2.612740
5012.000000;2.610669
5011.000000;2.607340
5010.000000;2.604128
5009.000000;2.602622
5008.000000;2.602542
5007.000000;2.601832
5006.000000;2.599428
5005.000000;2.596307
5004.000000;2.593352
5003.000000;2.590277
5002.000000;2.587250
5001.000000;2.585589
5000.000000;2.585830
4999.000000;2.586501
4998.000000;2.585863
4997.000000;2.583825
4996.000000;2.581723
4995.000000;2.580843
4994.000000;2.580918
4993.000000;2.580096
4992.000000;2.576770
4991.000000;2.571849
4990.000000;2.568041
4989.000000;2.566499
4988.000000;2.565370
4987.000000;2.562539
4986.000000;2.558825
4985.000000;2.556700
4984.000000;2.556416
4983.000000;2.555263
4982.000000;2.550917
4981.000000;2.544442
4980.000000;2.539477
4979.000000;2.539066
4978.000000;2.543126
4977.000000;2.547846
4976.000000;2.547999
4975.000000;2.542129
4974.000000;2.534667
4973.000000;2.530826
4972.000000;2.531158
4971.000000;2.532212
4970.000000;2.531243
4969.000000;2.528749
4968.000000;2.526327
4967.000000;2.524110
4966.000000;2.521233
4965.000000;2.517444
4964.000000;2.513339
4963.000000;2.509575
4962.000000;2.506313
4961.000000;2.503124
4960.000000;2.499549
4959.000000;2.496064
4958.000000;2.493945
4957.000000;2.493528
4956.000000;2.493210
4955.000000;2.491009
4954.000000;2.486656
4953.000000;2.481381
4952.000000;2.476600
4951.000000;2.473880
4950.000000;2.474845
4949.000000;2.479105
4948.000000;2.482657
4947.000000;2.480749
4946.000000;2.473220
4945.000000;2.464707
4944.000000;2.459135
4943.000000;2.456346
4942.000000;2.453958
4941.000000;2.450592
4940.000000;2.446695
4939.000000;2.443286
4938.000000;2.440901
4937.000000;2.439259
4936.000000;2.437426
4935.000000;2.434825
4934.000000;2.432328
4933.000000;2.431566
4932.000000;2.432587
4931.000000;2.432682
4930.000000;2.428356
4929.000000;2.418852
4928.000000;2.407400
4927.000000;2.398744
4926.000000;2.395393
4925.000000;2.395791
4924.000000;2.395976
4923.000000;2.393468
4922.000000;2.389338
4921.000000;2.386113
4920.000000;2.384594
4919.000000;2.383435
4918.000000;2.381053
4917.000000;2.376968
4916.000000;2.371553
4915.000000;2.365467
4914.000000;2.359438
4913.000000;2.354001
4912.000000;2.349415
4911.000000;2.346031
4910.000000;2.344362
4909.000000;2.344355
4908.000000;2.344966
4907.000000;2.344877
4906.000000;2.343318
4905.000000;2.339835
4904.000000;2.334074
4903.000000;2.326773
4902.000000;2.320279
4901.000000;2.316668
4900.000000;2.315543
4899.000000;2.314691
4898.000000;2.312701
4897.000000;2.309783
4896.000000;2.306127
4895.000000;2.301065
4894.000000;2.294475
4893.000000;2.287894
4892.000000;2.283302
4891.000000;2.281103
4890.000000;2.279734
4889.000000;2.277279
4888.000000;2.273430
4887.000000;2.269681
4886.000000;2.267425
4885.000000;2.266073
4884.000000;2.263533
4883.000000;2.258664
4882.000000;2.252510
4881.000000;2.246675
4880.000000;2.241561
4879.000000;2.236839
4878.000000;2.232639
4877.000000;2.229300
4876.000000;2.226518
4875.000000;2.223729
4874.000000;2.220971
4873.000000;2.218450
4872.000000;2.215565
4871.000000;2.211447
4870.000000;2.206281
4869.000000;2.201128
4868.000000;2.196562
4867.000000;2.192445
4866.000000;2.188919
4865.000000;2.186473
4864.000000;2.184786
4863.000000;2.182454
4862.000000;2.178413
4861.000000;2.173180
4860.000000;2.168296
4859.000000;2.164911
4858.000000;2.162995
4857.000000;2.161408
4856.000000;2.158724
4855.000000;2.154411
4854.000000;2.149206
4853.000000;2.144101
4852.000000;2.139223
4851.000000;2.134174
4850.000000;2.129200
4849.000000;2.125278
4848.000000;2.122970
4847.000000;2.121684
4846.000000;2.120138
4845.000000;2.117304
4844.000000;2.113001
4843.000000;2.107912
4842.000000;2.102945
4841.000000;2.098270
4840.000000;2.093235
4839.000000;2.087638
4838.000000;2.082703
4837.000000;2.079987
4836.000000;2.079490
4835.000000;2.079494
4834.000000;2.078226
4833.000000;2.075116
4832.000000;2.070519
4831.000000;2.065112
4830.000000;2.059879
4829.000000;2.055855
4828.000000;2.053302
4827.000000;2.051411
4826.000000;2.049004
4825.000000;2.045339
4824.000000;2.040346
4823.000000;2.034644
4822.000000;2.029459
4821.000000;2.025937
4820.000000;2.024021
4819.000000;2.022278
4818.000000;2.019244
4817.000000;2.014795
4816.000000;2.009972
4815.000000;2.005787
4814.000000;2.002445
4813.000000;1.999430
4812.000000;1.996094
4811.000000;1.992275
4810.000000;1.988420
4809.000000;1.985046
4808.000000;1.982117
4807.000000;1.979154
4806.000000;1.975830
4805.000000;1.972218
4804.000000;1.968517
4803.000000;1.964910
4802.000000;1.961621
4801.000000;1.958709
4800.000000;1.955768
4799.000000;1.952249
4798.000000;1.948221
4797.000000;1.944451
4796.000000;1.941556
4795.000000;1.939320
4794.000000;1.936988
4793.000000;1.934010
4792.000000;1.930366
4791.000000;1.926417
4790.000000;1.922607
4789.000000;1.919191
4788.000000;1.916088
4787.000000;1.913071
4786.000000;1.910095
4785.000000;1.907293
4784.000000;1.904677
4783.000000;1.902047
4782.000000;1.899188
4781.000000;1.895973
4780.000000;1.892331
4779.000000;1.888374
4778.000000;1.884503
4777.000000;1.881129
4776.000000;1.878210
4775.000000;1.875292
4774.000000;1.872031
4773.000000;1.868462
4772.000000;1.864777
4771.000000;1.861152
4770.000000;1.857788
4769.000000;1.854856
4768.000000;1.852306
4767.000000;1.849916
4766.000000;1.847536
4765.000000;1.845099
4764.000000;1.842431
4763.000000;1.839371
4762.000000;1.836061
4761.000000;1.832828
4760.000000;1.829732
4759.000000;1.826535
4758.000000;1.823154
4757.000000;1.819808
4756.000000;1.816626
4755.000000;1.813444
4754.000000;1.810136
4753.000000;1.806900
4752.000000;1.804021
4751.000000;1.801546
4750.000000;1.799306
4749.000000;1.797076
4748.000000;1.794626
4747.000000;1.791810
4746.000000;1.788754
4745.000000;1.785760
4744.000000;1.782953
4743.000000;1.780165
4742.000000;1.777245
4741.000000;1.774276
4740.000000;1.771447
4739.000000;1.768923
4738.000000;1.766871
4737.000000;1.765318
4736.000000;1.763840
4735.000000;1.761701
4734.000000;1.758568
4733.000000;1.754887
4732.000000;1.751342
4731.000000;1.748188
4730.000000;1.745325
4729.000000;1.742770
4728.000000;1.740654
4727.000000;1.738823
4726.000000;1.736844
4725.000000;1.734486
4724.000000;1.731953
4723.000000;1.729510
4722.000000;1.727110
4721.000000;1.724569
4720.000000;1.721925
4719.000000;1.719386
4718.000000;1.716954
4717.000000;1.714352
4716.000000;1.711447
4715.000000;1.708593
4714.000000;1.706329
4713.000000;1.704771
4712.000000;1.703471
4711.000000;1.701916
4710.000000;1.699973
4709.000000;1.697758
4708.000000;1.695293
4707.000000;1.692590
4706.000000;1.689901
4705.000000;1.687541
4704.000000;1.685421
4703.000000;1.683078
4702.000000;1.680301
4701.000000;1.677507
4700.000000;1.675324
4699.000000;1.673917
4698.000000;1.672858
4697.000000;1.671569
4696.000000;1.669781
4695.000000;1.667564
4694.000000;1.665102
4693.000000;1.662533
4692.000000;1.660000
4691.000000;1.657737
4690.000000;1.655920
4689.000000;1.654400
4688.000000;1.652719
4687.000000;1.650560
4686.000000;1.648095
4685.000000;1.645762
4684.000000;1.643777
4683.000000;1.642062
4682.000000;1.640491
4681.000000;1.638922
4680.000000;1.637056
4679.000000;1.634658
4678.000000;1.632041
4677.000000;1.629958
4676.000000;1.628773
4675.000000;1.627943
4674.000000;1.626584
4673.000000;1.624414
4672.000000;1.621895
4671.000000;1.619601
4670.000000;1.617789
4669.000000;1.616477
4668.000000;1.615586
4667.000000;1.614864
4666.000000;1.613940
4665.000000;1.612603
4664.000000;1.610938
4663.000000;1.609094
4662.000000;1.607065
4661.000000;1.604823
4660.000000;1.602549
4659.000000;1.600521
4658.000000;1.598799
4657.000000;1.597188
4656.000000;1.595561
4655.000000;1.594087
4654.000000;1.592984
4653.000000;1.592141
4652.000000;1.591126
4651.000000;1.589633
4650.000000;1.587804
4649.000000;1.586011
4648.000000;1.584426
4647.000000;1.582928
4646.000000;1.581412
4645.000000;1.580042
4644.000000;1.579083
4643.000000;1.578487
4642.000000;1.577748
4641.000000;1.576292
4640.000000;1.574075
4639.000000;1.571711
4638.000000;1.569902
4637.000000;1.568740
4636.000000;1.567667
4635.000000;1.566147
4634.000000;1.564280
4633.000000;1.562658
4632.000000;1.561705
4631.000000;1.561270
4630.000000;1.560811
4629.000000;1.559871
4628.000000;1.558401
4627.000000;1.556717
4626.000000;1.555198
4625.000000;1.553987
4624.000000;1.552942
4623.000000;1.551856
4622.000000;1.550665
4621.000000;1.549447
4620.000000;1.548322
4619.000000;1.547388
4618.000000;1.546662
4617.000000;1.545984
4616.000000;1.545059
4615.000000;1.543699
4614.000000;1.541993
4613.000000;1.540194
4612.000000;1.538544
4611.000000;1.537244
4610.000000;1.536404
4609.000000;1.535838
4608.000000;1.535050
4607.000000;1.533703
4606.000000;1.532059
4605.000000;1.530737
4604.000000;1.530017
4603.000000;1.529584
4602.000000;1.528948
4601.000000;1.527926
4600.000000;1.526647
4599.000000;1.525323
4598.000000;1.524119
4597.000000;1.523104
4596.000000;1.522220
4595.000000;1.521374
4594.000000;1.520594
4593.000000;1.519971
4592.000000;1.519417
4591.000000;1.518673
4590.000000;1.517650
4589.000000;1.516600
4588.000000;1.515808
4587.000000;1.515242
4586.000000;1.514652
4585.000000;1.513917
4584.000000;1.513115
4583.000000;1.512274
4582.000000;1.511264
4581.000000;1.510031
4580.000000;1.508811
4579.000000;1.507942
4578.000000;1.507444
4577.000000;1.506906
4576.000000;1.505918
4575.000000;1.504611
4574.000000;1.503592
4573.000000;1.503240
4572.000000;1.503217
4571.000000;1.502846
4570.000000;1.501911
4569.000000;1.500798
4568.000000;1.499824
4567.000000;1.498772
4566.000000;1.497334
4565.000000;1.495781
4564.000000;1.494841
4563.000000;1.494889
4562.000000;1.495439
4561.000000;1.495556
4560.000000;1.494705
4559.000000;1.493181
4558.000000;1.491748
4557.000000;1.490946
4556.000000;1.490731
4555.000000;1.490678
4554.000000;1.490431
4553.000000;1.489898
4552.000000;1.489098
4551.000000;1.488016
4550.000000;1.486720
4549.000000;1.485525
4548.000000;1.484839
4547.000000;1.484811
4546.000000;1.485165
4545.000000;1.485375
4544.000000;1.485011
4543.000000;1.484001
4542.000000;1.482685
4541.000000;1.481579
4540.000000;1.480983
4539.000000;1.480758
4538.000000;1.480506
4537.000000;1.479972
4536.000000;1.479238
4535.000000;1.478537
4534.000000;1.478010
4533.000000;1.477660
4532.000000;1.477444
4531.000000;1.477285
4530.000000;1.477065
4529.000000;1.476741
4528.000000;1.476435
4527.000000;1.476286
4526.000000;1.476196
4525.000000;1.475904
4524.000000;1.475397
4523.000000;1.475078
4522.000000;1.475302
4521.000000;1.475800
4520.000000;1.475823
4519.000000;1.474977
4518.000000;1.473719
4517.000000;1.472868
4516.000000;1.472779
4515.000000;1.473111
4514.000000;1.473324
4513.000000;1.473190
4512.000000;1.472858
4511.000000;1.472597
4510.000000;1.472583
4509.000000;1.472803
4508.000000;1.473057
4507.000000;1.473110
4506.000000;1.472933
4505.000000;1.472746
4504.000000;1.472734
4503.000000;1.472753
4502.000000;1.472466
4501.000000;1.471843
4500.000000;1.471386
4499.000000;1.471669
4498.000000;1.472675
4497.000000;1.473733
4496.000000;1.474185
4495.000000;1.473996
4494.000000;1.473606
4493.000000;1.473351
4492.000000;1.473246
4491.000000;1.473236
4490.000000;1.473336
4489.000000;1.473500
4488.000000;1.473587
4487.000000;1.473583
4486.000000;1.473650
4485.000000;1.473857
4484.000000;1.474065
4483.000000;1.474230
4482.000000;1.474627
4481.000000;1.475535
4480.000000;1.476768
4479.000000;1.477739
4478.000000;1.478014
4477.000000;1.477682
4476.000000;1.477224
4475.000000;1.477110
4474.000000;1.477482
4473.000000;1.478102
4472.000000;1.478592
4471.000000;1.478822
4470.000000;1.479017
4469.000000;1.479458
4468.000000;1.480184
4467.000000;1.481047
4466.000000;1.481929
4465.000000;1.482734
4464.000000;1.483328
4463.000000;1.483677
4462.000000;1.483973
4461.000000;1.484413
4460.000000;1.484925
4459.000000;1.485301
4458.000000;1.485555
4457.000000;1.485915
4456.000000;1.486477
4455.000000;1.487106
4454.000000;1.487708
4453.000000;1.488419
4452.000000;1.489460
4451.000000;1.490938
4450.000000;1.492728
4449.000000;1.494367
4448.000000;1.495158
4447.000000;1.494751
4446.000000;1.493706
4445.000000;1.493175
4444.000000;1.493832
4443.000000;1.495260
4442.000000;1.496511
4441.000000;1.497171
4440.000000;1.497692
4439.000000;1.498702
4438.000000;1.500186
4437.000000;1.501448
4436.000000;1.501823
4435.000000;1.501435
4434.000000;1.501155
4433.000000;1.501765
4432.000000;1.503185
4431.000000;1.504626
4430.000000;1.505467
4429.000000;1.505850
4428.000000;1.506391
4427.000000;1.507464
4426.000000;1.508883
4425.000000;1.510151
4424.000000;1.510921
4423.000000;1.511300
4422.000000;1.511807
4421.000000;1.512984
4420.000000;1.514914
4419.000000;1.517141
4418.000000;1.519123
4417.000000;1.520719
4416.000000;1.522092
4415.000000;1.523200
4414.000000;1.523686
4413.000000;1.523450
4412.000000;1.523139
4411.000000;1.523696
4410.000000;1.525388
4409.000000;1.527510
4408.000000;1.529221
4407.000000;1.530472
4406.000000;1.531853
4405.000000;1.533615
4404.000000;1.535274
4403.000000;1.536248
4402.000000;1.536601
4401.000000;1.536962
4400.000000;1.537866
4399.000000;1.539298
4398.000000;1.540742
4397.000000;1.541612
4396.000000;1.541826
4395.000000;1.541953
4394.000000;1.542605
4393.000000;1.543679
4392.000000;1.544524
4391.000000;1.544904
4390.000000;1.545318
4389.000000;1.546143
4388.000000;1.547038
4387.000000;1.547675
4386.000000;1.548619
4385.000000;1.550752
4384.000000;1.553882
4383.000000;1.556508
4382.000000;1.557256
4381.000000;1.556347
4380.000000;1.555401
4379.000000;1.555956
4378.000000;1.558283
4377.000000;1.561359
4376.000000;1.563801
4375.000000;1.564964
4374.000000;1.565169
4373.000000;1.565036
4372.000000;1.564975
4371.000000;1.565312
4370.000000;1.566358
4369.000000;1.567934
4368.000000;1.569261
4367.000000;1.569941
4366.000000;1.570794
4365.000000;1.573001
4364.000000;1.576518
4363.000000;1.579972
4362.000000;1.582207
4361.000000;1.583337
4360.000000;1.584110
4359.000000;1.584969
4358.000000;1.586076
4357.000000;1.587629
4356.000000;1.589571
4355.000000;1.591247
4354.000000;1.591871
4353.000000;1.591309
4352.000000;1.590210
4351.000000;1.589514
4350.000000;1.590084
4349.000000;1.592513
4348.000000;1.596671
4347.000000;1.601254
4346.000000;1.604221
4345.000000;1.604262
4344.000000;1.602040
4343.000000;1.599665
4342.000000;1.598870
4341.000000;1.599861
4340.000000;1.601768
4339.000000;1.603873
4338.000000;1.606067
4337.000000;1.608229
4336.000000;1.609836
4335.000000;1.610510
4334.000000;1.610527
4333.000000;1.610426
4332.000000;1.610511
4331.000000;1.611111
4330.000000;1.612925
4329.000000;1.616492
4328.000000;1.621252
4327.000000;1.625474
4326.000000;1.627310
4325.000000;1.626042
4324.000000;1.622545
4323.000000;1.618835
4322.000000;1.617018
4321.000000;1.618092
4320.000000;1.621379
4319.000000;1.625085
4318.000000;1.627582
4317.000000;1.628493
4316.000000;1.628967
4315.000000;1.630810
4314.000000;1.634722
4313.000000;1.639182
4312.000000;1.641763
4311.000000;1.641891
4310.000000;1.641331
4309.000000;1.641548
4308.000000;1.641879
4307.000000;1.641145
4306.000000;1.639947
4305.000000;1.640092
4304.000000;1.642383
4303.000000;1.645950
4302.000000;1.649006
4301.000000;1.649503
4300.000000;1.646369
4299.000000;1.641364
4298.000000;1.638699
4297.000000;1.641340
4296.000000;1.647474
4295.000000;1.651947
4294.000000;1.651980
4293.000000;1.649698
4292.000000;1.648404
4291.000000;1.648695
4290.000000;1.649051
4289.000000;1.648566
4288.000000;1.647844
4287.000000;1.647966
4286.000000;1.649641
4285.000000;1.652967
4284.000000;1.657048
4283.000000;1.659990
4282.000000;1.660072
4281.000000;1.657147
4280.000000;1.652752
4279.000000;1.648835
4278.000000;1.646148
4277.000000;1.643719
4276.000000;1.640419
4275.000000;1.637231
4274.000000;1.636999
4273.000000;1.641110
4272.000000;1.647074
4271.000000;1.650888
4270.000000;1.651726
4269.000000;1.652092
4268.000000;1.653226
4267.000000;1.652773
4266.000000;1.648038
4265.000000;1.640320
4264.000000;1.634207
4263.000000;1.633288
4262.000000;1.637378
4261.000000;1.642705
4260.000000;1.645133
4259.000000;1.644438
4258.000000;1.643983
4257.000000;1.645238
4256.000000;1.644543
4255.000000;1.637265
4254.000000;1.624931
4253.000000;1.614646
4252.000000;1.610705
4251.000000;1.609744
4250.000000;1.605205
4249.000000;1.595789
4248.000000;1.587365
4247.000000;1.586441
4246.000000;1.593514
4245.000000;1.601894
4244.000000;1.602867
4243.000000;1.594639
4242.000000;1.584790
4241.000000;1.581941
4240.000000;1.587365
4239.000000;1.593641
4238.000000;1.591253
4237.000000;1.578733
4236.000000;1.562983
4235.000000;1.550395
4234.000000;1.542521
4233.000000;1.537794
4232.000000;1.534269
4231.000000;1.530848
4230.000000;1.526302
4229.000000;1.518038
4228.000000;1.503809
4227.000000;1.485722
4226.000000;1.470288
4225.000000;1.463209
4224.000000;1.464782
4223.000000;1.468541
4222.000000;1.464525
4221.000000;1.447735
4220.000000;1.422908
4219.000000;1.399095
4218.000000;1.382405
4217.000000;1.373822
4216.000000;1.370188
4215.000000;1.364831
4214.000000;1.349319
4213.000000;1.319182
4212.000000;1.277674
4211.000000;1.232589
4210.000000;1.191285
4209.000000;1.158211
4208.000000;1.134838
4207.000000;1.118475
4206.000000;1.099136
4205.000000;1.063649
4204.000000;1.009083
4203.000000;0.945933
4202.000000;0.884720
4201.000000;0.826022
4200.000000;0.768327
4199.000000;0.723358
4198.000000;0.712319
4197.000000;0.745032
4196.000000;0.810234
4195.000000;0.883656
4194.000000;0.948599
4193.000000;1.005529
4192.000000;1.060412
4191.000000;1.114725
4190.000000;1.167806
4189.000000;1.219527
4188.000000;1.269784
4187.000000;1.319644
4186.000000;1.370388
4185.000000;1.417531
4184.000000;1.450249
4183.000000;1.467345
4182.000000;1.485180
4181.000000;1.519232
4180.000000;1.566328
4179.000000;1.604756
4178.000000;1.619407
4177.000000;1.625825
4176.000000;1.649421
4175.000000;1.697948
4174.000000;1.754443
4173.000000;1.781070
4172.000000;1.765984
4171.000000;1.744869
4170.000000;1.743618
4169.000000;1.760051
4168.000000;1.779740
4167.000000;1.797362
4166.000000;1.827848
4165.000000;1.889069
4164.000000;1.977994
4163.000000;2.053292
4162.000000;2.054552
4161.000000;1.999973
4160.000000;1.956663
4159.000000;1.952651
4158.000000;1.984265
4157.000000;2.027700
4156.000000;2.055051
4155.000000;2.064679
4154.000000;2.080953
4153.000000;2.115077
4152.000000;2.143619
4151.000000;2.140820
4150.000000;2.123459
4149.000000;2.122900
4148.000000;2.142722
4147.000000;2.159227
4146.000000;2.152876
4145.000000;2.135589
4144.000000;2.132355
4143.000000;2.155559
4142.000000;2.205319
4141.000000;2.267544
4140.000000;2.303291
4139.000000;2.287985
4138.000000;2.249520
4137.000000;2.218117
4136.000000;2.202625
4135.000000;2.205340
4134.000000;2.232614
4133.000000;2.285856
4132.000000;2.343165
4131.000000;2.365546
4130.000000;2.349827
4129.000000;2.335196
4128.000000;2.344937
4127.000000;2.368977
4126.000000;2.388215
4125.000000;2.400874
4124.000000;2.415637
4123.000000;2.431322
4122.000000;2.439858
4121.000000;2.440444
4120.000000;2.437986
4119.000000;2.431689
4118.000000;2.422716
4117.000000;2.423703
4116.000000;2.444038
4115.000000;2.479671
4114.000000;2.515669
4113.000000;2.533402
4112.000000;2.528020
4111.000000;2.516446
4110.000000;2.517540
4109.000000;2.532084
4108.000000;2.538154
4107.000000;2.521821
4106.000000;2.508411
4105.000000;2.525995
4104.000000;2.569751
4103.000000;2.600163
4102.000000;2.583010
4101.000000;2.537818
4100.000000;2.501697
4099.000000;2.496582
4098.000000;2.536071
4097.000000;2.619776
4096.000000;2.708759
4095.000000;2.734971
4094.000000;2.697101
4093.000000;2.651684
4092.000000;2.625070
4091.000000;2.614515
4090.000000;2.620921
4089.000000;2.649989
4088.000000;2.684522
4087.000000;2.679352
4086.000000;2.622303
4085.000000;2.561396
4084.000000;2.542712
4083.000000;2.583723
4082.000000;2.676009
4081.000000;2.760217
4080.000000;2.763305
4079.000000;2.728463
4078.000000;2.726562
4077.000000;2.778529
4076.000000;2.850542
4075.000000;2.870026
4074.000000;2.829953
4073.000000;2.790973
4072.000000;2.778425
4071.000000;2.772271
4070.000000;2.762794
4069.000000;2.763296
4068.000000;2.773292
4067.000000;2.771067
4066.000000;2.751559
4065.000000;2.742859
4064.000000;2.773184
4063.000000;2.833405
4062.000000;2.850969
4061.000000;2.797833
4060.000000;2.759951
4059.000000;2.790353
4058.000000;2.879112
4057.000000;2.952669
4056.000000;2.931505
4055.000000;2.862737
4054.000000;2.833051
4053.000000;2.864456
4052.000000;2.918050
4051.000000;2.910087
4050.000000;2.826263
4049.000000;2.754562
4048.000000;2.734096
4047.000000;2.742516
4046.000000;2.756036
4045.000000;2.768060
4044.000000;2.761164
4043.000000;2.740427
4042.000000;2.749337
4041.000000;2.811954
4040.000000;2.895875
4039.000000;2.911999
4038.000000;2.840008
4037.000000;2.762834
4036.000000;2.733657
4035.000000;2.755852
4034.000000;2.817199
4033.000000;2.895480
4032.000000;2.934672
4031.000000;2.940560
4030.000000;3.013560
4029.000000;3.214930
4028.000000;3.255295
4027.000000;3.032766
4026.000000;2.896541
4025.000000;2.811336
4024.000000;2.766893
4023.000000;2.768725
4022.000000;2.826115
4021.000000;2.922860
4020.000000;2.941672
4019.000000;2.876233
4018.000000;2.857818
4017.000000;2.912371
4016.000000;2.984401
4015.000000;3.011599
4014.000000;3.012670
4013.000000;3.085436
4012.000000;3.317117
4011.000000;3.382883
4010.000000;3.154810
4009.000000;2.998539
4008.000000;2.937252
4007.000000;3.000136
4006.000000;3.221861
4005.000000;3.372951
4004.000000;3.152233
4003.000000;2.941196
4002.000000;2.814459
4001.000000;2.808448
4000.000000;2.960503
3999.000000;3.195209
3998.000000;3.158964
3997.000000;3.110919
3996.000000;3.230771
3995.000000;3.403307
3994.000000;3.595273
3993.000000;3.340393
3992.000000;3.046087
3991.000000;2.937032
3990.000000;2.945155
3989.000000;3.020118
3988.000000;3.074927
3987.000000;3.168638
3986.000000;3.318251
3985.000000;3.281689
3984.000000;3.253308
3983.000000;3.346852
3982.000000;3.505750
3981.000000;3.609946
3980.000000;3.393707
3979.000000;3.152492
3978.000000;3.023539
3977.000000;3.013822
3976.000000;3.108144
3975.000000;3.287299
3974.000000;3.480065
3973.000000;3.362190
3972.000000;3.178895
3971.000000;3.135353
3970.000000;3.153259
3969.000000;3.134414
3968.000000;3.056297
3967.000000;3.005023
3966.000000;3.031118
3965.000000;3.171699
3964.000000;3.441128
3963.000000;3.349896
3962.000000;3.057491
3961.000000;2.922601
3960.000000;2.891949
3959.000000;2.939862
3958.000000;3.036000
3957.000000;3.285038
3956.000000;4.143680
3955.000000;3.435230
3954.000000;3.133248
3953.000000;3.050509
3952.000000;3.071058
3951.000000;3.175157
3950.000000;3.245155
3949.000000;3.228947
3948.000000;3.177718
3947.000000;3.178898
3946.000000;3.205986
3945.000000;3.207518
3944.000000;3.200289
3943.000000;3.223580
3942.000000;3.455548
3941.000000;3.861813
3940.000000;3.517296
3939.000000;3.292405
3938.000000;3.157933
3937.000000;3.062141
3936.000000;3.071725
3935.000000;3.158438
3934.000000;3.275359
3933.000000;3.371608
3932.000000;3.271937
3931.000000;3.079999
3930.000000;3.002393
3929.000000;3.139271
3928.000000;3.464267
3927.000000;3.612384
3926.000000;3.885148
3925.000000;3.745102
3924.000000;3.570675
3923.000000;3.887424
3922.000000;3.792126
3921.000000;3.306879
3920.000000;3.180887
3919.000000;3.150688
3918.000000;3.140632
3917.000000;3.145554
3916.000000;3.144150
3915.000000;3.202956
3914.000000;3.390916
3913.000000;3.502898
3912.000000;3.142919
3911.000000;2.901911
3910.000000;2.864230
3909.000000;2.974389
3908.000000;3.106985
3907.000000;3.139895
3906.000000;3.241083
3905.000000;3.392971
3904.000000;3.467413
3903.000000;3.462157
3902.000000;3.533600
3901.000000;3.526090
3900.000000;3.338201
3899.000000;3.204772
3898.000000;3.197280
3897.000000;3.296942
3896.000000;3.405485
3895.000000;3.413758
3894.000000;3.371817
3893.000000;3.458442
3892.000000;3.979404
3891.000000;3.403955
3890.000000;2.978644
3889.000000;2.905258
3888.000000;2.941357
3887.000000;3.029872
3886.000000;2.975823
3885.000000;2.889714
3884.000000;2.896073
3883.000000;3.188972
3882.000000;3.648195
3881.000000;3.285541
3880.000000;3.208941
3879.000000;3.213520
3878.000000;3.366988
3877.000000;3.469918
3876.000000;3.447200
3875.000000;3.377867
3874.000000;3.269886
3873.000000;3.196776
3872.000000;3.171733
3871.000000;3.226257
3870.000000;3.345276
3869.000000;3.276852
3868.000000;3.117357
3867.000000;3.048815
3866.000000;2.999417
3865.000000;2.903364
3864.000000;2.830119
3863.000000;2.837215
3862.000000;2.905853
3861.000000;3.007942
3860.000000;3.152460
3859.000000;3.335618
3858.000000;3.500045
3857.000000;3.565309
3856.000000;3.586825
3855.000000;3.571835
3854.000000;3.475507
3853.000000;3.448487
3852.000000;3.540681
3851.000000;3.693125
3850.000000;3.822576
3849.000000;3.588559
3848.000000;3.263311
3847.000000;3.081344
3846.000000;3.034490
3845.000000;3.113771
3844.000000;3.337866
3843.000000;3.657300
3842.000000;3.694973
3841.000000;3.669412
3840.000000;3.587957
3839.000000;3.351202
3838.000000;3.206021
3837.000000;3.168112
3836.000000;3.241193
3835.000000;3.343592
3834.000000;3.473416
3833.000000;3.430347
3832.000000;3.647973
3831.000000;3.371333
3830.000000;3.021757
3829.000000;2.958720
3828.000000;2.943668
3827.000000;3.019102
3826.000000;3.250384
3825.000000;4.029628
3824.000000;3.574583
3823.000000;3.350271
3822.000000;3.393962
3821.000000;3.323253
3820.000000;3.190523
3819.000000;3.232182
3818.000000;3.351615
3817.000000;3.543158
3816.000000;3.737949
3815.000000;3.487183
3814.000000;3.343083
3813.000000;3.220484
3812.000000;3.299969
3811.000000;3.093798
3810.000000;2.991318
3809.000000;3.230117
3808.000000;3.262359
3807.000000;3.308892
3806.000000;3.281338
3805.000000;3.415422
3804.000000;3.222441
3803.000000;2.921925
3802.000000;2.809555
3801.000000;2.857706
3800.000000;2.947187
3799.000000;2.987329
3798.000000;3.141045
3797.000000;3.229321
3796.000000;3.241260
3795.000000;3.519625
3794.000000;4.163191
3793.000000;3.959763
3792.000000;3.641086
3791.000000;3.642386
3790.000000;3.332162
3789.000000;3.115600
3788.000000;3.097010
3787.000000;3.178529
3786.000000;3.344027
3785.000000;3.534861
3784.000000;3.564631
3783.000000;3.441672
3782.000000;3.419185
3781.000000;3.323170
3780.000000;3.248543
3779.000000;3.241307
3778.000000;3.319883
3777.000000;3.957709
3776.000000;3.544836
3775.000000;3.092557
3774.000000;3.004554
3773.000000;2.996423
3772.000000;3.042512
3771.000000;3.064370
3770.000000;3.075422
3769.000000;3.116781
3768.000000;3.147691
3767.000000;3.067239
3766.000000;2.919753
3765.000000;2.821181
3764.000000;2.846083
3763.000000;2.981645
3762.000000;3.151291
3761.000000;3.524141
3760.000000;3.451053
3759.000000;2.957029
3758.000000;2.860521
3757.000000;2.792541
3756.000000;2.927870
3755.000000;3.186475
3754.000000;3.077277
3753.000000;3.072151
3752.000000;2.969165
3751.000000;2.969044
3750.000000;3.057554
3749.000000;3.213397
3748.000000;3.314101
3747.000000;3.362191
3746.000000;3.412402
3745.000000;3.345097
3744.000000;3.338947
3743.000000;3.640366
3742.000000;3.797339
3741.000000;3.575400
3740.000000;3.608625
3739.000000;3.698060
3738.000000;3.549269
3737.000000;3.313186
3736.000000;3.177280
3735.000000;3.155793
3734.000000;3.243425
3733.000000;3.473551
3732.000000;3.703968
3731.000000;3.772830
3730.000000;3.931349
3729.000000;8.000000
3728.000000;3.653601
3727.000000;3.719142
3726.000000;2.881225
3725.000000;2.679368
3724.000000;2.876210
3723.000000;3.179469
3722.000000;3.842542
3721.000000;3.756281
3720.000000;3.658539
3719.000000;3.145750
3718.000000;2.939583
3717.000000;2.892162
3716.000000;2.905413
3715.000000;2.972980
3714.000000;3.166350
3713.000000;3.304594
3712.000000;3.213521
3711.000000;3.215171
3710.000000;3.200789
3709.000000;3.208830
3708.000000;3.224164
3707.000000;3.428062
3706.000000;3.560026
3705.000000;3.188773
3704.000000;3.018986
3703.000000;3.016373
3702.000000;3.076965
3701.000000;3.191715
3700.000000;3.115764
3699.000000;2.945330
3698.000000;2.947417
3697.000000;3.194498
3696.000000;3.467879
3695.000000;3.414594
3694.000000;3.617017
3693.000000;3.571666
3692.000000;3.478157
3691.000000;3.580026
3690.000000;3.142598
3689.000000;2.878875
3688.000000;2.791546
3687.000000;2.828259
3686.000000;2.899216
3685.000000;2.950154
3684.000000;3.045695
3683.000000;2.982979
3682.000000;2.918346
3681.000000;3.117406
3680.000000;3.435767
3679.000000;3.570473
3678.000000;3.576435
3677.000000;3.349443
3676.000000;3.238507
3675.000000;3.279680
3674.000000;3.436847
3673.000000;3.400888
3672.000000;3.257940
3671.000000;3.265175
3670.000000;3.402964
3669.000000;3.498873
3668.000000;3.449912
3667.000000;3.392849
3666.000000;3.345493
3665.000000;3.414211
3664.000000;3.402998
3663.000000;3.298391
3662.000000;3.003722
3661.000000;2.954604
3660.000000;3.118231
3659.000000;3.198643
3658.000000;3.310901
3657.000000;3.381193
3656.000000;3.786738
3655.000000;4.318418
3654.000000;3.460058
3653.000000;3.196040
3652.000000;3.107933
3651.000000;3.139158
3650.000000;3.200702
3649.000000;3.176067
3648.000000;3.165510
3647.000000;3.242608
3646.000000;3.393505
3645.000000;3.377257
3644.000000;3.177927
3643.000000;3.053096
3642.000000;3.010766
3641.000000;3.083873
3640.000000;3.269136
3639.000000;3.194628
3638.000000;3.060522
3637.000000;3.045501
3636.000000;3.019185
3635.000000;3.006320
3634.000000;3.050325
3633.000000;3.126041
3632.000000;3.176669
3631.000000;3.130531
3630.000000;3.037829
3629.000000;3.005506
3628.000000;3.068527
3627.000000;3.207755
3626.000000;3.360026
3625.000000;3.379172
3624.000000;3.236423
3623.000000;3.074541
3622.000000;2.996398
3621.000000;2.996758
3620.000000;3.059157
3619.000000;3.146455
3618.000000;3.309118
3617.000000;3.790214
3616.000000;3.476291
3615.000000;3.107541
3614.000000;3.035577
3613.000000;3.070239
3612.000000;3.171888
3611.000000;3.175447
3610.000000;3.309515
3609.000000;3.205398
3608.000000;3.449861
3607.000000;2.926146
3606.000000;2.668611
3605.000000;2.600037
3604.000000;2.500513
3603.000000;2.527448
3602.000000;2.690845
3601.000000;2.930979
3600.000000;2.967496
3599.000000;2.925963
3598.000000;2.956001
3597.000000;3.024891
3596.000000;3.049626
3595.000000;3.092936
3594.000000;3.297672
3593.000000;3.176507
3592.000000;2.915139
3591.000000;2.889628
3590.000000;3.057334
3589.000000;3.205094
3588.000000;3.091907
3587.000000;2.942070
3586.000000;2.861816
3585.000000;3.177208
3584.000000;3.199356
3583.000000;2.829850
3582.000000;2.832844
3581.000000;2.946786
3580.000000;3.013336
3579.000000;3.002265
3578.000000;2.961500
3577.000000;2.993291
3576.000000;3.134324
3575.000000;3.567535
3574.000000;4.445111
3573.000000;3.691212
3572.000000;3.447369
3571.000000;3.230204
3570.000000;3.136424
3569.000000;3.109820
3568.000000;3.041943
3567.000000;2.945172
3566.000000;2.829045
3565.000000;2.763532
3564.000000;2.772553
3563.000000;3.017944
3562.000000;3.337105
3561.000000;2.950932
3560.000000;2.794409
3559.000000;2.848094
3558.000000;2.979431
3557.000000;3.136597
3556.000000;3.204366
3555.000000;3.221430
3554.000000;3.257385
3553.000000;3.350890
3552.000000;3.479536
3551.000000;3.487820
3550.000000;3.373125
3549.000000;3.415613
3548.000000;3.761222
3547.000000;3.675600
3546.000000;3.493283
3545.000000;3.354337
3544.000000;3.136472
3543.000000;3.100815
3542.000000;3.185035
3541.000000;3.239702
3540.000000;3.469765
3539.000000;4.001609
3538.000000;3.712945
3537.000000;4.017082
3536.000000;3.801339
3535.000000;3.197477
3534.000000;3.030419
3533.000000;3.006658
3532.000000;3.016907
3531.000000;2.982924
3530.000000;3.017154
3529.000000;3.210829
3528.000000;3.388645
3527.000000;3.189933
3526.000000;2.958303
3525.000000;2.841914
3524.000000;2.863840
3523.000000;2.925535
3522.000000;2.813203
3521.000000;2.736517
3520.000000;2.861992
3519.000000;3.164022
3518.000000;3.127625
3517.000000;2.989188
3516.000000;3.081307
3515.000000;3.391010
3514.000000;3.537316
3513.000000;3.247222
3512.000000;3.126914
3511.000000;3.119174
3510.000000;3.160923
3509.000000;3.237443
3508.000000;3.187907
3507.000000;3.061795
3506.000000;2.968924
3505.000000;3.049536
3504.000000;3.676358
3503.000000;3.319180
3502.000000;3.021973
3501.000000;3.066076
3500.000000;3.169977
3499.000000;3.352230
3498.000000;3.635861
3497.000000;3.650149
3496.000000;3.443050
3495.000000;3.369373
3494.000000;3.263641
3493.000000;3.095268
3492.000000;2.982442
3491.000000;2.969679
3490.000000;3.107096
3489.000000;3.336797
3488.000000;3.214706
3487.000000;3.023269
3486.000000;2.969578
3485.000000;3.138399
3484.000000;3.444404
3483.000000;3.147447
3482.000000;2.966741
3481.000000;3.093443
3480.000000;3.281320
3479.000000;3.118482
3478.000000;2.993921
3477.000000;3.139754
3476.000000;3.913557
3475.000000;3.438247
3474.000000;3.248835
3473.000000;3.276435
3472.000000;3.336223
3471.000000;3.764845
3470.000000;3.607535
3469.000000;3.304844
3468.000000;3.017830
3467.000000;2.847707
3466.000000;2.824516
3465.000000;2.916516
3464.000000;2.989211
3463.000000;2.892883
3462.000000;2.799581
3461.000000;2.776239
3460.000000;2.818249
3459.000000;2.941142
3458.000000;3.160941
3457.000000;3.324157
3456.000000;3.398758
3455.000000;3.554156
3454.000000;3.531553
3453.000000;3.528999
3452.000000;3.396165
3451.000000;3.128684
3450.000000;3.029523
3449.000000;3.087720
3448.000000;3.179434
3447.000000;3.139665
3446.000000;3.034848
3445.000000;2.946358
3444.000000;2.905268
3443.000000;2.950488
3442.000000;3.088295
3441.000000;3.201861
3440.000000;3.176013
3439.000000;3.093536
3438.000000;3.049113
3437.000000;3.100210
3436.000000;3.206983
3435.000000;3.377755
3434.000000;3.429600
3433.000000;3.127747
3432.000000;2.942371
3431.000000;2.991073
3430.000000;3.128639
3429.000000;2.915041
3428.000000;2.735136
3427.000000;2.718323
3426.000000;2.767402
3425.000000;2.825487
3424.000000;2.840916
3423.000000;2.817342
3422.000000;2.802678
3421.000000;2.814102
3420.000000;2.844060
3419.000000;2.894041
3418.000000;3.008251
3417.000000;3.260839
3416.000000;3.391551
3415.000000;3.319706
3414.000000;3.126758
3413.000000;2.857259
3412.000000;2.731129
3411.000000;2.720777
3410.000000;2.773466
3409.000000;2.789304
3408.000000;2.754758
3407.000000;2.779254
3406.000000;2.915099
3405.000000;3.151474
3404.000000;3.340637
3403.000000;3.386806
3402.000000;3.339109
3401.000000;3.232889
3400.000000;3.141042
3399.000000;3.075852
3398.000000;3.053276
3397.000000;3.081089
3396.000000;3.181353
3395.000000;3.544493
3394.000000;3.633370
3393.000000;3.180456
3392.000000;3.024445
3391.000000;3.033506
3390.000000;3.045465
3389.000000;2.927746
3388.000000;2.846748
3387.000000;2.868631
3386.000000;2.938487
3385.000000;2.958054
3384.000000;2.938417
3383.000000;2.980193
3382.000000;3.109056
3381.000000;3.226849
3380.000000;3.281701
3379.000000;3.431130
3378.000000;3.481833
3377.000000;3.401363
3376.000000;3.583502
3375.000000;3.499129
3374.000000;3.136350
3373.000000;2.909815
3372.000000;2.795017
3371.000000;2.795130
3370.000000;2.895178
3369.000000;2.983683
3368.000000;2.878992
3367.000000;2.754591
3366.000000;2.720837
3365.000000;2.711816
3364.000000;2.648439
3363.000000;2.608747
3362.000000;2.652424
3361.000000;2.762438
3360.000000;2.850161
3359.000000;2.837878
3358.000000;2.846675
3357.000000;2.972006
3356.000000;3.224569
3355.000000;3.580945
3354.000000;3.931152
3353.000000;3.821313
3352.000000;3.525452
3351.000000;3.241217
3350.000000;3.109284
3349.000000;3.131982
3348.000000;3.102000
3347.000000;3.031353
3346.000000;3.085095
3345.000000;3.663194
3344.000000;3.556357
3343.000000;3.128327
3342.000000;3.027187
3341.000000;2.956616
3340.000000;2.871887
3339.000000;2.787825
3338.000000;2.748034
3337.000000;2.785961
3336.000000;2.920052
3335.000000;2.925430
3334.000000;2.794843
3333.000000;2.821365
3332.000000;3.079581
3331.000000;3.724772
3330.000000;3.834293
3329.000000;3.402129
3328.000000;3.147364
3327.000000;3.070095
3326.000000;3.129840
3325.000000;3.239406
3324.000000;3.266169
3323.000000;3.298097
3322.000000;3.404517
3321.000000;3.372083
3320.000000;3.370128
3319.000000;3.269074
3318.000000;3.076274
3317.000000;3.034569
3316.000000;3.278021
3315.000000;3.545858
3314.000000;3.138807
3313.000000;2.997016
3312.000000;2.976556
3311.000000;3.008118
3310.000000;3.159428
3309.000000;3.700648
3308.000000;3.408685
3307.000000;3.075163
3306.000000;2.987870
3305.000000;3.010729
3304.000000;3.127320
3303.000000;3.137492
3302.000000;2.952816
3301.000000;2.852507
3300.000000;2.822284
3299.000000;2.811848
3298.000000;2.812075
3297.000000;2.859778
3296.000000;2.859816
3295.000000;2.749614
3294.000000;2.679011
3293.000000;2.681571
3292.000000;2.725742
3291.000000;2.790783
3290.000000;2.851909
3289.000000;2.833861
3288.000000;2.768623
3287.000000;2.766943
3286.000000;2.863228
3285.000000;3.011971
3284.000000;3.080283
3283.000000;3.098463
3282.000000;3.094745
3281.000000;2.955879
3280.000000;2.791268
3279.000000;2.723733
3278.000000;2.766888
3277.000000;2.911146
3276.000000;3.242548
3275.000000;3.570390
3274.000000;3.269357
3273.000000;3.357036
3272.000000;3.344225
3271.000000;3.162677
3270.000000;3.189130
3269.000000;3.567982
3268.000000;3.363582
3267.000000;3.060511
3266.000000;3.057034
3265.000000;3.084114
3264.000000;3.023523
3263.000000;2.879117
3262.000000;2.761618
3261.000000;2.710321
3260.000000;2.698703
3259.000000;2.674155
3258.000000;2.667774
3257.000000;2.716307
3256.000000;2.785790
3255.000000;2.806262
3254.000000;2.755658
3253.000000;2.683597
3252.000000;2.646362
3251.000000;2.655232
3250.000000;2.664434
3249.000000;2.664694
3248.000000;2.717219
3247.000000;2.847569
3246.000000;3.016263
3245.000000;3.083215
3244.000000;2.986012
3243.000000;2.874435
3242.000000;2.847732
3241.000000;2.910808
3240.000000;3.050554
3239.000000;3.061680
3238.000000;2.812375
3237.000000;2.646844
3236.000000;2.622477
3235.000000;2.676932
3234.000000;2.725252
3233.000000;2.760977
3232.000000;2.830604
3231.000000;2.925164
3230.000000;2.957165
3229.000000;2.939591
3228.000000;2.961197
3227.000000;3.108637
3226.000000;3.388191
3225.000000;3.201618
3224.000000;3.095970
3223.000000;3.120350
3222.000000;3.190612
3221.000000;3.231433
3220.000000;3.246838
3219.000000;3.439979
3218.000000;3.995349
3217.000000;3.946552
3216.000000;3.570741
3215.000000;3.834572
3214.000000;3.422425
3213.000000;2.984906
3212.000000;2.838505
3211.000000;2.821267
3210.000000;2.868744
3209.000000;2.898642
3208.000000;2.936622
3207.000000;2.943061
3206.000000;2.927119
3205.000000;2.947112
3204.000000;3.029092
3203.000000;3.113832
3202.000000;2.957166
3201.000000;2.855373
3200.000000;2.890788
3199.000000;3.024329
3198.000000;3.175869
3197.000000;3.238691
3196.000000;3.026790
3195.000000;2.796486
3194.000000;2.692984
3193.000000;2.680655
3192.000000;2.734170
3191.000000;2.841071
3190.000000;2.987345
3189.000000;3.155852
3188.000000;3.261595
3187.000000;3.219429
3186.000000;3.147150
3185.000000;3.472602
3184.000000;3.537084
3183.000000;3.054962
3182.000000;2.916781
3181.000000;2.944587
3180.000000;3.231742
3179.000000;3.333997
3178.000000;2.918214
3177.000000;2.773305
3176.000000;2.792182
3175.000000;2.888353
3174.000000;2.908558
3173.000000;2.798376
3172.000000;2.702604
3171.000000;2.706135
3170.000000;2.815904
3169.000000;3.009585
3168.000000;3.264257
3167.000000;3.137140
3166.000000;2.894390
3165.000000;2.861866
3164.000000;2.961242
3163.000000;2.944563
3162.000000;2.757604
3161.000000;2.668048
3160.000000;2.683001
3159.000000;2.781934
3158.000000;2.942925
3157.000000;3.127125
3156.000000;3.196263
3155.000000;3.105230
3154.000000;3.029872
3153.000000;3.004979
3152.000000;3.049800
3151.000000;3.209846
3150.000000;3.761929
3149.000000;3.420195
3148.000000;3.167700
3147.000000;3.074024
3146.000000;2.988476
3145.000000;2.835161
3144.000000;2.716569
3143.000000;2.696576
3142.000000;2.733370
3141.000000;2.735313
3140.000000;2.712759
3139.000000;2.732879
3138.000000;2.829901
3137.000000;3.024415
3136.000000;3.268157
3135.000000;3.701120
3134.000000;3.704029
3133.000000;3.163105
3132.000000;2.927766
3131.000000;2.790560
3130.000000;2.726849
3129.000000;2.764452
3128.000000;2.885490
3127.000000;2.957267
3126.000000;2.883217
3125.000000;2.786972
3124.000000;2.759468
3123.000000;2.799358
3122.000000;2.898785
3121.000000;3.107140
3120.000000;3.704057
3119.000000;3.501397
3118.000000;3.346520
3117.000000;3.437862
3116.000000;3.355157
3115.000000;3.279422
3114.000000;3.332375
3113.000000;3.267343
3112.000000;3.044229
3111.000000;2.913527
3110.000000;2.929771
3109.000000;3.076197
3108.000000;3.659344
3107.000000;3.620650
3106.000000;3.135083
3105.000000;3.114618
3104.000000;3.238478
3103.000000;3.854868
3102.000000;3.374695
3101.000000;3.150210
3100.000000;3.191519
3099.000000;3.126264
3098.000000;3.130211
3097.000000;3.540649
3096.000000;3.204216
3095.000000;2.933272
3094.000000;2.862811
3093.000000;2.897123
3092.000000;3.036274
3091.000000;3.244548
3090.000000;3.363977
3089.000000;3.359973
3088.000000;3.328739
3087.000000;3.580187
3086.000000;3.684482
3085.000000;3.316164
3084.000000;3.308277
3083.000000;3.099438
3082.000000;2.902759
3081.000000;2.805588
3080.000000;2.748807
3079.000000;2.736686
3078.000000;2.782594
3077.000000;2.852204
3076.000000;2.849946
3075.000000;2.772571
3074.000000;2.715899
3073.000000;2.731488
3072.000000;2.843302
3071.000000;3.068363
3070.000000;3.117734
3069.000000;3.077684
3068.000000;3.226939
3067.000000;3.601942
3066.000000;3.388254
3065.000000;3.216737
3064.000000;3.345459
3063.000000;3.697978
3062.000000;3.379411
3061.000000;3.098309
3060.000000;2.890649
3059.000000;2.787194
3058.000000;2.777055
3057.000000;2.843104
3056.000000;2.958770
3055.000000;3.065066
3054.000000;3.099706
3053.000000;3.023057
3052.000000;2.882821
3051.000000;2.777248
3050.000000;2.723398
3049.000000;2.678203
3048.000000;2.636763
3047.000000;2.629025
3046.000000;2.679359
3045.000000;2.727660
3044.000000;2.681413
3043.000000;2.669267
3042.000000;2.747816
3041.000000;2.793283
3040.000000;2.798721
3039.000000;2.873154
3038.000000;3.054291
3037.000000;3.453934
3036.000000;3.056818
3035.000000;2.741328
3034.000000;2.666679
3033.000000;2.668620
3032.000000;2.653613
3031.000000;2.671979
3030.000000;2.754175
3029.000000;2.829977
3028.000000;2.923326
3027.000000;3.120497
3026.000000;3.315417
3025.000000;3.504792
3024.000000;4.082821
3023.000000;4.149096
3022.000000;3.529644
3021.000000;3.399733
3020.000000;3.948401
3019.000000;3.310308
3018.000000;3.048133
3017.000000;2.972855
3016.000000;2.833426
3015.000000;2.773526
3014.000000;2.840512
3013.000000;2.902925
3012.000000;2.841968
3011.000000;2.828291
3010.000000;2.894032
3009.000000;2.938525
3008.000000;2.857597
3007.000000;2.737768
3006.000000;2.681170
3005.000000;2.726948
3004.000000;2.868581
3003.000000;2.918975
3002.000000;2.826846
3001.000000;2.806922
3000.000000;2.860810
2999.000000;2.988798
2998.000000;3.219061
2997.000000;3.175440
2996.000000;3.005970
2995.000000;2.957093
2994.000000;2.939394
2993.000000;2.977316
2992.000000;3.205496
2991.000000;3.161543
2990.000000;2.904889
2989.000000;2.879325
2988.000000;3.195321
2987.000000;3.425051
2986.000000;3.021650
2985.000000;3.024459
2984.000000;2.998883
2983.000000;2.811660
2982.000000;2.687526
2981.000000;2.669475
2980.000000;2.764843
2979.000000;2.976920
2978.000000;3.420005
2977.000000;3.145250
2976.000000;2.766974
2975.000000;2.683176
2974.000000;2.652690
2973.000000;2.630635
2972.000000;2.654773
2971.000000;2.769749
2970.000000;2.941043
2969.000000;3.085612
2968.000000;3.623500
2967.000000;3.220164
2966.000000;2.823935
2965.000000;2.728052
2964.000000;2.776758
2963.000000;2.980104
2962.000000;3.072173
2961.000000;2.996689
2960.000000;3.009285
2959.000000;2.995419
2958.000000;2.850346
2957.000000;2.681505
2956.000000;2.581014
2955.000000;2.570110
2954.000000;2.664518
2953.000000;2.875872
2952.000000;3.265129
2951.000000;3.731853
2950.000000;3.293765
2949.000000;2.962352
2948.000000;2.785576
2947.000000;2.756208
2946.000000;2.800610
2945.000000;2.779692
2944.000000;2.751283
2943.000000;2.788998
2942.000000;2.925564
2941.000000;3.061856
2940.000000;2.924798
2939.000000;2.834532
2938.000000;3.027437
2937.000000;3.523122
2936.000000;3.044246
2935.000000;2.867389
2934.000000;2.907228
2933.000000;3.053462
2932.000000;3.266067
2931.000000;3.308422
2930.000000;3.104152
2929.000000;2.892662
2928.000000;2.836882
2927.000000;2.933908
2926.000000;3.186676
2925.000000;3.296870
2924.000000;3.162620
2923.000000;3.226361
2922.000000;3.568016
2921.000000;4.195598
2920.000000;3.943417
2919.000000;3.352596
2918.000000;3.013641
2917.000000;2.925048
2916.000000;3.038871
2915.000000;3.432546
2914.000000;3.754198
2913.000000;3.358794
2912.000000;3.221865
2911.000000;3.257008
2910.000000;3.451658
2909.000000;3.930733
2908.000000;3.291074
2907.000000;2.929747
2906.000000;2.792385
2905.000000;2.770331
2904.000000;2.794766
2903.000000;2.806425
2902.000000;2.822370
2901.000000;2.833557
2900.000000;2.827197
2899.000000;2.836530
2898.000000;2.837988
2897.000000;2.802720
2896.000000;2.816903
2895.000000;2.887744
2894.000000;2.881716
2893.000000;2.824421
2892.000000;2.838115
2891.000000;2.929145
2890.000000;3.044993
2889.000000;3.124674
2888.000000;3.215423
2887.000000;3.473129
2886.000000;3.934330
2885.000000;3.429375
2884.000000;2.937510
2883.000000;2.721676
2882.000000;2.696139
2881.000000;2.817754
2880.000000;3.015272
2879.000000;3.103048
2878.000000;3.036197
2877.000000;2.914430
2876.000000;2.791133
2875.000000;2.716518
2874.000000;2.672212
2873.000000;2.651575
2872.000000;2.681684
2871.000000;2.751890
2870.000000;2.858707
2869.000000;3.059259
2868.000000;3.332062
2867.000000;3.268172
2866.000000;3.034319
2865.000000;2.900146
2864.000000;2.788957
2863.000000;2.713332
2862.000000;2.718960
2861.000000;2.742644
2860.000000;2.796261
2859.000000;2.955419
2858.000000;3.036180
2857.000000;3.048310
2856.000000;3.069610
2855.000000;3.001868
2854.000000;2.870158
2853.000000;2.747786
2852.000000;2.754244
2851.000000;2.871725
2850.000000;2.936441
2849.000000;2.892588
2848.000000;2.837656
2847.000000;2.775474
2846.000000;2.678859
2845.000000;2.587706
2844.000000;2.545629
2843.000000;2.542616
2842.000000;2.560364
2841.000000;2.623104
2840.000000;2.714999
2839.000000;2.701818
2838.000000;2.725229
2837.000000;2.962606
2836.000000;2.923710
2835.000000;2.765395
2834.000000;2.843080
2833.000000;2.943083
2832.000000;2.994835
2831.000000;3.002941
2830.000000;2.868800
2829.000000;2.732179
2828.000000;2.621106
2827.000000;2.525010
2826.000000;2.481521
2825.000000;2.507035
2824.000000;2.592266
2823.000000;2.706064
2822.000000;2.820976
2821.000000;2.931364
2820.000000;2.956601
2819.000000;2.943417
2818.000000;3.077892
2817.000000;3.583152
2816.000000;3.885385
2815.000000;3.346739
2814.000000;3.212306
2813.000000;3.147062
2812.000000;3.150934
2811.000000;3.248621
2810.000000;3.382129
2809.000000;3.235671
2808.000000;2.995813
2807.000000;2.920869
2806.000000;3.044796
2805.000000;3.284832
2804.000000;3.423383
2803.000000;3.455693
2802.000000;3.355443
2801.000000;3.391569
2800.000000;3.286620
2799.000000;3.042537
2798.000000;3.190514
2797.000000;3.563690
2796.000000;3.032774
2795.000000;2.867372
2794.000000;2.887001
2793.000000;2.943384
2792.000000;2.991991
2791.000000;3.048723
2790.000000;3.095373
2789.000000;3.005004
2788.000000;3.027111
2787.000000;3.102931
2786.000000;3.009126
2785.000000;2.943071
2784.000000;3.081945
2783.000000;3.200263
2782.000000;3.028402
2781.000000;2.906270
2780.000000;2.939825
2779.000000;3.318154
2778.000000;3.433258
2777.000000;2.971751
2776.000000;2.784882
2775.000000;2.660526
2774.000000;2.580461
2773.000000;2.575303
2772.000000;2.642136
2771.000000;2.768096
2770.000000;2.912685
2769.000000;3.044645
2768.000000;3.143390
2767.000000;3.124806
2766.000000;3.066226
2765.000000;3.135413
2764.000000;3.172917
2763.000000;2.977987
2762.000000;2.808596
2761.000000;2.714775
2760.000000;2.680047
2759.000000;2.699558
2758.000000;2.729505
2757.000000;2.750162
2756.000000;2.797135
2755.000000;2.884750
2754.000000;2.960116
2753.000000;2.961180
2752.000000;2.909590
2751.000000;2.896466
2750.000000;2.950066
2749.000000;3.156729
2748.000000;3.334150
2747.000000;3.000274
2746.000000;2.782711
2745.000000;2.681653
2744.000000;2.664711
2743.000000;2.769529
2742.000000;2.831213
2741.000000;2.776420
2740.000000;2.781477
2739.000000;2.973396
2738.000000;3.249842
2737.000000;2.952375
2736.000000;2.682547
2735.000000;2.545815
2734.000000;2.496140
2733.000000;2.521730
2732.000000;2.550687
2731.000000;2.515993
2730.000000;2.447191
2729.000000;2.416657
2728.000000;2.437896
2727.000000;2.490995
2726.000000;2.555881
2725.000000;2.598666
2724.000000;2.588915
2723.000000;2.598853
2722.000000;2.681895
2721.000000;2.795272
2720.000000;2.922687
2719.000000;3.135234
2718.000000;3.346599
2717.000000;3.529462
2716.000000;3.624140
2715.000000;3.213131
2714.000000;2.963691
2713.000000;2.927621
2712.000000;3.006305
2711.000000;2.919749
2710.000000;2.752282
2709.000000;2.701973
2708.000000;2.679152
2707.000000;2.628332
2706.000000;2.623829
2705.000000;2.725414
2704.000000;2.916552
2703.000000;3.093262
2702.000000;3.048517
2701.000000;2.866807
2700.000000;2.643902
2699.000000;2.551885
2698.000000;2.588828
2697.000000;2.836006
2696.000000;3.704855
2695.000000;3.264580
2694.000000;3.056566
2693.000000;2.940771
2692.000000;2.783749
2691.000000;2.813119
2690.000000;2.810710
2689.000000;2.740788
2688.000000;2.672026
2687.000000;2.642921
2686.000000;2.656924
2685.000000;2.720555
2684.000000;2.890209
2683.000000;2.893056
2682.000000;2.679469
2681.000000;2.657579
2680.000000;2.812602
2679.000000;2.900940
2678.000000;2.875461
2677.000000;2.971195
2676.000000;3.096920
2675.000000;3.140139
2674.000000;3.148540
2673.000000;2.926730
2672.000000;2.679044
2671.000000;2.550419
2670.000000;2.552482
2669.000000;2.685333
2668.000000;2.842888
2667.000000;2.840543
2666.000000;2.905179
2665.000000;3.138486
2664.000000;3.220438
2663.000000;3.058672
2662.000000;3.263855
2661.000000;3.370655
2660.000000;2.771435
2659.000000;2.616098
2658.000000;2.680623
2657.000000;2.925666
2656.000000;3.454329
2655.000000;3.253320
2654.000000;2.867340
2653.000000;2.706439
2652.000000;2.687507
2651.000000;2.792178
2650.000000;3.010802
2649.000000;3.318949
2648.000000;3.471593
2647.000000;3.135569
2646.000000;2.872291
2645.000000;2.796818
2644.000000;2.913001
2643.000000;3.072075
2642.000000;2.995850
2641.000000;2.890151
2640.000000;2.812645
2639.000000;2.734296
2638.000000;2.691538
2637.000000;2.694839
2636.000000;2.751641
2635.000000;2.873789
2634.000000;3.056199
2633.000000;3.204993
2632.000000;3.098493
2631.000000;2.893819
2630.000000;2.797347
2629.000000;2.860548
2628.000000;3.047918
2627.000000;3.071413
2626.000000;3.000126
2625.000000;3.065743
2624.000000;3.190835
2623.000000;3.194520
2622.000000;3.031762
2621.000000;2.909166
2620.000000;2.887317
2619.000000;2.864409
2618.000000;2.798327
2617.000000;2.791694
2616.000000;2.861475
2615.000000;2.882819
2614.000000;2.818661
2613.000000;2.770991
2612.000000;2.782997
2611.000000;2.853026
2610.000000;2.867819
2609.000000;2.804706
2608.000000;2.802922
2607.000000;3.032589
2606.000000;3.161815
2605.000000;2.833223
2604.000000;2.772871
2603.000000;2.969771
2602.000000;3.347347
2601.000000;3.465388
2600.000000;3.161437
2599.000000;2.895653
2598.000000;2.783231
2597.000000;2.807534
2596.000000;2.897528
2595.000000;2.982676
2594.000000;3.028018
2593.000000;3.072720
2592.000000;2.925612
2591.000000;2.757068
2590.000000;2.718206
2589.000000;2.816842
2588.000000;2.911150
2587.000000;2.841814
2586.000000;2.798055
2585.000000;2.923617
2584.000000;3.388094
2583.000000;3.343472
2582.000000;2.946633
2581.000000;2.798470
2580.000000;2.694103
2579.000000;2.634134
2578.000000;2.653396
2577.000000;2.777061
2576.000000;3.046477
2575.000000;3.452054
2574.000000;3.433883
2573.000000;3.037526
2572.000000;2.856507
2571.000000;2.800945
2570.000000;2.878318
2569.000000;3.486443
2568.000000;3.334823
2567.000000;2.829110
2566.000000;2.709739
2565.000000;2.590322
2564.000000;2.518352
2563.000000;2.519562
2562.000000;2.566627
2561.000000;2.626155
2560.000000;2.676425
2559.000000;2.733930
2558.000000;2.789653
2557.000000;2.881936
2556.000000;3.038097
2555.000000;3.081581
2554.000000;2.972558
2553.000000;3.002034
2552.000000;3.111335
2551.000000;3.002765
2550.000000;2.947815
2549.000000;3.063594
2548.000000;3.006669
2547.000000;2.875736
2546.000000;3.042268
2545.000000;3.368777
2544.000000;2.998698
2543.000000;2.720418
2542.000000;2.615754
2541.000000;2.592997
2540.000000;2.610528
2539.000000;2.634293
2538.000000;2.691515
2537.000000;2.761496
2536.000000;2.775415
2535.000000;2.763455
2534.000000;2.755628
2533.000000;2.742966
2532.000000;2.751929
2531.000000;2.784571
2530.000000;2.775910
2529.000000;2.751349
2528.000000;2.743792
2527.000000;2.692622
2526.000000;2.630574
2525.000000;2.640308
2524.000000;2.734496
2523.000000;2.811910
2522.000000;2.813589
2521.000000;2.859137
2520.000000;2.966795
2519.000000;3.063594
2518.000000;3.116624
2517.000000;3.127419
2516.000000;3.005480
2515.000000;2.910118
2514.000000;2.934185
2513.000000;3.076090
2512.000000;3.541089
2511.000000;3.453341
2510.000000;2.942593
2509.000000;2.760127
2508.000000;2.733513
2507.000000;2.899230
2506.000000;3.130203
2505.000000;2.862596
2504.000000;2.681907
2503.000000;2.658657
2502.000000;2.737267
2501.000000;2.943156
2500.000000;3.183373
2499.000000;3.166602
2498.000000;2.910060
2497.000000;2.734682
2496.000000;2.712950
2495.000000;2.820605
2494.000000;2.965744
2493.000000;2.946771
2492.000000;2.889785
2491.000000;3.062733
2490.000000;3.129018
2489.000000;2.895064
2488.000000;2.907676
2487.000000;3.052894
2486.000000;3.006459
2485.000000;2.942899
2484.000000;3.003376
2483.000000;3.128075
2482.000000;3.275741
2481.000000;3.415900
2480.000000;3.431429
2479.000000;3.213166
2478.000000;2.976012
2477.000000;2.851668
2476.000000;2.866132
2475.000000;2.951844
2474.000000;2.910333
2473.000000;2.819655
2472.000000;2.736089
2471.000000;2.649741
2470.000000;2.634778
2469.000000;2.717537
2468.000000;2.894701
2467.000000;2.998001
2466.000000;3.002204
2465.000000;3.269073
2464.000000;3.205597
2463.000000;2.880272
2462.000000;2.807977
2461.000000;2.801009
2460.000000;2.835142
2459.000000;2.920109
2458.000000;3.036803
2457.000000;3.163163
2456.000000;3.236552
2455.000000;3.285095
2454.000000;3.287253
2453.000000;3.381384
2452.000000;3.646453
2451.000000;3.355567
2450.000000;3.141940
2449.000000;3.113893
2448.000000;3.126296
2447.000000;3.167883
2446.000000;3.282436
2445.000000;3.212883
2444.000000;2.988766
2443.000000;2.924831
2442.000000;2.996850
2441.000000;3.127211
2440.000000;3.161181
2439.000000;3.033050
2438.000000;2.912521
2437.000000;2.868742
2436.000000;2.939737
2435.000000;3.215897
2434.000000;3.335555
2433.000000;3.032196
2432.000000;2.885215
2431.000000;2.881582
2430.000000;2.952538
2429.000000;2.968219
2428.000000;2.884275
2427.000000;2.816146
2426.000000;2.797914
2425.000000;2.760099
2424.000000;2.695813
2423.000000;2.688118
2422.000000;2.762809
2421.000000;2.856677
2420.000000;2.934627
2419.000000;3.029222
2418.000000;2.996005
2417.000000;2.841561
2416.000000;2.724888
2415.000000;2.679725
2414.000000;2.709313
2413.000000;2.754748
2412.000000;2.735105
2411.000000;2.691404
2410.000000;2.685155
2409.000000;2.737800
2408.000000;2.877778
2407.000000;3.052648
2406.000000;3.100524
2405.000000;3.074300
2404.000000;2.982944
2403.000000;2.898227
2402.000000;2.926516
2401.000000;3.078236
2400.000000;3.314321
2399.000000;3.285462
2398.000000;3.036648
2397.000000;2.892912
2396.000000;2.858705
2395.000000;2.878830
2394.000000;2.873991
2393.000000;2.782664
2392.000000;2.692747
2391.000000;2.684939
2390.000000;2.759347
2389.000000;2.892438
2388.000000;3.066409
2387.000000;3.169702
2386.000000;3.069259
2385.000000;2.926596
2384.000000;2.843492
2383.000000;2.852321
2382.000000;2.964058
2381.000000;3.133175
2380.000000;3.236008
2379.000000;3.236619
2378.000000;3.161274
2377.000000;3.041005
2376.000000;3.027530
2375.000000;3.109985
2374.000000;3.068454
2373.000000;3.244744
2372.000000;3.469854
2371.000000;2.986660
2370.000000;2.873758
2369.000000;3.034529
2368.000000;3.327434
2367.000000;3.273256
2366.000000;3.173317
2365.000000;3.270819
2364.000000;3.473458
2363.000000;3.213202
2362.000000;2.954859
2361.000000;2.894089
2360.000000;2.988989
2359.000000;3.132407
2358.000000;3.086163
2357.000000;3.025209
2356.000000;3.053660
2355.000000;3.096137
2354.000000;3.102733
2353.000000;3.128352
2352.000000;3.185790
2351.000000;3.053968
2350.000000;2.897793
2349.000000;2.867157
2348.000000;2.956291
2347.000000;3.238381
2346.000000;3.245528
2345.000000;3.071636
2344.000000;2.990675
2343.000000;2.967848
2342.000000;3.049938
2341.000000;3.210738
2340.000000;3.274016
2339.000000;3.087066
2338.000000;2.916392
2337.000000;2.881686
2336.000000;3.030737
2335.000000;3.302939
2334.000000;3.211130
2333.000000;3.137578
2332.000000;3.273859
2331.000000;3.265132
2330.000000;3.073698
2329.000000;3.000920
2328.000000;2.990564
2327.000000;2.939177
2326.000000;2.819064
2325.000000;2.713550
2324.000000;2.675752
2323.000000;2.718552
2322.000000;2.765552
2321.000000;2.737121
2320.000000;2.735860
2319.000000;2.848789
2318.000000;3.188094
2317.000000;3.306691
2316.000000;3.188515
2315.000000;3.132545
2314.000000;2.929951
2313.000000;2.997022
2312.000000;3.111706
2311.000000;2.799509
2310.000000;2.752813
2309.000000;2.945177
2308.000000;3.059667
2307.000000;2.895976
2306.000000;3.078741
2305.000000;3.146060
2304.000000;2.773528
2303.000000;2.724053
2302.000000;2.878510
2301.000000;2.926647
2300.000000;2.806390
2299.000000;2.865148
2298.000000;3.201491
2297.000000;3.450927
2296.000000;3.076812
2295.000000;2.896886
2294.000000;2.857870
2293.000000;2.899513
2292.000000;2.944714
2291.000000;2.959377
2290.000000;2.963176
2289.000000;2.883373
2288.000000;2.746855
2287.000000;2.649703
2286.000000;2.612247
2285.000000;2.632017
2284.000000;2.684517
2283.000000;2.654344
2282.000000;2.580872
2281.000000;2.602062
2280.000000;2.754026
2279.000000;3.186234
2278.000000;4.018293
2277.000000;3.403282
2276.000000;3.195967
2275.000000;3.074345
2274.000000;3.088165
2273.000000;3.172415
2272.000000;3.578587
2271.000000;3.162773
2270.000000;2.869234
2269.000000;2.889059
2268.000000;2.890626
2267.000000;2.775270
2266.000000;2.712008
2265.000000;2.729299
2264.000000;2.771428
2263.000000;2.858655
2262.000000;3.009354
2261.000000;3.139852
2260.000000;3.121129
2259.000000;3.125374
2258.000000;3.287745
2257.000000;3.444650
2256.000000;3.277146
2255.000000;3.154483
2254.000000;3.136332
2253.000000;3.057995
2252.000000;2.958456
2251.000000;2.922982
2250.000000;2.943907
2249.000000;3.031611
2248.000000;3.180191
2247.000000;3.539817
2246.000000;3.577865
2245.000000;3.266592
2244.000000;3.240801
2243.000000;3.182092
2242.000000;3.062304
2241.000000;3.366268
2240.000000;3.359995
2239.000000;2.887681
2238.000000;2.756720
2237.000000;2.809432
2236.000000;2.993026
2235.000000;3.016848
2234.000000;2.895569
2233.000000;2.868735
2232.000000;2.894038
2231.000000;2.905863
2230.000000;2.898462
2229.000000;2.908674
2228.000000;2.988979
2227.000000;3.197892
2226.000000;3.541410
2225.000000;3.474780
2224.000000;2.986156
2223.000000;2.730613
2222.000000;2.661896
2221.000000;2.709121
2220.000000;2.730686
2219.000000;2.692505
2218.000000;2.717103
2217.000000;2.790565
2216.000000;2.819233
2215.000000;2.808268
2214.000000;2.855609
2213.000000;2.904883
2212.000000;2.783080
2211.000000;2.685335
2210.000000;2.690509
2209.000000;2.759115
2208.000000;2.845334
2207.000000;2.923772
2206.000000;3.017902
2205.000000;3.058051
2204.000000;2.920429
2203.000000;2.834167
2202.000000;2.880183
2201.000000;2.878555
2200.000000;2.759123
2199.000000;2.752804
2198.000000;3.013435
2197.000000;3.514792
2196.000000;3.018795
2195.000000;2.839459
2194.000000;2.816159
2193.000000;2.826614
2192.000000;2.828841
2191.000000;2.890374
2190.000000;3.160092
2189.000000;3.753038
2188.000000;3.562694
2187.000000;3.682949
2186.000000;3.523160
2185.000000;3.268780
2184.000000;3.169127
2183.000000;3.089655
2182.000000;3.080703
2181.000000;3.155860
2180.000000;3.172444
2179.000000;3.028071
2178.000000;2.911573
2177.000000;2.864645
2176.000000;2.821551
2175.000000;2.768008
2174.000000;2.802826
2173.000000;2.899384
2172.000000;2.857043
2171.000000;2.824244
2170.000000;2.909409
2169.000000;3.193968
2168.000000;3.329570
2167.000000;3.053004
2166.000000;3.095185
2165.000000;3.422864
2164.000000;3.832320
2163.000000;4.302000
2162.000000;3.579354
2161.000000;3.165608
2160.000000;3.094615
2159.000000;3.363951
2158.000000;3.592544
2157.000000;3.342993
2156.000000;3.268737
2155.000000;3.015211
2154.000000;2.872204
2153.000000;2.869656
2152.000000;2.941660
2151.000000;2.990918
2150.000000;2.970103
2149.000000;2.939762
2148.000000;2.885280
2147.000000;2.767600
2146.000000;2.667787
2145.000000;2.663831
2144.000000;2.763005
2143.000000;2.881233
2142.000000;2.928637
2141.000000;2.998261
2140.000000;2.994800
2139.000000;2.807687
2138.000000;2.680740
2137.000000;2.647898
2136.000000;2.643546
2135.000000;2.665960
2134.000000;2.737351
2133.000000;2.818024
2132.000000;2.828321
2131.000000;2.796471
2130.000000;2.816386
2129.000000;2.935581
2128.000000;3.107627
2127.000000;3.216417
2126.000000;3.267457
2125.000000;3.267582
2124.000000;3.267964
2123.000000;3.366920
2122.000000;3.167236
2121.000000;2.726529
2120.000000;2.600249
2119.000000;2.671277
2118.000000;2.878711
2117.000000;3.052779
2116.000000;3.111393
2115.000000;3.009771
2114.000000;2.958842
2113.000000;3.003829
2112.000000;2.914033
2111.000000;2.745676
2110.000000;2.671326
2109.000000;2.719670
2108.000000;2.879289
2107.000000;2.903364
2106.000000;2.800644
2105.000000;2.820017
2104.000000;3.159155
2103.000000;3.241278
2102.000000;3.009271
2101.000000;3.023924
2100.000000;2.957105
2099.000000;2.865007
2098.000000;2.891418
2097.000000;2.837429
2096.000000;2.668992
2095.000000;2.616392
2094.000000;2.738033
2093.000000;2.923856
2092.000000;2.798978
2091.000000;2.768623
2090.000000;2.922667
2089.000000;3.187451
2088.000000;3.543561
2087.000000;3.439305
2086.000000;3.123472
2085.000000;3.098949
2084.000000;3.085055
2083.000000;2.982875
2082.000000;2.926403
2081.000000;3.018449
2080.000000;3.063984
2079.000000;2.851832
2078.000000;2.711441
2077.000000;2.695438
2076.000000;2.751782
2075.000000;2.807727
2074.000000;2.803034
2073.000000;2.835167
2072.000000;2.996663
2071.000000;3.083418
2070.000000;2.953945
2069.000000;2.951770
2068.000000;3.201775
2067.000000;3.597273
2066.000000;2.957477
2065.000000;2.766537
2064.000000;2.720001
2063.000000;2.819952
2062.000000;3.117256
2061.000000;3.663483
2060.000000;3.324818
2059.000000;3.022682
2058.000000;2.939771
2057.000000;2.981806
2056.000000;3.089238
2055.000000;3.121307
2054.000000;2.996542
2053.000000;2.863696
2052.000000;2.819677
2051.000000;2.859001
2050.000000;2.954948
2049.000000;3.074696
2048.000000;3.199873
2047.000000;3.170634
2046.000000;2.959657
2045.000000;2.839187
2044.000000;2.817520
2043.000000;2.821803
2042.000000;2.857206
2041.000000;2.898764
2040.000000;2.807885
2039.000000;2.741869
2038.000000;2.788677
2037.000000;2.876604
2036.000000;2.866401
2035.000000;2.821338
2034.000000;2.849360
2033.000000;2.967449
2032.000000;2.965103
2031.000000;2.801797
2030.000000;2.727395
2029.000000;2.763075
2028.000000;2.863982
2027.000000;2.861957
2026.000000;2.795126
2025.000000;2.792613
2024.000000;2.853715
2023.000000;2.986003
2022.000000;3.198286
2021.000000;3.110165
2020.000000;2.913112
2019.000000;2.922417
2018.000000;3.187096
2017.000000;2.837837
2016.000000;2.591806
2015.000000;2.525468
2014.000000;2.534011
2013.000000;2.528559
2012.000000;2.540033
2011.000000;2.641459
2010.000000;2.823452
2009.000000;2.947841
2008.000000;2.975428
2007.000000;2.923859
2006.000000;2.783011
2005.000000;2.718481
2004.000000;2.753991
2003.000000;2.810331
2002.000000;2.831092
2001.000000;2.897059
2000.000000;2.942007
1999.000000;2.905244
1998.000000;2.921031
1997.000000;2.869529
1996.000000;2.837231
1995.000000;2.975709
1994.000000;3.164532
1993.000000;3.349955
1992.000000;3.685373
1991.000000;3.409502
1990.000000;3.522448
1989.000000;3.734093
1988.000000;3.530038
1987.000000;3.569306
1986.000000;3.231500
1985.000000;3.120748
1984.000000;3.096097
1983.000000;2.891586
1982.000000;2.775148
1981.000000;2.818981
1980.000000;3.200568
1979.000000;3.666814
1978.000000;3.176847
1977.000000;3.184248
1976.000000;3.384564
1975.000000;3.921489
1974.000000;3.956939
1973.000000;3.272224
1972.000000;2.929250
1971.000000;2.810494
1970.000000;2.858470
1969.000000;2.938752
1968.000000;2.941417
1967.000000;2.944069
1966.000000;2.918923
1965.000000;2.850230
1964.000000;2.803289
1963.000000;2.791933
1962.000000;2.809429
1961.000000;2.872873
1960.000000;2.961395
1959.000000;3.082754
1958.000000;3.149531
1957.000000;2.962981
1956.000000;2.836797
1955.000000;2.846282
1954.000000;2.902075
1953.000000;2.874875
1952.000000;2.797941
1951.000000;2.794520
1950.000000;2.932037
1949.000000;3.048655
1948.000000;2.963066
1947.000000;2.922096
1946.000000;2.972571
1945.000000;3.081984
1944.000000;3.267700
1943.000000;3.461850
1942.000000;3.334479
1941.000000;3.165975
1940.000000;3.043040
1939.000000;2.887465
1938.000000;2.729294
1937.000000;2.640234
1936.000000;2.634508
1935.000000;2.697755
1934.000000;2.844897
1933.000000;3.025263
1932.000000;3.009123
1931.000000;2.910378
1930.000000;2.824374
1929.000000;2.774023
1928.000000;2.792400
1927.000000;2.885033
1926.000000;3.000692
1925.000000;3.106184
1924.000000;3.337558
1923.000000;3.534857
1922.000000;3.295061
1921.000000;3.013341
1920.000000;2.865872
1919.000000;2.877406
1918.000000;3.145224
1917.000000;3.377505
1916.000000;2.967266
1915.000000;2.779127
1914.000000;2.781498
1913.000000;2.913423
1912.000000;3.151370
1911.000000;3.521374
1910.000000;3.545336
1909.000000;3.387750
1908.000000;3.434882
1907.000000;3.425616
1906.000000;3.273234
1905.000000;3.228611
1904.000000;3.381723
1903.000000;3.389940
1902.000000;3.234373
1901.000000;3.155578
1900.000000;3.098825
1899.000000;3.040943
1898.000000;2.907651
1897.000000;2.823623
1896.000000;2.851821
1895.000000;2.987404
1894.000000;3.288340
1893.000000;3.354414
1892.000000;3.135378
1891.000000;3.061293
1890.000000;2.998740
1889.000000;2.926340
1888.000000;2.937267
1887.000000;2.953410
1886.000000;2.952502
1885.000000;3.065859
1884.000000;2.904555
1883.000000;2.700281
1882.000000;2.660037
1881.000000;2.737821
1880.000000;2.917860
1879.000000;2.999575
1878.000000;2.964447
1877.000000;3.006245
1876.000000;2.969634
1875.000000;2.931473
1874.000000;2.997074
1873.000000;3.123913
1872.000000;3.257383
1871.000000;3.247430
1870.000000;3.174151
1869.000000;3.156131
1868.000000;3.498327
1867.000000;3.468658
1866.000000;2.962993
1865.000000;2.761541
1864.000000;2.788793
1863.000000;3.308333
1862.000000;3.068087
1861.000000;2.722539
1860.000000;2.703383
1859.000000;2.801066
1858.000000;2.879761
1857.000000;2.816337
1856.000000;2.798865
1855.000000;2.844566
1854.000000;2.802493
1853.000000;2.723721
1852.000000;2.760413
1851.000000;2.948637
1850.000000;3.179804
1849.000000;3.189818
1848.000000;3.035252
1847.000000;2.939738
1846.000000;2.938566
1845.000000;2.883923
1844.000000;2.803396
1843.000000;2.799745
1842.000000;2.838962
1841.000000;2.837487
1840.000000;2.754658
1839.000000;2.628122
1838.000000;2.538236
1837.000000;2.526755
1836.000000;2.590266
1835.000000;2.615384
1834.000000;2.577583
1833.000000;2.583054
1832.000000;2.773450
1831.000000;3.253806
1830.000000;2.923386
1829.000000;2.789811
1828.000000;2.862938
1827.000000;2.936791
1826.000000;2.945016
1825.000000;2.907526
1824.000000;2.921004
1823.000000;3.000254
1822.000000;3.135305
1821.000000;3.089722
1820.000000;2.907402
1819.000000;2.858415
1818.000000;2.922778
1817.000000;3.025666
1816.000000;3.076901
1815.000000;2.989821
1814.000000;2.814135
1813.000000;2.672138
1812.000000;2.637799
1811.000000;2.709941
1810.000000;2.884477
1809.000000;3.190704
1808.000000;3.282621
1807.000000;3.247025
1806.000000;3.240214
1805.000000;2.930532
1804.000000;2.720473
1803.000000;2.682340
1802.000000;2.803377
1801.000000;3.194212
1800.000000;3.575144
1799.000000;3.175754
1798.000000;3.088209
1797.000000;3.155188
1796.000000;3.240405
1795.000000;3.028669
1794.000000;2.804910
1793.000000;2.741646
1792.000000;2.818409
1791.000000;2.990557
1790.000000;3.036096
1789.000000;2.956789
1788.000000;2.966117
1787.000000;3.068317
1786.000000;3.288548
1785.000000;3.803396
1784.000000;3.385370
1783.000000;3.091447
1782.000000;3.071565
1781.000000;3.077181
1780.000000;3.087178
1779.000000;3.144183
1778.000000;3.200832
1777.000000;3.149080
1776.000000;3.045151
1775.000000;2.987222
1774.000000;3.003559
1773.000000;3.129543
1772.000000;3.302653
1771.000000;3.296733
1770.000000;3.391876
1769.000000;3.657851
1768.000000;3.328687
1767.000000;3.071854
1766.000000;2.958042
1765.000000;2.937949
1764.000000;3.235428
1763.000000;3.429530
1762.000000;3.044891
1761.000000;2.968692
1760.000000;3.036584
1759.000000;3.152901
1758.000000;3.141375
1757.000000;3.109589
1756.000000;3.399220
1755.000000;3.445893
1754.000000;3.023573
1753.000000;2.881335
1752.000000;2.855689
1751.000000;2.839031
1750.000000;2.905214
1749.000000;3.063860
1748.000000;3.207369
1747.000000;3.160521
1746.000000;3.007088
1745.000000;2.909139
1744.000000;2.931345
1743.000000;3.033362
1742.000000;3.124530
1741.000000;3.227912
1740.000000;3.108325
1739.000000;2.883324
1738.000000;2.818838
1737.000000;2.905967
1736.000000;3.012413
1735.000000;2.860096
1734.000000;2.714942
1733.000000;2.680493
1732.000000;2.765517
1731.000000;3.070402
1730.000000;3.106549
1729.000000;3.006726
1728.000000;3.315481
1727.000000;3.694665
1726.000000;3.300422
1725.000000;3.249979
1724.000000;3.587361
1723.000000;3.654852
1722.000000;3.462211
1721.000000;3.434487
1720.000000;3.364874
1719.000000;3.230037
1718.000000;3.189464
1717.000000;3.241444
1716.000000;3.290318
1715.000000;3.360062
1714.000000;3.355065
1713.000000;3.558428
1712.000000;3.750097
1711.000000;3.189460
1710.000000;3.038628
1709.000000;3.008981
1708.000000;2.950823
1707.000000;2.951727
1706.000000;3.009115
1705.000000;3.044776
1704.000000;2.967829
1703.000000;2.816219
1702.000000;2.683674
1701.000000;2.638227
1700.000000;2.727290
1699.000000;2.947152
1698.000000;3.032680
1697.000000;2.964448
1696.000000;2.980346
1695.000000;3.020916
1694.000000;3.124716
1693.000000;3.089180
1692.000000;2.912943
1691.000000;2.920322
1690.000000;3.296713
1689.000000;3.569278
1688.000000;2.997693
1687.000000;2.807107
1686.000000;2.746072
1685.000000;2.782749
1684.000000;2.803941
1683.000000;2.782920
1682.000000;2.836173
1681.000000;2.924043
1680.000000;2.965982
1679.000000;2.901107
1678.000000;2.865064
1677.000000;2.911636
1676.000000;2.989935
1675.000000;2.986675
1674.000000;2.916984
1673.000000;2.905537
1672.000000;3.024315
1671.000000;3.008797
1670.000000;2.890019
1669.000000;2.860262
1668.000000;2.808541
1667.000000;2.737481
1666.000000;2.726768
1665.000000;2.772806
1664.000000;2.808623
1663.000000;2.840769
1662.000000;2.894520
1661.000000;2.932066
1660.000000;2.947316
1659.000000;2.971926
1658.000000;2.930741
1657.000000;2.834361
1656.000000;2.771662
1655.000000;2.736837
1654.000000;2.731943
1653.000000;2.779177
1652.000000;2.863487
1651.000000;2.789198
1650.000000;2.744353
1649.000000;2.748929
1648.000000;2.641488
1647.000000;2.594483
1646.000000;2.606807
1645.000000;2.630565
1644.000000;2.645881
1643.000000;2.687101
1642.000000;2.779411
1641.000000;3.111441
1640.000000;3.791775
1639.000000;3.365444
1638.000000;3.341858
1637.000000;3.351905
1636.000000;3.302925
1635.000000;3.354908
1634.000000;3.245501
1633.000000;3.155296
1632.000000;3.415125
1631.000000;3.142895
1630.000000;2.743312
1629.000000;2.663737
1628.000000;2.703773
1627.000000;2.808711
1626.000000;2.924479
1625.000000;2.948491
1624.000000;2.855544
1623.000000;2.768926
1622.000000;2.810970
1621.000000;3.011150
1620.000000;2.977684
1619.000000;2.812894
1618.000000;2.833618
1617.000000;3.033156
1616.000000;3.503756
1615.000000;3.476350
1614.000000;3.189729
1613.000000;3.095819
1612.000000;3.059037
1611.000000;3.159646
1610.000000;3.257253
1609.000000;3.312958
1608.000000;3.439620
1607.000000;3.228311
1606.000000;3.104678
1605.000000;3.249683
1604.000000;3.226618
1603.000000;3.066158
1602.000000;3.063722
1601.000000;3.006264
1600.000000;2.954644
1599.000000;3.240035
1598.000000;3.387949
1597.000000;2.945737
1596.000000;2.794249
1595.000000;2.804815
1594.000000;2.882895
1593.000000;2.905695
1592.000000;2.767518
1591.000000;2.632364
1590.000000;2.586395
1589.000000;2.656464
1588.000000;2.812293
1587.000000;2.822559
1586.000000;2.737459
1585.000000;2.768287
1584.000000;2.947078
1583.000000;3.304167
1582.000000;3.402462
1581.000000;2.977477
1580.000000;2.717851
1579.000000;2.637394
1578.000000;2.710046
1577.000000;3.068414
1576.000000;3.276659
1575.000000;2.851908
1574.000000;2.683660
1573.000000;2.627482
1572.000000;2.635578
1571.000000;2.692945
1570.000000;2.741843
1569.000000;2.744043
1568.000000;2.702471
1567.000000;2.722916
1566.000000;2.885565
1565.000000;2.832969
1564.000000;2.650112
1563.000000;2.600451
1562.000000;2.653590
1561.000000;2.708993
1560.000000;2.909319
1559.000000;3.213518
1558.000000;2.922272
1557.000000;2.725698
1556.000000;2.597805
1555.000000;2.560159
1554.000000;2.567470
1553.000000;2.596209
1552.000000;2.701736
1551.000000;2.897856
1550.000000;3.326396
1549.000000;3.501077
1548.000000;3.157149
1547.000000;2.968033
1546.000000;2.816279
1545.000000;2.722463
1544.000000;2.732964
1543.000000;2.782589
1542.000000;2.835874
1541.000000;2.887038
1540.000000;3.066904
1539.000000;3.642561
1538.000000;3.208978
1537.000000;2.852570
1536.000000;2.690524
1535.000000;2.618181
1534.000000;2.685238
1533.000000;2.886215
1532.000000;2.982175
1531.000000;2.693762
1530.000000;2.539439
1529.000000;2.583992
1528.000000;2.861029
1527.000000;3.308377
1526.000000;3.196590
1525.000000;3.132847
1524.000000;3.252955
1523.000000;3.274266
1522.000000;3.100007
1521.000000;3.104115
1520.000000;3.491584
1519.000000;3.261558
1518.000000;3.011553
1517.000000;3.106353
1516.000000;3.156505
1515.000000;3.161679
1514.000000;3.272400
1513.000000;3.346884
1512.000000;3.270317
1511.000000;3.299286
1510.000000;3.321392
1509.000000;3.141953
1508.000000;3.033437
1507.000000;3.002977
1506.000000;2.978099
1505.000000;2.879780
1504.000000;2.796491
1503.000000;2.929996
1502.000000;3.227470
1501.000000;3.173762
1500.000000;2.990593
1499.000000;2.859499
1498.000000;2.743834
1497.000000;2.654827
1496.000000;2.622178
1495.000000;2.693555
1494.000000;2.861856
1493.000000;2.889079
1492.000000;2.856430
1491.000000;3.069941
1490.000000;3.229147
1489.000000;3.025094
1488.000000;3.024677
1487.000000;3.049888
1486.000000;2.777355
1485.000000;2.565352
1484.000000;2.530572
1483.000000;2.628083
1482.000000;2.695171
1481.000000;2.635335
1480.000000;2.750757
1479.000000;2.998317
1478.000000;2.678384
1477.000000;2.496774
1476.000000;2.515187
1475.000000;2.635443
1474.000000;2.809371
1473.000000;2.904447
1472.000000;2.879551
1471.000000;2.774379
1470.000000;2.704377
1469.000000;2.735947
1468.000000;2.849393
1467.000000;2.875611
1466.000000;2.777983
1465.000000;2.732203
1464.000000;2.857011
1463.000000;3.053017
1462.000000;2.869957
1461.000000;2.724879
1460.000000;2.789985
1459.000000;2.894795
1458.000000;2.879302
1457.000000;2.837045
1456.000000;2.843053
1455.000000;2.843520
1454.000000;2.887637
1453.000000;3.050996
1452.000000;3.460593
1451.000000;4.074395
1450.000000;3.276382
1449.000000;2.892212
1448.000000;2.716739
1447.000000;2.671742
1446.000000;2.793477
1445.000000;3.015184
1444.000000;2.836210
1443.000000;2.682400
1442.000000;2.697689
1441.000000;2.762610
1440.000000;3.079447
1439.000000;3.358846
1438.000000;2.973952
1437.000000;2.822695
1436.000000;2.739370
1435.000000;2.687616
1434.000000;2.676943
1433.000000;2.766393
1432.000000;3.073621
1431.000000;3.181444
1430.000000;2.940482
1429.000000;2.848551
1428.000000;2.837945
1427.000000;2.827828
1426.000000;2.762429
1425.000000;2.683999
1424.000000;2.671086
1423.000000;2.722926
1422.000000;2.803002
1421.000000;2.880018
1420.000000;2.951948
1419.000000;3.111079
1418.000000;3.388630
1417.000000;3.336621
1416.000000;2.977527
1415.000000;2.808849
1414.000000;2.952978
1413.000000;2.954605
1412.000000;2.672612
1411.000000;2.615937
1410.000000;2.719588
1409.000000;3.039196
1408.000000;3.102893
1407.000000;2.823209
1406.000000;2.696993
1405.000000;2.760234
1404.000000;3.216820
1403.000000;2.887030
1402.000000;2.546411
1401.000000;2.531889
1400.000000;2.698041
1399.000000;2.663181
1398.000000;2.494169
1397.000000;2.465330
1396.000000;2.549925
1395.000000;2.740061
1394.000000;2.908702
1393.000000;2.860577
1392.000000;2.743146
1391.000000;2.645792
1390.000000;2.581614
1389.000000;2.535635
1388.000000;2.512363
1387.000000;2.508356
1386.000000;2.517962
1385.000000;2.590274
1384.000000;2.636167
1383.000000;2.577647
1382.000000;2.565665
1381.000000;2.645188
1380.000000;2.763560
1379.000000;2.777301
1378.000000;2.671823
1377.000000;2.614590
1376.000000;2.637000
1375.000000;2.826079
1374.000000;3.308211
1373.000000;3.202108
1372.000000;2.990802
1371.000000;2.796090
1370.000000;2.597084
1369.000000;2.511590
1368.000000;2.515059
1367.000000;2.582236
1366.000000;2.701948
1365.000000;2.827511
1364.000000;2.818480
1363.000000;2.771649
1362.000000;2.738554
1361.000000;2.673065
1360.000000;2.636535
1359.000000;2.753078
1358.000000;2.938475
1357.000000;2.773911
1356.000000;2.634865
1355.000000;2.738204
1354.000000;3.255909
1353.000000;3.168575
1352.000000;2.854282
1351.000000;2.849410
1350.000000;2.750580
1349.000000;2.547792
1348.000000;2.421210
1347.000000;2.410865
1346.000000;2.453173
1345.000000;2.451234
1344.000000;2.465544
1343.000000;2.574958
1342.000000;2.815296
1341.000000;3.131890
1340.000000;2.987607
1339.000000;2.801075
1338.000000;2.787148
1337.000000;2.846296
1336.000000;2.856875
1335.000000;2.764692
1334.000000;2.619128
1333.000000;2.470833
1332.000000;2.373222
1331.000000;2.341878
1330.000000;2.388318
1329.000000;2.458371
1328.000000;2.457858
1327.000000;2.456296
1326.000000;2.594906
1325.000000;2.998785
1324.000000;2.913203
1323.000000;2.731474
1322.000000;2.775869
1321.000000;2.851810
1320.000000;2.891124
1319.000000;2.839379
1318.000000;2.865599
1317.000000;3.072144
1316.000000;2.972208
1315.000000;2.674488
1314.000000;2.559209
1313.000000;2.593915
1312.000000;2.712949
1311.000000;2.691472
1310.000000;2.589320
1309.000000;2.590379
1308.000000;2.678184
1307.000000;2.906771
1306.000000;3.229255
1305.000000;2.959431
1304.000000;2.762068
1303.000000;2.844983
1302.000000;3.081989
1301.000000;3.080492
1300.000000;3.024487
1299.000000;3.196468
1298.000000;3.763514
1297.000000;3.532650
1296.000000;2.895576
1295.000000;2.587137
1294.000000;2.479715
1293.000000;2.536497
1292.000000;2.853771
1291.000000;3.359635
1290.000000;2.774837
1289.000000;2.695146
1288.000000;2.735666
1287.000000;2.655052
1286.000000;2.604554
1285.000000;2.649304
1284.000000;2.717322
1283.000000;2.803845
1282.000000;2.972070
1281.000000;3.067329
1280.000000;3.015310
1279.000000;2.939461
1278.000000;2.878886
1277.000000;2.957135
1276.000000;3.019553
1275.000000;2.802850
1274.000000;2.677788
1273.000000;2.681791
1272.000000;2.733713
1271.000000;2.830893
1270.000000;2.996055
1269.000000;3.190799
1268.000000;3.007941
1267.000000;2.836054
1266.000000;2.797184
1265.000000;2.749813
1264.000000;2.655024
1263.000000;2.590422
1262.000000;2.611277
1261.000000;2.724085
1260.000000;2.862615
1259.000000;3.082807
1258.000000;3.545032
1257.000000;3.276471
1256.000000;2.987755
1255.000000;3.225808
1254.000000;3.462109
1253.000000;2.787906
1252.000000;2.547559
1251.000000;2.430269
1250.000000;2.380877
1249.000000;2.386901
1248.000000;2.434713
1247.000000;2.493054
1246.000000;2.521544
1245.000000;2.511887
1244.000000;2.494173
1243.000000;2.511964
1242.000000;2.544384
1241.000000;2.488193
1240.000000;2.428831
1239.000000;2.510513
1238.000000;2.805841
1237.000000;2.926945
1236.000000;2.829685
1235.000000;3.091886
1234.000000;3.531552
1233.000000;3.123108
1232.000000;3.376303
1231.000000;3.401167
1230.000000;3.073853
1229.000000;2.926044
1228.000000;2.671970
1227.000000;2.569115
1226.000000;2.645375
1225.000000;2.873885
1224.000000;3.184583
1223.000000;3.247679
1222.000000;3.105503
1221.000000;3.112868
1220.000000;3.316162
1219.000000;3.481995
1218.000000;3.192816
1217.000000;3.010906
1216.000000;2.930486
1215.000000;2.965784
1214.000000;3.042002
1213.000000;2.736170
1212.000000;2.563186
1211.000000;2.546895
1210.000000;2.594816
1209.000000;2.617226
1208.000000;2.574279
1207.000000;2.519060
1206.000000;2.550366
1205.000000;2.611736
1204.000000;2.466352
1203.000000;2.349092
1202.000000;2.403124
1201.000000;2.614150
1200.000000;2.701781
