Criado como novo conjunto de dados;"1909daniel.spp","-4254283.2 Secs"
cm-1;Abs
10000.000000;1.867277
9999.000000;1.865571
9998.000000;1.863942
9997.000000;1.862155
9996.000000;1.861386
9995.000000;1.862654
9994.000000;1.864529
9993.000000;1.865025
9992.000000;1.863103
9991.000000;1.859661
9990.000000;1.857099
9989.000000;1.857197
9988.000000;1.859175
9987.000000;1.860263
9986.000000;1.858627
9985.000000;1.855247
9984.000000;1.852429
9983.000000;1.851375
9982.000000;1.851764
9981.000000;1.852557
9980.000000;1.852240
9979.000000;1.849396
9978.000000;1.844454
9977.000000;1.840153
9976.000000;1.839057
9975.000000;1.840976
9974.000000;1.843499
9973.000000;1.844800
9972.000000;1.845038
9971.000000;1.845243
9970.000000;1.846109
9969.000000;1.847809
9968.000000;1.849594
9967.000000;1.849462
9966.000000;1.845738
9965.000000;1.839393
9964.000000;1.833465
9963.000000;1.829899
9962.000000;1.828218
9961.000000;1.827524
9960.000000;1.828178
9959.000000;1.830443
9958.000000;1.833065
9957.000000;1.834861
9956.000000;1.836593
9955.000000;1.839473
9954.000000;1.842575
9953.000000;1.843633
9952.000000;1.842062
9951.000000;1.839257
9950.000000;1.836115
9949.000000;1.832499
9948.000000;1.829339
9947.000000;1.828820
9946.000000;1.831302
9945.000000;1.833748
9944.000000;1.832873
9943.000000;1.829023
9942.000000;1.825242
9941.000000;1.823394
9940.000000;1.822820
9939.000000;1.822192
9938.000000;1.821049
9937.000000;1.819392
9936.000000;1.817095
9935.000000;1.814497
9934.000000;1.812812
9933.000000;1.813184
9932.000000;1.815400
9931.000000;1.817932
9930.000000;1.819201
9929.000000;1.818588
9928.000000;1.816343
9927.000000;1.813036
9926.000000;1.809578
9925.000000;1.807365
9924.000000;1.807547
9923.000000;1.809853
9922.000000;1.812354
9921.000000;1.813102
9920.000000;1.812174
9919.000000;1.811364
9918.000000;1.811686
9917.000000;1.811981
9916.000000;1.810391
9915.000000;1.806534
9914.000000;1.801512
9913.000000;1.796422
9912.000000;1.792127
9911.000000;1.790061
9910.000000;1.791702
9909.000000;1.796747
9908.000000;1.802690
9907.000000;1.806896
9906.000000;1.808777
9905.000000;1.809407
9904.000000;1.809515
9903.000000;1.808787
9902.000000;1.806984
9901.000000;1.804770
9900.000000;1.803171
9899.000000;1.802617
9898.000000;1.802661
9897.000000;1.802593
9896.000000;1.802235
9895.000000;1.801905
9894.000000;1.801444
9893.000000;1.799743
9892.000000;1.795867
9891.000000;1.790608
9890.000000;1.786306
9889.000000;1.784868
9888.000000;1.786293
9887.000000;1.789155
9886.000000;1.792016
9885.000000;1.794165
9884.000000;1.795465
9883.000000;1.795912
9882.000000;1.795185
9881.000000;1.792577
9880.000000;1.787783
9879.000000;1.781825
9878.000000;1.776640
9877.000000;1.773591
9876.000000;1.772878
9875.000000;1.774306
9874.000000;1.777650
9873.000000;1.781865
9872.000000;1.784987
9871.000000;1.785711
9870.000000;1.784517
9869.000000;1.782570
9868.000000;1.780189
9867.000000;1.777313
9866.000000;1.774621
9865.000000;1.772819
9864.000000;1.771316
9863.000000;1.769115
9862.000000;1.766850
9861.000000;1.766285
9860.000000;1.767586
9859.000000;1.768728
9858.000000;1.768212
9857.000000;1.767067
9856.000000;1.767096
9855.000000;1.768053
9854.000000;1.767810
9853.000000;1.765066
9852.000000;1.760913
9851.000000;1.757645
9850.000000;1.756780
9849.000000;1.758190
9848.000000;1.760457
9847.000000;1.761905
9846.000000;1.761694
9845.000000;1.760120
9844.000000;1.758022
9843.000000;1.756238
9842.000000;1.755640
9841.000000;1.756912
9840.000000;1.759543
9839.000000;1.761352
9838.000000;1.760002
9837.000000;1.755522
9836.000000;1.750832
9835.000000;1.749179
9834.000000;1.751180
9833.000000;1.754457
9832.000000;1.756012
9831.000000;1.754832
9830.000000;1.752117
9829.000000;1.749393
9828.000000;1.747143
9827.000000;1.745303
9826.000000;1.744193
9825.000000;1.744174
9824.000000;1.744845
9823.000000;1.745384
9822.000000;1.745618
9821.000000;1.746151
9820.000000;1.747273
9819.000000;1.748207
9818.000000;1.747778
9817.000000;1.745695
9816.000000;1.742921
9815.000000;1.740860
9814.000000;1.740264
9813.000000;1.740835
9812.000000;1.741752
9811.000000;1.742548
9810.000000;1.743254
9809.000000;1.743618
9808.000000;1.742774
9807.000000;1.740182
9806.000000;1.736523
9805.000000;1.732991
9804.000000;1.729927
9803.000000;1.726993
9802.000000;1.724610
9801.000000;1.724023
9800.000000;1.725511
9799.000000;1.727358
9798.000000;1.727388
9797.000000;1.725204
9796.000000;1.722331
9795.000000;1.720647
9794.000000;1.721214
9793.000000;1.723977
9792.000000;1.727675
9791.000000;1.730108
9790.000000;1.729353
9789.000000;1.725327
9788.000000;1.720108
9787.000000;1.716526
9786.000000;1.716123
9785.000000;1.718032
9784.000000;1.719817
9783.000000;1.719922
9782.000000;1.719338
9781.000000;1.720168
9780.000000;1.722486
9779.000000;1.723602
9778.000000;1.721000
9777.000000;1.715361
9776.000000;1.709862
9775.000000;1.706985
9774.000000;1.706715
9773.000000;1.707331
9772.000000;1.707204
9771.000000;1.706018
9770.000000;1.704707
9769.000000;1.704286
9768.000000;1.704674
9767.000000;1.704911
9766.000000;1.704698
9765.000000;1.705057
9764.000000;1.706807
9763.000000;1.709089
9762.000000;1.710263
9761.000000;1.709851
9760.000000;1.708562
9759.000000;1.706758
9758.000000;1.704192
9757.000000;1.701227
9756.000000;1.699106
9755.000000;1.698657
9754.000000;1.699619
9753.000000;1.701421
9752.000000;1.703556
9751.000000;1.704815
9750.000000;1.703486
9749.000000;1.699387
9748.000000;1.694841
9747.000000;1.692516
9746.000000;1.692693
9745.000000;1.693323
9744.000000;1.692368
9743.000000;1.689351
9742.000000;1.685039
9741.000000;1.680808
9740.000000;1.678398
9739.000000;1.679162
9738.000000;1.682815
9737.000000;1.687258
9736.000000;1.690196
9735.000000;1.690932
9734.000000;1.690341
9733.000000;1.689353
9732.000000;1.687934
9731.000000;1.685535
9730.000000;1.682224
9729.000000;1.679104
9728.000000;1.677438
9727.000000;1.677285
9726.000000;1.677193
9725.000000;1.675576
9724.000000;1.672403
9723.000000;1.669260
9722.000000;1.667794
9721.000000;1.668470
9720.000000;1.670596
9719.000000;1.672898
9718.000000;1.674016
9717.000000;1.673274
9716.000000;1.671483
9715.000000;1.670459
9714.000000;1.671171
9713.000000;1.672607
9712.000000;1.672953
9711.000000;1.671705
9710.000000;1.669940
9709.000000;1.668665
9708.000000;1.667796
9707.000000;1.666945
9706.000000;1.666368
9705.000000;1.666505
9704.000000;1.667036
9703.000000;1.667101
9702.000000;1.666376
9701.000000;1.665420
9700.000000;1.664853
9699.000000;1.664512
9698.000000;1.663540
9697.000000;1.661302
9696.000000;1.658221
9695.000000;1.655634
9694.000000;1.654695
9693.000000;1.655366
9692.000000;1.656647
9691.000000;1.657719
9690.000000;1.658382
9689.000000;1.658350
9688.000000;1.656939
9687.000000;1.654011
9686.000000;1.650755
9685.000000;1.648920
9684.000000;1.649352
9683.000000;1.651532
9682.000000;1.654181
9681.000000;1.655911
9680.000000;1.655740
9679.000000;1.653821
9678.000000;1.651576
9677.000000;1.650374
9676.000000;1.650006
9675.000000;1.648943
9674.000000;1.646130
9673.000000;1.642108
9672.000000;1.638337
9671.000000;1.635980
9670.000000;1.635372
9669.000000;1.636038
9668.000000;1.636985
9667.000000;1.637387
9666.000000;1.637240
9665.000000;1.637092
9664.000000;1.637214
9663.000000;1.637493
9662.000000;1.637958
9661.000000;1.638717
9660.000000;1.639326
9659.000000;1.638981
9658.000000;1.637597
9657.000000;1.635982
9656.000000;1.634662
9655.000000;1.633247
9654.000000;1.631423
9653.000000;1.629854
9652.000000;1.629383
9651.000000;1.629800
9650.000000;1.630090
9649.000000;1.629628
9648.000000;1.628583
9647.000000;1.627476
9646.000000;1.626876
9645.000000;1.627091
9644.000000;1.627526
9643.000000;1.626737
9642.000000;1.623905
9641.000000;1.620227
9640.000000;1.618035
9639.000000;1.618404
9638.000000;1.620228
9637.000000;1.621592
9636.000000;1.621421
9635.000000;1.619794
9634.000000;1.617547
9633.000000;1.615862
9632.000000;1.615508
9631.000000;1.616131
9630.000000;1.616614
9629.000000;1.616279
9628.000000;1.615497
9627.000000;1.615035
9626.000000;1.615228
9625.000000;1.615866
9624.000000;1.616339
9623.000000;1.615740
9622.000000;1.613474
9621.000000;1.610275
9620.000000;1.608118
9619.000000;1.608484
9618.000000;1.610764
9617.000000;1.612642
9616.000000;1.612134
9615.000000;1.609343
9614.000000;1.606319
9613.000000;1.605193
9612.000000;1.606228
9611.000000;1.607528
9610.000000;1.606980
9609.000000;1.604632
9608.000000;1.602661
9607.000000;1.602794
9606.000000;1.604374
9605.000000;1.605337
9604.000000;1.604653
9603.000000;1.603170
9602.000000;1.602131
9601.000000;1.601631
9600.000000;1.600775
9599.000000;1.598910
9598.000000;1.596502
9597.000000;1.594847
9596.000000;1.594888
9595.000000;1.596262
9594.000000;1.597502
9593.000000;1.597326
9592.000000;1.595720
9591.000000;1.593649
9590.000000;1.591958
9589.000000;1.590782
9588.000000;1.589851
9587.000000;1.589193
9586.000000;1.589385
9585.000000;1.590893
9584.000000;1.593008
9583.000000;1.593811
9582.000000;1.591987
9581.000000;1.588635
9580.000000;1.586368
9579.000000;1.586398
9578.000000;1.587308
9577.000000;1.587119
9576.000000;1.585753
9575.000000;1.584556
9574.000000;1.584102
9573.000000;1.583834
9572.000000;1.583541
9571.000000;1.583771
9570.000000;1.584553
9569.000000;1.584916
9568.000000;1.584202
9567.000000;1.582984
9566.000000;1.582065
9565.000000;1.581302
9564.000000;1.580082
9563.000000;1.578417
9562.000000;1.576851
9561.000000;1.575640
9560.000000;1.574641
9559.000000;1.573791
9558.000000;1.573222
9557.000000;1.572978
9556.000000;1.572975
9555.000000;1.572938
9554.000000;1.572213
9553.000000;1.570246
9552.000000;1.567672
9551.000000;1.566220
9550.000000;1.566821
9549.000000;1.568279
9548.000000;1.568588
9547.000000;1.567320
9546.000000;1.565823
9545.000000;1.565242
9544.000000;1.565405
9543.000000;1.565613
9542.000000;1.565484
9541.000000;1.564739
9540.000000;1.563149
9539.000000;1.561274
9538.000000;1.560424
9537.000000;1.561176
9536.000000;1.562376
9535.000000;1.562283
9534.000000;1.560478
9533.000000;1.558096
9532.000000;1.556432
9531.000000;1.555919
9530.000000;1.556177
9529.000000;1.556262
9528.000000;1.554936
9527.000000;1.551585
9526.000000;1.547304
9525.000000;1.544470
9524.000000;1.544733
9523.000000;1.547529
9522.000000;1.550734
9521.000000;1.552673
9520.000000;1.553269
9519.000000;1.553326
9518.000000;1.553315
9517.000000;1.553160
9516.000000;1.552798
9515.000000;1.552364
9514.000000;1.551779
9513.000000;1.550646
9512.000000;1.548801
9511.000000;1.546702
9510.000000;1.544981
9509.000000;1.543827
9508.000000;1.543054
9507.000000;1.542549
9506.000000;1.542352
9505.000000;1.542430
9504.000000;1.542701
9503.000000;1.543158
9502.000000;1.543539
9501.000000;1.542958
9500.000000;1.540564
9499.000000;1.536809
9498.000000;1.533517
9497.000000;1.532296
9496.000000;1.533137
9495.000000;1.534726
9494.000000;1.535851
9493.000000;1.536257
9492.000000;1.536387
9491.000000;1.536728
9490.000000;1.537363
9489.000000;1.537800
9488.000000;1.537293
9487.000000;1.535586
9486.000000;1.533211
9485.000000;1.530866
9484.000000;1.528718
9483.000000;1.526648
9482.000000;1.524859
9481.000000;1.523649
9480.000000;1.522835
9479.000000;1.522120
9478.000000;1.521893
9477.000000;1.522909
9476.000000;1.525082
9475.000000;1.527243
9474.000000;1.528366
9473.000000;1.528514
9472.000000;1.528201
9471.000000;1.527439
9470.000000;1.526082
9469.000000;1.524674
9468.000000;1.524063
9467.000000;1.524180
9466.000000;1.523888
9465.000000;1.522316
9464.000000;1.519903
9463.000000;1.517754
9462.000000;1.516380
9461.000000;1.515482
9460.000000;1.514762
9459.000000;1.514483
9458.000000;1.515115
9457.000000;1.516633
9456.000000;1.518383
9455.000000;1.519627
9454.000000;1.520045
9453.000000;1.519639
9452.000000;1.518396
9451.000000;1.516406
9450.000000;1.514273
9449.000000;1.512915
9448.000000;1.512590
9447.000000;1.512427
9446.000000;1.511504
9445.000000;1.510251
9444.000000;1.510121
9443.000000;1.511683
9442.000000;1.513586
9441.000000;1.513870
9440.000000;1.512053
9439.000000;1.509374
9438.000000;1.507204
9437.000000;1.505932
9436.000000;1.505320
9435.000000;1.505152
9434.000000;1.505103
9433.000000;1.504505
9432.000000;1.502981
9431.000000;1.501230
9430.000000;1.500500
9429.000000;1.501126
9428.000000;1.502067
9427.000000;1.502101
9426.000000;1.501154
9425.000000;1.500078
9424.000000;1.499368
9423.000000;1.498664
9422.000000;1.497455
9421.000000;1.495876
9420.000000;1.494677
9419.000000;1.494572
9418.000000;1.495657
9417.000000;1.497230
9416.000000;1.498108
9415.000000;1.497470
9414.000000;1.495604
9413.000000;1.493698
9412.000000;1.492761
9411.000000;1.492869
9410.000000;1.493408
9409.000000;1.493677
9408.000000;1.493074
9407.000000;1.491121
9406.000000;1.487933
9405.000000;1.484641
9404.000000;1.482761
9403.000000;1.482861
9402.000000;1.484113
9401.000000;1.485324
9400.000000;1.486174
9399.000000;1.487062
9398.000000;1.487969
9397.000000;1.488084
9396.000000;1.486786
9395.000000;1.484540
9394.000000;1.482461
9393.000000;1.481207
9392.000000;1.480572
9391.000000;1.479971
9390.000000;1.478978
9389.000000;1.477471
9388.000000;1.475663
9387.000000;1.474110
9386.000000;1.473439
9385.000000;1.473921
9384.000000;1.475281
9383.000000;1.476916
9382.000000;1.478268
9381.000000;1.479016
9380.000000;1.479059
9379.000000;1.478505
9378.000000;1.477626
9377.000000;1.476674
9376.000000;1.475864
9375.000000;1.475464
9374.000000;1.475632
9373.000000;1.476079
9372.000000;1.476048
9371.000000;1.474879
9370.000000;1.472703
9369.000000;1.470433
9368.000000;1.468983
9367.000000;1.468603
9366.000000;1.468912
9365.000000;1.469356
9364.000000;1.469557
9363.000000;1.469361
9362.000000;1.468773
9361.000000;1.467920
9360.000000;1.467048
9359.000000;1.466474
9358.000000;1.466452
9357.000000;1.466912
9356.000000;1.467318
9355.000000;1.466991
9354.000000;1.465793
9353.000000;1.464420
9352.000000;1.463783
9351.000000;1.464027
9350.000000;1.464356
9349.000000;1.463947
9348.000000;1.462833
9347.000000;1.461622
9346.000000;1.460563
9345.000000;1.459384
9344.000000;1.458193
9343.000000;1.457893
9342.000000;1.459147
9341.000000;1.461263
9340.000000;1.462715
9339.000000;1.462791
9338.000000;1.462247
9337.000000;1.462233
9336.000000;1.463095
9335.000000;1.464356
9334.000000;1.465276
9333.000000;1.465072
9332.000000;1.463173
9331.000000;1.459882
9330.000000;1.456572
9329.000000;1.454632
9328.000000;1.454152
9327.000000;1.454005
9326.000000;1.453115
9325.000000;1.451361
9324.000000;1.449261
9323.000000;1.447297
9322.000000;1.445859
9321.000000;1.445461
9320.000000;1.446460
9319.000000;1.448482
9318.000000;1.450391
9317.000000;1.451106
9316.000000;1.450446
9315.000000;1.449036
9314.000000;1.447437
9313.000000;1.445709
9312.000000;1.444002
9311.000000;1.443125
9310.000000;1.443856
9309.000000;1.445710
9308.000000;1.447061
9307.000000;1.446866
9306.000000;1.445823
9305.000000;1.445406
9304.000000;1.446147
9303.000000;1.447336
9302.000000;1.448043
9301.000000;1.447807
9300.000000;1.446461
9299.000000;1.444060
9298.000000;1.441195
9297.000000;1.438843
9296.000000;1.437545
9295.000000;1.436992
9294.000000;1.436599
9293.000000;1.436263
9292.000000;1.436334
9291.000000;1.436969
9290.000000;1.437721
9289.000000;1.437798
9288.000000;1.436772
9287.000000;1.435140
9286.000000;1.434089
9285.000000;1.434523
9284.000000;1.436263
9283.000000;1.438258
9282.000000;1.439460
9281.000000;1.439435
9280.000000;1.438388
9279.000000;1.436922
9278.000000;1.435669
9277.000000;1.434791
9276.000000;1.433833
9275.000000;1.432340
9274.000000;1.430567
9273.000000;1.429275
9272.000000;1.428850
9271.000000;1.428975
9270.000000;1.429170
9269.000000;1.429221
9268.000000;1.429025
9267.000000;1.428507
9266.000000;1.427879
9265.000000;1.427594
9264.000000;1.427783
9263.000000;1.428001
9262.000000;1.427757
9261.000000;1.427099
9260.000000;1.426437
9259.000000;1.425968
9258.000000;1.425468
9257.000000;1.424599
9256.000000;1.423334
9255.000000;1.422136
9254.000000;1.421600
9253.000000;1.421757
9252.000000;1.421880
9251.000000;1.421369
9250.000000;1.420687
9249.000000;1.420836
9248.000000;1.421929
9247.000000;1.422949
9246.000000;1.423068
9245.000000;1.422595
9244.000000;1.422286
9243.000000;1.422288
9242.000000;1.422200
9241.000000;1.421786
9240.000000;1.421097
9239.000000;1.420229
9238.000000;1.419361
9237.000000;1.418771
9236.000000;1.418433
9235.000000;1.417914
9234.000000;1.417026
9233.000000;1.416205
9232.000000;1.415878
9231.000000;1.415883
9230.000000;1.415960
9229.000000;1.416230
9228.000000;1.416552
9227.000000;1.415995
9226.000000;1.413877
9225.000000;1.411023
9224.000000;1.409004
9223.000000;1.408298
9222.000000;1.408195
9221.000000;1.408435
9220.000000;1.409735
9219.000000;1.412203
9218.000000;1.414273
9217.000000;1.414168
9216.000000;1.411965
9215.000000;1.409351
9214.000000;1.407654
9213.000000;1.406876
9212.000000;1.406467
9211.000000;1.406296
9210.000000;1.406655
9209.000000;1.407720
9208.000000;1.409221
9207.000000;1.410490
9206.000000;1.410807
9205.000000;1.409863
9204.000000;1.407997
9203.000000;1.405962
9202.000000;1.404509
9201.000000;1.404140
9200.000000;1.405003
9199.000000;1.406736
9198.000000;1.408396
9197.000000;1.408842
9196.000000;1.407425
9195.000000;1.404499
9194.000000;1.401374
9193.000000;1.399642
9192.000000;1.400156
9191.000000;1.402361
9190.000000;1.404733
9189.000000;1.406047
9188.000000;1.406191
9187.000000;1.405725
9186.000000;1.405008
9185.000000;1.403996
9184.000000;1.402682
9183.000000;1.401293
9182.000000;1.400081
9181.000000;1.399208
9180.000000;1.398869
9179.000000;1.399165
9178.000000;1.399723
9177.000000;1.399734
9176.000000;1.398628
9175.000000;1.396647
9174.000000;1.394621
9173.000000;1.393194
9172.000000;1.392408
9171.000000;1.391974
9170.000000;1.391686
9169.000000;1.391473
9168.000000;1.391346
9167.000000;1.391527
9166.000000;1.392393
9165.000000;1.393912
9164.000000;1.395246
9163.000000;1.395399
9162.000000;1.394359
9161.000000;1.393195
9160.000000;1.392869
9159.000000;1.393298
9158.000000;1.393775
9157.000000;1.393887
9156.000000;1.393608
9155.000000;1.392860
9154.000000;1.391596
9153.000000;1.390236
9152.000000;1.389377
9151.000000;1.389029
9150.000000;1.388581
9149.000000;1.387719
9148.000000;1.387004
9147.000000;1.387179
9146.000000;1.388211
9145.000000;1.389279
9144.000000;1.389532
9143.000000;1.388706
9142.000000;1.387196
9141.000000;1.385790
9140.000000;1.385182
9139.000000;1.385440
9138.000000;1.385932
9137.000000;1.386003
9136.000000;1.385733
9135.000000;1.385820
9134.000000;1.386696
9133.000000;1.387917
9132.000000;1.388443
9131.000000;1.387594
9130.000000;1.385751
9129.000000;1.384054
9128.000000;1.383364
9127.000000;1.383562
9126.000000;1.383896
9125.000000;1.383884
9124.000000;1.383726
9123.000000;1.383798
9122.000000;1.383973
9121.000000;1.383660
9120.000000;1.382447
9119.000000;1.380557
9118.000000;1.378684
9117.000000;1.377439
9116.000000;1.376991
9115.000000;1.377200
9114.000000;1.377900
9113.000000;1.378886
9112.000000;1.379775
9111.000000;1.380126
9110.000000;1.379796
9109.000000;1.379044
9108.000000;1.378207
9107.000000;1.377438
9106.000000;1.376831
9105.000000;1.376529
9104.000000;1.376467
9103.000000;1.376226
9102.000000;1.375519
9101.000000;1.374809
9100.000000;1.375047
9099.000000;1.376614
9098.000000;1.378676
9097.000000;1.379765
9096.000000;1.379059
9095.000000;1.377152
9094.000000;1.375548
9093.000000;1.375296
9092.000000;1.376031
9091.000000;1.376415
9090.000000;1.375566
9089.000000;1.373879
9088.000000;1.372331
9087.000000;1.371367
9086.000000;1.370769
9085.000000;1.370187
9084.000000;1.369239
9083.000000;1.367455
9082.000000;1.364955
9081.000000;1.363179
9080.000000;1.364023
9079.000000;1.367771
9078.000000;1.372252
9077.000000;1.374524
9076.000000;1.373326
9075.000000;1.369682
9074.000000;1.365568
9073.000000;1.362617
9072.000000;1.361768
9071.000000;1.363213
9070.000000;1.366282
9069.000000;1.369721
9068.000000;1.372421
9067.000000;1.373804
9066.000000;1.373688
9065.000000;1.372218
9064.000000;1.370028
9063.000000;1.368074
9062.000000;1.366975
9061.000000;1.366537
9060.000000;1.366011
9059.000000;1.364845
9058.000000;1.363240
9057.000000;1.362016
9056.000000;1.361877
9055.000000;1.362715
9054.000000;1.363693
9053.000000;1.364096
9052.000000;1.363992
9051.000000;1.363933
9050.000000;1.364192
9049.000000;1.364546
9048.000000;1.364760
9047.000000;1.364966
9046.000000;1.365492
9045.000000;1.366504
9044.000000;1.367753
9043.000000;1.368529
9042.000000;1.368059
9041.000000;1.366315
9040.000000;1.364374
9039.000000;1.363534
9038.000000;1.363940
9037.000000;1.364384
9036.000000;1.363696
9035.000000;1.362128
9034.000000;1.360989
9033.000000;1.361059
9032.000000;1.361767
9031.000000;1.361978
9030.000000;1.361294
9029.000000;1.360361
9028.000000;1.360069
9027.000000;1.360674
9026.000000;1.361664
9025.000000;1.362221
9024.000000;1.361768
9023.000000;1.360272
9022.000000;1.358276
9021.000000;1.356544
9020.000000;1.355520
9019.000000;1.355120
9018.000000;1.355071
9017.000000;1.355293
9016.000000;1.355800
9015.000000;1.356381
9014.000000;1.356776
9013.000000;1.357151
9012.000000;1.357984
9011.000000;1.359289
9010.000000;1.360288
9009.000000;1.360207
9008.000000;1.359153
9007.000000;1.357862
9006.000000;1.356752
9005.000000;1.355656
9004.000000;1.354378
9003.000000;1.353113
9002.000000;1.352221
9001.000000;1.351954
9000.000000;1.352543
8999.000000;1.354178
8998.000000;1.356596
8997.000000;1.358885
8996.000000;1.359991
8995.000000;1.359515
8994.000000;1.357967
8993.000000;1.356232
8992.000000;1.354833
8991.000000;1.353703
8990.000000;1.352569
8989.000000;1.351404
8988.000000;1.350403
8987.000000;1.349579
8986.000000;1.348694
8985.000000;1.347715
8984.000000;1.347027
8983.000000;1.346862
8982.000000;1.346817
8981.000000;1.346381
8980.000000;1.345815
8979.000000;1.345880
8978.000000;1.346607
8977.000000;1.346962
8976.000000;1.346156
8975.000000;1.344821
8974.000000;1.344268
8973.000000;1.344832
8972.000000;1.345538
8971.000000;1.345360
8970.000000;1.344310
8969.000000;1.343204
8968.000000;1.342777
8967.000000;1.343177
8966.000000;1.343947
8965.000000;1.344342
8964.000000;1.343969
8963.000000;1.343334
8962.000000;1.343457
8961.000000;1.344733
8960.000000;1.346429
8959.000000;1.347522
8958.000000;1.347828
8957.000000;1.347968
8956.000000;1.348383
8955.000000;1.348812
8954.000000;1.348808
8953.000000;1.348367
8952.000000;1.347843
8951.000000;1.347392
8950.000000;1.346727
8949.000000;1.345434
8948.000000;1.343533
8947.000000;1.341718
8946.000000;1.340936
8945.000000;1.341558
8944.000000;1.342929
8943.000000;1.343834
8942.000000;1.343491
8941.000000;1.342131
8940.000000;1.340697
8939.000000;1.340114
8938.000000;1.340755
8937.000000;1.342245
8936.000000;1.343692
8935.000000;1.344361
8934.000000;1.344281
8933.000000;1.344015
8932.000000;1.343893
8931.000000;1.343774
8930.000000;1.343575
8929.000000;1.343574
8928.000000;1.343894
8927.000000;1.344039
8926.000000;1.343360
8925.000000;1.341903
8924.000000;1.340467
8923.000000;1.339847
8922.000000;1.340253
8921.000000;1.341317
8920.000000;1.342319
8919.000000;1.342511
8918.000000;1.341645
8917.000000;1.340259
8916.000000;1.339159
8915.000000;1.338584
8914.000000;1.338162
8913.000000;1.337619
8912.000000;1.337166
8911.000000;1.337093
8910.000000;1.337418
8909.000000;1.338134
8908.000000;1.339391
8907.000000;1.341078
8906.000000;1.342458
8905.000000;1.342661
8904.000000;1.341505
8903.000000;1.339574
8902.000000;1.337607
8901.000000;1.336044
8900.000000;1.335068
8899.000000;1.334757
8898.000000;1.335121
8897.000000;1.336109
8896.000000;1.337531
8895.000000;1.338908
8894.000000;1.339583
8893.000000;1.339277
8892.000000;1.338438
8891.000000;1.337790
8890.000000;1.337553
8889.000000;1.337389
8888.000000;1.337018
8887.000000;1.336530
8886.000000;1.336029
8885.000000;1.335368
8884.000000;1.334439
8883.000000;1.333503
8882.000000;1.333064
8881.000000;1.333491
8880.000000;1.334825
8879.000000;1.336760
8878.000000;1.338648
8877.000000;1.339689
8876.000000;1.339413
8875.000000;1.338079
8874.000000;1.336518
8873.000000;1.335503
8872.000000;1.335180
8871.000000;1.335019
8870.000000;1.334351
8869.000000;1.333101
8868.000000;1.331976
8867.000000;1.331793
8866.000000;1.332591
8865.000000;1.333561
8864.000000;1.333943
8863.000000;1.333818
8862.000000;1.333863
8861.000000;1.334481
8860.000000;1.335453
8859.000000;1.336394
8858.000000;1.337244
8857.000000;1.338069
8856.000000;1.338581
8855.000000;1.338212
8854.000000;1.336749
8853.000000;1.334671
8852.000000;1.332730
8851.000000;1.331300
8850.000000;1.330328
8849.000000;1.329865
8848.000000;1.330327
8847.000000;1.331975
8846.000000;1.334273
8845.000000;1.336074
8844.000000;1.336579
8843.000000;1.335972
8842.000000;1.335046
8841.000000;1.334465
8840.000000;1.334528
8839.000000;1.335273
8838.000000;1.336375
8837.000000;1.336994
8836.000000;1.336246
8835.000000;1.334140
8834.000000;1.331858
8833.000000;1.330810
8832.000000;1.331414
8831.000000;1.332868
8830.000000;1.334042
8829.000000;1.334442
8828.000000;1.334299
8827.000000;1.333993
8826.000000;1.333627
8825.000000;1.333166
8824.000000;1.332723
8823.000000;1.332468
8822.000000;1.332341
8821.000000;1.332087
8820.000000;1.331684
8819.000000;1.331520
8818.000000;1.331973
8817.000000;1.332897
8816.000000;1.333719
8815.000000;1.334008
8814.000000;1.333793
8813.000000;1.333319
8812.000000;1.332785
8811.000000;1.332432
8810.000000;1.332611
8809.000000;1.333491
8808.000000;1.334766
8807.000000;1.335811
8806.000000;1.336153
8805.000000;1.335767
8804.000000;1.335074
8803.000000;1.334733
8802.000000;1.335240
8801.000000;1.336405
8800.000000;1.337320
8799.000000;1.337185
8798.000000;1.336158
8797.000000;1.335110
8796.000000;1.334592
8795.000000;1.334403
8794.000000;1.334243
8793.000000;1.334286
8792.000000;1.334758
8791.000000;1.335346
8790.000000;1.335566
8789.000000;1.335569
8788.000000;1.336038
8787.000000;1.337199
8786.000000;1.338333
8785.000000;1.338472
8784.000000;1.337352
8783.000000;1.335588
8782.000000;1.334068
8781.000000;1.333294
8780.000000;1.333116
8779.000000;1.332994
8778.000000;1.332600
8777.000000;1.332208
8776.000000;1.332394
8775.000000;1.333349
8774.000000;1.334639
8773.000000;1.335677
8772.000000;1.336288
8771.000000;1.336743
8770.000000;1.337371
8769.000000;1.338228
8768.000000;1.338994
8767.000000;1.339202
8766.000000;1.338706
8765.000000;1.337924
8764.000000;1.337478
8763.000000;1.337657
8762.000000;1.338365
8761.000000;1.339469
8760.000000;1.340815
8759.000000;1.341872
8758.000000;1.341848
8757.000000;1.340531
8756.000000;1.338746
8755.000000;1.337633
8754.000000;1.337573
8753.000000;1.338071
8752.000000;1.338509
8751.000000;1.338685
8750.000000;1.338688
8749.000000;1.338600
8748.000000;1.338452
8747.000000;1.338267
8746.000000;1.338075
8745.000000;1.337993
8744.000000;1.338261
8743.000000;1.339039
8742.000000;1.340154
8741.000000;1.341184
8740.000000;1.341794
8739.000000;1.341917
8738.000000;1.341710
8737.000000;1.341535
8736.000000;1.341859
8735.000000;1.342882
8734.000000;1.344169
8733.000000;1.344897
8732.000000;1.344627
8731.000000;1.343770
8730.000000;1.343219
8729.000000;1.343565
8728.000000;1.344605
8727.000000;1.345451
8726.000000;1.345181
8725.000000;1.343622
8724.000000;1.341593
8723.000000;1.340246
8722.000000;1.340175
8721.000000;1.341200
8720.000000;1.342780
8719.000000;1.344281
8718.000000;1.344980
8717.000000;1.344390
8716.000000;1.342846
8715.000000;1.341466
8714.000000;1.341191
8713.000000;1.341983
8712.000000;1.343154
8711.000000;1.344241
8710.000000;1.345238
8709.000000;1.346146
8708.000000;1.346774
8707.000000;1.347023
8706.000000;1.347007
8705.000000;1.346759
8704.000000;1.346102
8703.000000;1.344992
8702.000000;1.343775
8701.000000;1.342907
8700.000000;1.342517
8699.000000;1.342462
8698.000000;1.342745
8697.000000;1.343608
8696.000000;1.345121
8695.000000;1.346835
8694.000000;1.347979
8693.000000;1.348046
8692.000000;1.347204
8691.000000;1.346213
8690.000000;1.345927
8689.000000;1.346720
8688.000000;1.348218
8687.000000;1.349560
8686.000000;1.350052
8685.000000;1.349629
8684.000000;1.348686
8683.000000;1.347553
8682.000000;1.346309
8681.000000;1.345110
8680.000000;1.344452
8679.000000;1.344847
8678.000000;1.346175
8677.000000;1.347536
8676.000000;1.347942
8675.000000;1.347254
8674.000000;1.346434
8673.000000;1.346753
8672.000000;1.348608
8671.000000;1.351070
8670.000000;1.352669
8669.000000;1.352718
8668.000000;1.351773
8667.000000;1.350781
8666.000000;1.350037
8665.000000;1.349173
8664.000000;1.347981
8663.000000;1.346821
8662.000000;1.346197
8661.000000;1.346232
8660.000000;1.346698
8659.000000;1.347321
8658.000000;1.347860
8657.000000;1.348089
8656.000000;1.348001
8655.000000;1.347989
8654.000000;1.348547
8653.000000;1.349686
8652.000000;1.350803
8651.000000;1.351214
8650.000000;1.350748
8649.000000;1.349794
8648.000000;1.348922
8647.000000;1.348535
8646.000000;1.348722
8645.000000;1.349253
8644.000000;1.349691
8643.000000;1.349683
8642.000000;1.349305
8641.000000;1.349033
8640.000000;1.349207
8639.000000;1.349588
8638.000000;1.349643
8637.000000;1.349254
8636.000000;1.348880
8635.000000;1.348855
8634.000000;1.348839
8633.000000;1.348287
8632.000000;1.347265
8631.000000;1.346369
8630.000000;1.345863
8629.000000;1.345371
8628.000000;1.344572
8627.000000;1.343787
8626.000000;1.343588
8625.000000;1.344073
8624.000000;1.344876
8623.000000;1.345730
8622.000000;1.346684
8621.000000;1.347820
8620.000000;1.349067
8619.000000;1.350275
8618.000000;1.351194
8617.000000;1.351403
8616.000000;1.350601
8615.000000;1.349076
8614.000000;1.347666
8613.000000;1.347091
8612.000000;1.347394
8611.000000;1.348027
8610.000000;1.348314
8609.000000;1.347834
8608.000000;1.346611
8607.000000;1.345087
8606.000000;1.343808
8605.000000;1.343019
8604.000000;1.342614
8603.000000;1.342464
8602.000000;1.342611
8601.000000;1.343074
8600.000000;1.343681
8599.000000;1.344227
8598.000000;1.344653
8597.000000;1.344953
8596.000000;1.345131
8595.000000;1.345377
8594.000000;1.346001
8593.000000;1.346937
8592.000000;1.347544
8591.000000;1.347272
8590.000000;1.346393
8589.000000;1.345625
8588.000000;1.345163
8587.000000;1.344627
8586.000000;1.344007
8585.000000;1.343971
8584.000000;1.344867
8583.000000;1.345959
8582.000000;1.346231
8581.000000;1.345692
8580.000000;1.345270
8579.000000;1.345535
8578.000000;1.346119
8577.000000;1.346415
8576.000000;1.346266
8575.000000;1.345761
8574.000000;1.344869
8573.000000;1.343646
8572.000000;1.342473
8571.000000;1.341745
8570.000000;1.341520
8569.000000;1.341757
8568.000000;1.342598
8567.000000;1.344017
8566.000000;1.345362
8565.000000;1.345788
8564.000000;1.345214
8563.000000;1.344463
8562.000000;1.344291
8561.000000;1.344577
8560.000000;1.344588
8559.000000;1.343850
8558.000000;1.342624
8557.000000;1.341666
8556.000000;1.341604
8555.000000;1.342397
8554.000000;1.343275
8553.000000;1.343368
8552.000000;1.342510
8551.000000;1.341305
8550.000000;1.340433
8549.000000;1.340124
8548.000000;1.340315
8547.000000;1.340969
8546.000000;1.341907
8545.000000;1.342565
8544.000000;1.342349
8543.000000;1.341304
8542.000000;1.340154
8541.000000;1.339599
8540.000000;1.339746
8539.000000;1.340263
8538.000000;1.340860
8537.000000;1.341395
8536.000000;1.341662
8535.000000;1.341419
8534.000000;1.340702
8533.000000;1.339987
8532.000000;1.339840
8531.000000;1.340360
8530.000000;1.341056
8529.000000;1.341289
8528.000000;1.340795
8527.000000;1.339780
8526.000000;1.338662
8525.000000;1.337812
8524.000000;1.337466
8523.000000;1.337718
8522.000000;1.338505
8521.000000;1.339615
8520.000000;1.340717
8519.000000;1.341432
8518.000000;1.341558
8517.000000;1.341345
8516.000000;1.341353
8515.000000;1.341818
8514.000000;1.342315
8513.000000;1.342294
8512.000000;1.341845
8511.000000;1.341529
8510.000000;1.341487
8509.000000;1.341227
8508.000000;1.340431
8507.000000;1.339521
8506.000000;1.339107
8505.000000;1.339243
8504.000000;1.339595
8503.000000;1.340026
8502.000000;1.340509
8501.000000;1.340706
8500.000000;1.340249
8499.000000;1.339454
8498.000000;1.339157
8497.000000;1.339688
8496.000000;1.340456
8495.000000;1.340750
8494.000000;1.340525
8493.000000;1.340106
8492.000000;1.339517
8491.000000;1.338564
8490.000000;1.337408
8489.000000;1.336604
8488.000000;1.336553
8487.000000;1.337154
8486.000000;1.337965
8485.000000;1.338496
8484.000000;1.338417
8483.000000;1.337754
8482.000000;1.336940
8481.000000;1.336474
8480.000000;1.336500
8479.000000;1.336819
8478.000000;1.337172
8477.000000;1.337306
8476.000000;1.336934
8475.000000;1.335986
8474.000000;1.334940
8473.000000;1.334521
8472.000000;1.334915
8471.000000;1.335535
8470.000000;1.335731
8469.000000;1.335508
8468.000000;1.335338
8467.000000;1.335453
8466.000000;1.335626
8465.000000;1.335530
8464.000000;1.335026
8463.000000;1.334167
8462.000000;1.333238
8461.000000;1.332818
8460.000000;1.333446
8459.000000;1.335032
8458.000000;1.336772
8457.000000;1.337786
8456.000000;1.337785
8455.000000;1.337061
8454.000000;1.336071
8453.000000;1.335222
8452.000000;1.334800
8451.000000;1.334746
8450.000000;1.334575
8449.000000;1.333888
8448.000000;1.332985
8447.000000;1.332615
8446.000000;1.333033
8445.000000;1.333658
8444.000000;1.333865
8443.000000;1.333822
8442.000000;1.334160
8441.000000;1.335026
8440.000000;1.335870
8439.000000;1.336127
8438.000000;1.335763
8437.000000;1.335125
8436.000000;1.334585
8435.000000;1.334387
8434.000000;1.334561
8433.000000;1.334836
8432.000000;1.334865
8431.000000;1.334666
8430.000000;1.334588
8429.000000;1.334744
8428.000000;1.334789
8427.000000;1.334459
8426.000000;1.334000
8425.000000;1.333729
8424.000000;1.333479
8423.000000;1.332949
8422.000000;1.332412
8421.000000;1.332492
8420.000000;1.333218
8419.000000;1.333853
8418.000000;1.333834
8417.000000;1.333421
8416.000000;1.333153
8415.000000;1.333083
8414.000000;1.332914
8413.000000;1.332576
8412.000000;1.332188
8411.000000;1.331642
8410.000000;1.330729
8409.000000;1.329683
8408.000000;1.329179
8407.000000;1.329638
8406.000000;1.330775
8405.000000;1.331897
8404.000000;1.332498
8403.000000;1.332556
8402.000000;1.332451
8401.000000;1.332617
8400.000000;1.333054
8399.000000;1.333182
8398.000000;1.332420
8397.000000;1.330966
8396.000000;1.329735
8395.000000;1.329409
8394.000000;1.329830
8393.000000;1.330447
8392.000000;1.331031
8391.000000;1.331670
8390.000000;1.332274
8389.000000;1.332495
8388.000000;1.332193
8387.000000;1.331700
8386.000000;1.331516
8385.000000;1.331878
8384.000000;1.332672
8383.000000;1.333613
8382.000000;1.334385
8381.000000;1.334691
8380.000000;1.334359
8379.000000;1.333495
8378.000000;1.332486
8377.000000;1.331777
8376.000000;1.331530
8375.000000;1.331484
8374.000000;1.331216
8373.000000;1.330583
8372.000000;1.329898
8371.000000;1.329636
8370.000000;1.330003
8369.000000;1.330785
8368.000000;1.331524
8367.000000;1.331843
8366.000000;1.331706
8365.000000;1.331404
8364.000000;1.331217
8363.000000;1.331127
8362.000000;1.330969
8361.000000;1.330783
8360.000000;1.330778
8359.000000;1.330939
8358.000000;1.330952
8357.000000;1.330654
8356.000000;1.330298
8355.000000;1.330171
8354.000000;1.330176
8353.000000;1.330088
8352.000000;1.330002
8351.000000;1.330174
8350.000000;1.330548
8349.000000;1.330807
8348.000000;1.330849
8347.000000;1.330847
8346.000000;1.330845
8345.000000;1.330691
8344.000000;1.330443
8343.000000;1.330436
8342.000000;1.330750
8341.000000;1.330973
8340.000000;1.330731
8339.000000;1.330207
8338.000000;1.329842
8337.000000;1.329693
8336.000000;1.329440
8335.000000;1.328938
8334.000000;1.328443
8333.000000;1.328229
8332.000000;1.328229
8331.000000;1.328176
8330.000000;1.327971
8329.000000;1.327801
8328.000000;1.327916
8327.000000;1.328345
8326.000000;1.328858
8325.000000;1.329206
8324.000000;1.329353
8323.000000;1.329395
8322.000000;1.329278
8321.000000;1.328764
8320.000000;1.327779
8319.000000;1.326670
8318.000000;1.325986
8317.000000;1.326035
8316.000000;1.326699
8315.000000;1.327594
8314.000000;1.328336
8313.000000;1.328671
8312.000000;1.328487
8311.000000;1.327804
8310.000000;1.326802
8309.000000;1.325854
8308.000000;1.325394
8307.000000;1.325584
8306.000000;1.326127
8305.000000;1.326560
8304.000000;1.326745
8303.000000;1.326873
8302.000000;1.326967
8301.000000;1.326722
8300.000000;1.325981
8299.000000;1.325087
8298.000000;1.324462
8297.000000;1.324080
8296.000000;1.323717
8295.000000;1.323559
8294.000000;1.324057
8293.000000;1.325157
8292.000000;1.326117
8291.000000;1.326373
8290.000000;1.326285
8289.000000;1.326700
8288.000000;1.327896
8287.000000;1.329251
8286.000000;1.329939
8285.000000;1.329680
8284.000000;1.328760
8283.000000;1.327571
8282.000000;1.326343
8281.000000;1.325239
8280.000000;1.324484
8279.000000;1.324312
8278.000000;1.324783
8277.000000;1.325681
8276.000000;1.326577
8275.000000;1.327046
8274.000000;1.326856
8273.000000;1.326059
8272.000000;1.324986
8271.000000;1.324144
8270.000000;1.323922
8269.000000;1.324237
8268.000000;1.324500
8267.000000;1.324142
8266.000000;1.323241
8265.000000;1.322507
8264.000000;1.322582
8263.000000;1.323444
8262.000000;1.324532
8261.000000;1.325293
8260.000000;1.325513
8259.000000;1.325248
8258.000000;1.324732
8257.000000;1.324331
8256.000000;1.324335
8255.000000;1.324657
8254.000000;1.324881
8253.000000;1.324689
8252.000000;1.324121
8251.000000;1.323393
8250.000000;1.322661
8249.000000;1.322104
8248.000000;1.321995
8247.000000;1.322455
8246.000000;1.323240
8245.000000;1.323993
8244.000000;1.324602
8243.000000;1.325053
8242.000000;1.325075
8241.000000;1.324326
8240.000000;1.323009
8239.000000;1.321897
8238.000000;1.321585
8237.000000;1.321942
8236.000000;1.322428
8235.000000;1.322751
8234.000000;1.322980
8233.000000;1.323177
8232.000000;1.323264
8231.000000;1.323238
8230.000000;1.323263
8229.000000;1.323431
8228.000000;1.323567
8227.000000;1.323373
8226.000000;1.322756
8225.000000;1.321993
8224.000000;1.321533
8223.000000;1.321618
8222.000000;1.322058
8221.000000;1.322407
8220.000000;1.322385
8219.000000;1.322102
8218.000000;1.321871
8217.000000;1.321843
8216.000000;1.321882
8215.000000;1.321729
8214.000000;1.321209
8213.000000;1.320297
8212.000000;1.319072
8211.000000;1.317707
8210.000000;1.316543
8209.000000;1.316079
8208.000000;1.316685
8207.000000;1.318175
8206.000000;1.319764
8205.000000;1.320657
8204.000000;1.320706
8203.000000;1.320397
8202.000000;1.320200
8201.000000;1.320117
8200.000000;1.319900
8199.000000;1.319540
8198.000000;1.319394
8197.000000;1.319807
8196.000000;1.320661
8195.000000;1.321377
8194.000000;1.321465
8193.000000;1.321082
8192.000000;1.320878
8191.000000;1.321211
8190.000000;1.321715
8189.000000;1.321820
8188.000000;1.321491
8187.000000;1.321110
8186.000000;1.320783
8185.000000;1.320202
8184.000000;1.319246
8183.000000;1.318324
8182.000000;1.317968
8181.000000;1.318293
8180.000000;1.318966
8179.000000;1.319481
8178.000000;1.319426
8177.000000;1.318775
8176.000000;1.318035
8175.000000;1.317817
8174.000000;1.318152
8173.000000;1.318528
8172.000000;1.318675
8171.000000;1.318886
8170.000000;1.319358
8169.000000;1.319681
8168.000000;1.319415
8167.000000;1.318824
8166.000000;1.318530
8165.000000;1.318641
8164.000000;1.318711
8163.000000;1.318473
8162.000000;1.318153
8161.000000;1.318066
8160.000000;1.318291
8159.000000;1.318781
8158.000000;1.319436
8157.000000;1.320001
8156.000000;1.320157
8155.000000;1.319799
8154.000000;1.319046
8153.000000;1.318012
8152.000000;1.316818
8151.000000;1.315769
8150.000000;1.315221
8149.000000;1.315219
8148.000000;1.315447
8147.000000;1.315558
8146.000000;1.315405
8145.000000;1.315054
8144.000000;1.314790
8143.000000;1.314993
8142.000000;1.315727
8141.000000;1.316520
8140.000000;1.316896
8139.000000;1.317025
8138.000000;1.317435
8137.000000;1.318115
8136.000000;1.318390
8135.000000;1.317832
8134.000000;1.316835
8133.000000;1.316114
8132.000000;1.316018
8131.000000;1.316504
8130.000000;1.317363
8129.000000;1.318159
8128.000000;1.318313
8127.000000;1.317646
8126.000000;1.316679
8125.000000;1.316073
8124.000000;1.315926
8123.000000;1.315909
8122.000000;1.315904
8121.000000;1.316150
8120.000000;1.316784
8119.000000;1.317552
8118.000000;1.318028
8117.000000;1.317950
8116.000000;1.317367
8115.000000;1.316618
8114.000000;1.316149
8113.000000;1.316198
8112.000000;1.316606
8111.000000;1.317006
8110.000000;1.317145
8109.000000;1.316978
8108.000000;1.316554
8107.000000;1.315977
8106.000000;1.315418
8105.000000;1.315027
8104.000000;1.314844
8103.000000;1.314833
8102.000000;1.314981
8101.000000;1.315274
8100.000000;1.315653
8099.000000;1.316041
8098.000000;1.316338
8097.000000;1.316358
8096.000000;1.315923
8095.000000;1.315148
8094.000000;1.314460
8093.000000;1.314162
8092.000000;1.314044
8091.000000;1.313646
8090.000000;1.312879
8089.000000;1.312200
8088.000000;1.312128
8087.000000;1.312694
8086.000000;1.313413
8085.000000;1.313755
8084.000000;1.313627
8083.000000;1.313415
8082.000000;1.313539
8081.000000;1.313967
8080.000000;1.314245
8079.000000;1.314016
8078.000000;1.313390
8077.000000;1.312753
8076.000000;1.312380
8075.000000;1.312364
8074.000000;1.312762
8073.000000;1.313564
8072.000000;1.314501
8071.000000;1.315084
8070.000000;1.314942
8069.000000;1.314150
8068.000000;1.313226
8067.000000;1.312812
8066.000000;1.313196
8065.000000;1.314051
8064.000000;1.314708
8063.000000;1.314789
8062.000000;1.314486
8061.000000;1.314144
8060.000000;1.313783
8059.000000;1.313243
8058.000000;1.312681
8057.000000;1.312567
8056.000000;1.313160
8055.000000;1.314188
8054.000000;1.315102
8053.000000;1.315483
8052.000000;1.315192
8051.000000;1.314389
8050.000000;1.313553
8049.000000;1.313295
8048.000000;1.313860
8047.000000;1.314776
8046.000000;1.315177
8045.000000;1.314539
8044.000000;1.313107
8043.000000;1.311627
8042.000000;1.310746
8041.000000;1.310632
8040.000000;1.311023
8039.000000;1.311530
8038.000000;1.311907
8037.000000;1.312107
8036.000000;1.312167
8035.000000;1.312143
8034.000000;1.312162
8033.000000;1.312407
8032.000000;1.312891
8031.000000;1.313283
8030.000000;1.313139
8029.000000;1.312393
8028.000000;1.311520
8027.000000;1.311064
8026.000000;1.311111
8025.000000;1.311358
8024.000000;1.311625
8023.000000;1.312048
8022.000000;1.312725
8021.000000;1.313407
8020.000000;1.313721
8019.000000;1.313561
8018.000000;1.313103
8017.000000;1.312583
8016.000000;1.312257
8015.000000;1.312437
8014.000000;1.313262
8013.000000;1.314414
8012.000000;1.315291
8011.000000;1.315528
8010.000000;1.315192
8009.000000;1.314519
8008.000000;1.313745
8007.000000;1.313238
8006.000000;1.313426
8005.000000;1.314286
8004.000000;1.315087
8003.000000;1.314960
8002.000000;1.313772
8001.000000;1.312265
8000.000000;1.311342
7999.000000;1.311312
7998.000000;1.311772
7997.000000;1.312079
7996.000000;1.311937
7995.000000;1.311580
7994.000000;1.311421
7993.000000;1.311570
7992.000000;1.311809
7991.000000;1.311996
7990.000000;1.312256
7989.000000;1.312674
7988.000000;1.312980
7987.000000;1.312782
7986.000000;1.312063
7985.000000;1.311258
7984.000000;1.310864
7983.000000;1.311099
7982.000000;1.311818
7981.000000;1.312610
7980.000000;1.313026
7979.000000;1.312945
7978.000000;1.312676
7977.000000;1.312567
7976.000000;1.312563
7975.000000;1.312339
7974.000000;1.311837
7973.000000;1.311387
7972.000000;1.311253
7971.000000;1.311322
7970.000000;1.311368
7969.000000;1.311397
7968.000000;1.311500
7967.000000;1.311540
7966.000000;1.311278
7965.000000;1.310822
7964.000000;1.310663
7963.000000;1.311151
7962.000000;1.312079
7961.000000;1.312878
7960.000000;1.313150
7959.000000;1.312905
7958.000000;1.312383
7957.000000;1.311834
7956.000000;1.311477
7955.000000;1.311474
7954.000000;1.311795
7953.000000;1.312179
7952.000000;1.312359
7951.000000;1.312304
7950.000000;1.312163
7949.000000;1.312006
7948.000000;1.311786
7947.000000;1.311525
7946.000000;1.311353
7945.000000;1.311297
7944.000000;1.311180
7943.000000;1.310849
7942.000000;1.310433
7941.000000;1.310230
7940.000000;1.310371
7939.000000;1.310672
7938.000000;1.310819
7937.000000;1.310671
7936.000000;1.310378
7935.000000;1.310231
7934.000000;1.310372
7933.000000;1.310651
7932.000000;1.310842
7931.000000;1.310981
7930.000000;1.311340
7929.000000;1.311994
7928.000000;1.312558
7927.000000;1.312531
7926.000000;1.311860
7925.000000;1.311041
7924.000000;1.310675
7923.000000;1.310991
7922.000000;1.311750
7921.000000;1.312456
7920.000000;1.312680
7919.000000;1.312348
7918.000000;1.311800
7917.000000;1.311500
7916.000000;1.311625
7915.000000;1.311932
7914.000000;1.312015
7913.000000;1.311683
7912.000000;1.311111
7911.000000;1.310669
7910.000000;1.310605
7909.000000;1.310877
7908.000000;1.311294
7907.000000;1.311750
7906.000000;1.312256
7905.000000;1.312739
7904.000000;1.312953
7903.000000;1.312699
7902.000000;1.312078
7901.000000;1.311436
7900.000000;1.311096
7899.000000;1.311180
7898.000000;1.311594
7897.000000;1.312089
7896.000000;1.312381
7895.000000;1.312349
7894.000000;1.312116
7893.000000;1.311900
7892.000000;1.311817
7891.000000;1.311845
7890.000000;1.311881
7889.000000;1.311771
7888.000000;1.311423
7887.000000;1.311002
7886.000000;1.310868
7885.000000;1.311165
7884.000000;1.311588
7883.000000;1.311729
7882.000000;1.311541
7881.000000;1.311256
7880.000000;1.310941
7879.000000;1.310501
7878.000000;1.310087
7877.000000;1.310126
7876.000000;1.310777
7875.000000;1.311644
7874.000000;1.312225
7873.000000;1.312458
7872.000000;1.312621
7871.000000;1.312853
7870.000000;1.313047
7869.000000;1.313124
7868.000000;1.313164
7867.000000;1.313237
7866.000000;1.313319
7865.000000;1.313413
7864.000000;1.313594
7863.000000;1.313842
7862.000000;1.313940
7861.000000;1.313690
7860.000000;1.313193
7859.000000;1.312791
7858.000000;1.312708
7857.000000;1.312838
7856.000000;1.312938
7855.000000;1.312959
7854.000000;1.313035
7853.000000;1.313171
7852.000000;1.313139
7851.000000;1.312797
7850.000000;1.312362
7849.000000;1.312184
7848.000000;1.312340
7847.000000;1.312626
7846.000000;1.312904
7845.000000;1.313191
7844.000000;1.313404
7843.000000;1.313291
7842.000000;1.312772
7841.000000;1.312151
7840.000000;1.311822
7839.000000;1.311894
7838.000000;1.312245
7837.000000;1.312754
7836.000000;1.313295
7835.000000;1.313615
7834.000000;1.313493
7833.000000;1.313018
7832.000000;1.312536
7831.000000;1.312312
7830.000000;1.312389
7829.000000;1.312721
7828.000000;1.313242
7827.000000;1.313764
7826.000000;1.314015
7825.000000;1.313874
7824.000000;1.313463
7823.000000;1.312972
7822.000000;1.312526
7821.000000;1.312235
7820.000000;1.312219
7819.000000;1.312458
7818.000000;1.312754
7817.000000;1.312954
7816.000000;1.313110
7815.000000;1.313324
7814.000000;1.313530
7813.000000;1.313574
7812.000000;1.313429
7811.000000;1.313181
7810.000000;1.312867
7809.000000;1.312480
7808.000000;1.312144
7807.000000;1.312102
7806.000000;1.312469
7805.000000;1.313094
7804.000000;1.313731
7803.000000;1.314244
7802.000000;1.314565
7801.000000;1.314580
7800.000000;1.314211
7799.000000;1.313607
7798.000000;1.313122
7797.000000;1.313064
7796.000000;1.313463
7795.000000;1.314105
7794.000000;1.314714
7793.000000;1.315125
7792.000000;1.315329
7791.000000;1.315434
7790.000000;1.315590
7789.000000;1.315891
7788.000000;1.316285
7787.000000;1.316563
7786.000000;1.316507
7785.000000;1.316120
7784.000000;1.315697
7783.000000;1.315589
7782.000000;1.315872
7781.000000;1.316305
7780.000000;1.316595
7779.000000;1.316620
7778.000000;1.316401
7777.000000;1.316005
7776.000000;1.315558
7775.000000;1.315255
7774.000000;1.315202
7773.000000;1.315303
7772.000000;1.315401
7771.000000;1.315505
7770.000000;1.315747
7769.000000;1.316167
7768.000000;1.316645
7767.000000;1.317050
7766.000000;1.317328
7765.000000;1.317453
7764.000000;1.317421
7763.000000;1.317322
7762.000000;1.317277
7761.000000;1.317275
7760.000000;1.317168
7759.000000;1.316901
7758.000000;1.316639
7757.000000;1.316607
7756.000000;1.316874
7755.000000;1.317331
7754.000000;1.317787
7753.000000;1.318069
7752.000000;1.318130
7751.000000;1.318098
7750.000000;1.318133
7749.000000;1.318199
7748.000000;1.318084
7747.000000;1.317698
7746.000000;1.317230
7745.000000;1.316953
7744.000000;1.316984
7743.000000;1.317295
7742.000000;1.317797
7741.000000;1.318331
7740.000000;1.318718
7739.000000;1.318914
7738.000000;1.319009
7737.000000;1.319015
7736.000000;1.318841
7735.000000;1.318565
7734.000000;1.318488
7733.000000;1.318725
7732.000000;1.318958
7731.000000;1.318886
7730.000000;1.318749
7729.000000;1.319016
7728.000000;1.319643
7727.000000;1.320033
7726.000000;1.319788
7725.000000;1.319187
7724.000000;1.318811
7723.000000;1.318977
7722.000000;1.319624
7721.000000;1.320456
7720.000000;1.321058
7719.000000;1.321122
7718.000000;1.320735
7717.000000;1.320321
7716.000000;1.320161
7715.000000;1.320162
7714.000000;1.320185
7713.000000;1.320353
7712.000000;1.320804
7711.000000;1.321340
7710.000000;1.321603
7709.000000;1.321531
7708.000000;1.321413
7707.000000;1.321515
7706.000000;1.321822
7705.000000;1.322135
7704.000000;1.322272
7703.000000;1.322214
7702.000000;1.322166
7701.000000;1.322414
7700.000000;1.322989
7699.000000;1.323534
7698.000000;1.323638
7697.000000;1.323286
7696.000000;1.322849
7695.000000;1.322662
7694.000000;1.322765
7693.000000;1.322989
7692.000000;1.323125
7691.000000;1.323023
7690.000000;1.322708
7689.000000;1.322453
7688.000000;1.322600
7687.000000;1.323233
7686.000000;1.324100
7685.000000;1.324861
7684.000000;1.325347
7683.000000;1.325545
7682.000000;1.325476
7681.000000;1.325173
7680.000000;1.324759
7679.000000;1.324488
7678.000000;1.324642
7677.000000;1.325321
7676.000000;1.326279
7675.000000;1.327055
7674.000000;1.327359
7673.000000;1.327284
7672.000000;1.327061
7671.000000;1.326749
7670.000000;1.326326
7669.000000;1.325986
7668.000000;1.326064
7667.000000;1.326601
7666.000000;1.327213
7665.000000;1.327499
7664.000000;1.327441
7663.000000;1.327331
7662.000000;1.327413
7661.000000;1.327729
7660.000000;1.328145
7659.000000;1.328410
7658.000000;1.328267
7657.000000;1.327698
7656.000000;1.327033
7655.000000;1.326706
7654.000000;1.326910
7653.000000;1.327508
7652.000000;1.328221
7651.000000;1.328789
7650.000000;1.329062
7649.000000;1.329070
7648.000000;1.329028
7647.000000;1.329123
7646.000000;1.329292
7645.000000;1.329338
7644.000000;1.329249
7643.000000;1.329283
7642.000000;1.329652
7641.000000;1.330244
7640.000000;1.330740
7639.000000;1.330974
7638.000000;1.331083
7637.000000;1.331306
7636.000000;1.331704
7635.000000;1.332113
7634.000000;1.332313
7633.000000;1.332232
7632.000000;1.332003
7631.000000;1.331853
7630.000000;1.331942
7629.000000;1.332279
7628.000000;1.332751
7627.000000;1.333241
7626.000000;1.333698
7625.000000;1.334110
7624.000000;1.334410
7623.000000;1.334454
7622.000000;1.334149
7621.000000;1.333603
7620.000000;1.333135
7619.000000;1.333101
7618.000000;1.333634
7617.000000;1.334501
7616.000000;1.335232
7615.000000;1.335473
7614.000000;1.335288
7613.000000;1.335082
7612.000000;1.335181
7611.000000;1.335531
7610.000000;1.335855
7609.000000;1.336024
7608.000000;1.336184
7607.000000;1.336539
7606.000000;1.337159
7605.000000;1.337985
7604.000000;1.338866
7603.000000;1.339530
7602.000000;1.339682
7601.000000;1.339300
7600.000000;1.338749
7599.000000;1.338466
7598.000000;1.338554
7597.000000;1.338762
7596.000000;1.338844
7595.000000;1.338813
7594.000000;1.338849
7593.000000;1.339107
7592.000000;1.339634
7591.000000;1.340329
7590.000000;1.340930
7589.000000;1.341188
7588.000000;1.341153
7587.000000;1.341210
7586.000000;1.341664
7585.000000;1.342361
7584.000000;1.342817
7583.000000;1.342758
7582.000000;1.342404
7581.000000;1.342182
7580.000000;1.342264
7579.000000;1.342476
7578.000000;1.342616
7577.000000;1.342740
7576.000000;1.343083
7575.000000;1.343732
7574.000000;1.344474
7573.000000;1.345025
7572.000000;1.345372
7571.000000;1.345780
7570.000000;1.346416
7569.000000;1.347054
7568.000000;1.347281
7567.000000;1.346997
7566.000000;1.346606
7565.000000;1.346661
7564.000000;1.347369
7563.000000;1.348447
7562.000000;1.349384
7561.000000;1.349809
7560.000000;1.349704
7559.000000;1.349381
7558.000000;1.349248
7557.000000;1.349488
7556.000000;1.349914
7555.000000;1.350189
7554.000000;1.350204
7553.000000;1.350199
7552.000000;1.350507
7551.000000;1.351209
7550.000000;1.352093
7549.000000;1.352887
7548.000000;1.353465
7547.000000;1.353831
7546.000000;1.354003
7545.000000;1.354006
7544.000000;1.353954
7543.000000;1.354026
7542.000000;1.354299
7541.000000;1.354625
7540.000000;1.354758
7539.000000;1.354622
7538.000000;1.354406
7537.000000;1.354370
7536.000000;1.354629
7535.000000;1.355117
7534.000000;1.355709
7533.000000;1.356306
7532.000000;1.356862
7531.000000;1.357390
7530.000000;1.357919
7529.000000;1.358389
7528.000000;1.358653
7527.000000;1.358663
7526.000000;1.358624
7525.000000;1.358821
7524.000000;1.359313
7523.000000;1.359892
7522.000000;1.360372
7521.000000;1.360775
7520.000000;1.361193
7519.000000;1.361610
7518.000000;1.361967
7517.000000;1.362316
7516.000000;1.362766
7515.000000;1.363327
7514.000000;1.363885
7513.000000;1.364342
7512.000000;1.364685
7511.000000;1.364948
7510.000000;1.365177
7509.000000;1.365434
7508.000000;1.365793
7507.000000;1.366267
7506.000000;1.366783
7505.000000;1.367203
7504.000000;1.367398
7503.000000;1.367356
7502.000000;1.367278
7501.000000;1.367488
7500.000000;1.368177
7499.000000;1.369191
7498.000000;1.370165
7497.000000;1.370782
7496.000000;1.371035
7495.000000;1.371072
7494.000000;1.370959
7493.000000;1.370903
7492.000000;1.370954
7491.000000;1.371124
7490.000000;1.371377
7489.000000;1.371701
7488.000000;1.372108
7487.000000;1.372610
7486.000000;1.373202
7485.000000;1.373862
7484.000000;1.374531
7483.000000;1.375099
7482.000000;1.375445
7481.000000;1.375544
7480.000000;1.375526
7479.000000;1.375635
7478.000000;1.376067
7477.000000;1.376792
7476.000000;1.377528
7475.000000;1.377986
7474.000000;1.378185
7473.000000;1.378469
7472.000000;1.379152
7471.000000;1.380164
7470.000000;1.381090
7469.000000;1.381532
7468.000000;1.381450
7467.000000;1.381208
7466.000000;1.381274
7465.000000;1.381791
7464.000000;1.382421
7463.000000;1.382713
7462.000000;1.382639
7461.000000;1.382599
7460.000000;1.382863
7459.000000;1.383249
7458.000000;1.383498
7457.000000;1.383771
7456.000000;1.384454
7455.000000;1.385574
7454.000000;1.386682
7453.000000;1.387356
7452.000000;1.387582
7451.000000;1.387598
7450.000000;1.387618
7449.000000;1.387790
7448.000000;1.388233
7447.000000;1.388921
7446.000000;1.389636
7445.000000;1.390168
7444.000000;1.390532
7443.000000;1.390926
7442.000000;1.391510
7441.000000;1.392273
7440.000000;1.393036
7439.000000;1.393581
7438.000000;1.393819
7437.000000;1.393862
7436.000000;1.393880
7435.000000;1.393896
7434.000000;1.393831
7433.000000;1.393720
7432.000000;1.393752
7431.000000;1.394073
7430.000000;1.394641
7429.000000;1.395310
7428.000000;1.395969
7427.000000;1.396567
7426.000000;1.397115
7425.000000;1.397691
7424.000000;1.398324
7423.000000;1.398848
7422.000000;1.399014
7421.000000;1.398808
7420.000000;1.398543
7419.000000;1.398595
7418.000000;1.399110
7417.000000;1.400006
7416.000000;1.401105
7415.000000;1.402177
7414.000000;1.402990
7413.000000;1.403436
7412.000000;1.403605
7411.000000;1.403699
7410.000000;1.403886
7409.000000;1.404198
7408.000000;1.404478
7407.000000;1.404493
7406.000000;1.404226
7405.000000;1.404060
7404.000000;1.404449
7403.000000;1.405384
7402.000000;1.406357
7401.000000;1.406884
7400.000000;1.406900
7399.000000;1.406675
7398.000000;1.406519
7397.000000;1.406602
7396.000000;1.406935
7395.000000;1.407419
7394.000000;1.407982
7393.000000;1.408690
7392.000000;1.409577
7391.000000;1.410468
7390.000000;1.411191
7389.000000;1.411858
7388.000000;1.412650
7387.000000;1.413411
7386.000000;1.413786
7385.000000;1.413728
7384.000000;1.413470
7383.000000;1.413010
7382.000000;1.412208
7381.000000;1.411520
7380.000000;1.411893
7379.000000;1.413444
7378.000000;1.414829
7377.000000;1.414610
7376.000000;1.413033
7375.000000;1.411918
7374.000000;1.412700
7373.000000;1.414992
7372.000000;1.417143
7371.000000;1.417790
7370.000000;1.416856
7369.000000;1.415490
7368.000000;1.415140
7367.000000;1.416397
7366.000000;1.418556
7365.000000;1.420343
7364.000000;1.420952
7363.000000;1.420365
7362.000000;1.419169
7361.000000;1.418402
7360.000000;1.419038
7359.000000;1.420942
7358.000000;1.422620
7357.000000;1.422626
7356.000000;1.421218
7355.000000;1.420217
7354.000000;1.421089
7353.000000;1.423504
7352.000000;1.425849
7351.000000;1.426672
7350.000000;1.425687
7349.000000;1.423979
7348.000000;1.423240
7347.000000;1.424196
7346.000000;1.425817
7345.000000;1.426531
7344.000000;1.425983
7343.000000;1.424910
7342.000000;1.423678
7341.000000;1.422103
7340.000000;1.420840
7339.000000;1.421568
7338.000000;1.424895
7337.000000;1.429204
7336.000000;1.432351
7335.000000;1.433660
7334.000000;1.433875
7333.000000;1.433931
7332.000000;1.434158
7331.000000;1.434160
7330.000000;1.433108
7329.000000;1.430737
7328.000000;1.428493
7327.000000;1.428732
7326.000000;1.431965
7325.000000;1.435882
7324.000000;1.438018
7323.000000;1.438450
7322.000000;1.438986
7321.000000;1.440423
7320.000000;1.441792
7319.000000;1.442045
7318.000000;1.441294
7317.000000;1.440438
7316.000000;1.440404
7315.000000;1.441633
7314.000000;1.443550
7313.000000;1.444810
7312.000000;1.444816
7311.000000;1.444669
7310.000000;1.445710
7309.000000;1.447349
7308.000000;1.447679
7307.000000;1.446305
7306.000000;1.445224
7305.000000;1.446382
7304.000000;1.449356
7303.000000;1.452227
7302.000000;1.453761
7301.000000;1.454094
7300.000000;1.454210
7299.000000;1.455244
7298.000000;1.457550
7297.000000;1.459869
7296.000000;1.460156
7295.000000;1.457857
7294.000000;1.455034
7293.000000;1.454456
7292.000000;1.456661
7291.000000;1.459684
7290.000000;1.461479
7289.000000;1.461740
7288.000000;1.461567
7287.000000;1.462166
7286.000000;1.463950
7285.000000;1.466464
7284.000000;1.468854
7283.000000;1.470593
7282.000000;1.471842
7281.000000;1.473044
7280.000000;1.474348
7279.000000;1.475590
7278.000000;1.476650
7277.000000;1.477570
7276.000000;1.478380
7275.000000;1.479002
7274.000000;1.479451
7273.000000;1.480039
7272.000000;1.481235
7271.000000;1.483243
7270.000000;1.485651
7269.000000;1.487639
7268.000000;1.488755
7267.000000;1.489470
7266.000000;1.490643
7265.000000;1.492420
7264.000000;1.494074
7263.000000;1.495032
7262.000000;1.495690
7261.000000;1.496918
7260.000000;1.498983
7259.000000;1.501350
7258.000000;1.503389
7257.000000;1.504871
7256.000000;1.505862
7255.000000;1.506552
7254.000000;1.507338
7253.000000;1.508796
7252.000000;1.511273
7251.000000;1.514482
7250.000000;1.517580
7249.000000;1.519904
7248.000000;1.521661
7247.000000;1.523558
7246.000000;1.525606
7245.000000;1.526714
7244.000000;1.526056
7243.000000;1.524847
7242.000000;1.525844
7241.000000;1.530341
7240.000000;1.536459
7239.000000;1.541263
7238.000000;1.543868
7237.000000;1.545644
7236.000000;1.547843
7235.000000;1.549961
7234.000000;1.550744
7233.000000;1.550322
7232.000000;1.550858
7231.000000;1.554650
7230.000000;1.561427
7229.000000;1.568229
7228.000000;1.572202
7227.000000;1.573161
7226.000000;1.573559
7225.000000;1.575952
7224.000000;1.580477
7223.000000;1.585083
7222.000000;1.587946
7221.000000;1.589271
7220.000000;1.590907
7219.000000;1.594454
7218.000000;1.599764
7217.000000;1.605182
7216.000000;1.609196
7215.000000;1.611774
7214.000000;1.614129
7213.000000;1.617305
7212.000000;1.621163
7211.000000;1.624823
7210.000000;1.627816
7209.000000;1.630515
7208.000000;1.633496
7207.000000;1.636750
7206.000000;1.639809
7205.000000;1.642633
7204.000000;1.645994
7203.000000;1.650702
7202.000000;1.656548
7201.000000;1.662453
7200.000000;1.667688
7199.000000;1.672516
7198.000000;1.677421
7197.000000;1.682167
7196.000000;1.686199
7195.000000;1.689685
7194.000000;1.693455
7193.000000;1.697864
7192.000000;1.702407
7191.000000;1.706612
7190.000000;1.710702
7189.000000;1.715036
7188.000000;1.719475
7187.000000;1.723876
7186.000000;1.728676
7185.000000;1.734164
7184.000000;1.739482
7183.000000;1.743324
7182.000000;1.745752
7181.000000;1.748571
7180.000000;1.753409
7179.000000;1.760005
7178.000000;1.766917
7177.000000;1.773251
7176.000000;1.779047
7175.000000;1.784545
7174.000000;1.789834
7173.000000;1.794994
7172.000000;1.799939
7171.000000;1.804239
7170.000000;1.807676
7169.000000;1.810964
7168.000000;1.815319
7167.000000;1.821256
7166.000000;1.828233
7165.000000;1.835392
7164.000000;1.842144
7163.000000;1.848010
7162.000000;1.852665
7161.000000;1.856596
7160.000000;1.860988
7159.000000;1.866386
7158.000000;1.872008
7157.000000;1.876891
7156.000000;1.881154
7155.000000;1.885609
7154.000000;1.890612
7153.000000;1.895869
7152.000000;1.901083
7151.000000;1.906211
7150.000000;1.911262
7149.000000;1.916359
7148.000000;1.921894
7147.000000;1.928071
7146.000000;1.934354
7145.000000;1.939986
7144.000000;1.945007
7143.000000;1.950083
7142.000000;1.955325
7141.000000;1.960108
7140.000000;1.964297
7139.000000;1.968864
7138.000000;1.974746
7137.000000;1.981615
7136.000000;1.988396
7135.000000;1.994510
7134.000000;2.000081
7133.000000;2.005278
7132.000000;2.010157
7131.000000;2.015037
7130.000000;2.020133
7129.000000;2.024839
7128.000000;2.028193
7127.000000;2.030204
7126.000000;2.032099
7125.000000;2.035116
7124.000000;2.039571
7123.000000;2.045243
7122.000000;2.051961
7121.000000;2.059284
7120.000000;2.066111
7119.000000;2.071301
7118.000000;2.074769
7117.000000;2.077599
7116.000000;2.080893
7115.000000;2.084721
7114.000000;2.088376
7113.000000;2.091369
7112.000000;2.093987
7111.000000;2.097088
7110.000000;2.101387
7109.000000;2.106795
7108.000000;2.112377
7107.000000;2.117074
7106.000000;2.120631
7105.000000;2.123735
7104.000000;2.127222
7103.000000;2.131235
7102.000000;2.135094
7101.000000;2.138076
7100.000000;2.140392
7099.000000;2.143150
7098.000000;2.147225
7097.000000;2.152306
7096.000000;2.157278
7095.000000;2.161541
7094.000000;2.165460
7093.000000;2.169265
7092.000000;2.172212
7091.000000;2.173581
7090.000000;2.174088
7089.000000;2.175382
7088.000000;2.178163
7087.000000;2.181499
7086.000000;2.184239
7085.000000;2.186441
7084.000000;2.188852
7083.000000;2.191577
7082.000000;2.194183
7081.000000;2.196857
7080.000000;2.200515
7079.000000;2.205375
7078.000000;2.210077
7077.000000;2.212999
7076.000000;2.214369
7075.000000;2.216322
7074.000000;2.220554
7073.000000;2.226326
7072.000000;2.231136
7071.000000;2.233426
7070.000000;2.234209
7069.000000;2.235608
7068.000000;2.238297
7067.000000;2.241030
7066.000000;2.242437
7065.000000;2.242713
7064.000000;2.243354
7063.000000;2.245562
7062.000000;2.249092
7061.000000;2.252398
7060.000000;2.253786
7059.000000;2.252785
7058.000000;2.250731
7057.000000;2.249859
7056.000000;2.251410
7055.000000;2.254514
7054.000000;2.257139
7053.000000;2.258200
7052.000000;2.258406
7051.000000;2.258797
7050.000000;2.259167
7049.000000;2.258688
7048.000000;2.257847
7047.000000;2.258866
7046.000000;2.263537
7045.000000;2.270766
7044.000000;2.276833
7043.000000;2.278572
7042.000000;2.276320
7041.000000;2.273387
7040.000000;2.272897
7039.000000;2.275487
7038.000000;2.279572
7037.000000;2.283132
7036.000000;2.285196
7035.000000;2.286011
7034.000000;2.286212
7033.000000;2.286094
7032.000000;2.285710
7031.000000;2.285471
7030.000000;2.286211
7029.000000;2.288381
7028.000000;2.291430
7027.000000;2.294243
7026.000000;2.296047
7025.000000;2.296652
7024.000000;2.296146
7023.000000;2.295222
7022.000000;2.295836
7021.000000;2.300120
7020.000000;2.307586
7019.000000;2.314119
7018.000000;2.315301
7017.000000;2.311001
7016.000000;2.305164
7015.000000;2.301213
7014.000000;2.299370
7013.000000;2.298380
7012.000000;2.298165
7011.000000;2.299611
7010.000000;2.302513
7009.000000;2.305201
7008.000000;2.306341
7007.000000;2.306073
7006.000000;2.305138
7005.000000;2.303771
7004.000000;2.301974
7003.000000;2.300361
7002.000000;2.300129
7001.000000;2.302111
7000.000000;2.306032
6999.000000;2.310651
6998.000000;2.314687
6997.000000;2.317780
6996.000000;2.320422
6995.000000;2.322834
6994.000000;2.324154
6993.000000;2.323099
6992.000000;2.319577
6991.000000;2.315366
6990.000000;2.312771
6989.000000;2.312739
6988.000000;2.314552
6987.000000;2.317205
6986.000000;2.320464
6985.000000;2.324115
6984.000000;2.326651
6983.000000;2.325931
6982.000000;2.321708
6981.000000;2.316730
6980.000000;2.314500
6979.000000;2.316228
6978.000000;2.320462
6977.000000;2.325212
6976.000000;2.329363
6975.000000;2.331892
6974.000000;2.331177
6973.000000;2.326386
6972.000000;2.319197
6971.000000;2.313041
6970.000000;2.310478
6969.000000;2.311654
6968.000000;2.314936
6967.000000;2.318338
6966.000000;2.320528
6965.000000;2.321327
6964.000000;2.321586
6963.000000;2.322220
6962.000000;2.323169
6961.000000;2.323651
6960.000000;2.323442
6959.000000;2.323376
6958.000000;2.324189
6957.000000;2.325274
6956.000000;2.325140
6955.000000;2.323178
6954.000000;2.320516
6953.000000;2.318929
6952.000000;2.319244
6951.000000;2.320862
6950.000000;2.322366
6949.000000;2.322575
6948.000000;2.321374
6947.000000;2.319738
6946.000000;2.318924
6945.000000;2.319546
6944.000000;2.321235
6943.000000;2.322977
6942.000000;2.323751
6941.000000;2.323095
6940.000000;2.321359
6939.000000;2.319354
6938.000000;2.317645
6937.000000;2.316375
6936.000000;2.315700
6935.000000;2.316043
6934.000000;2.317683
6933.000000;2.320127
6932.000000;2.322229
6931.000000;2.323149
6930.000000;2.322918
6929.000000;2.322056
6928.000000;2.321034
6927.000000;2.320276
6926.000000;2.320217
6925.000000;2.320887
6924.000000;2.321603
6923.000000;2.321655
6922.000000;2.321182
6921.000000;2.320714
6920.000000;2.319994
6919.000000;2.318127
6918.000000;2.315156
6917.000000;2.312703
6916.000000;2.312419
6915.000000;2.314159
6914.000000;2.316231
6913.000000;2.317264
6912.000000;2.317244
6911.000000;2.316746
6910.000000;2.315962
6909.000000;2.314847
6908.000000;2.313670
6907.000000;2.312747
6906.000000;2.311787
6905.000000;2.310119
6904.000000;2.307726
6903.000000;2.305722
6902.000000;2.305523
6901.000000;2.307502
6900.000000;2.310650
6899.000000;2.313554
6898.000000;2.315363
6897.000000;2.315830
6896.000000;2.315011
6895.000000;2.313440
6894.000000;2.312299
6893.000000;2.312550
6892.000000;2.313695
6891.000000;2.313926
6890.000000;2.311868
6889.000000;2.307928
6888.000000;2.303810
6887.000000;2.301164
6886.000000;2.300725
6885.000000;2.302004
6884.000000;2.303514
6883.000000;2.303949
6882.000000;2.303500
6881.000000;2.303547
6880.000000;2.304774
6879.000000;2.306219
6878.000000;2.306746
6877.000000;2.306618
6876.000000;2.306667
6875.000000;2.306727
6874.000000;2.306158
6873.000000;2.305392
6872.000000;2.305477
6871.000000;2.306228
6870.000000;2.306168
6869.000000;2.304510
6868.000000;2.302060
6867.000000;2.299839
6866.000000;2.298044
6865.000000;2.296839
6864.000000;2.296905
6863.000000;2.298391
6862.000000;2.300071
6861.000000;2.300346
6860.000000;2.298763
6859.000000;2.296054
6858.000000;2.293293
6857.000000;2.291648
6856.000000;2.292158
6855.000000;2.294783
6854.000000;2.298054
6853.000000;2.300353
6852.000000;2.301242
6851.000000;2.301048
6850.000000;2.299735
6849.000000;2.297130
6848.000000;2.293941
6847.000000;2.291510
6846.000000;2.290536
6845.000000;2.290652
6844.000000;2.291085
6843.000000;2.291103
6842.000000;2.290027
6841.000000;2.287625
6840.000000;2.284742
6839.000000;2.282906
6838.000000;2.282924
6837.000000;2.284174
6836.000000;2.285294
6835.000000;2.285268
6834.000000;2.283935
6833.000000;2.281760
6832.000000;2.279261
6831.000000;2.276571
6830.000000;2.273609
6829.000000;2.270713
6828.000000;2.268681
6827.000000;2.267838
6826.000000;2.267458
6825.000000;2.266689
6824.000000;2.265794
6823.000000;2.265670
6822.000000;2.266191
6821.000000;2.265982
6820.000000;2.264150
6819.000000;2.261490
6818.000000;2.259416
6817.000000;2.258325
6816.000000;2.257564
6815.000000;2.256572
6814.000000;2.255427
6813.000000;2.254454
6812.000000;2.253872
6811.000000;2.253802
6810.000000;2.254121
6809.000000;2.254289
6808.000000;2.253581
6807.000000;2.251588
6806.000000;2.248446
6805.000000;2.244700
6804.000000;2.241157
6803.000000;2.238715
6802.000000;2.237773
6801.000000;2.237562
6800.000000;2.236523
6799.000000;2.233883
6798.000000;2.230638
6797.000000;2.228423
6796.000000;2.227523
6795.000000;2.226579
6794.000000;2.224416
6793.000000;2.221530
6792.000000;2.219314
6791.000000;2.218397
6790.000000;2.218262
6789.000000;2.218085
6788.000000;2.217155
6787.000000;2.214694
6786.000000;2.210336
6785.000000;2.205073
6784.000000;2.200927
6783.000000;2.199292
6782.000000;2.199949
6781.000000;2.201718
6780.000000;2.203434
6779.000000;2.203961
6778.000000;2.202106
6777.000000;2.197574
6776.000000;2.191893
6775.000000;2.187549
6774.000000;2.185975
6773.000000;2.186563
6772.000000;2.187424
6771.000000;2.186745
6770.000000;2.183814
6769.000000;2.179473
6768.000000;2.175621
6767.000000;2.173742
6766.000000;2.173618
6765.000000;2.173599
6764.000000;2.172300
6763.000000;2.169909
6762.000000;2.167713
6761.000000;2.166604
6760.000000;2.166347
6759.000000;2.166010
6758.000000;2.164809
6757.000000;2.162549
6756.000000;2.159469
6755.000000;2.155875
6754.000000;2.152036
6753.000000;2.148343
6752.000000;2.145334
6751.000000;2.143314
6750.000000;2.142005
6749.000000;2.140787
6748.000000;2.139372
6747.000000;2.138109
6746.000000;2.137503
6745.000000;2.137455
6744.000000;2.137125
6743.000000;2.135689
6742.000000;2.133178
6741.000000;2.130401
6740.000000;2.128105
6739.000000;2.126418
6738.000000;2.125033
6737.000000;2.123652
6736.000000;2.122028
6735.000000;2.119746
6734.000000;2.116403
6733.000000;2.112120
6732.000000;2.107645
6731.000000;2.103840
6730.000000;2.101183
6729.000000;2.099638
6728.000000;2.098690
6727.000000;2.097449
6726.000000;2.095162
6725.000000;2.091864
6724.000000;2.088382
6723.000000;2.085623
6722.000000;2.083955
6721.000000;2.083207
6720.000000;2.082939
6719.000000;2.082577
6718.000000;2.081623
6717.000000;2.080034
6716.000000;2.078312
6715.000000;2.076963
6714.000000;2.075887
6713.000000;2.074379
6712.000000;2.071740
6711.000000;2.067887
6710.000000;2.063629
6709.000000;2.060375
6708.000000;2.059118
6707.000000;2.059475
6706.000000;2.059823
6705.000000;2.058685
6704.000000;2.055877
6703.000000;2.052429
6702.000000;2.049281
6701.000000;2.047037
6700.000000;2.045711
6699.000000;2.044483
6698.000000;2.042632
6697.000000;2.039993
6696.000000;2.037335
6695.000000;2.035526
6694.000000;2.034615
6693.000000;2.033840
6692.000000;2.032450
6691.000000;2.030244
6690.000000;2.027516
6689.000000;2.024795
6688.000000;2.022556
6687.000000;2.020833
6686.000000;2.019188
6685.000000;2.017279
6684.000000;2.015277
6683.000000;2.013466
6682.000000;2.011681
6681.000000;2.009583
6680.000000;2.007299
6679.000000;2.005303
6678.000000;2.003702
6677.000000;2.002126
6676.000000;2.000305
6675.000000;1.998332
6674.000000;1.996320
6673.000000;1.994227
6672.000000;1.992137
6671.000000;1.990283
6670.000000;1.988611
6669.000000;1.986732
6668.000000;1.984532
6667.000000;1.982425
6666.000000;1.980721
6665.000000;1.979075
6664.000000;1.976925
6663.000000;1.974252
6662.000000;1.971563
6661.000000;1.969258
6660.000000;1.967334
6659.000000;1.965672
6658.000000;1.964275
6657.000000;1.963132
6656.000000;1.962001
6655.000000;1.960514
6654.000000;1.958525
6653.000000;1.956281
6652.000000;1.954131
6651.000000;1.952050
6650.000000;1.949670
6649.000000;1.946919
6648.000000;1.944448
6647.000000;1.943038
6646.000000;1.942601
6645.000000;1.942117
6644.000000;1.940699
6643.000000;1.938465
6642.000000;1.936200
6641.000000;1.934395
6640.000000;1.932847
6639.000000;1.931031
6638.000000;1.928657
6637.000000;1.925951
6636.000000;1.923522
6635.000000;1.921822
6634.000000;1.920682
6633.000000;1.919544
6632.000000;1.918163
6631.000000;1.916830
6630.000000;1.915729
6629.000000;1.914401
6628.000000;1.912192
6627.000000;1.909160
6626.000000;1.906151
6625.000000;1.903971
6624.000000;1.902727
6623.000000;1.901978
6622.000000;1.901274
6621.000000;1.900424
6620.000000;1.899400
6619.000000;1.898141
6618.000000;1.896479
6617.000000;1.894216
6616.000000;1.891336
6615.000000;1.888152
6614.000000;1.885190
6613.000000;1.882853
6612.000000;1.881182
6611.000000;1.879899
6610.000000;1.878670
6609.000000;1.877308
6608.000000;1.875771
6607.000000;1.874033
6606.000000;1.872066
6605.000000;1.869984
6604.000000;1.868090
6603.000000;1.866639
6602.000000;1.865547
6601.000000;1.864459
6600.000000;1.863106
6599.000000;1.861506
6598.000000;1.859786
6597.000000;1.858003
6596.000000;1.856214
6595.000000;1.854550
6594.000000;1.853060
6593.000000;1.851611
6592.000000;1.850088
6591.000000;1.848669
6590.000000;1.847677
6589.000000;1.847127
6588.000000;1.846542
6587.000000;1.845306
6586.000000;1.843197
6585.000000;1.840584
6584.000000;1.838095
6583.000000;1.836095
6582.000000;1.834439
6581.000000;1.832718
6580.000000;1.830741
6579.000000;1.828751
6578.000000;1.827149
6577.000000;1.826070
6576.000000;1.825274
6575.000000;1.824398
6574.000000;1.823264
6573.000000;1.821945
6572.000000;1.820591
6571.000000;1.819237
6570.000000;1.817802
6569.000000;1.816258
6568.000000;1.814694
6567.000000;1.813182
6566.000000;1.811671
6565.000000;1.810111
6564.000000;1.808610
6563.000000;1.807292
6562.000000;1.806051
6561.000000;1.804649
6560.000000;1.803074
6559.000000;1.801558
6558.000000;1.800171
6557.000000;1.798661
6556.000000;1.796850
6555.000000;1.794979
6554.000000;1.793388
6553.000000;1.791980
6552.000000;1.790334
6551.000000;1.788341
6550.000000;1.786441
6549.000000;1.785140
6548.000000;1.784477
6547.000000;1.784066
6546.000000;1.783506
6545.000000;1.782603
6544.000000;1.781301
6543.000000;1.779628
6542.000000;1.777732
6541.000000;1.775856
6540.000000;1.774157
6539.000000;1.772601
6538.000000;1.771085
6537.000000;1.769611
6536.000000;1.768265
6535.000000;1.767019
6534.000000;1.765699
6533.000000;1.764224
6532.000000;1.762769
6531.000000;1.761552
6530.000000;1.760541
6529.000000;1.759545
6528.000000;1.758534
6527.000000;1.757665
6526.000000;1.756911
6525.000000;1.755909
6524.000000;1.754329
6523.000000;1.752281
6522.000000;1.750194
6521.000000;1.748411
6520.000000;1.747051
6519.000000;1.746131
6518.000000;1.745564
6517.000000;1.745028
6516.000000;1.744093
6515.000000;1.742586
6514.000000;1.740755
6513.000000;1.738997
6512.000000;1.737514
6511.000000;1.736245
6510.000000;1.735044
6509.000000;1.733844
6508.000000;1.732676
6507.000000;1.731587
6506.000000;1.730543
6505.000000;1.729443
6504.000000;1.728248
6503.000000;1.727072
6502.000000;1.726086
6501.000000;1.725349
6500.000000;1.724747
6499.000000;1.724055
6498.000000;1.723026
6497.000000;1.721512
6496.000000;1.719631
6495.000000;1.717771
6494.000000;1.716309
6493.000000;1.715262
6492.000000;1.714317
6491.000000;1.713201
6490.000000;1.711962
6489.000000;1.710859
6488.000000;1.710044
6487.000000;1.709398
6486.000000;1.708616
6485.000000;1.707434
6484.000000;1.705816
6483.000000;1.703966
6482.000000;1.702182
6481.000000;1.700731
6480.000000;1.699772
6479.000000;1.699264
6478.000000;1.698865
6477.000000;1.698102
6476.000000;1.696808
6475.000000;1.695327
6474.000000;1.694132
6473.000000;1.693268
6472.000000;1.692348
6471.000000;1.691079
6470.000000;1.689579
6469.000000;1.688156
6468.000000;1.687000
6467.000000;1.686165
6466.000000;1.685642
6465.000000;1.685275
6464.000000;1.684734
6463.000000;1.683759
6462.000000;1.682400
6461.000000;1.680930
6460.000000;1.679590
6459.000000;1.678487
6458.000000;1.677633
6457.000000;1.676939
6456.000000;1.676205
6455.000000;1.675282
6454.000000;1.674232
6453.000000;1.673243
6452.000000;1.672413
6451.000000;1.671689
6450.000000;1.670993
6449.000000;1.670270
6448.000000;1.669444
6447.000000;1.668419
6446.000000;1.667175
6445.000000;1.665807
6444.000000;1.664450
6443.000000;1.663199
6442.000000;1.662064
6441.000000;1.660962
6440.000000;1.659800
6439.000000;1.658611
6438.000000;1.657564
6437.000000;1.656766
6436.000000;1.656121
6435.000000;1.655481
6434.000000;1.654833
6433.000000;1.654201
6432.000000;1.653438
6431.000000;1.652331
6430.000000;1.650952
6429.000000;1.649682
6428.000000;1.648760
6427.000000;1.647963
6426.000000;1.646888
6425.000000;1.645478
6424.000000;1.644111
6423.000000;1.643167
6422.000000;1.642645
6421.000000;1.642215
6420.000000;1.641568
6419.000000;1.640647
6418.000000;1.639579
6417.000000;1.638488
6416.000000;1.637434
6415.000000;1.636502
6414.000000;1.635849
6413.000000;1.635559
6412.000000;1.635461
6411.000000;1.635169
6410.000000;1.634381
6409.000000;1.633136
6408.000000;1.631796
6407.000000;1.630763
6406.000000;1.630179
6405.000000;1.629828
6404.000000;1.629318
6403.000000;1.628416
6402.000000;1.627213
6401.000000;1.625950
6400.000000;1.624729
6399.000000;1.623520
6398.000000;1.622373
6397.000000;1.621444
6396.000000;1.620766
6395.000000;1.620138
6394.000000;1.619395
6393.000000;1.618628
6392.000000;1.618000
6391.000000;1.617425
6390.000000;1.616647
6389.000000;1.615622
6388.000000;1.614617
6387.000000;1.613860
6386.000000;1.613256
6385.000000;1.612569
6384.000000;1.611754
6383.000000;1.610971
6382.000000;1.610321
6381.000000;1.609735
6380.000000;1.609112
6379.000000;1.608440
6378.000000;1.607736
6377.000000;1.606999
6376.000000;1.606268
6375.000000;1.605652
6374.000000;1.605187
6373.000000;1.604688
6372.000000;1.603895
6371.000000;1.602786
6370.000000;1.601659
6369.000000;1.600827
6368.000000;1.600288
6367.000000;1.599778
6366.000000;1.599124
6365.000000;1.598423
6364.000000;1.597860
6363.000000;1.597470
6362.000000;1.597147
6361.000000;1.596786
6360.000000;1.596314
6359.000000;1.595642
6358.000000;1.594755
6357.000000;1.593845
6356.000000;1.593176
6355.000000;1.592760
6354.000000;1.592271
6353.000000;1.591398
6352.000000;1.590208
6351.000000;1.589070
6350.000000;1.588270
6349.000000;1.587823
6348.000000;1.587566
6347.000000;1.587303
6346.000000;1.586836
6345.000000;1.586039
6344.000000;1.584971
6343.000000;1.583858
6342.000000;1.582868
6341.000000;1.581980
6340.000000;1.581107
6339.000000;1.580257
6338.000000;1.579496
6337.000000;1.578808
6336.000000;1.578129
6335.000000;1.577488
6334.000000;1.577002
6333.000000;1.576692
6332.000000;1.576394
6331.000000;1.575912
6330.000000;1.575210
6329.000000;1.574416
6328.000000;1.573686
6327.000000;1.573104
6326.000000;1.572685
6325.000000;1.572385
6324.000000;1.572107
6323.000000;1.571726
6322.000000;1.571177
6321.000000;1.570531
6320.000000;1.569958
6319.000000;1.569589
6318.000000;1.569370
6317.000000;1.569068
6316.000000;1.568464
6315.000000;1.567540
6314.000000;1.566485
6313.000000;1.565518
6312.000000;1.564740
6311.000000;1.564146
6310.000000;1.563733
6309.000000;1.563519
6308.000000;1.563458
6307.000000;1.563379
6306.000000;1.563049
6305.000000;1.562334
6304.000000;1.561321
6303.000000;1.560288
6302.000000;1.559512
6301.000000;1.559085
6300.000000;1.558876
6299.000000;1.558658
6298.000000;1.558271
6297.000000;1.557677
6296.000000;1.556938
6295.000000;1.556148
6294.000000;1.555373
6293.000000;1.554614
6292.000000;1.553839
6291.000000;1.553066
6290.000000;1.552385
6289.000000;1.551865
6288.000000;1.551478
6287.000000;1.551167
6286.000000;1.550943
6285.000000;1.550845
6284.000000;1.550797
6283.000000;1.550613
6282.000000;1.550185
6281.000000;1.549596
6280.000000;1.548990
6279.000000;1.548392
6278.000000;1.547737
6277.000000;1.547036
6276.000000;1.546385
6275.000000;1.545806
6274.000000;1.545196
6273.000000;1.544515
6272.000000;1.543915
6271.000000;1.543587
6270.000000;1.543495
6269.000000;1.543391
6268.000000;1.543082
6267.000000;1.542593
6266.000000;1.542062
6265.000000;1.541561
6264.000000;1.541073
6263.000000;1.540539
6262.000000;1.539900
6261.000000;1.539134
6260.000000;1.538329
6259.000000;1.537661
6258.000000;1.537225
6257.000000;1.536934
6256.000000;1.536632
6255.000000;1.536283
6254.000000;1.535937
6253.000000;1.535562
6252.000000;1.535050
6251.000000;1.534414
6250.000000;1.533852
6249.000000;1.533511
6248.000000;1.533298
6247.000000;1.533001
6246.000000;1.532567
6245.000000;1.532144
6244.000000;1.531861
6243.000000;1.531663
6242.000000;1.531386
6241.000000;1.530947
6240.000000;1.530406
6239.000000;1.529903
6238.000000;1.529537
6237.000000;1.529304
6236.000000;1.529080
6235.000000;1.528702
6234.000000;1.528098
6233.000000;1.527346
6232.000000;1.526625
6231.000000;1.526082
6230.000000;1.525746
6229.000000;1.525546
6228.000000;1.525394
6227.000000;1.525237
6226.000000;1.525064
6225.000000;1.524863
6224.000000;1.524583
6223.000000;1.524156
6222.000000;1.523567
6221.000000;1.522918
6220.000000;1.522387
6219.000000;1.522087
6218.000000;1.521943
6217.000000;1.521750
6216.000000;1.521373
6215.000000;1.520861
6214.000000;1.520348
6213.000000;1.519869
6212.000000;1.519346
6211.000000;1.518750
6210.000000;1.518204
6209.000000;1.517874
6208.000000;1.517789
6207.000000;1.517816
6206.000000;1.517789
6205.000000;1.517634
6204.000000;1.517351
6203.000000;1.516936
6202.000000;1.516371
6201.000000;1.515689
6200.000000;1.515013
6199.000000;1.514499
6198.000000;1.514223
6197.000000;1.514140
6196.000000;1.514152
6195.000000;1.514162
6194.000000;1.514052
6193.000000;1.513654
6192.000000;1.512858
6191.000000;1.511797
6190.000000;1.510845
6189.000000;1.510347
6188.000000;1.510330
6187.000000;1.510502
6186.000000;1.510516
6185.000000;1.510230
6184.000000;1.509733
6183.000000;1.509207
6182.000000;1.508789
6181.000000;1.508522
6180.000000;1.508358
6179.000000;1.508202
6178.000000;1.507976
6177.000000;1.507697
6176.000000;1.507458
6175.000000;1.507332
6174.000000;1.507267
6173.000000;1.507107
6172.000000;1.506739
6171.000000;1.506212
6170.000000;1.505695
6169.000000;1.505333
6168.000000;1.505163
6167.000000;1.505122
6166.000000;1.505093
6165.000000;1.504936
6164.000000;1.504564
6163.000000;1.504023
6162.000000;1.503477
6161.000000;1.503067
6160.000000;1.502803
6159.000000;1.502610
6158.000000;1.502461
6157.000000;1.502384
6156.000000;1.502337
6155.000000;1.502165
6154.000000;1.501728
6153.000000;1.501079
6152.000000;1.500436
6151.000000;1.499967
6150.000000;1.499645
6149.000000;1.499330
6148.000000;1.498973
6147.000000;1.498649
6146.000000;1.498404
6145.000000;1.498138
6144.000000;1.497724
6143.000000;1.497191
6142.000000;1.496734
6141.000000;1.496499
6140.000000;1.496436
6139.000000;1.496371
6138.000000;1.496184
6137.000000;1.495884
6136.000000;1.495563
6135.000000;1.495312
6134.000000;1.495157
6133.000000;1.495049
6132.000000;1.494925
6131.000000;1.494768
6130.000000;1.494604
6129.000000;1.494414
6128.000000;1.494126
6127.000000;1.493708
6126.000000;1.493260
6125.000000;1.492924
6124.000000;1.492752
6123.000000;1.492675
6122.000000;1.492598
6121.000000;1.492460
6120.000000;1.492241
6119.000000;1.491954
6118.000000;1.491657
6117.000000;1.491405
6116.000000;1.491179
6115.000000;1.490906
6114.000000;1.490551
6113.000000;1.490156
6112.000000;1.489772
6111.000000;1.489409
6110.000000;1.489079
6109.000000;1.488834
6108.000000;1.488715
6107.000000;1.488696
6106.000000;1.488701
6105.000000;1.488662
6104.000000;1.488535
6103.000000;1.488307
6102.000000;1.488029
6101.000000;1.487827
6100.000000;1.487791
6099.000000;1.487856
6098.000000;1.487835
6097.000000;1.487618
6096.000000;1.487293
6095.000000;1.487043
6094.000000;1.486940
6093.000000;1.486863
6092.000000;1.486605
6091.000000;1.486073
6090.000000;1.485383
6089.000000;1.484790
6088.000000;1.484477
6087.000000;1.484406
6086.000000;1.484379
6085.000000;1.484249
6084.000000;1.484043
6083.000000;1.483862
6082.000000;1.483743
6081.000000;1.483648
6080.000000;1.483562
6079.000000;1.483481
6078.000000;1.483337
6077.000000;1.483043
6076.000000;1.482647
6075.000000;1.482347
6074.000000;1.482280
6073.000000;1.482353
6072.000000;1.482344
6071.000000;1.482121
6070.000000;1.481708
6069.000000;1.481197
6068.000000;1.480686
6067.000000;1.480294
6066.000000;1.480124
6065.000000;1.480154
6064.000000;1.480243
6063.000000;1.480265
6062.000000;1.480234
6061.000000;1.480249
6060.000000;1.480340
6059.000000;1.480416
6058.000000;1.480342
6057.000000;1.480066
6056.000000;1.479669
6055.000000;1.479283
6054.000000;1.478977
6053.000000;1.478711
6052.000000;1.478424
6051.000000;1.478116
6050.000000;1.477817
6049.000000;1.477517
6048.000000;1.477171
6047.000000;1.476780
6046.000000;1.476417
6045.000000;1.476172
6044.000000;1.476096
6043.000000;1.476199
6042.000000;1.476445
6041.000000;1.476746
6040.000000;1.476994
6039.000000;1.477136
6038.000000;1.477166
6037.000000;1.477053
6036.000000;1.476746
6035.000000;1.476278
6034.000000;1.475820
6033.000000;1.475563
6032.000000;1.475535
6031.000000;1.475574
6030.000000;1.475464
6029.000000;1.475125
6028.000000;1.474688
6027.000000;1.474384
6026.000000;1.474350
6025.000000;1.474521
6024.000000;1.474708
6023.000000;1.474783
6022.000000;1.474745
6021.000000;1.474641
6020.000000;1.474471
6019.000000;1.474210
6018.000000;1.473868
6017.000000;1.473509
6016.000000;1.473224
6015.000000;1.473098
6014.000000;1.473159
6013.000000;1.473326
6012.000000;1.473444
6011.000000;1.473424
6010.000000;1.473338
6009.000000;1.473324
6008.000000;1.473417
6007.000000;1.473491
6006.000000;1.473404
6005.000000;1.473159
6004.000000;1.472911
6003.000000;1.472810
6002.000000;1.472833
6001.000000;1.472804
6000.000000;1.472597
5999.000000;1.472289
5998.000000;1.472065
5997.000000;1.472012
5996.000000;1.472053
5995.000000;1.472110
5994.000000;1.472214
5993.000000;1.472413
5992.000000;1.472647
5991.000000;1.472777
5990.000000;1.472730
5989.000000;1.472532
5988.000000;1.472251
5987.000000;1.471969
5986.000000;1.471795
5985.000000;1.471827
5984.000000;1.472049
5983.000000;1.472308
5982.000000;1.472413
5981.000000;1.472257
5980.000000;1.471873
5979.000000;1.471416
5978.000000;1.471087
5977.000000;1.471022
5976.000000;1.471208
5975.000000;1.471490
5974.000000;1.471685
5973.000000;1.471687
5972.000000;1.471505
5971.000000;1.471231
5970.000000;1.470986
5969.000000;1.470862
5968.000000;1.470870
5967.000000;1.470938
5966.000000;1.470969
5965.000000;1.470922
5964.000000;1.470835
5963.000000;1.470758
5962.000000;1.470699
5961.000000;1.470644
5960.000000;1.470613
5959.000000;1.470646
5958.000000;1.470730
5957.000000;1.470782
5956.000000;1.470750
5955.000000;1.470692
5954.000000;1.470711
5953.000000;1.470837
5952.000000;1.471009
5951.000000;1.471161
5950.000000;1.471266
5949.000000;1.471303
5948.000000;1.471260
5947.000000;1.471166
5946.000000;1.471077
5945.000000;1.471006
5944.000000;1.470898
5943.000000;1.470715
5942.000000;1.470511
5941.000000;1.470409
5940.000000;1.470505
5939.000000;1.470794
5938.000000;1.471168
5937.000000;1.471491
5936.000000;1.471701
5935.000000;1.471823
5934.000000;1.471881
5933.000000;1.471829
5932.000000;1.471629
5931.000000;1.471366
5930.000000;1.471180
5929.000000;1.471118
5928.000000;1.471123
5927.000000;1.471184
5926.000000;1.471371
5925.000000;1.471698
5924.000000;1.472025
5923.000000;1.472172
5922.000000;1.472097
5921.000000;1.471923
5920.000000;1.471826
5919.000000;1.471907
5918.000000;1.472126
5917.000000;1.472327
5916.000000;1.472395
5915.000000;1.472394
5914.000000;1.472488
5913.000000;1.472714
5912.000000;1.472920
5911.000000;1.472973
5910.000000;1.472939
5909.000000;1.472985
5908.000000;1.473177
5907.000000;1.473422
5906.000000;1.473579
5905.000000;1.473546
5904.000000;1.473320
5903.000000;1.473024
5902.000000;1.472851
5901.000000;1.472883
5900.000000;1.473001
5899.000000;1.473035
5898.000000;1.472960
5897.000000;1.472903
5896.000000;1.472966
5895.000000;1.473135
5894.000000;1.473354
5893.000000;1.473606
5892.000000;1.473892
5891.000000;1.474164
5890.000000;1.474315
5889.000000;1.474266
5888.000000;1.474083
5887.000000;1.473975
5886.000000;1.474091
5885.000000;1.474342
5884.000000;1.474482
5883.000000;1.474412
5882.000000;1.474295
5881.000000;1.474342
5880.000000;1.474579
5879.000000;1.474900
5878.000000;1.475236
5877.000000;1.475570
5876.000000;1.475847
5875.000000;1.476000
5874.000000;1.476049
5873.000000;1.476059
5872.000000;1.476047
5871.000000;1.475999
5870.000000;1.475967
5869.000000;1.476045
5868.000000;1.476268
5867.000000;1.476603
5866.000000;1.477023
5865.000000;1.477501
5864.000000;1.477958
5863.000000;1.478294
5862.000000;1.478498
5861.000000;1.478632
5860.000000;1.478740
5859.000000;1.478830
5858.000000;1.478928
5857.000000;1.479052
5856.000000;1.479155
5855.000000;1.479185
5854.000000;1.479211
5853.000000;1.479374
5852.000000;1.479714
5851.000000;1.480119
5850.000000;1.480457
5849.000000;1.480691
5848.000000;1.480828
5847.000000;1.480875
5846.000000;1.480855
5845.000000;1.480821
5844.000000;1.480797
5843.000000;1.480767
5842.000000;1.480747
5841.000000;1.480826
5840.000000;1.481098
5839.000000;1.481575
5838.000000;1.482172
5837.000000;1.482742
5836.000000;1.483149
5835.000000;1.483349
5834.000000;1.483430
5833.000000;1.483539
5832.000000;1.483758
5831.000000;1.484073
5830.000000;1.484424
5829.000000;1.484753
5828.000000;1.485032
5827.000000;1.485325
5826.000000;1.485768
5825.000000;1.486400
5824.000000;1.487030
5823.000000;1.487380
5822.000000;1.487389
5821.000000;1.487275
5820.000000;1.487283
5819.000000;1.487457
5818.000000;1.487703
5817.000000;1.487967
5816.000000;1.488282
5815.000000;1.488689
5814.000000;1.489168
5813.000000;1.489641
5812.000000;1.490024
5811.000000;1.490295
5810.000000;1.490529
5809.000000;1.490821
5808.000000;1.491189
5807.000000;1.491596
5806.000000;1.492033
5805.000000;1.492508
5804.000000;1.492948
5803.000000;1.493239
5802.000000;1.493388
5801.000000;1.493579
5800.000000;1.493991
5799.000000;1.494624
5798.000000;1.495318
5797.000000;1.495910
5796.000000;1.496329
5795.000000;1.496619
5794.000000;1.496916
5793.000000;1.497347
5792.000000;1.497891
5791.000000;1.498381
5790.000000;1.498675
5789.000000;1.498810
5788.000000;1.498931
5787.000000;1.499138
5786.000000;1.499451
5785.000000;1.499861
5784.000000;1.500352
5783.000000;1.500875
5782.000000;1.501384
5781.000000;1.501886
5780.000000;1.502417
5779.000000;1.502972
5778.000000;1.503495
5777.000000;1.503932
5776.000000;1.504254
5775.000000;1.504448
5774.000000;1.504548
5773.000000;1.504655
5772.000000;1.504887
5771.000000;1.505276
5770.000000;1.505769
5769.000000;1.506320
5768.000000;1.506954
5767.000000;1.507685
5766.000000;1.508424
5765.000000;1.509022
5764.000000;1.509438
5763.000000;1.509815
5762.000000;1.510327
5761.000000;1.510986
5760.000000;1.511631
5759.000000;1.512117
5758.000000;1.512461
5757.000000;1.512766
5756.000000;1.513084
5755.000000;1.513428
5754.000000;1.513867
5753.000000;1.514511
5752.000000;1.515368
5751.000000;1.516284
5750.000000;1.517079
5749.000000;1.517701
5748.000000;1.518237
5747.000000;1.518791
5746.000000;1.519390
5745.000000;1.519988
5744.000000;1.520540
5743.000000;1.521052
5742.000000;1.521553
5741.000000;1.522024
5740.000000;1.522402
5739.000000;1.522681
5738.000000;1.522996
5737.000000;1.523514
5736.000000;1.524261
5735.000000;1.525085
5734.000000;1.525820
5733.000000;1.526431
5732.000000;1.526989
5731.000000;1.527563
5730.000000;1.528184
5729.000000;1.528874
5728.000000;1.529632
5727.000000;1.530409
5726.000000;1.531124
5725.000000;1.531726
5724.000000;1.532239
5723.000000;1.532742
5722.000000;1.533323
5721.000000;1.534038
5720.000000;1.534884
5719.000000;1.535799
5718.000000;1.536709
5717.000000;1.537549
5716.000000;1.538265
5715.000000;1.538804
5714.000000;1.539153
5713.000000;1.539394
5712.000000;1.539688
5711.000000;1.540163
5710.000000;1.540814
5709.000000;1.541533
5708.000000;1.542264
5707.000000;1.543087
5706.000000;1.544119
5705.000000;1.545334
5704.000000;1.546533
5703.000000;1.547516
5702.000000;1.548227
5701.000000;1.548749
5700.000000;1.549187
5699.000000;1.549651
5698.000000;1.550225
5697.000000;1.551033
5696.000000;1.551990
5695.000000;1.552971
5694.000000;1.553897
5693.000000;1.554687
5692.000000;1.555349
5691.000000;1.555920
5690.000000;1.556466
5689.000000;1.557025
5688.000000;1.557627
5687.000000;1.558347
5686.000000;1.559294
5685.000000;1.560473
5684.000000;1.561661
5683.000000;1.562539
5682.000000;1.562998
5681.000000;1.563275
5680.000000;1.563735
5679.000000;1.564542
5678.000000;1.565563
5677.000000;1.566572
5676.000000;1.567477
5675.000000;1.568320
5674.000000;1.569131
5673.000000;1.569857
5672.000000;1.570486
5671.000000;1.571135
5670.000000;1.571948
5669.000000;1.572911
5668.000000;1.573851
5667.000000;1.574610
5666.000000;1.575172
5665.000000;1.575634
5664.000000;1.576138
5663.000000;1.576832
5662.000000;1.577762
5661.000000;1.578760
5660.000000;1.579545
5659.000000;1.580024
5658.000000;1.580406
5657.000000;1.580956
5656.000000;1.581721
5655.000000;1.582587
5654.000000;1.583481
5653.000000;1.584387
5652.000000;1.585226
5651.000000;1.585892
5650.000000;1.586430
5649.000000;1.587008
5648.000000;1.587707
5647.000000;1.588441
5646.000000;1.589120
5645.000000;1.589776
5644.000000;1.590485
5643.000000;1.591250
5642.000000;1.592008
5641.000000;1.592692
5640.000000;1.593266
5639.000000;1.593746
5638.000000;1.594220
5637.000000;1.594778
5636.000000;1.595415
5635.000000;1.596044
5634.000000;1.596621
5633.000000;1.597171
5632.000000;1.597690
5631.000000;1.598115
5630.000000;1.598426
5629.000000;1.598719
5628.000000;1.599110
5627.000000;1.599633
5626.000000;1.600243
5625.000000;1.600872
5624.000000;1.601451
5623.000000;1.601942
5622.000000;1.602373
5621.000000;1.602812
5620.000000;1.603260
5619.000000;1.603656
5618.000000;1.604013
5617.000000;1.604464
5616.000000;1.605109
5615.000000;1.605869
5614.000000;1.606551
5613.000000;1.607036
5612.000000;1.607349
5611.000000;1.607574
5610.000000;1.607769
5609.000000;1.607952
5608.000000;1.608130
5607.000000;1.608332
5606.000000;1.608613
5605.000000;1.609015
5604.000000;1.609520
5603.000000;1.610063
5602.000000;1.610589
5601.000000;1.611072
5600.000000;1.611470
5599.000000;1.611718
5598.000000;1.611780
5597.000000;1.611700
5596.000000;1.611579
5595.000000;1.611529
5594.000000;1.611630
5593.000000;1.611909
5592.000000;1.612347
5591.000000;1.612915
5590.000000;1.613576
5589.000000;1.614230
5588.000000;1.614727
5587.000000;1.614990
5586.000000;1.615123
5585.000000;1.615313
5584.000000;1.615645
5583.000000;1.616078
5582.000000;1.616561
5581.000000;1.617070
5580.000000;1.617523
5579.000000;1.617779
5578.000000;1.617796
5577.000000;1.617706
5576.000000;1.617697
5575.000000;1.617842
5574.000000;1.618083
5573.000000;1.618316
5572.000000;1.618465
5571.000000;1.618506
5570.000000;1.618474
5569.000000;1.618428
5568.000000;1.618396
5567.000000;1.618346
5566.000000;1.618246
5565.000000;1.618117
5564.000000;1.618026
5563.000000;1.618028
5562.000000;1.618127
5561.000000;1.618258
5560.000000;1.618342
5559.000000;1.618376
5558.000000;1.618414
5557.000000;1.618453
5556.000000;1.618403
5555.000000;1.618256
5554.000000;1.618197
5553.000000;1.618442
5552.000000;1.618983
5551.000000;1.619602
5550.000000;1.620108
5549.000000;1.620454
5548.000000;1.620621
5547.000000;1.620559
5546.000000;1.620278
5545.000000;1.619879
5544.000000;1.619460
5543.000000;1.619084
5542.000000;1.618881
5541.000000;1.619017
5540.000000;1.619466
5539.000000;1.619948
5538.000000;1.620207
5537.000000;1.620288
5536.000000;1.620398
5535.000000;1.620550
5534.000000;1.620552
5533.000000;1.620325
5532.000000;1.620051
5531.000000;1.619926
5530.000000;1.619926
5529.000000;1.619905
5528.000000;1.619817
5527.000000;1.619758
5526.000000;1.619815
5525.000000;1.619968
5524.000000;1.620122
5523.000000;1.620205
5522.000000;1.620239
5521.000000;1.620327
5520.000000;1.620546
5519.000000;1.620837
5518.000000;1.621061
5517.000000;1.621155
5516.000000;1.621190
5515.000000;1.621252
5514.000000;1.621335
5513.000000;1.621396
5512.000000;1.621455
5511.000000;1.621571
5510.000000;1.621759
5509.000000;1.622050
5508.000000;1.622530
5507.000000;1.623207
5506.000000;1.623827
5505.000000;1.624025
5504.000000;1.623742
5503.000000;1.623332
5502.000000;1.623125
5501.000000;1.623030
5500.000000;1.622757
5499.000000;1.622356
5498.000000;1.622306
5497.000000;1.622935
5496.000000;1.623904
5495.000000;1.624536
5494.000000;1.624665
5493.000000;1.624864
5492.000000;1.625645
5491.000000;1.626642
5490.000000;1.626998
5489.000000;1.626496
5488.000000;1.625838
5487.000000;1.625742
5486.000000;1.626123
5485.000000;1.626338
5484.000000;1.626026
5483.000000;1.625405
5482.000000;1.624862
5481.000000;1.624694
5480.000000;1.625173
5479.000000;1.626345
5478.000000;1.627656
5477.000000;1.628267
5476.000000;1.628048
5475.000000;1.627884
5474.000000;1.628563
5473.000000;1.629667
5472.000000;1.630222
5471.000000;1.630072
5470.000000;1.629954
5469.000000;1.630512
5468.000000;1.631646
5467.000000;1.632823
5466.000000;1.633706
5465.000000;1.634304
5464.000000;1.634708
5463.000000;1.634925
5462.000000;1.634983
5461.000000;1.635063
5460.000000;1.635427
5459.000000;1.636121
5458.000000;1.636821
5457.000000;1.637207
5456.000000;1.637446
5455.000000;1.638052
5454.000000;1.639223
5453.000000;1.640473
5452.000000;1.641127
5451.000000;1.641151
5450.000000;1.641286
5449.000000;1.642212
5448.000000;1.643654
5447.000000;1.644758
5446.000000;1.645381
5445.000000;1.646355
5444.000000;1.648058
5443.000000;1.649519
5442.000000;1.649672
5441.000000;1.649015
5440.000000;1.649187
5439.000000;1.650854
5438.000000;1.652828
5437.000000;1.653665
5436.000000;1.653402
5435.000000;1.653425
5434.000000;1.654933
5433.000000;1.657655
5432.000000;1.660158
5431.000000;1.661315
5430.000000;1.661372
5429.000000;1.661707
5428.000000;1.663381
5427.000000;1.665914
5426.000000;1.667893
5425.000000;1.668632
5424.000000;1.668680
5423.000000;1.668979
5422.000000;1.669966
5421.000000;1.671399
5420.000000;1.672953
5419.000000;1.674824
5418.000000;1.677445
5417.000000;1.680615
5416.000000;1.683409
5415.000000;1.685228
5414.000000;1.686615
5413.000000;1.688511
5412.000000;1.690886
5411.000000;1.692843
5410.000000;1.694048
5409.000000;1.695199
5408.000000;1.696987
5407.000000;1.699281
5406.000000;1.701572
5405.000000;1.703747
5404.000000;1.706072
5403.000000;1.708655
5402.000000;1.711386
5401.000000;1.714148
5400.000000;1.716837
5399.000000;1.719485
5398.000000;1.722440
5397.000000;1.725984
5396.000000;1.729701
5395.000000;1.732802
5394.000000;1.735164
5393.000000;1.737496
5392.000000;1.740358
5391.000000;1.743642
5390.000000;1.747184
5389.000000;1.751074
5388.000000;1.755220
5387.000000;1.759218
5386.000000;1.762935
5385.000000;1.766842
5384.000000;1.771272
5383.000000;1.775843
5382.000000;1.780253
5381.000000;1.784929
5380.000000;1.790198
5379.000000;1.795529
5378.000000;1.800344
5377.000000;1.805053
5376.000000;1.810444
5375.000000;1.816337
5374.000000;1.821850
5373.000000;1.826808
5372.000000;1.831910
5371.000000;1.837650
5370.000000;1.843900
5369.000000;1.850472
5368.000000;1.857420
5367.000000;1.864620
5366.000000;1.871595
5365.000000;1.878152
5364.000000;1.884774
5363.000000;1.892036
5362.000000;1.899889
5361.000000;1.907791
5360.000000;1.915415
5359.000000;1.923078
5358.000000;1.931441
5357.000000;1.940680
5356.000000;1.950154
5355.000000;1.959175
5354.000000;1.968020
5353.000000;1.977707
5352.000000;1.988470
5351.000000;1.999183
5350.000000;2.008916
5349.000000;2.018291
5348.000000;2.028457
5347.000000;2.039417
5346.000000;2.050295
5345.000000;2.060997
5344.000000;2.072585
5343.000000;2.085570
5342.000000;2.098847
5341.000000;2.111039
5340.000000;2.122115
5339.000000;2.133335
5338.000000;2.146076
5337.000000;2.160615
5336.000000;2.175928
5335.000000;2.190679
5334.000000;2.204297
5333.000000;2.217358
5332.000000;2.231064
5331.000000;2.245967
5330.000000;2.261245
5329.000000;2.275689
5328.000000;2.289213
5327.000000;2.302913
5326.000000;2.317535
5325.000000;2.332442
5324.000000;2.346702
5323.000000;2.360585
5322.000000;2.375076
5321.000000;2.390252
5320.000000;2.405128
5319.000000;2.419080
5318.000000;2.432603
5317.000000;2.446460
5316.000000;2.460751
5315.000000;2.475089
5314.000000;2.489054
5313.000000;2.502245
5312.000000;2.514549
5311.000000;2.526506
5310.000000;2.538708
5309.000000;2.550673
5308.000000;2.561138
5307.000000;2.569784
5306.000000;2.577744
5305.000000;2.585934
5304.000000;2.593925
5303.000000;2.601047
5302.000000;2.607469
5301.000000;2.613459
5300.000000;2.618593
5299.000000;2.622750
5298.000000;2.627109
5297.000000;2.632945
5296.000000;2.639965
5295.000000;2.646752
5294.000000;2.652271
5293.000000;2.656224
5292.000000;2.658667
5291.000000;2.660267
5290.000000;2.662323
5289.000000;2.665401
5288.000000;2.668338
5287.000000;2.669673
5286.000000;2.669548
5285.000000;2.669283
5284.000000;2.669640
5283.000000;2.670337
5282.000000;2.670959
5281.000000;2.671523
5280.000000;2.672223
5279.000000;2.673332
5278.000000;2.675127
5277.000000;2.677252
5276.000000;2.678531
5275.000000;2.678287
5274.000000;2.677438
5273.000000;2.677350
5272.000000;2.677978
5271.000000;2.678037
5270.000000;2.676963
5269.000000;2.675792
5268.000000;2.675803
5267.000000;2.676972
5266.000000;2.678314
5265.000000;2.679258
5264.000000;2.680058
5263.000000;2.680964
5262.000000;2.681385
5261.000000;2.680291
5260.000000;2.677588
5259.000000;2.674727
5258.000000;2.673443
5257.000000;2.674037
5256.000000;2.675302
5255.000000;2.676092
5254.000000;2.676541
5253.000000;2.677531
5252.000000;2.679470
5251.000000;2.681835
5250.000000;2.683713
5249.000000;2.684749
5248.000000;2.685568
5247.000000;2.686917
5246.000000;2.688536
5245.000000;2.689456
5244.000000;2.689368
5243.000000;2.689021
5242.000000;2.688827
5241.000000;2.687920
5240.000000;2.685573
5239.000000;2.682881
5238.000000;2.681627
5237.000000;2.681766
5236.000000;2.681616
5235.000000;2.680518
5234.000000;2.679652
5233.000000;2.679957
5232.000000;2.680916
5231.000000;2.681996
5230.000000;2.683868
5229.000000;2.686873
5228.000000;2.689379
5227.000000;2.689416
5226.000000;2.687291
5225.000000;2.685100
5224.000000;2.683938
5223.000000;2.683062
5222.000000;2.681940
5221.000000;2.681470
5220.000000;2.682408
5219.000000;2.683670
5218.000000;2.683159
5217.000000;2.680212
5216.000000;2.676643
5215.000000;2.675103
5214.000000;2.676685
5213.000000;2.680169
5212.000000;2.683485
5211.000000;2.685778
5210.000000;2.687585
5209.000000;2.689164
5208.000000;2.689770
5207.000000;2.689028
5206.000000;2.687947
5205.000000;2.687659
5204.000000;2.687976
5203.000000;2.688104
5202.000000;2.687948
5201.000000;2.687761
5200.000000;2.687155
5199.000000;2.685524
5198.000000;2.683216
5197.000000;2.681367
5196.000000;2.680544
5195.000000;2.680265
5194.000000;2.679968
5193.000000;2.679815
5192.000000;2.680347
5191.000000;2.681808
5190.000000;2.683689
5189.000000;2.684566
5188.000000;2.682985
5187.000000;2.679332
5186.000000;2.676313
5185.000000;2.676651
5184.000000;2.680252
5183.000000;2.684232
5182.000000;2.686005
5181.000000;2.685654
5180.000000;2.684981
5179.000000;2.685211
5178.000000;2.686111
5177.000000;2.686783
5176.000000;2.686789
5175.000000;2.686628
5174.000000;2.687157
5173.000000;2.688464
5172.000000;2.689542
5171.000000;2.689418
5170.000000;2.688345
5169.000000;2.687292
5168.000000;2.686578
5167.000000;2.685916
5166.000000;2.685630
5165.000000;2.686665
5164.000000;2.688949
5163.000000;2.690613
5162.000000;2.689656
5161.000000;2.686177
5160.000000;2.682312
5159.000000;2.680102
5158.000000;2.679859
5157.000000;2.680424
5156.000000;2.680714
5155.000000;2.680883
5154.000000;2.681853
5153.000000;2.683742
5152.000000;2.685099
5151.000000;2.684134
5150.000000;2.680713
5149.000000;2.676697
5148.000000;2.674238
5147.000000;2.674134
5146.000000;2.675775
5145.000000;2.678222
5144.000000;2.680736
5143.000000;2.682684
5142.000000;2.683730
5141.000000;2.684168
5140.000000;2.684724
5139.000000;2.685878
5138.000000;2.687411
5137.000000;2.688616
5136.000000;2.688949
5135.000000;2.688360
5134.000000;2.686914
5133.000000;2.684373
5132.000000;2.680597
5131.000000;2.676370
5130.000000;2.673317
5129.000000;2.672558
5128.000000;2.673626
5127.000000;2.675048
5126.000000;2.675818
5125.000000;2.675925
5124.000000;2.675631
5123.000000;2.674892
5122.000000;2.673606
5121.000000;2.672010
5120.000000;2.670643
5119.000000;2.670127
5118.000000;2.670965
5117.000000;2.673046
5116.000000;2.675319
5115.000000;2.676587
5114.000000;2.676803
5113.000000;2.677119
5112.000000;2.678369
5111.000000;2.679813
5110.000000;2.679821
5109.000000;2.677676
5108.000000;2.674290
5107.000000;2.671273
5106.000000;2.669648
5105.000000;2.669460
5104.000000;2.670324
5103.000000;2.672072
5102.000000;2.674714
5101.000000;2.677846
5100.000000;2.680377
5099.000000;2.681238
5098.000000;2.680463
5097.000000;2.679185
5096.000000;2.678381
5095.000000;2.677899
5094.000000;2.677037
5093.000000;2.675905
5092.000000;2.675509
5091.000000;2.676261
5090.000000;2.677033
5089.000000;2.676413
5088.000000;2.674789
5087.000000;2.674317
5086.000000;2.676463
5085.000000;2.680137
5084.000000;2.682761
5083.000000;2.682980
5082.000000;2.681681
5081.000000;2.680361
5080.000000;2.679422
5079.000000;2.678410
5078.000000;2.677174
5077.000000;2.676005
5076.000000;2.674987
5075.000000;2.673907
5074.000000;2.672836
5073.000000;2.672347
5072.000000;2.672941
5071.000000;2.674401
5070.000000;2.675839
5069.000000;2.676326
5068.000000;2.675558
5067.000000;2.674034
5066.000000;2.672528
5065.000000;2.671329
5064.000000;2.670144
5063.000000;2.668779
5062.000000;2.667556
5061.000000;2.666755
5060.000000;2.666056
5059.000000;2.665119
5058.000000;2.664519
5057.000000;2.665488
5056.000000;2.668581
5055.000000;2.672883
5054.000000;2.676459
5053.000000;2.677450
5052.000000;2.675140
5051.000000;2.670582
5050.000000;2.666092
5049.000000;2.663603
5048.000000;2.663217
5047.000000;2.663590
5046.000000;2.663843
5045.000000;2.664615
5044.000000;2.666883
5043.000000;2.670295
5042.000000;2.673174
5041.000000;2.673898
5040.000000;2.671920
5039.000000;2.667907
5038.000000;2.663532
5037.000000;2.660896
5036.000000;2.661265
5035.000000;2.664001
5034.000000;2.667055
5033.000000;2.668703
5032.000000;2.668660
5031.000000;2.667645
5030.000000;2.666491
5029.000000;2.665792
5028.000000;2.665721
5027.000000;2.665557
5026.000000;2.663894
5025.000000;2.660273
5024.000000;2.656335
5023.000000;2.654503
5022.000000;2.655598
5021.000000;2.658157
5020.000000;2.660108
5019.000000;2.660721
5018.000000;2.660558
5017.000000;2.660067
5016.000000;2.659028
5015.000000;2.657287
5014.000000;2.655444
5013.000000;2.654426
5012.000000;2.654608
5011.000000;2.655620
5010.000000;2.656702
5009.000000;2.657046
5008.000000;2.656146
5007.000000;2.654295
5006.000000;2.652725
5005.000000;2.652815
5004.000000;2.654743
5003.000000;2.656996
5002.000000;2.657538
5001.000000;2.655559
5000.000000;2.652254
4999.000000;2.649586
4998.000000;2.648661
4997.000000;2.648960
4996.000000;2.649094
4995.000000;2.648431
4994.000000;2.647748
4993.000000;2.647902
4992.000000;2.648198
4991.000000;2.646884
4990.000000;2.643331
4989.000000;2.638999
4988.000000;2.635717
4987.000000;2.633685
4986.000000;2.632025
4985.000000;2.630605
4984.000000;2.630144
4983.000000;2.630798
4982.000000;2.631882
4981.000000;2.632959
4980.000000;2.633939
4979.000000;2.633963
4978.000000;2.631796
4977.000000;2.627881
4976.000000;2.624492
4975.000000;2.622891
4974.000000;2.621695
4973.000000;2.619260
4972.000000;2.616603
4971.000000;2.616205
4970.000000;2.618401
4969.000000;2.620837
4968.000000;2.621509
4967.000000;2.620822
4966.000000;2.620118
4965.000000;2.619760
4964.000000;2.619398
4963.000000;2.618771
4962.000000;2.617366
4961.000000;2.614422
4960.000000;2.610253
4959.000000;2.606655
4958.000000;2.604984
4957.000000;2.604487
4956.000000;2.603497
4955.000000;2.601691
4954.000000;2.600016
4953.000000;2.598751
4952.000000;2.596952
4951.000000;2.593952
4950.000000;2.590479
4949.000000;2.588042
4948.000000;2.587727
4947.000000;2.589600
4946.000000;2.592579
4945.000000;2.594821
4944.000000;2.594920
4943.000000;2.593043
4942.000000;2.590517
4941.000000;2.588246
4940.000000;2.586098
4939.000000;2.583728
4938.000000;2.581260
4937.000000;2.578932
4936.000000;2.576684
4935.000000;2.574512
4934.000000;2.572823
4933.000000;2.571930
4932.000000;2.571255
4931.000000;2.569493
4930.000000;2.565849
4929.000000;2.561052
4928.000000;2.556952
4927.000000;2.554930
4926.000000;2.554611
4925.000000;2.554293
4924.000000;2.552846
4923.000000;2.550990
4922.000000;2.550234
4921.000000;2.550808
4920.000000;2.551431
4919.000000;2.551029
4918.000000;2.549821
4917.000000;2.548574
4916.000000;2.547406
4915.000000;2.545748
4914.000000;2.543220
4913.000000;2.540038
4912.000000;2.536690
4911.000000;2.533685
4910.000000;2.531526
4909.000000;2.530422
4908.000000;2.529942
4907.000000;2.529269
4906.000000;2.527897
4905.000000;2.525831
4904.000000;2.523115
4903.000000;2.519635
4902.000000;2.515609
4901.000000;2.511930
4900.000000;2.509538
4899.000000;2.508491
4898.000000;2.507915
4897.000000;2.506912
4896.000000;2.505277
4895.000000;2.503266
4894.000000;2.501039
4893.000000;2.498675
4892.000000;2.496549
4891.000000;2.495239
4890.000000;2.494826
4889.000000;2.494507
4888.000000;2.493175
4887.000000;2.490364
4886.000000;2.486466
4885.000000;2.482135
4884.000000;2.477852
4883.000000;2.474148
4882.000000;2.471754
4881.000000;2.470978
4880.000000;2.470880
4879.000000;2.469720
4878.000000;2.466752
4877.000000;2.463270
4876.000000;2.461242
4875.000000;2.460948
4874.000000;2.460600
4873.000000;2.458496
4872.000000;2.454965
4871.000000;2.451601
4870.000000;2.449142
4869.000000;2.446977
4868.000000;2.444522
4867.000000;2.442101
4866.000000;2.440146
4865.000000;2.438229
4864.000000;2.435487
4863.000000;2.431755
4862.000000;2.427836
4861.000000;2.424740
4860.000000;2.422911
4859.000000;2.422049
4858.000000;2.421402
4857.000000;2.420328
4856.000000;2.418701
4855.000000;2.416810
4854.000000;2.414875
4853.000000;2.412780
4852.000000;2.410333
4851.000000;2.407452
4850.000000;2.403979
4849.000000;2.399822
4848.000000;2.395549
4847.000000;2.392305
4846.000000;2.390669
4845.000000;2.389905
4844.000000;2.388738
4843.000000;2.386737
4842.000000;2.384510
4841.000000;2.382611
4840.000000;2.380804
4839.000000;2.378456
4838.000000;2.375268
4837.000000;2.371568
4836.000000;2.368131
4835.000000;2.365747
4834.000000;2.364587
4833.000000;2.363851
4832.000000;2.362287
4831.000000;2.359247
4830.000000;2.355169
4829.000000;2.351079
4828.000000;2.347813
4827.000000;2.345614
4826.000000;2.344032
4825.000000;2.342119
4824.000000;2.339065
4823.000000;2.334914
4822.000000;2.330545
4821.000000;2.326858
4820.000000;2.324055
4819.000000;2.321684
4818.000000;2.319219
4817.000000;2.316589
4816.000000;2.314207
4815.000000;2.312576
4814.000000;2.311748
4813.000000;2.311084
4812.000000;2.309647
4811.000000;2.306949
4810.000000;2.303244
4809.000000;2.299141
4808.000000;2.295085
4807.000000;2.291352
4806.000000;2.288262
4805.000000;2.286096
4804.000000;2.284811
4803.000000;2.283872
4802.000000;2.282474
4801.000000;2.280020
4800.000000;2.276567
4799.000000;2.272847
4798.000000;2.269739
4797.000000;2.267597
4796.000000;2.266118
4795.000000;2.264810
4794.000000;2.263438
4793.000000;2.261962
4792.000000;2.260240
4791.000000;2.258016
4790.000000;2.255258
4789.000000;2.252356
4788.000000;2.249848
4787.000000;2.247907
4786.000000;2.246140
4785.000000;2.243952
4784.000000;2.241127
4783.000000;2.237980
4782.000000;2.234923
4781.000000;2.232027
4780.000000;2.229123
4779.000000;2.226188
4778.000000;2.223409
4777.000000;2.220889
4776.000000;2.218469
4775.000000;2.215897
4774.000000;2.213095
4773.000000;2.210209
4772.000000;2.207432
4771.000000;2.204816
4770.000000;2.202255
4769.000000;2.199654
4768.000000;2.197113
4767.000000;2.194867
4766.000000;2.193033
4765.000000;2.191504
4764.000000;2.190156
4763.000000;2.188970
4762.000000;2.187780
4761.000000;2.186060
4760.000000;2.183283
4759.000000;2.179517
4758.000000;2.175465
4757.000000;2.171861
4756.000000;2.168988
4755.000000;2.166743
4754.000000;2.164923
4753.000000;2.163345
4752.000000;2.161832
4751.000000;2.160204
4750.000000;2.158242
4749.000000;2.155693
4748.000000;2.152481
4747.000000;2.148997
4746.000000;2.145994
4745.000000;2.143995
4744.000000;2.142778
4743.000000;2.141517
4742.000000;2.139511
4741.000000;2.136800
4740.000000;2.134076
4739.000000;2.131961
4738.000000;2.130352
4737.000000;2.128561
4736.000000;2.126131
4735.000000;2.123322
4734.000000;2.120648
4733.000000;2.118219
4732.000000;2.115836
4731.000000;2.113547
4730.000000;2.111612
4729.000000;2.109924
4728.000000;2.107978
4727.000000;2.105621
4726.000000;2.103382
4725.000000;2.101778
4724.000000;2.100626
4723.000000;2.099365
4722.000000;2.097774
4721.000000;2.095942
4720.000000;2.093775
4719.000000;2.091073
4718.000000;2.088106
4717.000000;2.085607
4716.000000;2.084006
4715.000000;2.082990
4714.000000;2.081940
4713.000000;2.080524
4712.000000;2.078732
4711.000000;2.076599
4710.000000;2.074192
4709.000000;2.071702
4708.000000;2.069331
4707.000000;2.067097
4706.000000;2.064927
4705.000000;2.062875
4704.000000;2.061121
4703.000000;2.059742
4702.000000;2.058559
4701.000000;2.057249
4700.000000;2.055589
4699.000000;2.053593
4698.000000;2.051416
4697.000000;2.049157
4696.000000;2.046856
4695.000000;2.044663
4694.000000;2.042842
4693.000000;2.041442
4692.000000;2.040087
4691.000000;2.038319
4690.000000;2.036122
4689.000000;2.033872
4688.000000;2.031811
4687.000000;2.029870
4686.000000;2.028027
4685.000000;2.026500
4684.000000;2.025384
4683.000000;2.024366
4682.000000;2.023029
4681.000000;2.021324
4680.000000;2.019526
4679.000000;2.017868
4678.000000;2.016414
4677.000000;2.015153
4676.000000;2.013945
4675.000000;2.012464
4674.000000;2.010471
4673.000000;2.008157
4672.000000;2.006041
4671.000000;2.004525
4670.000000;2.003671
4669.000000;2.003252
4668.000000;2.002786
4667.000000;2.001660
4666.000000;1.999603
4665.000000;1.997094
4664.000000;1.994990
4663.000000;1.993629
4662.000000;1.992543
4661.000000;1.991116
4660.000000;1.989292
4659.000000;1.987492
4658.000000;1.986077
4657.000000;1.985102
4656.000000;1.984414
4655.000000;1.983743
4654.000000;1.982794
4653.000000;1.981435
4652.000000;1.979786
4651.000000;1.978037
4650.000000;1.976276
4649.000000;1.974604
4648.000000;1.973266
4647.000000;1.972446
4646.000000;1.971921
4645.000000;1.971097
4644.000000;1.969468
4643.000000;1.967041
4642.000000;1.964331
4641.000000;1.962011
4640.000000;1.960491
4639.000000;1.959684
4638.000000;1.959122
4637.000000;1.958364
4636.000000;1.957334
4635.000000;1.956241
4634.000000;1.955253
4633.000000;1.954299
4632.000000;1.953171
4631.000000;1.951753
4630.000000;1.950155
4629.000000;1.948640
4628.000000;1.947375
4627.000000;1.946268
4626.000000;1.945108
4625.000000;1.943871
4624.000000;1.942759
4623.000000;1.941936
4622.000000;1.941347
4621.000000;1.940842
4620.000000;1.940298
4619.000000;1.939519
4618.000000;1.938240
4617.000000;1.936454
4616.000000;1.934621
4615.000000;1.933329
4614.000000;1.932746
4613.000000;1.932520
4612.000000;1.932147
4611.000000;1.931303
4610.000000;1.929932
4609.000000;1.928284
4608.000000;1.926831
4607.000000;1.925912
4606.000000;1.925391
4605.000000;1.924806
4604.000000;1.923882
4603.000000;1.922735
4602.000000;1.921593
4601.000000;1.920510
4600.000000;1.919424
4599.000000;1.918296
4598.000000;1.917119
4597.000000;1.915945
4596.000000;1.914941
4595.000000;1.914268
4594.000000;1.913830
4593.000000;1.913289
4592.000000;1.912398
4591.000000;1.911182
4590.000000;1.909772
4589.000000;1.908283
4588.000000;1.906967
4587.000000;1.906216
4586.000000;1.906169
4585.000000;1.906433
4584.000000;1.906392
4583.000000;1.905776
4582.000000;1.904792
4581.000000;1.903780
4580.000000;1.902958
4579.000000;1.902422
4578.000000;1.902143
4577.000000;1.901894
4576.000000;1.901354
4575.000000;1.900374
4574.000000;1.899114
4573.000000;1.897889
4572.000000;1.896917
4571.000000;1.896162
4570.000000;1.895348
4569.000000;1.894186
4568.000000;1.892728
4567.000000;1.891431
4566.000000;1.890709
4565.000000;1.890457
4564.000000;1.890166
4563.000000;1.889504
4562.000000;1.888586
4561.000000;1.887680
4560.000000;1.886872
4559.000000;1.886146
4558.000000;1.885549
4557.000000;1.885092
4556.000000;1.884577
4555.000000;1.883786
4554.000000;1.882819
4553.000000;1.882057
4552.000000;1.881711
4551.000000;1.881541
4550.000000;1.881094
4549.000000;1.880232
4548.000000;1.879334
4547.000000;1.878953
4546.000000;1.879237
4545.000000;1.879710
4544.000000;1.879642
4543.000000;1.878706
4542.000000;1.877267
4541.000000;1.875995
4540.000000;1.875262
4539.000000;1.874931
4538.000000;1.874679
4537.000000;1.874363
4536.000000;1.874075
4535.000000;1.873932
4534.000000;1.873907
4533.000000;1.873825
4532.000000;1.873473
4531.000000;1.872726
4530.000000;1.871617
4529.000000;1.870326
4528.000000;1.869099
4527.000000;1.868160
4526.000000;1.867620
4525.000000;1.867411
4524.000000;1.867320
4523.000000;1.867153
4522.000000;1.866902
4521.000000;1.866707
4520.000000;1.866643
4519.000000;1.866601
4518.000000;1.866413
4517.000000;1.866044
4516.000000;1.865635
4515.000000;1.865382
4514.000000;1.865402
4513.000000;1.865661
4512.000000;1.865991
4511.000000;1.866191
4510.000000;1.866146
4509.000000;1.865881
4508.000000;1.865529
4507.000000;1.865286
4506.000000;1.865330
4505.000000;1.865666
4504.000000;1.866034
4503.000000;1.866060
4502.000000;1.865555
4501.000000;1.864610
4500.000000;1.863413
4499.000000;1.862140
4498.000000;1.861064
4497.000000;1.860579
4496.000000;1.860891
4495.000000;1.861760
4494.000000;1.862702
4493.000000;1.863433
4492.000000;1.863988
4491.000000;1.864468
4490.000000;1.864859
4489.000000;1.865113
4488.000000;1.865240
4487.000000;1.865285
4486.000000;1.865313
4485.000000;1.865436
4484.000000;1.865737
4483.000000;1.866136
4482.000000;1.866471
4481.000000;1.866719
4480.000000;1.867012
4479.000000;1.867366
4478.000000;1.867587
4477.000000;1.867534
4476.000000;1.867372
4475.000000;1.867434
4474.000000;1.867861
4473.000000;1.868449
4472.000000;1.868803
4471.000000;1.868647
4470.000000;1.868074
4469.000000;1.867522
4468.000000;1.867388
4467.000000;1.867663
4466.000000;1.868001
4465.000000;1.868193
4464.000000;1.868386
4463.000000;1.868784
4462.000000;1.869304
4461.000000;1.869699
4460.000000;1.869924
4459.000000;1.870216
4458.000000;1.870805
4457.000000;1.871631
4456.000000;1.872369
4455.000000;1.872700
4454.000000;1.872568
4453.000000;1.872230
4452.000000;1.872066
4451.000000;1.872375
4450.000000;1.873323
4449.000000;1.874915
4448.000000;1.876854
4447.000000;1.878523
4446.000000;1.879414
4445.000000;1.879607
4444.000000;1.879609
4443.000000;1.879702
4442.000000;1.879736
4441.000000;1.879647
4440.000000;1.879809
4439.000000;1.880600
4438.000000;1.881828
4437.000000;1.882907
4436.000000;1.883534
4435.000000;1.883919
4434.000000;1.884374
4433.000000;1.884936
4432.000000;1.885481
4431.000000;1.885994
4430.000000;1.886610
4429.000000;1.887465
4428.000000;1.888545
4427.000000;1.889671
4426.000000;1.890609
4425.000000;1.891253
4424.000000;1.891760
4423.000000;1.892499
4422.000000;1.893800
4421.000000;1.895604
4420.000000;1.897321
4419.000000;1.898236
4418.000000;1.898253
4417.000000;1.898067
4416.000000;1.898342
4415.000000;1.898898
4414.000000;1.899064
4413.000000;1.898738
4412.000000;1.898545
4411.000000;1.898865
4410.000000;1.899355
4409.000000;1.899689
4408.000000;1.900191
4407.000000;1.901273
4406.000000;1.902675
4405.000000;1.903857
4404.000000;1.904891
4403.000000;1.906298
4402.000000;1.908064
4401.000000;1.909413
4400.000000;1.909699
4399.000000;1.909105
4398.000000;1.908357
4397.000000;1.908105
4396.000000;1.908633
4395.000000;1.909787
4394.000000;1.911075
4393.000000;1.912092
4392.000000;1.912925
4391.000000;1.913907
4390.000000;1.914966
4389.000000;1.915557
4388.000000;1.915398
4387.000000;1.915027
4386.000000;1.915444
4385.000000;1.917270
4384.000000;1.920211
4383.000000;1.923133
4382.000000;1.924731
4381.000000;1.924487
4380.000000;1.923139
4379.000000;1.922037
4378.000000;1.922117
4377.000000;1.923508
4376.000000;1.925749
4375.000000;1.927966
4374.000000;1.929110
4373.000000;1.928695
4372.000000;1.927502
4371.000000;1.927111
4370.000000;1.928535
4369.000000;1.931434
4368.000000;1.934592
4367.000000;1.936833
4366.000000;1.937532
4365.000000;1.936753
4364.000000;1.935270
4363.000000;1.934193
4362.000000;1.934218
4361.000000;1.935182
4360.000000;1.936346
4359.000000;1.937058
4358.000000;1.937254
4357.000000;1.937515
4356.000000;1.938589
4355.000000;1.940605
4354.000000;1.942831
4353.000000;1.944474
4352.000000;1.945510
4351.000000;1.946331
4350.000000;1.946884
4349.000000;1.946870
4348.000000;1.946585
4347.000000;1.946731
4346.000000;1.947266
4345.000000;1.947263
4344.000000;1.946266
4343.000000;1.945070
4342.000000;1.944776
4341.000000;1.945700
4340.000000;1.947569
4339.000000;1.949973
4338.000000;1.952055
4337.000000;1.952558
4336.000000;1.951216
4335.000000;1.949628
4334.000000;1.949688
4333.000000;1.951430
4332.000000;1.953292
4331.000000;1.954293
4330.000000;1.954935
4329.000000;1.955840
4328.000000;1.956611
4327.000000;1.956682
4326.000000;1.956503
4325.000000;1.956938
4324.000000;1.957761
4323.000000;1.957573
4322.000000;1.955480
4321.000000;1.952515
4320.000000;1.951005
4319.000000;1.952547
4318.000000;1.956688
4317.000000;1.961373
4316.000000;1.964361
4315.000000;1.964361
4314.000000;1.961611
4313.000000;1.957854
4312.000000;1.955384
4311.000000;1.955360
4310.000000;1.956794
4309.000000;1.957777
4308.000000;1.957912
4307.000000;1.958565
4306.000000;1.960405
4305.000000;1.961899
4304.000000;1.961197
4303.000000;1.958843
4302.000000;1.957300
4301.000000;1.958024
4300.000000;1.960253
4299.000000;1.962401
4298.000000;1.963253
4297.000000;1.961852
4296.000000;1.957847
4295.000000;1.952476
4294.000000;1.948070
4293.000000;1.946023
4292.000000;1.945770
4291.000000;1.945909
4290.000000;1.945770
4289.000000;1.945533
4288.000000;1.945564
4287.000000;1.946107
4286.000000;1.947033
4285.000000;1.947748
4284.000000;1.947803
4283.000000;1.947694
4282.000000;1.948191
4281.000000;1.948683
4280.000000;1.947298
4279.000000;1.943335
4278.000000;1.938813
4277.000000;1.936541
4276.000000;1.937138
4275.000000;1.938726
4274.000000;1.939235
4273.000000;1.938455
4272.000000;1.937748
4271.000000;1.937995
4270.000000;1.937818
4269.000000;1.934127
4268.000000;1.925602
4267.000000;1.915650
4266.000000;1.910021
4265.000000;1.910938
4264.000000;1.914666
4263.000000;1.915518
4262.000000;1.911967
4261.000000;1.907400
4260.000000;1.905218
4259.000000;1.905264
4258.000000;1.905043
4257.000000;1.902583
4256.000000;1.897277
4255.000000;1.889649
4254.000000;1.881705
4253.000000;1.876382
4252.000000;1.875234
4251.000000;1.876396
4250.000000;1.875316
4249.000000;1.868531
4248.000000;1.857384
4247.000000;1.847219
4246.000000;1.842717
4245.000000;1.843314
4244.000000;1.843722
4243.000000;1.838894
4242.000000;1.829220
4241.000000;1.819535
4240.000000;1.813577
4239.000000;1.810953
4238.000000;1.808698
4237.000000;1.803979
4236.000000;1.795218
4235.000000;1.782633
4234.000000;1.769158
4233.000000;1.759394
4232.000000;1.755345
4231.000000;1.753286
4230.000000;1.746575
4229.000000;1.732935
4228.000000;1.717666
4227.000000;1.708287
4226.000000;1.707107
4225.000000;1.709011
4224.000000;1.705931
4223.000000;1.693926
4222.000000;1.675059
4221.000000;1.652913
4220.000000;1.629703
4219.000000;1.607746
4218.000000;1.589774
4217.000000;1.575899
4216.000000;1.562107
4215.000000;1.544352
4214.000000;1.522987
4213.000000;1.500458
4212.000000;1.476286
4211.000000;1.446963
4210.000000;1.411326
4209.000000;1.373561
4208.000000;1.338550
4207.000000;1.306143
4206.000000;1.271851
4205.000000;1.231497
4204.000000;1.183313
4203.000000;1.127252
4202.000000;1.064438
4201.000000;0.997816
4200.000000;0.934835
4199.000000;0.889436
4198.000000;0.875981
4197.000000;0.900547
4196.000000;0.958890
4195.000000;1.036554
4194.000000;1.116425
4193.000000;1.187783
4192.000000;1.247337
4191.000000;1.296404
4190.000000;1.338730
4189.000000;1.377883
4188.000000;1.414675
4187.000000;1.448816
4186.000000;1.482715
4185.000000;1.520206
4184.000000;1.561493
4183.000000;1.602503
4182.000000;1.640512
4181.000000;1.677121
4180.000000;1.712455
4179.000000;1.741341
4178.000000;1.760373
4177.000000;1.773717
4176.000000;1.788321
4175.000000;1.806576
4174.000000;1.826179
4173.000000;1.845749
4172.000000;1.866532
4171.000000;1.889099
4170.000000;1.912128
4169.000000;1.934391
4168.000000;1.955863
4167.000000;1.974978
4166.000000;1.987622
4165.000000;1.994791
4164.000000;2.003438
4163.000000;2.017485
4162.000000;2.037008
4161.000000;2.059947
4160.000000;2.081756
4159.000000;2.099663
4158.000000;2.117832
4157.000000;2.144180
4156.000000;2.178864
4155.000000;2.209541
4154.000000;2.225107
4153.000000;2.230193
4152.000000;2.234126
4151.000000;2.234761
4150.000000;2.226519
4149.000000;2.216524
4148.000000;2.217220
4147.000000;2.228541
4146.000000;2.239665
4145.000000;2.246596
4144.000000;2.256265
4143.000000;2.272298
4142.000000;2.288124
4141.000000;2.297164
4140.000000;2.303434
4139.000000;2.315485
4138.000000;2.334547
4137.000000;2.353568
4136.000000;2.365715
4135.000000;2.369826
4134.000000;2.368480
4133.000000;2.366961
4132.000000;2.370582
4131.000000;2.379892
4130.000000;2.393962
4129.000000;2.417005
4128.000000;2.452010
4127.000000;2.485072
4126.000000;2.490257
4125.000000;2.466368
4124.000000;2.443450
4123.000000;2.442979
4122.000000;2.459811
4121.000000;2.478549
4120.000000;2.493584
4119.000000;2.508148
4118.000000;2.521893
4117.000000;2.529757
4116.000000;2.532807
4115.000000;2.539022
4114.000000;2.549347
4113.000000;2.553240
4112.000000;2.545790
4111.000000;2.536685
4110.000000;2.533229
4109.000000;2.533234
4108.000000;2.536525
4107.000000;2.549595
4106.000000;2.574757
4105.000000;2.600587
4104.000000;2.610904
4103.000000;2.606183
4102.000000;2.604003
4101.000000;2.614938
4100.000000;2.632217
4099.000000;2.645508
4098.000000;2.651177
4097.000000;2.651558
4096.000000;2.653403
4095.000000;2.659341
4094.000000;2.663604
4093.000000;2.661274
4092.000000;2.658290
4091.000000;2.663158
4090.000000;2.670366
4089.000000;2.664630
4088.000000;2.645384
4087.000000;2.631782
4086.000000;2.639511
4085.000000;2.664518
4084.000000;2.686787
4083.000000;2.686911
4082.000000;2.667847
4081.000000;2.654613
4080.000000;2.662941
4079.000000;2.682898
4078.000000;2.690615
4077.000000;2.677789
4076.000000;2.661608
4075.000000;2.659219
4074.000000;2.673219
4073.000000;2.699448
4072.000000;2.735013
4071.000000;2.776142
4070.000000;2.816464
4069.000000;2.843361
4068.000000;2.848748
4067.000000;2.847930
4066.000000;2.855762
4065.000000;2.874533
4064.000000;2.902300
4063.000000;2.926043
4062.000000;2.923031
4061.000000;2.886871
4060.000000;2.836248
4059.000000;2.795857
4058.000000;2.776958
4057.000000;2.779658
4056.000000;2.801633
4055.000000;2.834802
4054.000000;2.859614
4053.000000;2.865691
4052.000000;2.874152
4051.000000;2.906208
4050.000000;2.951001
4049.000000;2.970928
4048.000000;2.949210
4047.000000;2.913603
4046.000000;2.888212
4045.000000;2.868460
4044.000000;2.846100
4043.000000;2.833169
4042.000000;2.844457
4041.000000;2.878169
4040.000000;2.918908
4039.000000;2.945352
4038.000000;2.944522
4037.000000;2.925026
4036.000000;2.906111
4035.000000;2.898119
4034.000000;2.899403
4033.000000;2.905539
4032.000000;2.915617
4031.000000;2.928128
4030.000000;2.928170
4029.000000;2.896039
4028.000000;2.848267
4027.000000;2.823645
4026.000000;2.838737
4025.000000;2.878763
4024.000000;2.919329
4023.000000;2.945112
4022.000000;2.952488
4021.000000;2.962494
4020.000000;2.991579
4019.000000;3.043535
4018.000000;3.105389
4017.000000;3.125368
4016.000000;3.091879
4015.000000;3.044687
4014.000000;3.014649
4013.000000;3.020815
4012.000000;3.061878
4011.000000;3.108923
4010.000000;3.127874
4009.000000;3.106363
4008.000000;3.062315
4007.000000;3.029002
4006.000000;3.023336
4005.000000;3.052655
4004.000000;3.116836
4003.000000;3.201334
4002.000000;3.286590
4001.000000;3.362435
4000.000000;3.377749
3999.000000;3.288923
3998.000000;3.183158
3997.000000;3.113616
3996.000000;3.084504
3995.000000;3.094813
3994.000000;3.127158
3993.000000;3.140888
3992.000000;3.113599
3991.000000;3.071076
3990.000000;3.043596
3989.000000;3.035689
3988.000000;3.038445
3987.000000;3.045200
3986.000000;3.056131
3985.000000;3.075249
3984.000000;3.093961
3983.000000;3.090565
3982.000000;3.064912
3981.000000;3.044184
3980.000000;3.047598
3979.000000;3.070222
3978.000000;3.093464
3977.000000;3.102300
3976.000000;3.084393
3975.000000;3.033723
3974.000000;2.977311
3973.000000;2.953756
3972.000000;2.976357
3971.000000;3.035444
3970.000000;3.108584
3969.000000;3.163634
3968.000000;3.176531
3967.000000;3.161544
3966.000000;3.151697
3965.000000;3.160869
3964.000000;3.175313
3963.000000;3.163529
3962.000000;3.109181
3961.000000;3.042873
3960.000000;3.008821
3959.000000;3.015382
3958.000000;3.036604
3957.000000;3.042916
3956.000000;3.030296
3955.000000;3.020763
3954.000000;3.029233
3953.000000;3.045864
3952.000000;3.046455
3951.000000;3.017801
3950.000000;2.981031
3949.000000;2.976623
3948.000000;3.023067
3947.000000;3.098345
3946.000000;3.141943
3945.000000;3.121872
3944.000000;3.076332
3943.000000;3.038176
3942.000000;3.064246
3941.000000;3.224591
3940.000000;3.496262
3939.000000;3.665240
3938.000000;3.575518
3937.000000;3.413290
3936.000000;3.327922
3935.000000;3.343993
3934.000000;3.405122
3933.000000;3.383766
3932.000000;3.224796
3931.000000;3.045513
3930.000000;2.940826
3929.000000;2.917787
3928.000000;2.938409
3927.000000;2.957283
3926.000000;2.950653
3925.000000;2.946558
3924.000000;3.029875
3923.000000;3.298067
3922.000000;3.708398
3921.000000;3.696602
3920.000000;3.492154
3919.000000;3.423875
3918.000000;3.438668
3917.000000;3.457090
3916.000000;3.405106
3915.000000;3.332644
3914.000000;3.324309
3913.000000;3.374571
3912.000000;3.438972
3911.000000;3.530741
3910.000000;3.700368
3909.000000;3.830618
3908.000000;3.837114
3907.000000;3.758288
3906.000000;3.696690
3905.000000;3.931525
3904.000000;4.004986
3903.000000;3.458215
3902.000000;3.283741
3901.000000;3.260603
3900.000000;3.266560
3899.000000;3.240192
3898.000000;3.200044
3897.000000;3.183261
3896.000000;3.199229
3895.000000;3.246865
3894.000000;3.297391
3893.000000;3.306090
3892.000000;3.330129
3891.000000;3.394944
3890.000000;3.380592
3889.000000;3.335923
3888.000000;3.336957
3887.000000;3.372194
3886.000000;3.435912
3885.000000;3.502053
3884.000000;3.564381
3883.000000;3.819126
3882.000000;4.005544
3881.000000;3.653133
3880.000000;3.472232
3879.000000;3.410499
3878.000000;3.435322
3877.000000;3.494267
3876.000000;3.532611
3875.000000;3.537647
3874.000000;3.531654
3873.000000;3.544228
3872.000000;3.414561
3871.000000;3.210696
3870.000000;3.089837
3869.000000;3.129511
3868.000000;3.344261
3867.000000;3.377961
3866.000000;3.267091
3865.000000;3.212239
3864.000000;3.298173
3863.000000;3.561915
3862.000000;3.587550
3861.000000;3.521517
3860.000000;3.497030
3859.000000;3.485620
3858.000000;3.477166
3857.000000;3.440983
3856.000000;3.388502
3855.000000;3.405739
3854.000000;3.876424
3853.000000;3.830952
3852.000000;3.900278
3851.000000;3.986917
3850.000000;4.163944
3849.000000;4.169923
3848.000000;4.009743
3847.000000;3.995358
3846.000000;4.197579
3845.000000;4.339757
3844.000000;3.969863
3843.000000;3.704346
3842.000000;3.560708
3841.000000;3.523714
3840.000000;3.575938
3839.000000;3.719078
3838.000000;3.968298
3837.000000;4.210256
3836.000000;4.345987
3835.000000;4.439955
3834.000000;4.199697
3833.000000;3.971677
3832.000000;3.791150
3831.000000;3.616018
3830.000000;3.673882
3829.000000;3.698753
3828.000000;3.535936
3827.000000;3.301101
3826.000000;3.162727
3825.000000;3.211731
3824.000000;3.523303
3823.000000;3.973154
3822.000000;3.888246
3821.000000;3.811359
3820.000000;3.724673
3819.000000;3.518202
3818.000000;3.378413
3817.000000;3.323182
3816.000000;3.302596
3815.000000;3.111089
3814.000000;3.005572
3813.000000;3.077462
3812.000000;3.174701
3811.000000;3.265440
3810.000000;3.378321
3809.000000;3.565768
3808.000000;3.700686
3807.000000;3.659479
3806.000000;3.558538
3805.000000;3.305333
3804.000000;3.097639
3803.000000;2.962004
3802.000000;2.889051
3801.000000;2.977926
3800.000000;3.040368
3799.000000;3.107878
3798.000000;3.428801
3797.000000;3.726986
3796.000000;3.708775
3795.000000;3.582004
3794.000000;3.573995
3793.000000;3.627436
3792.000000;3.731803
3791.000000;3.756553
3790.000000;3.535293
3789.000000;3.401256
3788.000000;3.396689
3787.000000;3.472064
3786.000000;3.540976
3785.000000;3.542624
3784.000000;3.560418
3783.000000;3.570559
3782.000000;3.466379
3781.000000;3.378057
3780.000000;3.335336
3779.000000;3.357223
3778.000000;3.526537
3777.000000;3.822859
3776.000000;4.211580
3775.000000;3.826471
3774.000000;3.562724
3773.000000;3.578497
3772.000000;3.761583
3771.000000;3.781349
3770.000000;3.684753
3769.000000;3.748905
3768.000000;3.879167
3767.000000;3.753741
3766.000000;3.724890
3765.000000;3.782793
3764.000000;3.763430
3763.000000;3.807467
3762.000000;4.148479
3761.000000;4.297108
3760.000000;3.552167
3759.000000;3.271694
3758.000000;3.190870
3757.000000;3.325807
3756.000000;3.354866
3755.000000;3.326617
3754.000000;3.881734
3753.000000;3.948201
3752.000000;4.078916
3751.000000;4.217082
3750.000000;4.681198
3749.000000;4.433031
3748.000000;4.043219
3747.000000;3.890226
3746.000000;3.977539
3745.000000;3.852095
3744.000000;3.581385
3743.000000;3.461725
3742.000000;3.446781
3741.000000;3.468054
3740.000000;3.484543
3739.000000;3.533759
3738.000000;3.673110
3737.000000;3.718597
3736.000000;3.619207
3735.000000;3.678013
3734.000000;3.884328
3733.000000;4.328573
3732.000000;4.506328
3731.000000;3.824027
3730.000000;3.516601
3729.000000;3.401345
3728.000000;3.409388
3727.000000;3.318233
3726.000000;3.444124
3725.000000;3.535057
3724.000000;3.533822
3723.000000;3.322525
3722.000000;3.270610
3721.000000;3.547833
3720.000000;3.706893
3719.000000;3.485425
3718.000000;3.514067
3717.000000;4.174830
3716.000000;3.385893
3715.000000;3.137513
3714.000000;3.107510
3713.000000;3.220923
3712.000000;3.516445
3711.000000;3.179183
3710.000000;2.977253
3709.000000;3.062950
3708.000000;3.270827
3707.000000;3.569618
3706.000000;3.948111
3705.000000;3.647699
3704.000000;3.380875
3703.000000;3.304685
3702.000000;3.350571
3701.000000;3.569687
3700.000000;3.690817
3699.000000;3.485383
3698.000000;3.398553
3697.000000;3.409586
3696.000000;3.588812
3695.000000;3.640321
3694.000000;3.486794
3693.000000;3.674384
3692.000000;3.927309
3691.000000;3.896542
3690.000000;3.672115
3689.000000;3.649076
3688.000000;3.755370
3687.000000;4.054755
3686.000000;4.207207
3685.000000;4.021084
3684.000000;3.959834
3683.000000;3.738946
3682.000000;3.595151
3681.000000;3.562249
3680.000000;3.581764
3679.000000;3.633358
3678.000000;3.847928
3677.000000;4.312237
3676.000000;3.935612
3675.000000;3.695854
3674.000000;3.720218
3673.000000;3.823831
3672.000000;4.081474
3671.000000;3.750236
3670.000000;3.168977
3669.000000;3.226777
3668.000000;3.665175
3667.000000;3.784654
3666.000000;3.545471
3665.000000;3.463025
3664.000000;3.539193
3663.000000;3.899921
3662.000000;3.828872
3661.000000;3.634541
3660.000000;3.723047
3659.000000;4.244498
3658.000000;4.101025
3657.000000;3.986403
3656.000000;4.350597
3655.000000;3.983677
3654.000000;3.693542
3653.000000;3.517408
3652.000000;3.455720
3651.000000;3.483762
3650.000000;3.613769
3649.000000;3.785440
3648.000000;3.961425
3647.000000;4.396153
3646.000000;4.140961
3645.000000;3.845766
3644.000000;3.847788
3643.000000;3.893917
3642.000000;3.942733
3641.000000;4.081481
3640.000000;4.050604
3639.000000;3.645122
3638.000000;3.539000
3637.000000;3.530832
3636.000000;3.592189
3635.000000;3.657784
3634.000000;3.626133
3633.000000;3.456533
3632.000000;3.330717
3631.000000;3.359181
3630.000000;3.589365
3629.000000;3.854346
3628.000000;3.564666
3627.000000;3.557725
3626.000000;3.681894
3625.000000;3.608558
3624.000000;3.481685
3623.000000;3.433959
3622.000000;3.485290
3621.000000;3.703709
3620.000000;3.977811
3619.000000;3.574067
3618.000000;3.272249
3617.000000;3.211749
3616.000000;3.264479
3615.000000;3.333589
3614.000000;3.375548
3613.000000;3.361085
3612.000000;3.305213
3611.000000;3.284428
3610.000000;3.322582
3609.000000;3.411814
3608.000000;3.549912
3607.000000;3.329013
3606.000000;3.127978
3605.000000;3.102291
3604.000000;3.118404
3603.000000;3.101153
3602.000000;3.067690
3601.000000;3.079763
3600.000000;3.208358
3599.000000;3.414913
3598.000000;3.406321
3597.000000;3.295031
3596.000000;3.239967
3595.000000;3.254895
3594.000000;3.376200
3593.000000;3.446050
3592.000000;3.305021
3591.000000;3.202003
3590.000000;3.200076
3589.000000;3.246452
3588.000000;3.497232
3587.000000;3.429165
3586.000000;3.069200
3585.000000;3.071438
3584.000000;3.216512
3583.000000;3.261806
3582.000000;3.159378
3581.000000;3.053597
3580.000000;3.020260
3579.000000;3.058036
3578.000000;3.158420
3577.000000;3.340064
3576.000000;3.698832
3575.000000;3.995875
3574.000000;3.854271
3573.000000;4.189497
3572.000000;4.062758
3571.000000;3.881584
3570.000000;3.942850
3569.000000;4.420217
3568.000000;5.025038
3567.000000;4.152001
3566.000000;3.958687
3565.000000;3.784851
3564.000000;3.933866
3563.000000;3.832675
3562.000000;3.291098
3561.000000;3.270143
3560.000000;3.352132
3559.000000;3.445882
3558.000000;3.400637
3557.000000;3.428515
3556.000000;3.715563
3555.000000;3.702083
3554.000000;3.390031
3553.000000;3.251101
3552.000000;3.261014
3551.000000;3.489283
3550.000000;3.760242
3549.000000;3.485784
3548.000000;3.571115
3547.000000;3.945822
3546.000000;3.368295
3545.000000;3.161606
3544.000000;3.206306
3543.000000;3.405402
3542.000000;3.700745
3541.000000;4.283517
3540.000000;4.073756
3539.000000;3.573730
3538.000000;3.365072
3537.000000;3.237525
3536.000000;3.199642
3535.000000;3.238034
3534.000000;3.298400
3533.000000;3.366116
3532.000000;3.472325
3531.000000;3.468802
3530.000000;3.332593
3529.000000;3.243982
3528.000000;3.283730
3527.000000;3.475297
3526.000000;3.312977
3525.000000;3.070614
3524.000000;2.992661
3523.000000;3.037345
3522.000000;3.173100
3521.000000;3.347832
3520.000000;3.418449
3519.000000;3.351789
3518.000000;3.489620
3517.000000;3.916039
3516.000000;3.586861
3515.000000;3.349346
3514.000000;3.344918
3513.000000;3.425281
3512.000000;3.492595
3511.000000;3.542163
3510.000000;3.640239
3509.000000;3.609679
3508.000000;3.486915
3507.000000;3.355390
3506.000000;3.225116
3505.000000;3.129247
3504.000000;3.066317
3503.000000;3.049777
3502.000000;3.085356
3501.000000;3.173820
3500.000000;3.330633
3499.000000;3.471068
3498.000000;3.495973
3497.000000;3.526334
3496.000000;3.690194
3495.000000;3.856273
3494.000000;3.515609
3493.000000;3.326652
3492.000000;3.298764
3491.000000;3.392811
3490.000000;3.556457
3489.000000;3.637135
3488.000000;3.602905
3487.000000;3.574099
3486.000000;3.580984
3485.000000;3.647688
3484.000000;3.742035
3483.000000;3.658274
3482.000000;3.535289
3481.000000;3.743556
3480.000000;4.004585
3479.000000;3.552040
3478.000000;3.345060
3477.000000;3.272017
3476.000000;3.312890
3475.000000;3.475839
3474.000000;3.423514
3473.000000;3.358541
3472.000000;3.476007
3471.000000;3.646312
3470.000000;3.781908
3469.000000;3.713130
3468.000000;3.549468
3467.000000;3.533909
3466.000000;3.606119
3465.000000;3.632206
3464.000000;3.676644
3463.000000;3.924706
3462.000000;3.856258
3461.000000;3.523405
3460.000000;3.446150
3459.000000;3.473148
3458.000000;3.624869
3457.000000;3.810786
3456.000000;3.597690
3455.000000;3.406665
3454.000000;3.373502
3453.000000;3.394480
3452.000000;3.382408
3451.000000;3.337905
3450.000000;3.321157
3449.000000;3.329937
3448.000000;3.342698
3447.000000;3.426322
3446.000000;3.679104
3445.000000;4.092067
3444.000000;4.453554
3443.000000;4.005767
3442.000000;3.658967
3441.000000;3.452996
3440.000000;3.393749
3439.000000;3.435674
3438.000000;3.454030
3437.000000;3.442420
3436.000000;3.541485
3435.000000;3.949383
3434.000000;3.832488
3433.000000;3.401167
3432.000000;3.295269
3431.000000;3.299839
3430.000000;3.418760
3429.000000;3.537847
3428.000000;3.436120
3427.000000;3.345830
3426.000000;3.421591
3425.000000;3.935225
3424.000000;3.943755
3423.000000;3.587916
3422.000000;3.601254
3421.000000;3.921619
3420.000000;4.141382
3419.000000;3.727309
3418.000000;3.689280
3417.000000;3.877078
3416.000000;4.059406
3415.000000;3.935542
3414.000000;3.816862
3413.000000;3.923799
3412.000000;4.372751
3411.000000;3.871888
3410.000000;3.555973
3409.000000;3.455623
3408.000000;3.457614
3407.000000;3.505490
3406.000000;3.715807
3405.000000;4.030296
3404.000000;3.601763
3403.000000;3.383008
3402.000000;3.396395
3401.000000;3.594856
3400.000000;3.864166
3399.000000;3.704667
3398.000000;3.655648
3397.000000;3.770344
3396.000000;3.654854
3395.000000;3.562850
3394.000000;3.585468
3393.000000;3.609884
3392.000000;3.632721
3391.000000;3.726498
3390.000000;3.621096
3389.000000;3.391512
3388.000000;3.294574
3387.000000;3.289166
3386.000000;3.300691
3385.000000;3.325451
3384.000000;3.470037
3383.000000;3.784632
3382.000000;4.101475
3381.000000;4.152539
3380.000000;3.811560
3379.000000;3.576881
3378.000000;3.553346
3377.000000;3.728467
3376.000000;3.650868
3375.000000;3.418012
3374.000000;3.349818
3373.000000;3.388856
3372.000000;3.553846
3371.000000;3.786154
3370.000000;3.721030
3369.000000;3.528523
3368.000000;3.446893
3367.000000;3.537301
3366.000000;3.810737
3365.000000;3.673837
3364.000000;3.580250
3363.000000;3.615513
3362.000000;3.449936
3361.000000;3.356801
3360.000000;3.517935
3359.000000;3.863048
3358.000000;3.641841
3357.000000;3.515039
3356.000000;3.422358
3355.000000;3.365202
3354.000000;3.447043
3353.000000;3.758226
3352.000000;3.684036
3351.000000;3.351721
3350.000000;3.283988
3349.000000;3.357891
3348.000000;3.669930
3347.000000;3.998163
3346.000000;3.705710
3345.000000;3.691529
3344.000000;3.978885
3343.000000;3.582876
3342.000000;3.289732
3341.000000;3.194523
3340.000000;3.196182
3339.000000;3.299508
3338.000000;3.432132
3337.000000;3.315237
3336.000000;3.165106
3335.000000;3.146568
3334.000000;3.270605
3333.000000;3.566194
3332.000000;3.743767
3331.000000;3.668741
3330.000000;3.755269
3329.000000;3.690593
3328.000000;3.637301
3327.000000;3.792431
3326.000000;4.056704
3325.000000;4.244198
3324.000000;4.104701
3323.000000;3.647101
3322.000000;3.321407
3321.000000;3.167715
3320.000000;3.146277
3319.000000;3.255255
3318.000000;3.361270
3317.000000;3.252706
3316.000000;3.160819
3315.000000;3.176886
3314.000000;3.260014
3313.000000;3.391563
3312.000000;3.567937
3311.000000;3.588287
3310.000000;3.428678
3309.000000;3.370181
3308.000000;3.431944
3307.000000;3.508811
3306.000000;3.445355
3305.000000;3.344002
3304.000000;3.324194
3303.000000;3.468701
3302.000000;3.770465
3301.000000;3.713136
3300.000000;3.579637
3299.000000;3.467666
3298.000000;3.349646
3297.000000;3.357038
3296.000000;3.518130
3295.000000;4.066873
3294.000000;3.825398
3293.000000;3.426346
3292.000000;3.363588
3291.000000;3.419958
3290.000000;3.480191
3289.000000;3.461608
3288.000000;3.537462
3287.000000;3.853493
3286.000000;4.389247
3285.000000;4.079200
3284.000000;4.088950
3283.000000;4.402865
3282.000000;4.235567
3281.000000;3.822316
3280.000000;3.623153
3279.000000;3.643581
3278.000000;3.651393
3277.000000;3.528269
3276.000000;3.509577
3275.000000;3.595060
3274.000000;3.938239
3273.000000;3.918207
3272.000000;3.445641
3271.000000;3.338971
3270.000000;3.395183
3269.000000;3.640862
3268.000000;4.178214
3267.000000;3.855311
3266.000000;3.620991
3265.000000;3.645843
3264.000000;3.507969
3263.000000;3.387680
3262.000000;3.432228
3261.000000;3.644329
3260.000000;3.643629
3259.000000;3.477718
3258.000000;3.470203
3257.000000;3.573380
3256.000000;3.715204
3255.000000;3.818353
3254.000000;3.681436
3253.000000;3.496916
3252.000000;3.491396
3251.000000;3.645377
3250.000000;3.786393
3249.000000;4.065699
3248.000000;4.648434
3247.000000;4.624216
3246.000000;4.358359
3245.000000;3.754258
3244.000000;3.508789
3243.000000;3.455240
3242.000000;3.606731
3241.000000;3.949673
3240.000000;4.146303
3239.000000;3.893746
3238.000000;3.708357
3237.000000;3.664681
3236.000000;3.642012
3235.000000;3.585081
3234.000000;3.585635
3233.000000;3.830096
3232.000000;3.813697
3231.000000;3.627527
3230.000000;3.772935
3229.000000;4.236576
3228.000000;4.170271
3227.000000;3.714568
3226.000000;3.560234
3225.000000;3.611566
3224.000000;3.623030
3223.000000;3.434885
3222.000000;3.296188
3221.000000;3.232253
3220.000000;3.195478
3219.000000;3.215680
3218.000000;3.402550
3217.000000;3.812467
3216.000000;3.719541
3215.000000;3.509016
3214.000000;3.535563
3213.000000;3.595085
3212.000000;3.538530
3211.000000;3.448857
3210.000000;3.472416
3209.000000;3.661384
3208.000000;4.005309
3207.000000;3.982520
3206.000000;3.852147
3205.000000;3.798053
3204.000000;3.710756
3203.000000;3.598614
3202.000000;3.514306
3201.000000;3.540118
3200.000000;3.715425
3199.000000;3.943122
3198.000000;3.911215
3197.000000;3.796122
3196.000000;3.760933
3195.000000;3.730236
3194.000000;3.725478
3193.000000;3.871927
3192.000000;4.014012
3191.000000;4.067009
3190.000000;4.030142
3189.000000;3.834286
3188.000000;3.822551
3187.000000;3.999534
3186.000000;4.139625
3185.000000;4.049467
3184.000000;3.755354
3183.000000;3.460057
3182.000000;3.250479
3181.000000;3.129277
3180.000000;3.106681
3179.000000;3.209348
3178.000000;3.535778
3177.000000;3.949217
3176.000000;3.692075
3175.000000;3.852896
3174.000000;4.719931
3173.000000;3.761584
3172.000000;3.511649
3171.000000;3.478059
3170.000000;3.722441
3169.000000;3.748707
3168.000000;3.380052
3167.000000;3.301140
3166.000000;3.266419
3165.000000;3.220801
3164.000000;3.259624
3163.000000;3.430471
3162.000000;3.645916
3161.000000;3.721866
3160.000000;3.644721
3159.000000;3.500121
3158.000000;3.442614
3157.000000;3.511072
3156.000000;3.733612
3155.000000;3.877109
3154.000000;3.678625
3153.000000;3.582041
3152.000000;3.783966
3151.000000;4.072443
3150.000000;3.754991
3149.000000;3.870076
3148.000000;3.995300
3147.000000;3.621831
3146.000000;3.466680
3145.000000;3.417635
3144.000000;3.479093
3143.000000;3.646118
3142.000000;3.780367
3141.000000;3.770373
3140.000000;3.791735
3139.000000;4.017270
3138.000000;4.104934
3137.000000;3.797625
3136.000000;3.596670
3135.000000;3.441893
3134.000000;3.371105
3133.000000;3.414499
3132.000000;3.576543
3131.000000;3.635389
3130.000000;3.503411
3129.000000;3.392890
3128.000000;3.371887
3127.000000;3.574525
3126.000000;3.518347
3125.000000;3.238103
3124.000000;3.165394
3123.000000;3.230399
3122.000000;3.372543
3121.000000;3.623187
3120.000000;3.946929
3119.000000;3.780655
3118.000000;3.652424
3117.000000;3.766896
3116.000000;3.942193
3115.000000;3.786775
3114.000000;3.662080
3113.000000;3.676333
3112.000000;3.815881
3111.000000;3.819750
3110.000000;3.601780
3109.000000;3.476600
3108.000000;3.390315
3107.000000;3.295671
3106.000000;3.246174
3105.000000;3.278259
3104.000000;3.448129
3103.000000;3.787832
3102.000000;3.599538
3101.000000;3.346919
3100.000000;3.249580
3099.000000;3.198270
3098.000000;3.235454
3097.000000;3.352559
3096.000000;3.443571
3095.000000;3.423139
3094.000000;3.551927
3093.000000;4.127704
3092.000000;3.680841
3091.000000;3.389462
3090.000000;3.358460
3089.000000;3.495820
3088.000000;3.946991
3087.000000;4.304833
3086.000000;3.940110
3085.000000;4.001559
3084.000000;3.871456
3083.000000;3.539405
3082.000000;3.340087
3081.000000;3.330374
3080.000000;3.525506
3079.000000;3.421745
3078.000000;3.188528
3077.000000;3.171806
3076.000000;3.405186
3075.000000;3.827452
3074.000000;3.479358
3073.000000;3.305768
3072.000000;3.347251
3071.000000;3.450040
3070.000000;3.627859
3069.000000;3.697601
3068.000000;3.536981
3067.000000;3.430690
3066.000000;3.445717
3065.000000;3.464207
3064.000000;3.419177
3063.000000;3.377889
3062.000000;3.441823
3061.000000;3.627757
3060.000000;3.532290
3059.000000;3.343226
3058.000000;3.315704
3057.000000;3.418475
3056.000000;3.836610
3055.000000;4.039971
3054.000000;3.623802
3053.000000;3.720297
3052.000000;4.053312
3051.000000;3.700778
3050.000000;3.476058
3049.000000;3.513741
3048.000000;3.640497
3047.000000;3.628976
3046.000000;3.470585
3045.000000;3.396526
3044.000000;3.404060
3043.000000;3.406723
3042.000000;3.403029
3041.000000;3.440050
3040.000000;3.562956
3039.000000;3.819643
3038.000000;3.792967
3037.000000;3.454638
3036.000000;3.262753
3035.000000;3.180694
3034.000000;3.187950
3033.000000;3.272148
3032.000000;3.408992
3031.000000;3.471886
3030.000000;3.353476
3029.000000;3.262091
3028.000000;3.279995
3027.000000;3.427605
3026.000000;3.718223
3025.000000;3.807387
3024.000000;3.726827
3023.000000;3.665672
3022.000000;3.496000
3021.000000;3.365319
3020.000000;3.236685
3019.000000;3.157488
3018.000000;3.168669
3017.000000;3.372752
3016.000000;4.058082
3015.000000;3.601731
3014.000000;3.348268
3013.000000;3.255068
3012.000000;3.155583
3011.000000;3.094258
3010.000000;3.066699
3009.000000;3.105806
3008.000000;3.300309
3007.000000;3.803349
3006.000000;3.641707
3005.000000;3.330543
3004.000000;3.274007
3003.000000;3.270887
3002.000000;3.315046
3001.000000;3.418589
3000.000000;3.522182
2999.000000;3.499135
2998.000000;3.461220
2997.000000;3.555597
2996.000000;3.746967
2995.000000;3.795684
2994.000000;3.649107
2993.000000;3.487555
2992.000000;3.421011
2991.000000;3.500483
2990.000000;3.811776
2989.000000;4.104086
2988.000000;3.769848
2987.000000;3.776605
2986.000000;4.125089
2985.000000;3.906132
2984.000000;3.586262
2983.000000;3.457611
2982.000000;3.451788
2981.000000;3.617851
2980.000000;4.023749
2979.000000;3.877892
2978.000000;3.576443
2977.000000;3.470333
2976.000000;3.386654
2975.000000;3.288350
2974.000000;3.167277
2973.000000;3.066062
2972.000000;3.024954
2971.000000;3.067165
2970.000000;3.207671
2969.000000;3.448862
2968.000000;3.759512
2967.000000;3.792531
2966.000000;3.626909
2965.000000;3.554060
2964.000000;3.514450
2963.000000;3.456433
2962.000000;3.387784
2961.000000;3.313722
2960.000000;3.300118
2959.000000;3.397897
2958.000000;3.762381
2957.000000;4.099873
2956.000000;3.530456
2955.000000;3.380041
2954.000000;3.342945
2953.000000;3.279703
2952.000000;3.222790
2951.000000;3.242529
2950.000000;3.380914
2949.000000;3.592045
2948.000000;3.889598
2947.000000;3.971965
2946.000000;3.879093
2945.000000;4.323077
2944.000000;3.905317
2943.000000;3.456825
2942.000000;3.341171
2941.000000;3.367291
2940.000000;3.494982
2939.000000;3.565313
2938.000000;3.488636
2937.000000;3.406883
2936.000000;3.422632
2935.000000;3.520930
2934.000000;3.631351
2933.000000;3.731903
2932.000000;3.780548
2931.000000;3.742807
2930.000000;3.509735
2929.000000;3.332288
2928.000000;3.316810
2927.000000;3.621302
2926.000000;4.364861
2925.000000;3.831253
2924.000000;4.144744
2923.000000;4.191819
2922.000000;3.658432
2921.000000;3.625245
2920.000000;3.530583
2919.000000;3.343540
2918.000000;3.241148
2917.000000;3.266484
2916.000000;3.415913
2915.000000;3.753058
2914.000000;3.938413
2913.000000;3.621460
2912.000000;3.438508
2911.000000;3.367628
2910.000000;3.340510
2909.000000;3.283232
2908.000000;3.191108
2907.000000;3.110627
2906.000000;3.078077
2905.000000;3.117088
2904.000000;3.264120
2903.000000;3.429942
2902.000000;3.352388
2901.000000;3.278666
2900.000000;3.318577
2899.000000;3.411656
2898.000000;3.498164
2897.000000;3.657847
2896.000000;3.752514
2895.000000;3.472388
2894.000000;3.304479
2893.000000;3.288006
2892.000000;3.439020
2891.000000;3.767900
2890.000000;3.574119
2889.000000;3.293655
2888.000000;3.205751
2887.000000;3.211234
2886.000000;3.282125
2885.000000;3.364608
2884.000000;3.340729
2883.000000;3.267604
2882.000000;3.278799
2881.000000;3.472182
2880.000000;3.852429
2879.000000;3.805029
2878.000000;3.656713
2877.000000;3.560046
2876.000000;3.498597
2875.000000;3.482797
2874.000000;3.488871
2873.000000;3.475805
2872.000000;3.326146
2871.000000;3.191553
2870.000000;3.175593
2869.000000;3.272742
2868.000000;3.436559
2867.000000;3.517787
2866.000000;3.471944
2865.000000;3.421911
2864.000000;3.595647
2863.000000;3.939085
2862.000000;3.446183
2861.000000;3.161998
2860.000000;3.089308
2859.000000;3.093908
2858.000000;3.133582
2857.000000;3.189991
2856.000000;3.334565
2855.000000;3.462992
2854.000000;3.355575
2853.000000;3.287888
2852.000000;3.360062
2851.000000;3.540886
2850.000000;3.588111
2849.000000;3.449844
2848.000000;3.376030
2847.000000;3.338183
2846.000000;3.303694
2845.000000;3.267421
2844.000000;3.239028
2843.000000;3.224055
2842.000000;3.245267
2841.000000;3.338720
2840.000000;3.503279
2839.000000;3.791045
2838.000000;3.848260
2837.000000;3.583817
2836.000000;3.571081
2835.000000;3.718854
2834.000000;3.662275
2833.000000;3.503263
2832.000000;3.434019
2831.000000;3.453399
2830.000000;3.467157
2829.000000;3.385441
2828.000000;3.435916
2827.000000;3.634870
2826.000000;3.486812
2825.000000;3.356770
2824.000000;3.427408
2823.000000;3.622857
2822.000000;3.736999
2821.000000;3.874524
2820.000000;3.809497
2819.000000;3.409837
2818.000000;3.219557
2817.000000;3.161247
2816.000000;3.213078
2815.000000;3.379038
2814.000000;3.705367
2813.000000;3.895586
2812.000000;3.586504
2811.000000;3.428284
2810.000000;3.401808
2809.000000;3.459414
2808.000000;3.553073
2807.000000;3.635372
2806.000000;3.669152
2805.000000;3.638709
2804.000000;3.586006
2803.000000;3.657382
2802.000000;3.703043
2801.000000;3.400582
2800.000000;3.198959
2799.000000;3.133084
2798.000000;3.138902
2797.000000;3.186469
2796.000000;3.241918
2795.000000;3.287021
2794.000000;3.331164
2793.000000;3.412682
2792.000000;3.630041
2791.000000;3.889069
2790.000000;3.891475
2789.000000;4.037569
2788.000000;3.822364
2787.000000;3.573691
2786.000000;3.598998
2785.000000;3.642214
2784.000000;3.477611
2783.000000;3.276470
2782.000000;3.188704
2781.000000;3.228975
2780.000000;3.504479
2779.000000;3.973737
2778.000000;3.567862
2777.000000;3.397171
2776.000000;3.401798
2775.000000;3.310015
2774.000000;3.231927
2773.000000;3.262833
2772.000000;3.427870
2771.000000;3.681788
2770.000000;3.772645
2769.000000;3.681383
2768.000000;3.788845
2767.000000;4.049410
2766.000000;4.159497
2765.000000;4.417344
2764.000000;3.898093
2763.000000;3.543935
2762.000000;3.367313
2761.000000;3.266392
2760.000000;3.280379
2759.000000;3.441545
2758.000000;3.829833
2757.000000;4.192638
2756.000000;3.993339
2755.000000;3.700113
2754.000000;3.513241
2753.000000;3.458248
2752.000000;3.637904
2751.000000;4.075232
2750.000000;3.606883
2749.000000;3.346795
2748.000000;3.277768
2747.000000;3.269656
2746.000000;3.348248
2745.000000;3.585914
2744.000000;3.676875
2743.000000;3.335176
2742.000000;3.222779
2741.000000;3.290976
2740.000000;3.552985
2739.000000;3.943174
2738.000000;3.705209
2737.000000;3.467341
2736.000000;3.304312
2735.000000;3.225438
2734.000000;3.282483
2733.000000;3.482969
2732.000000;3.565749
2731.000000;3.522688
2730.000000;3.566084
2729.000000;3.442276
2728.000000;3.318068
2727.000000;3.314132
2726.000000;3.368491
2725.000000;3.423772
2724.000000;3.458994
2723.000000;3.449984
2722.000000;3.406327
2721.000000;3.357208
2720.000000;3.351321
2719.000000;3.359693
2718.000000;3.501252
2717.000000;3.880217
2716.000000;3.567637
2715.000000;3.336142
2714.000000;3.312127
2713.000000;3.365790
2712.000000;3.469506
2711.000000;3.546263
2710.000000;3.590419
2709.000000;3.622195
2708.000000;3.653250
2707.000000;3.591340
2706.000000;3.446998
2705.000000;3.352692
2704.000000;3.359680
2703.000000;3.422460
2702.000000;3.438642
2701.000000;3.389918
2700.000000;3.361865
2699.000000;3.436783
2698.000000;3.630744
2697.000000;3.711248
2696.000000;3.641038
2695.000000;3.616903
2694.000000;3.622211
2693.000000;3.676816
2692.000000;3.775383
2691.000000;3.877178
2690.000000;3.897256
2689.000000;3.754077
2688.000000;3.599893
2687.000000;3.511863
2686.000000;3.479489
2685.000000;3.464092
2684.000000;3.423630
2683.000000;3.412875
2682.000000;3.496360
2681.000000;3.861562
2680.000000;4.369139
2679.000000;3.888695
2678.000000;3.862029
2677.000000;3.771422
2676.000000;3.504605
2675.000000;3.418316
2674.000000;3.534544
2673.000000;3.843546
2672.000000;4.156015
2671.000000;3.968100
2670.000000;3.560200
2669.000000;3.300922
2668.000000;3.180583
2667.000000;3.157744
2666.000000;3.214098
2665.000000;3.313784
2664.000000;3.354751
2663.000000;3.333944
2662.000000;3.384836
2661.000000;3.511349
2660.000000;3.568194
2659.000000;3.582701
2658.000000;3.831531
2657.000000;4.303573
2656.000000;3.865347
2655.000000;3.592742
2654.000000;3.650332
2653.000000;4.027606
2652.000000;3.884325
2651.000000;3.672747
2650.000000;3.704763
2649.000000;3.616145
2648.000000;3.503499
2647.000000;3.440833
2646.000000;3.425740
2645.000000;3.434633
2644.000000;3.412722
2643.000000;3.371273
2642.000000;3.367460
2641.000000;3.453270
2640.000000;3.632203
2639.000000;3.798897
2638.000000;3.887757
2637.000000;3.897789
2636.000000;3.780241
2635.000000;3.702893
2634.000000;3.647971
2633.000000;3.552968
2632.000000;3.484199
2631.000000;3.443643
2630.000000;3.368605
2629.000000;3.280441
2628.000000;3.269674
2627.000000;3.370331
2626.000000;3.616285
2625.000000;3.890616
2624.000000;3.886770
2623.000000;3.762608
2622.000000;3.738306
2621.000000;4.209156
2620.000000;4.178151
2619.000000;3.681317
2618.000000;3.610055
2617.000000;3.630721
2616.000000;3.627551
2615.000000;3.588383
2614.000000;3.562345
2613.000000;3.485323
2612.000000;3.380757
2611.000000;3.354943
2610.000000;3.457869
2609.000000;3.728507
2608.000000;3.729346
2607.000000;3.467058
2606.000000;3.379871
2605.000000;3.445256
2604.000000;3.634608
2603.000000;3.760157
2602.000000;3.805348
2601.000000;3.924753
2600.000000;3.842702
2599.000000;3.670804
2598.000000;3.501564
2597.000000;3.373326
2596.000000;3.353794
2595.000000;3.539276
2594.000000;3.828051
2593.000000;3.706844
2592.000000;3.621180
2591.000000;3.558743
2590.000000;3.493464
2589.000000;3.605740
2588.000000;3.893069
2587.000000;4.094401
2586.000000;4.071865
2585.000000;3.918458
2584.000000;3.664437
2583.000000;3.480752
2582.000000;3.379573
2581.000000;3.355509
2580.000000;3.413521
2579.000000;3.578799
2578.000000;3.998481
2577.000000;3.975109
2576.000000;3.581653
2575.000000;3.619608
2574.000000;3.888681
2573.000000;3.757912
2572.000000;3.580751
2571.000000;3.480470
2570.000000;3.300269
2569.000000;3.190634
2568.000000;3.203504
2567.000000;3.323814
2566.000000;3.497026
2565.000000;3.501186
2564.000000;3.391352
2563.000000;3.337789
2562.000000;3.353300
2561.000000;3.413263
2560.000000;3.505294
2559.000000;3.595611
2558.000000;3.631872
2557.000000;3.636074
2556.000000;3.822709
2555.000000;4.203111
2554.000000;3.898260
2553.000000;3.606967
2552.000000;3.436179
2551.000000;3.401707
2550.000000;3.530789
2549.000000;3.783871
2548.000000;3.819153
2547.000000;3.547683
2546.000000;3.362766
2545.000000;3.279030
2544.000000;3.297528
2543.000000;3.388419
2542.000000;3.451741
2541.000000;3.412591
2540.000000;3.386102
2539.000000;3.472212
2538.000000;3.672876
2537.000000;3.879314
2536.000000;3.707892
2535.000000;3.503546
2534.000000;3.496527
2533.000000;3.536523
2532.000000;3.438824
2531.000000;3.317708
2530.000000;3.251946
2529.000000;3.248509
2528.000000;3.338963
2527.000000;3.445380
2526.000000;3.395336
2525.000000;3.294524
2524.000000;3.204899
2523.000000;3.162365
2522.000000;3.190679
2521.000000;3.255130
2520.000000;3.311462
2519.000000;3.410374
2518.000000;3.864110
2517.000000;4.064474
2516.000000;3.606084
2515.000000;3.672984
2514.000000;3.867513
2513.000000;3.738799
2512.000000;3.548627
2511.000000;3.414786
2510.000000;3.332713
2509.000000;3.325997
2508.000000;3.584476
2507.000000;3.883372
2506.000000;3.403763
2505.000000;3.224244
2504.000000;3.226571
2503.000000;3.272612
2502.000000;3.346373
2501.000000;3.424317
2500.000000;3.534535
2499.000000;3.605572
2498.000000;3.582874
2497.000000;3.553203
2496.000000;3.580067
2495.000000;3.596076
2494.000000;3.538112
2493.000000;3.479634
2492.000000;3.488573
2491.000000;3.591565
2490.000000;3.803119
2489.000000;3.974491
2488.000000;3.972737
2487.000000;3.862153
2486.000000;3.688831
2485.000000;3.612022
2484.000000;3.533445
2483.000000;3.365665
2482.000000;3.269311
2481.000000;3.282094
2480.000000;3.346693
2479.000000;3.404284
2478.000000;3.456647
2477.000000;3.515146
2476.000000;3.678211
2475.000000;4.141114
2474.000000;4.133094
2473.000000;3.808532
2472.000000;3.805400
2471.000000;3.900362
2470.000000;3.838166
2469.000000;3.803217
2468.000000;3.864619
2467.000000;3.816339
2466.000000;3.927209
2465.000000;4.292029
2464.000000;3.881774
2463.000000;3.623227
2462.000000;3.728913
2461.000000;3.868348
2460.000000;3.668953
2459.000000;3.548551
2458.000000;3.574361
2457.000000;3.663509
2456.000000;3.712111
2455.000000;3.615416
2454.000000;3.520690
2453.000000;3.513831
2452.000000;3.706652
2451.000000;3.974720
2450.000000;3.785466
2449.000000;3.706871
2448.000000;3.615032
2447.000000;3.460801
2446.000000;3.370936
2445.000000;3.323049
2444.000000;3.298543
2443.000000;3.296177
2442.000000;3.333454
2441.000000;3.538548
2440.000000;4.024968
2439.000000;3.728210
2438.000000;3.485781
2437.000000;3.579959
2436.000000;3.695322
2435.000000;3.623154
2434.000000;3.648947
2433.000000;3.965612
2432.000000;4.111156
2431.000000;3.842490
2430.000000;3.727569
2429.000000;3.674196
2428.000000;3.675011
2427.000000;3.756922
2426.000000;3.813204
2425.000000;3.737488
2424.000000;3.698129
2423.000000;3.696405
2422.000000;3.697042
2421.000000;3.893789
2420.000000;3.937894
2419.000000;3.637488
2418.000000;3.543696
2417.000000;3.590546
2416.000000;3.758805
2415.000000;4.043884
2414.000000;4.047513
2413.000000;3.941773
2412.000000;3.963633
2411.000000;3.908818
2410.000000;3.854602
2409.000000;3.880090
2408.000000;3.775339
2407.000000;3.625429
2406.000000;3.541865
2405.000000;3.536415
2404.000000;3.607411
2403.000000;3.798645
2402.000000;4.212840
2401.000000;4.097004
2400.000000;3.882942
2399.000000;3.861611
2398.000000;3.981471
2397.000000;4.519085
2396.000000;4.128043
2395.000000;3.753204
2394.000000;3.578226
2393.000000;3.475172
2392.000000;3.450350
2391.000000;3.574455
2390.000000;4.019755
2389.000000;3.805666
2388.000000;3.444324
2387.000000;3.376699
2386.000000;3.420426
2385.000000;3.499729
2384.000000;3.529722
2383.000000;3.536783
2382.000000;3.603342
2381.000000;3.714336
2380.000000;3.857442
2379.000000;4.026342
2378.000000;4.021940
2377.000000;3.934881
2376.000000;3.960340
2375.000000;4.027559
2374.000000;4.033445
2373.000000;3.947971
2372.000000;3.864143
2371.000000;3.827762
2370.000000;3.830299
2369.000000;3.844973
2368.000000;3.853580
2367.000000;3.882366
2366.000000;3.991991
2365.000000;4.270441
2364.000000;4.295404
2363.000000;4.011659
2362.000000;3.910854
2361.000000;3.905852
2360.000000;3.919034
2359.000000;3.924138
2358.000000;3.984566
2357.000000;4.145239
2356.000000;4.409704
2355.000000;4.401173
2354.000000;4.187016
2353.000000;4.369610
2352.000000;4.407099
2351.000000;4.075725
2350.000000;4.067068
2349.000000;4.173551
2348.000000;4.303252
2347.000000;4.856616
2346.000000;4.149541
2345.000000;3.857480
2344.000000;4.017346
2343.000000;4.348898
2342.000000;4.413431
2341.000000;4.150152
2340.000000;4.120852
2339.000000;4.166191
2338.000000;4.329136
2337.000000;4.743737
2336.000000;4.378119
2335.000000;4.237229
2334.000000;4.233207
2333.000000;4.162870
2332.000000;4.155043
2331.000000;4.220321
2330.000000;4.348623
2329.000000;4.299004
2328.000000;4.116066
2327.000000;4.001924
2326.000000;3.993979
2325.000000;4.030097
2324.000000;4.097637
2323.000000;4.147250
2322.000000;4.024499
2321.000000;3.905703
2320.000000;3.897215
2319.000000;3.966320
2318.000000;4.004588
2317.000000;3.901554
2316.000000;3.780575
2315.000000;3.745869
2314.000000;3.855501
2313.000000;4.103861
2312.000000;4.212834
2311.000000;4.036636
2310.000000;3.757028
2309.000000;3.580008
2308.000000;3.571943
2307.000000;3.726300
2306.000000;3.866426
2305.000000;3.795234
2304.000000;3.746138
2303.000000;3.651261
2302.000000;3.517101
2301.000000;3.447032
2300.000000;3.453750
2299.000000;3.515203
2298.000000;3.545629
2297.000000;3.514731
2296.000000;3.575782
2295.000000;3.830879
2294.000000;3.895407
2293.000000;3.740936
2292.000000;3.729279
2291.000000;3.736861
2290.000000;3.709916
2289.000000;3.726528
2288.000000;3.819560
2287.000000;4.061993
2286.000000;4.487330
2285.000000;4.328038
2284.000000;4.212398
2283.000000;4.249914
2282.000000;4.145874
2281.000000;4.221923
2280.000000;4.590088
2279.000000;4.321834
2278.000000;4.072823
2277.000000;4.147944
2276.000000;4.442470
2275.000000;4.982508
2274.000000;4.306370
2273.000000;3.823957
2272.000000;3.612364
2271.000000;3.525676
2270.000000;3.488745
2269.000000;3.451028
2268.000000;3.433089
2267.000000;3.485239
2266.000000;3.518750
2265.000000;3.473785
2264.000000;3.449510
2263.000000;3.539130
2262.000000;3.675272
2261.000000;3.964006
2260.000000;4.396824
2259.000000;3.742225
2258.000000;3.561221
2257.000000;3.634971
2256.000000;3.715499
2255.000000;3.695480
2254.000000;3.698560
2253.000000;3.754545
2252.000000;3.751684
2251.000000;4.027640
2250.000000;4.261261
2249.000000;3.832507
2248.000000;3.715797
2247.000000;3.710561
2246.000000;3.668246
2245.000000;3.625873
2244.000000;3.651527
2243.000000;3.901900
2242.000000;4.302616
2241.000000;3.981897
2240.000000;3.795577
2239.000000;3.871348
2238.000000;3.912075
2237.000000;3.687080
2236.000000;3.522759
2235.000000;3.496064
2234.000000;3.487428
2233.000000;3.468790
2232.000000;3.506163
2231.000000;3.634755
2230.000000;3.791268
2229.000000;3.897242
2228.000000;4.006066
2227.000000;4.008587
2226.000000;3.969561
2225.000000;4.033903
2224.000000;3.958868
2223.000000;3.829446
2222.000000;3.963557
2221.000000;4.145752
2220.000000;3.884430
2219.000000;3.695923
2218.000000;3.606968
2217.000000;3.522548
2216.000000;3.508564
2215.000000;3.592231
2214.000000;3.840968
2213.000000;4.596249
2212.000000;4.351182
2211.000000;4.181580
2210.000000;4.344971
2209.000000;4.004755
2208.000000;3.805177
2207.000000;3.721631
2206.000000;3.698114
2205.000000;3.671113
2204.000000;3.602116
2203.000000;3.565184
2202.000000;3.597494
2201.000000;3.688241
2200.000000;3.712587
2199.000000;3.545243
2198.000000;3.397044
2197.000000;3.372628
2196.000000;3.461762
2195.000000;3.644674
2194.000000;3.900694
2193.000000;4.321667
2192.000000;4.821137
2191.000000;4.331950
2190.000000;4.222924
2189.000000;4.251329
2188.000000;3.944515
2187.000000;3.746516
2186.000000;3.754841
2185.000000;4.089148
2184.000000;4.278785
2183.000000;3.819984
2182.000000;3.679727
2181.000000;3.661404
2180.000000;3.623547
2179.000000;3.566753
2178.000000;3.541030
2177.000000;3.590551
2176.000000;3.704229
2175.000000;3.911657
2174.000000;4.172563
2173.000000;4.167858
2172.000000;3.909967
2171.000000;3.644794
2170.000000;3.502494
2169.000000;3.499731
2168.000000;3.630856
2167.000000;3.788975
2166.000000;3.789107
2165.000000;3.766528
2164.000000;3.762075
2163.000000;3.743885
2162.000000;3.708855
2161.000000;3.665441
2160.000000;3.676795
2159.000000;3.838115
2158.000000;4.075384
2157.000000;3.921666
2156.000000;3.733277
2155.000000;3.646351
2154.000000;3.654649
2153.000000;3.771239
2152.000000;3.967173
2151.000000;4.290971
2150.000000;4.150167
2149.000000;3.866113
2148.000000;3.720377
2147.000000;3.551228
2146.000000;3.444543
2145.000000;3.457100
2144.000000;3.542697
2143.000000;3.593076
2142.000000;3.542490
2141.000000;3.499052
2140.000000;3.528850
2139.000000;3.691790
2138.000000;4.021712
2137.000000;3.933269
2136.000000;3.719222
2135.000000;3.707148
2134.000000;3.783835
2133.000000;3.814488
2132.000000;3.743090
2131.000000;3.764538
2130.000000;3.945684
2129.000000;4.099062
2128.000000;3.995748
2127.000000;3.972275
2126.000000;4.014705
2125.000000;3.833398
2124.000000;3.676561
2123.000000;3.670249
2122.000000;3.873603
2121.000000;4.055970
2120.000000;4.162644
2119.000000;4.344716
2118.000000;3.970757
2117.000000;3.920097
2116.000000;4.030071
2115.000000;3.974692
2114.000000;3.850633
2113.000000;3.683708
2112.000000;3.560760
2111.000000;3.506207
2110.000000;3.542119
2109.000000;3.706451
2108.000000;3.987685
2107.000000;4.014657
2106.000000;3.867888
2105.000000;3.756271
2104.000000;3.644171
2103.000000;3.571673
2102.000000;3.553663
2101.000000;3.551355
2100.000000;3.594716
2099.000000;3.710469
2098.000000;4.067021
2097.000000;5.277986
2096.000000;4.155107
2095.000000;3.813115
2094.000000;3.690131
2093.000000;3.715888
2092.000000;3.794504
2091.000000;3.718607
2090.000000;3.662458
2089.000000;3.613086
2088.000000;3.566810
2087.000000;3.690496
2086.000000;3.860643
2085.000000;3.686387
2084.000000;3.575322
2083.000000;3.615794
2082.000000;3.720125
2081.000000;3.824598
2080.000000;3.915692
2079.000000;3.928617
2078.000000;3.768124
2077.000000;3.660757
2076.000000;3.683460
2075.000000;3.829709
2074.000000;3.948517
2073.000000;3.870193
2072.000000;3.811884
2071.000000;4.085571
2070.000000;4.367748
2069.000000;3.866387
2068.000000;3.752484
2067.000000;3.749468
2066.000000;3.731305
2065.000000;3.723655
2064.000000;3.701324
2063.000000;3.715266
2062.000000;3.807672
2061.000000;3.997507
2060.000000;3.985953
2059.000000;3.887657
2058.000000;3.862672
2057.000000;3.792778
2056.000000;3.689237
2055.000000;3.618888
2054.000000;3.634491
2053.000000;3.772791
2052.000000;3.974045
2051.000000;3.981831
2050.000000;3.882713
2049.000000;3.889018
2048.000000;3.973198
2047.000000;3.942328
2046.000000;3.822977
2045.000000;3.791138
2044.000000;4.019100
2043.000000;4.330471
2042.000000;4.063388
2041.000000;4.106894
2040.000000;4.324708
2039.000000;4.205707
2038.000000;3.961209
2037.000000;3.749487
2036.000000;3.628441
2035.000000;3.595410
2034.000000;3.641197
2033.000000;3.735429
2032.000000;3.842290
2031.000000;3.958761
2030.000000;4.279255
2029.000000;4.504757
2028.000000;4.039888
2027.000000;3.825694
2026.000000;3.755357
2025.000000;3.812523
2024.000000;3.966237
2023.000000;3.829230
2022.000000;3.645701
2021.000000;3.630318
2020.000000;3.740963
2019.000000;3.850679
2018.000000;3.859347
2017.000000;3.854932
2016.000000;3.827142
2015.000000;3.784194
2014.000000;3.746735
2013.000000;3.739020
2012.000000;3.752407
2011.000000;3.932174
2010.000000;4.379951
2009.000000;3.973150
2008.000000;3.673589
2007.000000;3.605772
2006.000000;3.623792
2005.000000;3.709265
2004.000000;3.858328
2003.000000;4.071314
2002.000000;3.982920
2001.000000;3.770026
2000.000000;3.712912
1999.000000;3.773858
1998.000000;3.969724
1997.000000;4.306539
1996.000000;4.432282
1995.000000;4.443220
1994.000000;4.454162
1993.000000;4.251159
1992.000000;4.076815
1991.000000;3.948160
1990.000000;3.838933
1989.000000;3.850056
1988.000000;3.885563
1987.000000;3.724070
1986.000000;3.610481
1985.000000;3.591057
1984.000000;3.564737
1983.000000;3.550619
1982.000000;3.586115
1981.000000;3.660207
1980.000000;3.791526
1979.000000;3.903493
1978.000000;3.841777
1977.000000;3.791692
1976.000000;3.912866
1975.000000;4.164970
1974.000000;4.458106
1973.000000;4.972553
1972.000000;4.476049
1971.000000;4.175413
1970.000000;4.192831
1969.000000;4.337004
1968.000000;4.430623
1967.000000;4.304340
1966.000000;4.090368
1965.000000;3.839978
1964.000000;3.668126
1963.000000;3.610203
1962.000000;3.667892
1961.000000;3.817981
1960.000000;3.953670
1959.000000;4.023313
1958.000000;4.163412
1957.000000;4.126441
1956.000000;3.862049
1955.000000;3.751031
1954.000000;3.940114
1953.000000;4.349201
1952.000000;3.988640
1951.000000;3.791920
1950.000000;3.838842
1949.000000;4.009098
1948.000000;4.297228
1947.000000;4.330600
1946.000000;4.246462
1945.000000;4.031543
1944.000000;3.879696
1943.000000;3.849521
1942.000000;3.997684
1941.000000;4.547348
1940.000000;4.273157
1939.000000;4.018289
1938.000000;4.004125
1937.000000;3.983051
1936.000000;4.032303
1935.000000;4.228442
1934.000000;4.400591
1933.000000;4.190995
1932.000000;4.154107
1931.000000;4.400815
1930.000000;4.502639
1929.000000;4.156808
1928.000000;3.974320
1927.000000;3.872146
1926.000000;3.792013
1925.000000;3.665177
1924.000000;3.549790
1923.000000;3.523027
1922.000000;3.622022
1921.000000;3.940548
1920.000000;3.854643
1919.000000;3.641045
1918.000000;3.684742
1917.000000;3.946745
1916.000000;4.601100
1915.000000;4.173756
1914.000000;3.958713
1913.000000;3.885744
1912.000000;3.763797
1911.000000;3.758622
1910.000000;3.908581
1909.000000;4.235226
1908.000000;4.159815
1907.000000;3.921963
1906.000000;3.837336
1905.000000;3.880523
1904.000000;4.000948
1903.000000;4.011295
1902.000000;3.930354
1901.000000;3.855276
1900.000000;3.773314
1899.000000;3.675826
1898.000000;3.573727
1897.000000;3.506871
1896.000000;3.507386
1895.000000;3.554740
1894.000000;3.579243
1893.000000;3.554471
1892.000000;3.534365
1891.000000;3.568234
1890.000000;3.656631
1889.000000;3.771241
1888.000000;3.808356
1887.000000;3.692433
1886.000000;3.602398
1885.000000;3.622184
1884.000000;3.695954
1883.000000;3.729476
1882.000000;3.705379
1881.000000;3.690333
1880.000000;3.722740
1879.000000;3.816680
1878.000000;4.034062
1877.000000;4.147884
1876.000000;4.045113
1875.000000;3.998544
1874.000000;3.828732
1873.000000;3.729619
1872.000000;3.714838
1871.000000;3.675510
1870.000000;3.604208
1869.000000;3.585679
1868.000000;3.618508
1867.000000;3.715446
1866.000000;4.164960
1865.000000;4.265157
1864.000000;3.871067
1863.000000;4.016369
1862.000000;4.321385
1861.000000;4.151194
1860.000000;4.108465
1859.000000;4.029964
1858.000000;3.955191
1857.000000;4.204619
1856.000000;4.543578
1855.000000;4.156346
1854.000000;4.182854
1853.000000;4.279337
1852.000000;3.994567
1851.000000;3.878564
1850.000000;4.018072
1849.000000;4.020050
1848.000000;3.718951
1847.000000;3.633219
1846.000000;3.751376
1845.000000;3.965513
1844.000000;4.064141
1843.000000;4.198979
1842.000000;4.406066
1841.000000;4.167697
1840.000000;3.981585
1839.000000;3.888064
1838.000000;3.880864
1837.000000;3.874262
1836.000000;3.875658
1835.000000;3.879175
1834.000000;3.972892
1833.000000;4.504695
1832.000000;4.154349
1831.000000;3.799250
1830.000000;3.706190
1829.000000;3.660399
1828.000000;3.656269
1827.000000;3.677228
1826.000000;3.754191
1825.000000;4.025827
1824.000000;4.303098
1823.000000;3.888230
1822.000000;3.637835
1821.000000;3.528102
1820.000000;3.501910
1819.000000;3.517103
1818.000000;3.521158
1817.000000;3.536581
1816.000000;3.583014
1815.000000;3.647174
1814.000000;3.680099
1813.000000;3.655499
1812.000000;3.608407
1811.000000;3.591648
1810.000000;3.576339
1809.000000;3.583349
1808.000000;3.654137
1807.000000;3.919772
1806.000000;4.495917
1805.000000;4.181966
1804.000000;4.067335
1803.000000;4.203927
1802.000000;4.160243
1801.000000;3.971954
1800.000000;3.846189
1799.000000;3.842147
1798.000000;3.918821
1797.000000;4.106105
1796.000000;4.122515
1795.000000;3.890300
1794.000000;3.815148
1793.000000;3.900128
1792.000000;4.126374
1791.000000;4.409702
1790.000000;4.149447
1789.000000;3.865971
1788.000000;3.750307
1787.000000;3.715510
1786.000000;3.732436
1785.000000;3.751690
1784.000000;3.721721
1783.000000;3.672717
1782.000000;3.679299
1781.000000;3.766692
1780.000000;3.951617
1779.000000;4.414448
1778.000000;4.601406
1777.000000;4.265919
1776.000000;4.174882
1775.000000;3.949113
1774.000000;3.795057
1773.000000;3.808298
1772.000000;3.941848
1771.000000;4.052984
1770.000000;4.394325
1769.000000;4.291297
1768.000000;3.781533
1767.000000;3.678938
1766.000000;3.712766
1765.000000;4.149188
1764.000000;4.273494
1763.000000;3.687030
1762.000000;3.631003
1761.000000;3.694401
1760.000000;3.797485
1759.000000;3.870595
1758.000000;3.913557
1757.000000;4.190274
1756.000000;4.232260
1755.000000;3.995397
1754.000000;3.901555
1753.000000;4.108321
1752.000000;4.177026
1751.000000;3.828446
1750.000000;3.690717
1749.000000;3.935258
1748.000000;4.867905
1747.000000;4.010659
1746.000000;3.832311
1745.000000;4.127509
1744.000000;4.464756
1743.000000;3.963428
1742.000000;3.902278
1741.000000;4.175070
1740.000000;4.028019
1739.000000;3.736724
1738.000000;3.603044
1737.000000;3.564881
1736.000000;3.683732
1735.000000;3.963275
1734.000000;4.022066
1733.000000;3.969668
1732.000000;3.987449
1731.000000;3.991063
1730.000000;3.892887
1729.000000;3.768018
1728.000000;3.689905
1727.000000;3.691645
1726.000000;3.792442
1725.000000;4.082445
1724.000000;4.359389
1723.000000;4.032771
1722.000000;3.910236
1721.000000;4.017555
1720.000000;4.378270
1719.000000;4.499215
1718.000000;3.963159
1717.000000;3.665678
1716.000000;3.524664
1715.000000;3.524656
1714.000000;3.682490
1713.000000;3.885104
1712.000000;4.017297
1711.000000;4.220737
1710.000000;4.106504
1709.000000;3.880133
1708.000000;3.821375
1707.000000;3.857484
1706.000000;3.952303
1705.000000;4.069986
1704.000000;4.099483
1703.000000;4.161674
1702.000000;4.257753
1701.000000;3.914865
1700.000000;3.753678
1699.000000;3.742815
1698.000000;3.743140
1697.000000;3.764896
1696.000000;3.781743
1695.000000;3.792920
1694.000000;3.755927
1693.000000;3.682072
1692.000000;3.640662
1691.000000;3.612587
1690.000000;3.566885
1689.000000;3.557671
1688.000000;3.625950
1687.000000;3.677712
1686.000000;3.628138
1685.000000;3.672458
1684.000000;3.834442
1683.000000;4.109532
1682.000000;4.437904
1681.000000;4.039499
1680.000000;3.936634
1679.000000;4.021876
1678.000000;3.901596
1677.000000;3.785921
1676.000000;3.735985
1675.000000;3.859731
1674.000000;4.303731
1673.000000;4.064550
1672.000000;3.753471
1671.000000;3.672304
1670.000000;3.689187
1669.000000;3.797237
1668.000000;3.973371
1667.000000;4.267994
1666.000000;4.324762
1665.000000;4.198352
1664.000000;4.243084
1663.000000;4.155615
1662.000000;4.021992
1661.000000;4.006449
1660.000000;3.980117
1659.000000;3.899468
1658.000000;3.853111
1657.000000;3.872356
1656.000000;3.897787
1655.000000;3.851841
1654.000000;3.888370
1653.000000;4.104696
1652.000000;4.402030
1651.000000;4.312491
1650.000000;3.977851
1649.000000;3.914279
1648.000000;3.890775
1647.000000;3.736952
1646.000000;3.622799
1645.000000;3.589597
1644.000000;3.693199
1643.000000;3.947772
1642.000000;4.359151
1641.000000;4.320374
1640.000000;3.893900
1639.000000;3.722696
1638.000000;3.714957
1637.000000;3.830920
1636.000000;4.094541
1635.000000;4.473896
1634.000000;4.262499
1633.000000;3.938238
1632.000000;3.928043
1631.000000;4.136733
1630.000000;4.191299
1629.000000;4.107245
1628.000000;4.215993
1627.000000;4.083431
1626.000000;3.896255
1625.000000;4.096463
1624.000000;4.085509
1623.000000;3.880179
1622.000000;4.095706
1621.000000;4.310911
1620.000000;3.967233
1619.000000;3.840805
1618.000000;3.834954
1617.000000;3.879042
1616.000000;3.929736
1615.000000;3.844739
1614.000000;3.726896
1613.000000;3.698388
1612.000000;3.842238
1611.000000;4.202334
1610.000000;4.232067
1609.000000;4.213035
1608.000000;4.655351
1607.000000;4.502723
1606.000000;4.279510
1605.000000;4.320483
1604.000000;4.318471
1603.000000;4.196724
1602.000000;4.190801
1601.000000;4.134285
1600.000000;3.951663
1599.000000;3.802290
1598.000000;3.739633
1597.000000;3.741815
1596.000000;3.885888
1595.000000;4.539793
1594.000000;4.231995
1593.000000;3.892120
1592.000000;3.877505
1591.000000;3.942263
1590.000000;4.182527
1589.000000;4.019622
1588.000000;3.718650
1587.000000;3.610090
1586.000000;3.620408
1585.000000;3.684144
1584.000000;3.753590
1583.000000;3.849041
1582.000000;3.979588
1581.000000;4.081926
1580.000000;4.150932
1579.000000;4.273739
1578.000000;4.052393
1577.000000;3.781046
1576.000000;3.675050
1575.000000;3.610487
1574.000000;3.577612
1573.000000;3.674299
1572.000000;3.933554
1571.000000;4.032445
1570.000000;4.047108
1569.000000;4.325137
1568.000000;4.503079
1567.000000;4.244337
1566.000000;4.057615
1565.000000;3.962536
1564.000000;3.888871
1563.000000;3.897499
1562.000000;4.027921
1561.000000;3.827065
1560.000000;3.601377
1559.000000;3.582498
1558.000000;3.553801
1557.000000;3.467537
1556.000000;3.551166
1555.000000;3.676468
1554.000000;3.563608
1553.000000;3.491002
1552.000000;3.516478
1551.000000;3.635533
1550.000000;4.000808
1549.000000;4.207507
1548.000000;3.786331
1547.000000;3.636488
1546.000000;3.651179
1545.000000;3.794561
1544.000000;3.993984
1543.000000;4.080347
1542.000000;4.207149
1541.000000;4.365036
1540.000000;4.401761
1539.000000;4.414314
1538.000000;4.539005
1537.000000;4.813745
1536.000000;4.609280
1535.000000;4.299023
1534.000000;4.361924
1533.000000;4.494793
1532.000000;4.300841
1531.000000;4.160008
1530.000000;3.969041
1529.000000;3.792406
1528.000000;3.680437
1527.000000;3.602730
1526.000000;3.593673
1525.000000;3.659865
1524.000000;3.823892
1523.000000;4.292756
1522.000000;4.182203
1521.000000;3.809778
1520.000000;3.755629
1519.000000;3.770200
1518.000000;3.855232
1517.000000;4.045376
1516.000000;4.313376
1515.000000;4.243898
1514.000000;4.029721
1513.000000;4.123833
1512.000000;4.212076
1511.000000;3.850578
1510.000000;3.680273
1509.000000;3.715974
1508.000000;3.703241
1507.000000;3.676856
1506.000000;3.691159
1505.000000;3.653855
1504.000000;3.617972
1503.000000;3.629218
1502.000000;3.683256
1501.000000;3.719507
1500.000000;3.665564
1499.000000;3.567775
1498.000000;3.513022
1497.000000;3.532889
1496.000000;3.593469
1495.000000;3.644583
1494.000000;3.684448
1493.000000;3.761878
1492.000000;3.879535
1491.000000;3.767722
1490.000000;3.609520
1489.000000;3.598163
1488.000000;3.782134
1487.000000;4.088797
1486.000000;3.882771
1485.000000;3.760418
1484.000000;3.845366
1483.000000;4.048127
1482.000000;4.565432
1481.000000;4.295492
1480.000000;3.858684
1479.000000;3.699843
1478.000000;3.734932
1477.000000;3.967476
1476.000000;3.986405
1475.000000;3.688006
1474.000000;3.521723
1473.000000;3.513103
1472.000000;3.630077
1471.000000;3.816349
1470.000000;3.959597
1469.000000;3.912436
1468.000000;3.791091
1467.000000;3.734283
1466.000000;3.759115
1465.000000;3.861852
1464.000000;4.021166
1463.000000;4.295360
1462.000000;4.491029
1461.000000;4.381257
1460.000000;4.580569
1459.000000;4.364642
1458.000000;4.353220
1457.000000;4.439056
1456.000000;3.839531
1455.000000;3.591477
1454.000000;3.543485
1453.000000;3.571370
1452.000000;3.611016
1451.000000;3.641865
1450.000000;3.666575
1449.000000;3.640179
1448.000000;3.612844
1447.000000;3.636367
1446.000000;3.722044
1445.000000;3.900048
1444.000000;4.135078
1443.000000;4.213729
1442.000000;4.179610
1441.000000;4.276964
1440.000000;4.196228
1439.000000;4.030500
1438.000000;4.261841
1437.000000;4.229803
1436.000000;3.855002
1435.000000;3.862415
1434.000000;4.262605
1433.000000;4.209225
1432.000000;3.930976
1431.000000;3.939404
1430.000000;4.020584
1429.000000;3.996370
1428.000000;3.853594
1427.000000;3.735872
1426.000000;3.686660
1425.000000;3.696477
1424.000000;3.759493
1423.000000;3.944856
1422.000000;3.977265
1421.000000;3.658862
1420.000000;3.548128
1419.000000;3.641052
1418.000000;3.907533
1417.000000;4.354918
1416.000000;4.669326
1415.000000;4.259576
1414.000000;3.942287
1413.000000;3.805174
1412.000000;3.743658
1411.000000;3.770681
1410.000000;3.841223
1409.000000;3.850456
1408.000000;3.865481
1407.000000;4.050027
1406.000000;4.247517
1405.000000;4.030586
1404.000000;3.951210
1403.000000;4.012074
1402.000000;3.938339
1401.000000;3.793957
1400.000000;3.749047
1399.000000;3.834191
1398.000000;3.970119
1397.000000;3.972094
1396.000000;3.850845
1395.000000;3.831872
1394.000000;3.975607
1393.000000;4.076071
1392.000000;3.948963
1391.000000;3.793160
1390.000000;3.778959
1389.000000;3.860212
1388.000000;3.700991
1387.000000;3.553886
1386.000000;3.628434
1385.000000;4.031984
1384.000000;4.383656
1383.000000;4.011542
1382.000000;3.927029
1381.000000;3.904392
1380.000000;3.820395
1379.000000;3.733803
1378.000000;3.715953
1377.000000;3.773111
1376.000000;3.829989
1375.000000;3.857614
1374.000000;3.915723
1373.000000;3.992799
1372.000000;3.947854
1371.000000;3.789825
1370.000000;3.649793
1369.000000;3.578188
1368.000000;3.569765
1367.000000;3.595760
1366.000000;3.630994
1365.000000;3.640352
1364.000000;3.594138
1363.000000;3.527023
1362.000000;3.458422
1361.000000;3.424009
1360.000000;3.485136
1359.000000;3.668110
1358.000000;4.005111
1357.000000;4.443410
1356.000000;4.449623
1355.000000;4.291326
1354.000000;4.162749
1353.000000;4.029252
1352.000000;3.943449
1351.000000;3.897155
1350.000000;3.933318
1349.000000;4.174848
1348.000000;4.136780
1347.000000;3.850896
1346.000000;3.803643
1345.000000;3.980432
1344.000000;4.257426
1343.000000;4.159531
1342.000000;3.995013
1341.000000;3.967722
1340.000000;4.244818
1339.000000;4.118632
1338.000000;3.743769
1337.000000;3.725440
1336.000000;3.874877
1335.000000;4.123734
1334.000000;4.580276
1333.000000;4.778298
1332.000000;4.733476
1331.000000;4.983413
1330.000000;4.933903
1329.000000;4.902832
1328.000000;4.476653
1327.000000;4.362768
1326.000000;4.585442
1325.000000;4.568492
1324.000000;4.646615
1323.000000;4.722418
1322.000000;4.393582
1321.000000;4.106061
1320.000000;3.840063
1319.000000;3.681713
1318.000000;3.615894
1317.000000;3.629318
1316.000000;3.717991
1315.000000;4.008072
1314.000000;4.680434
1313.000000;4.249719
1312.000000;4.123087
1311.000000;4.200291
1310.000000;4.199389
1309.000000;4.156909
1308.000000;4.163515
1307.000000;4.134035
1306.000000;4.014329
1305.000000;3.999644
1304.000000;4.091811
1303.000000;4.156848
1302.000000;4.074085
1301.000000;3.957164
1300.000000;3.897824
1299.000000;3.889110
1298.000000;3.904641
1297.000000;3.929141
1296.000000;3.920280
1295.000000;3.852518
1294.000000;3.787156
1293.000000;3.816811
1292.000000;4.043882
1291.000000;4.109475
1290.000000;3.859401
1289.000000;3.818283
1288.000000;3.938614
1287.000000;4.011556
1286.000000;3.917136
1285.000000;3.898092
1284.000000;4.021004
1283.000000;4.436695
1282.000000;4.670543
1281.000000;4.231181
1280.000000;4.307813
1279.000000;4.232332
1278.000000;4.026923
1277.000000;4.003740
1276.000000;4.207320
1275.000000;4.628908
1274.000000;4.138105
1273.000000;3.842459
1272.000000;3.852972
1271.000000;3.987758
1270.000000;3.889573
1269.000000;3.795165
1268.000000;3.956427
1267.000000;4.553282
1266.000000;4.341269
1265.000000;3.929975
1264.000000;3.760103
1263.000000;3.701539
1262.000000;3.719890
1261.000000;3.766670
1260.000000;3.812539
1259.000000;3.980970
1258.000000;4.407592
1257.000000;4.067869
1256.000000;3.759417
1255.000000;3.693034
1254.000000;3.694721
1253.000000;3.714657
1252.000000;3.750383
1251.000000;3.838867
1250.000000;3.951288
1249.000000;3.931279
1248.000000;3.820189
1247.000000;3.787729
1246.000000;3.932491
1245.000000;4.012194
1244.000000;3.769098
1243.000000;3.621648
1242.000000;3.605800
1241.000000;3.675121
1240.000000;3.832388
1239.000000;3.977227
1238.000000;3.906877
1237.000000;3.836298
1236.000000;3.858550
1235.000000;3.866198
1234.000000;3.778999
1233.000000;3.690316
1232.000000;3.709889
1231.000000;3.883758
1230.000000;4.312942
1229.000000;5.004564
1228.000000;4.882879
1227.000000;4.612845
1226.000000;4.199373
1225.000000;3.892448
1224.000000;3.689796
1223.000000;3.615529
1222.000000;3.652379
1221.000000;3.687643
1220.000000;3.637824
1219.000000;3.597323
1218.000000;3.632818
1217.000000;3.722496
1216.000000;3.861051
1215.000000;4.055584
1214.000000;4.246505
1213.000000;4.315997
1212.000000;4.064071
1211.000000;3.877547
1210.000000;3.852899
1209.000000;4.031837
1208.000000;4.299704
1207.000000;4.077383
1206.000000;4.067519
1205.000000;4.180910
1204.000000;4.035428
1203.000000;3.921989
1202.000000;3.975298
1201.000000;4.229260
1200.000000;4.433646
