Criado como novo conjunto de dados;"1909daniel.spp","-4212341.0 Secs"
cm-1;Abs
10000.000000;1.175145
9999.000000;1.173571
9998.000000;1.171973
9997.000000;1.170396
9996.000000;1.169296
9995.000000;1.169310
9994.000000;1.170186
9993.000000;1.170682
9992.000000;1.170049
9991.000000;1.168940
9990.000000;1.168288
9989.000000;1.167902
9988.000000;1.166937
9987.000000;1.165324
9986.000000;1.163890
9985.000000;1.163200
9984.000000;1.163013
9983.000000;1.162900
9982.000000;1.162792
9981.000000;1.162745
9980.000000;1.162585
9979.000000;1.162015
9978.000000;1.160938
9977.000000;1.159605
9976.000000;1.158540
9975.000000;1.158181
9974.000000;1.158419
9973.000000;1.158583
9972.000000;1.158074
9971.000000;1.156969
9970.000000;1.155866
9969.000000;1.155269
9968.000000;1.155162
9967.000000;1.155024
9966.000000;1.154218
9965.000000;1.152609
9964.000000;1.150861
9963.000000;1.149807
9962.000000;1.149470
9961.000000;1.149089
9960.000000;1.148211
9959.000000;1.147308
9958.000000;1.147012
9957.000000;1.147160
9956.000000;1.146972
9955.000000;1.145963
9954.000000;1.144375
9953.000000;1.142880
9952.000000;1.142050
9951.000000;1.141877
9950.000000;1.141620
9949.000000;1.140451
9948.000000;1.138458
9947.000000;1.136695
9946.000000;1.136010
9945.000000;1.136217
9944.000000;1.136614
9943.000000;1.136868
9942.000000;1.136996
9941.000000;1.136900
9940.000000;1.136441
9939.000000;1.135749
9938.000000;1.135018
9937.000000;1.134216
9936.000000;1.133344
9935.000000;1.132686
9934.000000;1.132365
9933.000000;1.131889
9932.000000;1.130674
9931.000000;1.128881
9930.000000;1.127311
9929.000000;1.126524
9928.000000;1.126412
9927.000000;1.126484
9926.000000;1.126241
9925.000000;1.125419
9924.000000;1.124261
9923.000000;1.123466
9922.000000;1.123509
9921.000000;1.124032
9920.000000;1.124106
9919.000000;1.123033
9918.000000;1.120788
9917.000000;1.117985
9916.000000;1.115598
9915.000000;1.114390
9914.000000;1.114230
9913.000000;1.114169
9912.000000;1.113449
9911.000000;1.112215
9910.000000;1.111037
9909.000000;1.110142
9908.000000;1.109551
9907.000000;1.109529
9906.000000;1.110227
9905.000000;1.111063
9904.000000;1.111071
9903.000000;1.109951
9902.000000;1.108290
9901.000000;1.106704
9900.000000;1.105292
9899.000000;1.103991
9898.000000;1.102978
9897.000000;1.102450
9896.000000;1.102262
9895.000000;1.102029
9894.000000;1.101539
9893.000000;1.100901
9892.000000;1.100252
9891.000000;1.099409
9890.000000;1.098032
9889.000000;1.096234
9888.000000;1.094805
9887.000000;1.094401
9886.000000;1.094605
9885.000000;1.094235
9884.000000;1.092753
9883.000000;1.090885
9882.000000;1.089598
9881.000000;1.089008
9880.000000;1.088609
9879.000000;1.088104
9878.000000;1.087571
9877.000000;1.087111
9876.000000;1.086791
9875.000000;1.086708
9874.000000;1.086718
9873.000000;1.086358
9872.000000;1.085407
9871.000000;1.084269
9870.000000;1.083446
9869.000000;1.082903
9868.000000;1.082349
9867.000000;1.081799
9866.000000;1.081354
9865.000000;1.080697
9864.000000;1.079448
9863.000000;1.077937
9862.000000;1.077037
9861.000000;1.077177
9860.000000;1.077910
9859.000000;1.078403
9858.000000;1.078003
9857.000000;1.076454
9856.000000;1.074043
9855.000000;1.071540
9854.000000;1.069652
9853.000000;1.068527
9852.000000;1.067967
9851.000000;1.067926
9850.000000;1.068390
9849.000000;1.068890
9848.000000;1.068670
9847.000000;1.067461
9846.000000;1.065786
9845.000000;1.064424
9844.000000;1.063816
9843.000000;1.063933
9842.000000;1.064398
9841.000000;1.064728
9840.000000;1.064704
9839.000000;1.064490
9838.000000;1.064225
9837.000000;1.063629
9836.000000;1.062316
9835.000000;1.060407
9834.000000;1.058507
9833.000000;1.057104
9832.000000;1.056285
9831.000000;1.055931
9830.000000;1.055848
9829.000000;1.055708
9828.000000;1.055131
9827.000000;1.053919
9826.000000;1.052186
9825.000000;1.050391
9824.000000;1.049292
9823.000000;1.049477
9822.000000;1.050583
9821.000000;1.051236
9820.000000;1.050268
9819.000000;1.047916
9818.000000;1.045470
9817.000000;1.043915
9816.000000;1.043308
9815.000000;1.043268
9814.000000;1.043487
9813.000000;1.043710
9812.000000;1.043682
9811.000000;1.043303
9810.000000;1.042627
9809.000000;1.041698
9808.000000;1.040596
9807.000000;1.039554
9806.000000;1.038682
9805.000000;1.037686
9804.000000;1.036239
9803.000000;1.034646
9802.000000;1.033723
9801.000000;1.033910
9800.000000;1.034805
9799.000000;1.035590
9798.000000;1.035638
9797.000000;1.034715
9796.000000;1.032987
9795.000000;1.031019
9794.000000;1.029491
9793.000000;1.028666
9792.000000;1.028244
9791.000000;1.027782
9790.000000;1.027130
9789.000000;1.026379
9788.000000;1.025602
9787.000000;1.024765
9786.000000;1.023858
9785.000000;1.023019
9784.000000;1.022489
9783.000000;1.022343
9782.000000;1.022242
9781.000000;1.021669
9780.000000;1.020547
9779.000000;1.019420
9778.000000;1.018814
9777.000000;1.018594
9776.000000;1.018202
9775.000000;1.017395
9774.000000;1.016451
9773.000000;1.015733
9772.000000;1.015329
9771.000000;1.015089
9770.000000;1.014678
9769.000000;1.013658
9768.000000;1.011859
9767.000000;1.009745
9766.000000;1.008150
9765.000000;1.007532
9764.000000;1.007656
9763.000000;1.007956
9762.000000;1.007956
9761.000000;1.007331
9760.000000;1.005942
9759.000000;1.004076
9758.000000;1.002467
9757.000000;1.001804
9756.000000;1.002161
9755.000000;1.002988
9754.000000;1.003636
9753.000000;1.003784
9752.000000;1.003359
9751.000000;1.002255
9750.000000;1.000413
9749.000000;0.998187
9748.000000;0.996327
9747.000000;0.995352
9746.000000;0.995057
9745.000000;0.994883
9744.000000;0.994646
9743.000000;0.994554
9742.000000;0.994606
9741.000000;0.994447
9740.000000;0.993908
9739.000000;0.993242
9738.000000;0.992610
9737.000000;0.991717
9736.000000;0.990242
9735.000000;0.988374
9734.000000;0.986630
9733.000000;0.985340
9732.000000;0.984498
9731.000000;0.983914
9730.000000;0.983333
9729.000000;0.982639
9728.000000;0.982093
9727.000000;0.982082
9726.000000;0.982464
9725.000000;0.982541
9724.000000;0.981928
9723.000000;0.981042
9722.000000;0.980402
9721.000000;0.979851
9720.000000;0.978933
9719.000000;0.977744
9718.000000;0.976848
9717.000000;0.976471
9716.000000;0.976272
9715.000000;0.975873
9714.000000;0.975207
9713.000000;0.974347
9712.000000;0.973357
9711.000000;0.972377
9710.000000;0.971566
9709.000000;0.970914
9708.000000;0.970270
9707.000000;0.969558
9706.000000;0.968824
9705.000000;0.968159
9704.000000;0.967673
9703.000000;0.967371
9702.000000;0.966921
9701.000000;0.965871
9700.000000;0.964323
9699.000000;0.963107
9698.000000;0.962890
9697.000000;0.963343
9696.000000;0.963528
9695.000000;0.962975
9694.000000;0.961999
9693.000000;0.961075
9692.000000;0.960341
9691.000000;0.959689
9690.000000;0.958983
9689.000000;0.958139
9688.000000;0.957213
9687.000000;0.956387
9686.000000;0.955675
9685.000000;0.954774
9684.000000;0.953483
9683.000000;0.952102
9682.000000;0.951141
9681.000000;0.950759
9680.000000;0.950736
9679.000000;0.950780
9678.000000;0.950566
9677.000000;0.949702
9676.000000;0.948151
9675.000000;0.946575
9674.000000;0.945797
9673.000000;0.945923
9672.000000;0.946327
9671.000000;0.946462
9670.000000;0.946296
9669.000000;0.945985
9668.000000;0.945563
9667.000000;0.945074
9666.000000;0.944640
9665.000000;0.944230
9664.000000;0.943587
9663.000000;0.942506
9662.000000;0.941038
9661.000000;0.939422
9660.000000;0.937941
9659.000000;0.936780
9658.000000;0.935822
9657.000000;0.934715
9656.000000;0.933322
9655.000000;0.932014
9654.000000;0.931220
9653.000000;0.930843
9652.000000;0.930420
9651.000000;0.929749
9650.000000;0.929043
9649.000000;0.928475
9648.000000;0.927986
9647.000000;0.927561
9646.000000;0.927386
9645.000000;0.927591
9644.000000;0.928015
9643.000000;0.928285
9642.000000;0.928020
9641.000000;0.927084
9640.000000;0.925795
9639.000000;0.924744
9638.000000;0.924170
9637.000000;0.923642
9636.000000;0.922603
9635.000000;0.921057
9634.000000;0.919477
9633.000000;0.918226
9632.000000;0.917413
9631.000000;0.917099
9630.000000;0.917179
9629.000000;0.917174
9628.000000;0.916648
9627.000000;0.915825
9626.000000;0.915359
9625.000000;0.915460
9624.000000;0.915666
9623.000000;0.915460
9622.000000;0.914746
9621.000000;0.913712
9620.000000;0.912607
9619.000000;0.911686
9618.000000;0.910949
9617.000000;0.909933
9616.000000;0.908252
9615.000000;0.906398
9614.000000;0.905426
9613.000000;0.905659
9612.000000;0.906193
9611.000000;0.905987
9610.000000;0.905007
9609.000000;0.903936
9608.000000;0.903192
9607.000000;0.902726
9606.000000;0.902499
9605.000000;0.902586
9604.000000;0.902845
9603.000000;0.902895
9602.000000;0.902544
9601.000000;0.901977
9600.000000;0.901442
9599.000000;0.900913
9598.000000;0.900118
9597.000000;0.898783
9596.000000;0.896842
9595.000000;0.894581
9594.000000;0.892612
9593.000000;0.891555
9592.000000;0.891591
9591.000000;0.892266
9590.000000;0.892827
9589.000000;0.892870
9588.000000;0.892663
9587.000000;0.892727
9586.000000;0.893115
9585.000000;0.893239
9584.000000;0.892501
9583.000000;0.890925
9582.000000;0.889019
9581.000000;0.887233
9580.000000;0.885763
9579.000000;0.884770
9578.000000;0.884407
9577.000000;0.884516
9576.000000;0.884570
9575.000000;0.884089
9574.000000;0.883070
9573.000000;0.881893
9572.000000;0.880872
9571.000000;0.879986
9570.000000;0.879054
9569.000000;0.878082
9568.000000;0.877327
9567.000000;0.876976
9566.000000;0.876875
9565.000000;0.876712
9564.000000;0.876424
9563.000000;0.876180
9562.000000;0.875977
9561.000000;0.875544
9560.000000;0.874741
9559.000000;0.873796
9558.000000;0.872985
9557.000000;0.872322
9556.000000;0.871715
9555.000000;0.871177
9554.000000;0.870662
9553.000000;0.869926
9552.000000;0.868869
9551.000000;0.867805
9550.000000;0.867112
9549.000000;0.866768
9548.000000;0.866522
9547.000000;0.866330
9546.000000;0.866241
9545.000000;0.865997
9544.000000;0.865196
9543.000000;0.863848
9542.000000;0.862439
9541.000000;0.861434
9540.000000;0.860983
9539.000000;0.861044
9538.000000;0.861415
9537.000000;0.861645
9536.000000;0.861278
9535.000000;0.860313
9534.000000;0.859199
9533.000000;0.858310
9532.000000;0.857639
9531.000000;0.857013
9530.000000;0.856329
9529.000000;0.855510
9528.000000;0.854475
9527.000000;0.853270
9526.000000;0.852067
9525.000000;0.851003
9524.000000;0.850130
9523.000000;0.849496
9522.000000;0.849054
9521.000000;0.848546
9520.000000;0.847698
9519.000000;0.846557
9518.000000;0.845448
9517.000000;0.844640
9516.000000;0.844252
9515.000000;0.844355
9514.000000;0.844879
9513.000000;0.845396
9512.000000;0.845349
9511.000000;0.844571
9510.000000;0.843408
9509.000000;0.842320
9508.000000;0.841552
9507.000000;0.841144
9506.000000;0.840947
9505.000000;0.840616
9504.000000;0.839897
9503.000000;0.838969
9502.000000;0.838243
9501.000000;0.837790
9500.000000;0.837274
9499.000000;0.836506
9498.000000;0.835712
9497.000000;0.835120
9496.000000;0.834631
9495.000000;0.834099
9494.000000;0.833628
9493.000000;0.833334
9492.000000;0.833031
9491.000000;0.832445
9490.000000;0.831634
9489.000000;0.830912
9488.000000;0.830405
9487.000000;0.829882
9486.000000;0.829062
9485.000000;0.827943
9484.000000;0.826789
9483.000000;0.825851
9482.000000;0.825152
9481.000000;0.824515
9480.000000;0.823824
9479.000000;0.823194
9478.000000;0.822832
9477.000000;0.822756
9476.000000;0.822757
9475.000000;0.822612
9474.000000;0.822244
9473.000000;0.821716
9472.000000;0.821168
9471.000000;0.820742
9470.000000;0.820451
9469.000000;0.820164
9468.000000;0.819810
9467.000000;0.819502
9466.000000;0.819292
9465.000000;0.818916
9464.000000;0.818039
9463.000000;0.816718
9462.000000;0.815394
9461.000000;0.814406
9460.000000;0.813735
9459.000000;0.813207
9458.000000;0.812687
9457.000000;0.812030
9456.000000;0.811135
9455.000000;0.810186
9454.000000;0.809585
9453.000000;0.809501
9452.000000;0.809640
9451.000000;0.809590
9450.000000;0.809225
9449.000000;0.808654
9448.000000;0.807963
9447.000000;0.807177
9446.000000;0.806325
9445.000000;0.805380
9444.000000;0.804247
9443.000000;0.803007
9442.000000;0.802063
9441.000000;0.801806
9440.000000;0.802096
9439.000000;0.802258
9438.000000;0.801738
9437.000000;0.800676
9436.000000;0.799764
9435.000000;0.799555
9434.000000;0.800002
9433.000000;0.800610
9432.000000;0.800883
9431.000000;0.800548
9430.000000;0.799517
9429.000000;0.797958
9428.000000;0.796426
9427.000000;0.795610
9426.000000;0.795664
9425.000000;0.795944
9424.000000;0.795661
9423.000000;0.794747
9422.000000;0.793810
9421.000000;0.793289
9420.000000;0.792944
9419.000000;0.792242
9418.000000;0.791011
9417.000000;0.789591
9416.000000;0.788511
9415.000000;0.788110
9414.000000;0.788322
9413.000000;0.788671
9412.000000;0.788602
9411.000000;0.787928
9410.000000;0.786934
9409.000000;0.786060
9408.000000;0.785567
9407.000000;0.785506
9406.000000;0.785767
9405.000000;0.786038
9404.000000;0.785889
9403.000000;0.785085
9402.000000;0.783809
9401.000000;0.782463
9400.000000;0.781328
9399.000000;0.780450
9398.000000;0.779795
9397.000000;0.779339
9396.000000;0.779029
9395.000000;0.778758
9394.000000;0.778425
9393.000000;0.777994
9392.000000;0.777475
9391.000000;0.776877
9390.000000;0.776209
9389.000000;0.775549
9388.000000;0.775066
9387.000000;0.774918
9386.000000;0.775054
9385.000000;0.775157
9384.000000;0.774869
9383.000000;0.774091
9382.000000;0.773048
9381.000000;0.772084
9380.000000;0.771414
9379.000000;0.771028
9378.000000;0.770734
9377.000000;0.770309
9376.000000;0.769658
9375.000000;0.768851
9374.000000;0.768000
9373.000000;0.767179
9372.000000;0.766455
9371.000000;0.765900
9370.000000;0.765472
9369.000000;0.764987
9368.000000;0.764328
9367.000000;0.763627
9366.000000;0.763099
9365.000000;0.762754
9364.000000;0.762389
9363.000000;0.761852
9362.000000;0.761169
9361.000000;0.760443
9360.000000;0.759770
9359.000000;0.759278
9358.000000;0.759109
9357.000000;0.759298
9356.000000;0.759703
9355.000000;0.760069
9354.000000;0.760123
9353.000000;0.759683
9352.000000;0.758817
9351.000000;0.757877
9350.000000;0.757214
9349.000000;0.756843
9348.000000;0.756516
9347.000000;0.756087
9346.000000;0.755611
9345.000000;0.755062
9344.000000;0.754202
9343.000000;0.752924
9342.000000;0.751565
9341.000000;0.750660
9340.000000;0.750423
9339.000000;0.750598
9338.000000;0.750808
9337.000000;0.750910
9336.000000;0.750961
9335.000000;0.750956
9334.000000;0.750724
9333.000000;0.750068
9332.000000;0.748944
9331.000000;0.747481
9330.000000;0.745917
9329.000000;0.744543
9328.000000;0.743662
9327.000000;0.743427
9326.000000;0.743662
9325.000000;0.743903
9324.000000;0.743736
9323.000000;0.743103
9322.000000;0.742280
9321.000000;0.741612
9320.000000;0.741284
9319.000000;0.741227
9318.000000;0.741151
9317.000000;0.740770
9316.000000;0.740145
9315.000000;0.739742
9314.000000;0.739956
9313.000000;0.740598
9312.000000;0.741014
9311.000000;0.740750
9310.000000;0.739953
9309.000000;0.739023
9308.000000;0.738107
9307.000000;0.737098
9306.000000;0.736032
9305.000000;0.735205
9304.000000;0.734844
9303.000000;0.734811
9302.000000;0.734736
9301.000000;0.734396
9300.000000;0.733861
9299.000000;0.733297
9298.000000;0.732750
9297.000000;0.732151
9296.000000;0.731487
9295.000000;0.730861
9294.000000;0.730408
9293.000000;0.730194
9292.000000;0.730195
9291.000000;0.730310
9290.000000;0.730365
9289.000000;0.730144
9288.000000;0.729509
9287.000000;0.728544
9286.000000;0.727573
9285.000000;0.726989
9284.000000;0.726988
9283.000000;0.727415
9282.000000;0.727848
9281.000000;0.727853
9280.000000;0.727202
9279.000000;0.725972
9278.000000;0.724522
9277.000000;0.723316
9276.000000;0.722602
9275.000000;0.722214
9274.000000;0.721812
9273.000000;0.721346
9272.000000;0.721133
9271.000000;0.721343
9270.000000;0.721623
9269.000000;0.721457
9268.000000;0.720785
9267.000000;0.720008
9266.000000;0.719436
9265.000000;0.719025
9264.000000;0.718637
9263.000000;0.718251
9262.000000;0.717837
9261.000000;0.717323
9260.000000;0.716804
9259.000000;0.716530
9258.000000;0.716480
9257.000000;0.716200
9256.000000;0.715332
9255.000000;0.714159
9254.000000;0.713331
9253.000000;0.713094
9252.000000;0.713066
9251.000000;0.712775
9250.000000;0.712209
9249.000000;0.711703
9248.000000;0.711432
9247.000000;0.711159
9246.000000;0.710494
9245.000000;0.709389
9244.000000;0.708323
9243.000000;0.707931
9242.000000;0.708376
9241.000000;0.709130
9240.000000;0.709431
9239.000000;0.708986
9238.000000;0.708197
9237.000000;0.707721
9236.000000;0.707821
9235.000000;0.708161
9234.000000;0.708196
9233.000000;0.707726
9232.000000;0.706975
9231.000000;0.706167
9230.000000;0.705226
9229.000000;0.704073
9228.000000;0.703024
9227.000000;0.702581
9226.000000;0.702822
9225.000000;0.703266
9224.000000;0.703401
9223.000000;0.703125
9222.000000;0.702623
9221.000000;0.702079
9220.000000;0.701629
9219.000000;0.701372
9218.000000;0.701213
9217.000000;0.700869
9216.000000;0.700248
9215.000000;0.699649
9214.000000;0.699390
9213.000000;0.699331
9212.000000;0.699026
9211.000000;0.698331
9210.000000;0.697635
9209.000000;0.697448
9208.000000;0.697875
9207.000000;0.698520
9206.000000;0.698811
9205.000000;0.698427
9204.000000;0.697485
9203.000000;0.696387
9202.000000;0.695482
9201.000000;0.694879
9200.000000;0.694506
9199.000000;0.694237
9198.000000;0.693944
9197.000000;0.693547
9196.000000;0.693055
9195.000000;0.692488
9194.000000;0.691767
9193.000000;0.690848
9192.000000;0.689942
9191.000000;0.689430
9190.000000;0.689465
9189.000000;0.689815
9188.000000;0.690146
9187.000000;0.690296
9186.000000;0.690222
9185.000000;0.689876
9184.000000;0.689298
9183.000000;0.688678
9182.000000;0.688193
9181.000000;0.687882
9180.000000;0.687756
9179.000000;0.687853
9178.000000;0.688047
9177.000000;0.687975
9176.000000;0.687344
9175.000000;0.686274
9174.000000;0.685212
9173.000000;0.684583
9172.000000;0.684558
9171.000000;0.684984
9170.000000;0.685415
9169.000000;0.685410
9168.000000;0.684950
9167.000000;0.684455
9166.000000;0.684256
9165.000000;0.684186
9164.000000;0.683804
9163.000000;0.682871
9162.000000;0.681483
9161.000000;0.679977
9160.000000;0.678855
9159.000000;0.678551
9158.000000;0.678976
9157.000000;0.679487
9156.000000;0.679541
9155.000000;0.679250
9154.000000;0.679009
9153.000000;0.678787
9152.000000;0.678195
9151.000000;0.677169
9150.000000;0.676171
9149.000000;0.675626
9148.000000;0.675507
9147.000000;0.675543
9146.000000;0.675563
9145.000000;0.675498
9144.000000;0.675295
9143.000000;0.674996
9142.000000;0.674788
9141.000000;0.674815
9140.000000;0.674985
9139.000000;0.675024
9138.000000;0.674699
9137.000000;0.674017
9136.000000;0.673255
9135.000000;0.672734
9134.000000;0.672483
9133.000000;0.672191
9132.000000;0.671634
9131.000000;0.671051
9130.000000;0.670883
9129.000000;0.671157
9128.000000;0.671357
9127.000000;0.670992
9126.000000;0.670142
9125.000000;0.669365
9124.000000;0.669160
9123.000000;0.669554
9122.000000;0.670111
9121.000000;0.670321
9120.000000;0.669998
9119.000000;0.669343
9118.000000;0.668655
9117.000000;0.668071
9116.000000;0.667609
9115.000000;0.667299
9114.000000;0.667116
9113.000000;0.666927
9112.000000;0.666673
9111.000000;0.666500
9110.000000;0.666532
9109.000000;0.666602
9108.000000;0.666440
9107.000000;0.666060
9106.000000;0.665734
9105.000000;0.665577
9104.000000;0.665385
9103.000000;0.664896
9102.000000;0.664062
9101.000000;0.663047
9100.000000;0.662158
9099.000000;0.661727
9098.000000;0.661843
9097.000000;0.662167
9096.000000;0.662197
9095.000000;0.661806
9094.000000;0.661335
9093.000000;0.661109
9092.000000;0.661035
9091.000000;0.660763
9090.000000;0.660086
9089.000000;0.659093
9088.000000;0.658059
9087.000000;0.657300
9086.000000;0.656993
9085.000000;0.657040
9084.000000;0.657137
9083.000000;0.657064
9082.000000;0.656865
9081.000000;0.656728
9080.000000;0.656746
9079.000000;0.656840
9078.000000;0.656838
9077.000000;0.656620
9076.000000;0.656205
9075.000000;0.655739
9074.000000;0.655342
9073.000000;0.655027
9072.000000;0.654799
9071.000000;0.654758
9070.000000;0.654968
9069.000000;0.655266
9068.000000;0.655369
9067.000000;0.655170
9066.000000;0.654797
9065.000000;0.654371
9064.000000;0.653847
9063.000000;0.653164
9062.000000;0.652410
9061.000000;0.651767
9060.000000;0.651351
9059.000000;0.651146
9058.000000;0.651018
9057.000000;0.650775
9056.000000;0.650329
9055.000000;0.649824
9054.000000;0.649529
9053.000000;0.649549
9052.000000;0.649709
9051.000000;0.649756
9050.000000;0.649586
9049.000000;0.649260
9048.000000;0.648907
9047.000000;0.648678
9046.000000;0.648699
9045.000000;0.648951
9044.000000;0.649248
9043.000000;0.649400
9042.000000;0.649402
9041.000000;0.649352
9040.000000;0.649199
9039.000000;0.648664
9038.000000;0.647543
9037.000000;0.646079
9036.000000;0.644915
9035.000000;0.644566
9034.000000;0.644968
9033.000000;0.645631
9032.000000;0.646151
9031.000000;0.646420
9030.000000;0.646380
9029.000000;0.645887
9028.000000;0.644997
9027.000000;0.644186
9026.000000;0.643993
9025.000000;0.644454
9024.000000;0.645056
9023.000000;0.645247
9022.000000;0.644887
9021.000000;0.644216
9020.000000;0.643556
9019.000000;0.643069
9018.000000;0.642710
9017.000000;0.642357
9016.000000;0.642001
9015.000000;0.641732
9014.000000;0.641525
9013.000000;0.641167
9012.000000;0.640547
9011.000000;0.639912
9010.000000;0.639628
9009.000000;0.639752
9008.000000;0.640015
9007.000000;0.640211
9006.000000;0.640389
9005.000000;0.640635
9004.000000;0.640866
9003.000000;0.640907
9002.000000;0.640635
9001.000000;0.640015
9000.000000;0.639144
8999.000000;0.638313
8998.000000;0.637876
8997.000000;0.637946
8996.000000;0.638271
8995.000000;0.638487
8994.000000;0.638386
8993.000000;0.637926
8992.000000;0.637129
8991.000000;0.636126
8990.000000;0.635224
8989.000000;0.634737
8988.000000;0.634700
8987.000000;0.634797
8986.000000;0.634651
8985.000000;0.634202
8984.000000;0.633766
8983.000000;0.633706
8982.000000;0.634038
8981.000000;0.634423
8980.000000;0.634546
8979.000000;0.634411
8978.000000;0.634221
8977.000000;0.634106
8976.000000;0.634076
8975.000000;0.634163
8974.000000;0.634410
8973.000000;0.634704
8972.000000;0.634763
8971.000000;0.634357
8970.000000;0.633515
8969.000000;0.632516
8968.000000;0.631732
8967.000000;0.631402
8966.000000;0.631436
8965.000000;0.631493
8964.000000;0.631378
8963.000000;0.631313
8962.000000;0.631615
8961.000000;0.632148
8960.000000;0.632334
8959.000000;0.631800
8958.000000;0.630839
8957.000000;0.630073
8956.000000;0.629815
8955.000000;0.629890
8954.000000;0.629984
8953.000000;0.629971
8952.000000;0.629905
8951.000000;0.629846
8950.000000;0.629791
8949.000000;0.629703
8948.000000;0.629573
8947.000000;0.629432
8946.000000;0.629292
8945.000000;0.629075
8944.000000;0.628676
8943.000000;0.628116
8942.000000;0.627585
8941.000000;0.627297
8940.000000;0.627301
8939.000000;0.627441
8938.000000;0.627464
8937.000000;0.627185
8936.000000;0.626652
8935.000000;0.626212
8934.000000;0.626274
8933.000000;0.626882
8932.000000;0.627556
8931.000000;0.627689
8930.000000;0.627122
8929.000000;0.626231
8928.000000;0.625468
8927.000000;0.624957
8926.000000;0.624585
8925.000000;0.624315
8924.000000;0.624222
8923.000000;0.624312
8922.000000;0.624501
8921.000000;0.624786
8920.000000;0.625270
8919.000000;0.625903
8918.000000;0.626334
8917.000000;0.626150
8916.000000;0.625270
8915.000000;0.624059
8914.000000;0.623067
8913.000000;0.622720
8912.000000;0.623097
8911.000000;0.623846
8910.000000;0.624348
8909.000000;0.624159
8908.000000;0.623406
8907.000000;0.622668
8906.000000;0.622419
8905.000000;0.622611
8904.000000;0.622826
8903.000000;0.622718
8902.000000;0.622253
8901.000000;0.621617
8900.000000;0.621039
8899.000000;0.620720
8898.000000;0.620793
8897.000000;0.621216
8896.000000;0.621692
8895.000000;0.621820
8894.000000;0.621447
8893.000000;0.620875
8892.000000;0.620613
8891.000000;0.620864
8890.000000;0.621371
8889.000000;0.621744
8888.000000;0.621797
8887.000000;0.621476
8886.000000;0.620720
8885.000000;0.619630
8884.000000;0.618650
8883.000000;0.618251
8882.000000;0.618409
8881.000000;0.618666
8880.000000;0.618722
8879.000000;0.618721
8878.000000;0.618872
8877.000000;0.619063
8876.000000;0.619034
8875.000000;0.618752
8874.000000;0.618419
8873.000000;0.618191
8872.000000;0.618051
8871.000000;0.617919
8870.000000;0.617759
8869.000000;0.617631
8868.000000;0.617660
8867.000000;0.617906
8866.000000;0.618235
8865.000000;0.618405
8864.000000;0.618322
8863.000000;0.618098
8862.000000;0.617845
8861.000000;0.617579
8860.000000;0.617366
8859.000000;0.617372
8858.000000;0.617639
8857.000000;0.617964
8856.000000;0.618102
8855.000000;0.617994
8854.000000;0.617704
8853.000000;0.617288
8852.000000;0.616852
8851.000000;0.616564
8850.000000;0.616465
8849.000000;0.616408
8848.000000;0.616312
8847.000000;0.616345
8846.000000;0.616678
8845.000000;0.617157
8844.000000;0.617431
8843.000000;0.617330
8842.000000;0.616965
8841.000000;0.616531
8840.000000;0.616176
8839.000000;0.615986
8838.000000;0.615924
8837.000000;0.615836
8836.000000;0.615663
8835.000000;0.615567
8834.000000;0.615714
8833.000000;0.615993
8832.000000;0.616152
8831.000000;0.616153
8830.000000;0.616198
8829.000000;0.616426
8828.000000;0.616779
8827.000000;0.617146
8826.000000;0.617462
8825.000000;0.617644
8824.000000;0.617597
8823.000000;0.617328
8822.000000;0.616952
8821.000000;0.616581
8820.000000;0.616304
8819.000000;0.616235
8818.000000;0.616425
8817.000000;0.616722
8816.000000;0.616845
8815.000000;0.616640
8814.000000;0.616171
8813.000000;0.615559
8812.000000;0.614870
8811.000000;0.614213
8810.000000;0.613820
8809.000000;0.613931
8808.000000;0.614604
8807.000000;0.615653
8806.000000;0.616733
8805.000000;0.617493
8804.000000;0.617735
8803.000000;0.617494
8802.000000;0.616997
8801.000000;0.616561
8800.000000;0.616449
8799.000000;0.616715
8798.000000;0.617148
8797.000000;0.617465
8796.000000;0.617572
8795.000000;0.617573
8794.000000;0.617528
8793.000000;0.617367
8792.000000;0.617086
8791.000000;0.616857
8790.000000;0.616861
8789.000000;0.617129
8788.000000;0.617608
8787.000000;0.618205
8786.000000;0.618680
8785.000000;0.618722
8784.000000;0.618323
8783.000000;0.617935
8782.000000;0.618012
8781.000000;0.618500
8780.000000;0.618925
8779.000000;0.618927
8778.000000;0.618553
8777.000000;0.618129
8776.000000;0.618034
8775.000000;0.618471
8774.000000;0.619259
8773.000000;0.619943
8772.000000;0.620280
8771.000000;0.620508
8770.000000;0.620948
8769.000000;0.621473
8768.000000;0.621667
8767.000000;0.621409
8766.000000;0.621023
8765.000000;0.620832
8764.000000;0.620848
8763.000000;0.620902
8762.000000;0.620890
8761.000000;0.620843
8760.000000;0.620913
8759.000000;0.621285
8758.000000;0.621919
8757.000000;0.622456
8756.000000;0.622577
8755.000000;0.622406
8754.000000;0.622326
8753.000000;0.622457
8752.000000;0.622590
8751.000000;0.622590
8750.000000;0.622540
8749.000000;0.622451
8748.000000;0.622178
8747.000000;0.621746
8746.000000;0.621457
8745.000000;0.621515
8744.000000;0.621799
8743.000000;0.622136
8742.000000;0.622537
8741.000000;0.622988
8740.000000;0.623246
8739.000000;0.623141
8738.000000;0.622943
8737.000000;0.623142
8736.000000;0.623895
8735.000000;0.624829
8734.000000;0.625400
8733.000000;0.625303
8732.000000;0.624631
8731.000000;0.623784
8730.000000;0.623221
8729.000000;0.623174
8728.000000;0.623525
8727.000000;0.623977
8726.000000;0.624317
8725.000000;0.624493
8724.000000;0.624552
8723.000000;0.624598
8722.000000;0.624794
8721.000000;0.625281
8720.000000;0.626037
8719.000000;0.626824
8718.000000;0.627320
8717.000000;0.627385
8716.000000;0.627224
8715.000000;0.627226
8714.000000;0.627584
8713.000000;0.628108
8712.000000;0.628480
8711.000000;0.628597
8710.000000;0.628562
8709.000000;0.628406
8708.000000;0.628053
8707.000000;0.627544
8706.000000;0.627108
8705.000000;0.626936
8704.000000;0.627022
8703.000000;0.627274
8702.000000;0.627618
8701.000000;0.627914
8700.000000;0.627950
8699.000000;0.627666
8698.000000;0.627304
8697.000000;0.627195
8696.000000;0.627446
8695.000000;0.627916
8694.000000;0.628412
8693.000000;0.628791
8692.000000;0.628945
8691.000000;0.628845
8690.000000;0.628619
8689.000000;0.628453
8688.000000;0.628399
8687.000000;0.628360
8686.000000;0.628301
8685.000000;0.628376
8684.000000;0.628715
8683.000000;0.629135
8682.000000;0.629198
8681.000000;0.628666
8680.000000;0.627823
8679.000000;0.627253
8678.000000;0.627315
8677.000000;0.627900
8676.000000;0.628675
8675.000000;0.629388
8674.000000;0.629928
8673.000000;0.630254
8672.000000;0.630403
8671.000000;0.630478
8670.000000;0.630546
8669.000000;0.630586
8668.000000;0.630599
8667.000000;0.630686
8666.000000;0.630902
8665.000000;0.631119
8664.000000;0.631153
8663.000000;0.630974
8662.000000;0.630670
8661.000000;0.630269
8660.000000;0.629749
8659.000000;0.629227
8658.000000;0.628935
8657.000000;0.628961
8656.000000;0.629106
8655.000000;0.629114
8654.000000;0.628978
8653.000000;0.628949
8652.000000;0.629229
8651.000000;0.629699
8650.000000;0.630009
8649.000000;0.629950
8648.000000;0.629700
8647.000000;0.629614
8646.000000;0.629812
8645.000000;0.630087
8644.000000;0.630215
8643.000000;0.630189
8642.000000;0.630118
8641.000000;0.630049
8640.000000;0.629950
8639.000000;0.629762
8638.000000;0.629395
8637.000000;0.628830
8636.000000;0.628282
8635.000000;0.628073
8634.000000;0.628251
8633.000000;0.628528
8632.000000;0.628704
8631.000000;0.628922
8630.000000;0.629317
8629.000000;0.629683
8628.000000;0.629767
8627.000000;0.629693
8626.000000;0.629724
8625.000000;0.629739
8624.000000;0.629348
8623.000000;0.628521
8622.000000;0.627718
8621.000000;0.627359
8620.000000;0.627444
8619.000000;0.627775
8618.000000;0.628225
8617.000000;0.628659
8616.000000;0.628868
8615.000000;0.628763
8614.000000;0.628477
8613.000000;0.628152
8612.000000;0.627769
8611.000000;0.627304
8610.000000;0.626877
8609.000000;0.626642
8608.000000;0.626635
8607.000000;0.626847
8606.000000;0.627294
8605.000000;0.627894
8604.000000;0.628382
8603.000000;0.628501
8602.000000;0.628223
8601.000000;0.627687
8600.000000;0.627022
8599.000000;0.626318
8598.000000;0.625721
8597.000000;0.625428
8596.000000;0.625563
8595.000000;0.626069
8594.000000;0.626731
8593.000000;0.627279
8592.000000;0.627526
8591.000000;0.627413
8590.000000;0.626944
8589.000000;0.626163
8588.000000;0.625250
8587.000000;0.624539
8586.000000;0.624278
8585.000000;0.624370
8584.000000;0.624476
8583.000000;0.624412
8582.000000;0.624323
8581.000000;0.624457
8580.000000;0.624859
8579.000000;0.625297
8578.000000;0.625437
8577.000000;0.625096
8576.000000;0.624422
8575.000000;0.623789
8574.000000;0.623450
8573.000000;0.623313
8572.000000;0.623162
8571.000000;0.622994
8570.000000;0.622991
8569.000000;0.623181
8568.000000;0.623376
8567.000000;0.623447
8566.000000;0.623499
8565.000000;0.623677
8564.000000;0.623946
8563.000000;0.624129
8562.000000;0.624078
8561.000000;0.623743
8560.000000;0.623197
8559.000000;0.622635
8558.000000;0.622265
8557.000000;0.622159
8556.000000;0.622248
8555.000000;0.622431
8554.000000;0.622609
8553.000000;0.622654
8552.000000;0.622497
8551.000000;0.622232
8550.000000;0.622011
8549.000000;0.621824
8548.000000;0.621560
8547.000000;0.621270
8546.000000;0.621173
8545.000000;0.621367
8544.000000;0.621682
8543.000000;0.621879
8542.000000;0.621852
8541.000000;0.621573
8540.000000;0.621048
8539.000000;0.620421
8538.000000;0.619985
8537.000000;0.619929
8536.000000;0.620136
8535.000000;0.620312
8534.000000;0.620249
8533.000000;0.619947
8532.000000;0.619585
8531.000000;0.619425
8530.000000;0.619616
8529.000000;0.620016
8528.000000;0.620263
8527.000000;0.620120
8526.000000;0.619680
8525.000000;0.619198
8524.000000;0.618831
8523.000000;0.618580
8522.000000;0.618405
8521.000000;0.618276
8520.000000;0.618186
8519.000000;0.618153
8518.000000;0.618184
8517.000000;0.618208
8516.000000;0.618145
8515.000000;0.618057
8514.000000;0.618119
8513.000000;0.618365
8512.000000;0.618588
8511.000000;0.618575
8510.000000;0.618363
8509.000000;0.618164
8508.000000;0.618111
8507.000000;0.618161
8506.000000;0.618216
8505.000000;0.618217
8504.000000;0.618168
8503.000000;0.618110
8502.000000;0.618055
8501.000000;0.617900
8500.000000;0.617494
8499.000000;0.616839
8498.000000;0.616176
8497.000000;0.615782
8496.000000;0.615708
8495.000000;0.615789
8494.000000;0.615877
8493.000000;0.615970
8492.000000;0.616111
8491.000000;0.616268
8490.000000;0.616368
8489.000000;0.616409
8488.000000;0.616473
8487.000000;0.616601
8486.000000;0.616703
8485.000000;0.616642
8484.000000;0.616415
8483.000000;0.616176
8482.000000;0.616060
8481.000000;0.616040
8480.000000;0.616016
8479.000000;0.615958
8478.000000;0.615904
8477.000000;0.615842
8476.000000;0.615725
8475.000000;0.615572
8474.000000;0.615438
8473.000000;0.615290
8472.000000;0.615030
8471.000000;0.614686
8470.000000;0.614443
8469.000000;0.614420
8468.000000;0.614489
8467.000000;0.614426
8466.000000;0.614193
8465.000000;0.613991
8464.000000;0.614004
8463.000000;0.614153
8462.000000;0.614173
8461.000000;0.613912
8460.000000;0.613542
8459.000000;0.613408
8458.000000;0.613671
8457.000000;0.614120
8456.000000;0.614379
8455.000000;0.614264
8454.000000;0.613935
8453.000000;0.613714
8452.000000;0.613784
8451.000000;0.614020
8450.000000;0.614088
8449.000000;0.613749
8448.000000;0.613100
8447.000000;0.612503
8446.000000;0.612258
8445.000000;0.612359
8444.000000;0.612557
8443.000000;0.612604
8442.000000;0.612452
8441.000000;0.612277
8440.000000;0.612312
8439.000000;0.612590
8438.000000;0.612867
8437.000000;0.612878
8436.000000;0.612639
8435.000000;0.612367
8434.000000;0.612128
8433.000000;0.611792
8432.000000;0.611373
8431.000000;0.611129
8430.000000;0.611177
8429.000000;0.611224
8428.000000;0.610925
8427.000000;0.610354
8426.000000;0.609904
8425.000000;0.609806
8424.000000;0.609964
8423.000000;0.610174
8422.000000;0.610324
8421.000000;0.610410
8420.000000;0.610529
8419.000000;0.610809
8418.000000;0.611184
8417.000000;0.611350
8416.000000;0.611145
8415.000000;0.610854
8414.000000;0.610875
8413.000000;0.611148
8412.000000;0.611210
8411.000000;0.610815
8410.000000;0.610227
8409.000000;0.609847
8408.000000;0.609795
8407.000000;0.609936
8406.000000;0.610084
8405.000000;0.610108
8404.000000;0.609990
8403.000000;0.609890
8402.000000;0.609987
8401.000000;0.610206
8400.000000;0.610244
8399.000000;0.609922
8398.000000;0.609387
8397.000000;0.608928
8396.000000;0.608728
8395.000000;0.608819
8394.000000;0.609115
8393.000000;0.609433
8392.000000;0.609608
8391.000000;0.609630
8390.000000;0.609579
8389.000000;0.609444
8388.000000;0.609180
8387.000000;0.608907
8386.000000;0.608840
8385.000000;0.608977
8384.000000;0.609086
8383.000000;0.609033
8382.000000;0.608905
8381.000000;0.608760
8380.000000;0.608496
8379.000000;0.608102
8378.000000;0.607785
8377.000000;0.607690
8376.000000;0.607649
8375.000000;0.607413
8374.000000;0.607022
8373.000000;0.606762
8372.000000;0.606845
8371.000000;0.607236
8370.000000;0.607720
8369.000000;0.608020
8368.000000;0.607956
8367.000000;0.607613
8366.000000;0.607283
8365.000000;0.607150
8364.000000;0.607135
8363.000000;0.607105
8362.000000;0.607105
8361.000000;0.607242
8360.000000;0.607437
8359.000000;0.607501
8358.000000;0.607375
8357.000000;0.607181
8356.000000;0.607041
8355.000000;0.606999
8354.000000;0.607060
8353.000000;0.607186
8352.000000;0.607250
8351.000000;0.607102
8350.000000;0.606701
8349.000000;0.606149
8348.000000;0.605618
8347.000000;0.605266
8346.000000;0.605183
8345.000000;0.605329
8344.000000;0.605578
8343.000000;0.605847
8342.000000;0.606118
8341.000000;0.606315
8340.000000;0.606250
8339.000000;0.605819
8338.000000;0.605201
8337.000000;0.604729
8336.000000;0.604584
8335.000000;0.604675
8334.000000;0.604809
8333.000000;0.604884
8332.000000;0.604891
8331.000000;0.604800
8330.000000;0.604536
8329.000000;0.604108
8328.000000;0.603729
8327.000000;0.603694
8326.000000;0.604057
8325.000000;0.604484
8324.000000;0.604552
8323.000000;0.604177
8322.000000;0.603662
8321.000000;0.603325
8320.000000;0.603225
8319.000000;0.603265
8318.000000;0.603385
8317.000000;0.603547
8316.000000;0.603662
8315.000000;0.603656
8314.000000;0.603552
8313.000000;0.603407
8312.000000;0.603211
8311.000000;0.602916
8310.000000;0.602517
8309.000000;0.602052
8308.000000;0.601579
8307.000000;0.601210
8306.000000;0.601095
8305.000000;0.601304
8304.000000;0.601730
8303.000000;0.602175
8302.000000;0.602480
8301.000000;0.602588
8300.000000;0.602541
8299.000000;0.602436
8298.000000;0.602339
8297.000000;0.602209
8296.000000;0.601995
8295.000000;0.601789
8294.000000;0.601763
8293.000000;0.601909
8292.000000;0.601994
8291.000000;0.601851
8290.000000;0.601586
8289.000000;0.601387
8288.000000;0.601257
8287.000000;0.601079
8286.000000;0.600841
8285.000000;0.600623
8284.000000;0.600423
8283.000000;0.600164
8282.000000;0.599894
8281.000000;0.599784
8280.000000;0.599901
8279.000000;0.600084
8278.000000;0.600121
8277.000000;0.599971
8276.000000;0.599771
8275.000000;0.599674
8274.000000;0.599714
8273.000000;0.599799
8272.000000;0.599773
8271.000000;0.599539
8270.000000;0.599128
8269.000000;0.598680
8268.000000;0.598348
8267.000000;0.598200
8266.000000;0.598191
8265.000000;0.598208
8264.000000;0.598175
8263.000000;0.598140
8262.000000;0.598224
8261.000000;0.598467
8260.000000;0.598745
8259.000000;0.598899
8258.000000;0.598914
8257.000000;0.598915
8256.000000;0.598994
8255.000000;0.599094
8254.000000;0.599085
8253.000000;0.598890
8252.000000;0.598522
8251.000000;0.598054
8250.000000;0.597591
8249.000000;0.597250
8248.000000;0.597092
8247.000000;0.597070
8246.000000;0.597079
8245.000000;0.597085
8244.000000;0.597148
8243.000000;0.597297
8242.000000;0.597430
8241.000000;0.597426
8240.000000;0.597310
8239.000000;0.597226
8238.000000;0.597231
8237.000000;0.597241
8236.000000;0.597209
8235.000000;0.597214
8234.000000;0.597305
8233.000000;0.597360
8232.000000;0.597216
8231.000000;0.596890
8230.000000;0.596543
8229.000000;0.596286
8228.000000;0.596120
8227.000000;0.596040
8226.000000;0.596043
8225.000000;0.596047
8224.000000;0.595942
8223.000000;0.595736
8222.000000;0.595574
8221.000000;0.595570
8220.000000;0.595704
8219.000000;0.595887
8218.000000;0.596022
8217.000000;0.596003
8216.000000;0.595771
8215.000000;0.595414
8214.000000;0.595116
8213.000000;0.594952
8212.000000;0.594795
8211.000000;0.594489
8210.000000;0.594067
8209.000000;0.593720
8208.000000;0.593612
8207.000000;0.593746
8206.000000;0.594028
8205.000000;0.594384
8204.000000;0.594806
8203.000000;0.595271
8202.000000;0.595642
8201.000000;0.595716
8200.000000;0.595406
8199.000000;0.594834
8198.000000;0.594203
8197.000000;0.593635
8196.000000;0.593186
8195.000000;0.592954
8194.000000;0.593040
8193.000000;0.593396
8192.000000;0.593818
8191.000000;0.594081
8190.000000;0.594077
8189.000000;0.593857
8188.000000;0.593628
8187.000000;0.593651
8186.000000;0.593979
8185.000000;0.594323
8184.000000;0.594314
8183.000000;0.593905
8182.000000;0.593402
8181.000000;0.593078
8180.000000;0.592905
8179.000000;0.592710
8178.000000;0.592435
8177.000000;0.592162
8176.000000;0.591999
8175.000000;0.592030
8174.000000;0.592274
8173.000000;0.592620
8172.000000;0.592858
8171.000000;0.592877
8170.000000;0.592774
8169.000000;0.592728
8168.000000;0.592783
8167.000000;0.592834
8166.000000;0.592763
8165.000000;0.592545
8164.000000;0.592254
8163.000000;0.592006
8162.000000;0.591865
8161.000000;0.591772
8160.000000;0.591625
8159.000000;0.591441
8158.000000;0.591361
8157.000000;0.591469
8156.000000;0.591664
8155.000000;0.591765
8154.000000;0.591700
8153.000000;0.591514
8152.000000;0.591280
8151.000000;0.591069
8150.000000;0.590984
8149.000000;0.591104
8148.000000;0.591346
8147.000000;0.591456
8146.000000;0.591197
8145.000000;0.590586
8144.000000;0.589932
8143.000000;0.589586
8142.000000;0.589642
8141.000000;0.589866
8140.000000;0.589963
8139.000000;0.589844
8138.000000;0.589628
8137.000000;0.589451
8136.000000;0.589352
8135.000000;0.589312
8134.000000;0.589306
8133.000000;0.589304
8132.000000;0.589290
8131.000000;0.589282
8130.000000;0.589293
8129.000000;0.589291
8128.000000;0.589264
8127.000000;0.589277
8126.000000;0.589382
8125.000000;0.589499
8124.000000;0.589493
8123.000000;0.589350
8122.000000;0.589201
8121.000000;0.589168
8120.000000;0.589272
8119.000000;0.589450
8118.000000;0.589558
8117.000000;0.589407
8116.000000;0.588941
8115.000000;0.588387
8114.000000;0.588084
8113.000000;0.588131
8112.000000;0.588325
8111.000000;0.588453
8110.000000;0.588480
8109.000000;0.588425
8108.000000;0.588242
8107.000000;0.587926
8106.000000;0.587609
8105.000000;0.587435
8104.000000;0.587405
8103.000000;0.587448
8102.000000;0.587543
8101.000000;0.587663
8100.000000;0.587694
8099.000000;0.587520
8098.000000;0.587175
8097.000000;0.586824
8096.000000;0.586609
8095.000000;0.586561
8094.000000;0.586618
8093.000000;0.586684
8092.000000;0.586690
8091.000000;0.586644
8090.000000;0.586610
8089.000000;0.586611
8088.000000;0.586616
8087.000000;0.586620
8086.000000;0.586661
8085.000000;0.586737
8084.000000;0.586779
8083.000000;0.586754
8082.000000;0.586707
8081.000000;0.586661
8080.000000;0.586563
8079.000000;0.586389
8078.000000;0.586222
8077.000000;0.586163
8076.000000;0.586213
8075.000000;0.586317
8074.000000;0.586456
8073.000000;0.586634
8072.000000;0.586800
8071.000000;0.586868
8070.000000;0.586767
8069.000000;0.586465
8068.000000;0.585990
8067.000000;0.585483
8066.000000;0.585140
8065.000000;0.585053
8064.000000;0.585124
8063.000000;0.585186
8062.000000;0.585148
8061.000000;0.585033
8060.000000;0.584939
8059.000000;0.585017
8058.000000;0.585354
8057.000000;0.585797
8056.000000;0.586010
8055.000000;0.585805
8054.000000;0.585371
8053.000000;0.585067
8052.000000;0.585034
8051.000000;0.585126
8050.000000;0.585149
8049.000000;0.585045
8048.000000;0.584846
8047.000000;0.584580
8046.000000;0.584282
8045.000000;0.584043
8044.000000;0.583968
8043.000000;0.584095
8042.000000;0.584331
8041.000000;0.584483
8040.000000;0.584399
8039.000000;0.584128
8038.000000;0.583881
8037.000000;0.583801
8036.000000;0.583816
8035.000000;0.583770
8034.000000;0.583654
8033.000000;0.583617
8032.000000;0.583753
8031.000000;0.583968
8030.000000;0.584077
8029.000000;0.583983
8028.000000;0.583750
8027.000000;0.583539
8026.000000;0.583477
8025.000000;0.583553
8024.000000;0.583634
8023.000000;0.583595
8022.000000;0.583436
8021.000000;0.583266
8020.000000;0.583173
8019.000000;0.583138
8018.000000;0.583075
8017.000000;0.582946
8016.000000;0.582826
8015.000000;0.582837
8014.000000;0.583015
8013.000000;0.583262
8012.000000;0.583446
8011.000000;0.583543
8010.000000;0.583616
8009.000000;0.583677
8008.000000;0.583652
8007.000000;0.583505
8006.000000;0.583336
8005.000000;0.583287
8004.000000;0.583380
8003.000000;0.583489
8002.000000;0.583466
8001.000000;0.583279
8000.000000;0.583049
7999.000000;0.582954
7998.000000;0.583056
7997.000000;0.583219
7996.000000;0.583238
7995.000000;0.583065
7994.000000;0.582849
7993.000000;0.582739
7992.000000;0.582706
7991.000000;0.582619
7990.000000;0.582438
7989.000000;0.582264
7988.000000;0.582208
7987.000000;0.582270
7986.000000;0.582352
7985.000000;0.582363
7984.000000;0.582304
7983.000000;0.582262
7982.000000;0.582302
7981.000000;0.582386
7980.000000;0.582405
7979.000000;0.582308
7978.000000;0.582145
7977.000000;0.581989
7976.000000;0.581854
7975.000000;0.581727
7974.000000;0.581631
7973.000000;0.581602
7972.000000;0.581628
7971.000000;0.581638
7970.000000;0.581573
7969.000000;0.581447
7968.000000;0.581339
7967.000000;0.581323
7966.000000;0.581402
7965.000000;0.581498
7964.000000;0.581521
7963.000000;0.581428
7962.000000;0.581233
7961.000000;0.580983
7960.000000;0.580777
7959.000000;0.580742
7958.000000;0.580925
7957.000000;0.581218
7956.000000;0.581455
7955.000000;0.581573
7954.000000;0.581631
7953.000000;0.581659
7952.000000;0.581599
7951.000000;0.581426
7950.000000;0.581260
7949.000000;0.581265
7948.000000;0.581458
7947.000000;0.581658
7946.000000;0.581668
7945.000000;0.581475
7944.000000;0.581276
7943.000000;0.581270
7942.000000;0.581453
7941.000000;0.581639
7940.000000;0.581673
7939.000000;0.581573
7938.000000;0.581443
7937.000000;0.581339
7936.000000;0.581268
7935.000000;0.581251
7934.000000;0.581285
7933.000000;0.581296
7932.000000;0.581233
7931.000000;0.581178
7930.000000;0.581238
7929.000000;0.581359
7928.000000;0.581360
7927.000000;0.581156
7926.000000;0.580847
7925.000000;0.580580
7924.000000;0.580438
7923.000000;0.580457
7922.000000;0.580634
7921.000000;0.580873
7920.000000;0.581037
7919.000000;0.581077
7918.000000;0.581036
7917.000000;0.580915
7916.000000;0.580676
7915.000000;0.580403
7914.000000;0.580304
7913.000000;0.580466
7912.000000;0.580727
7911.000000;0.580864
7910.000000;0.580833
7909.000000;0.580735
7908.000000;0.580667
7907.000000;0.580689
7906.000000;0.580859
7905.000000;0.581161
7904.000000;0.581447
7903.000000;0.581552
7902.000000;0.581438
7901.000000;0.581183
7900.000000;0.580890
7899.000000;0.580666
7898.000000;0.580606
7897.000000;0.580684
7896.000000;0.580737
7895.000000;0.580636
7894.000000;0.580456
7893.000000;0.580362
7892.000000;0.580397
7891.000000;0.580486
7890.000000;0.580598
7889.000000;0.580755
7888.000000;0.580896
7887.000000;0.580901
7886.000000;0.580782
7885.000000;0.580701
7884.000000;0.580747
7883.000000;0.580794
7882.000000;0.580691
7881.000000;0.580504
7880.000000;0.580449
7879.000000;0.580605
7878.000000;0.580811
7877.000000;0.580873
7876.000000;0.580797
7875.000000;0.580746
7874.000000;0.580815
7873.000000;0.580946
7872.000000;0.581054
7871.000000;0.581152
7870.000000;0.581277
7869.000000;0.581375
7868.000000;0.581356
7867.000000;0.581236
7866.000000;0.581134
7865.000000;0.581116
7864.000000;0.581141
7863.000000;0.581168
7862.000000;0.581225
7861.000000;0.581324
7860.000000;0.581400
7859.000000;0.581376
7858.000000;0.581247
7857.000000;0.581064
7856.000000;0.580893
7855.000000;0.580822
7854.000000;0.580917
7853.000000;0.581122
7852.000000;0.581268
7851.000000;0.581242
7850.000000;0.581101
7849.000000;0.580968
7848.000000;0.580895
7847.000000;0.580888
7846.000000;0.580975
7845.000000;0.581151
7844.000000;0.581328
7843.000000;0.581430
7842.000000;0.581494
7841.000000;0.581575
7840.000000;0.581612
7839.000000;0.581511
7838.000000;0.581325
7837.000000;0.581209
7836.000000;0.581203
7835.000000;0.581207
7834.000000;0.581172
7833.000000;0.581206
7832.000000;0.581400
7831.000000;0.581670
7830.000000;0.581835
7829.000000;0.581808
7828.000000;0.581660
7827.000000;0.581539
7826.000000;0.581558
7825.000000;0.581720
7824.000000;0.581911
7823.000000;0.582027
7822.000000;0.582112
7821.000000;0.582301
7820.000000;0.582608
7819.000000;0.582842
7818.000000;0.582802
7817.000000;0.582516
7816.000000;0.582206
7815.000000;0.582050
7814.000000;0.582040
7813.000000;0.582064
7812.000000;0.582065
7811.000000;0.582087
7810.000000;0.582196
7809.000000;0.582377
7808.000000;0.582522
7807.000000;0.582543
7806.000000;0.582481
7805.000000;0.582460
7804.000000;0.582530
7803.000000;0.582613
7802.000000;0.582631
7801.000000;0.582627
7800.000000;0.582701
7799.000000;0.582870
7798.000000;0.583061
7797.000000;0.583221
7796.000000;0.583352
7795.000000;0.583443
7794.000000;0.583441
7793.000000;0.583327
7792.000000;0.583161
7791.000000;0.583021
7790.000000;0.582938
7789.000000;0.582904
7788.000000;0.582910
7787.000000;0.582947
7786.000000;0.582987
7785.000000;0.583028
7784.000000;0.583111
7783.000000;0.583269
7782.000000;0.583465
7781.000000;0.583629
7780.000000;0.583741
7779.000000;0.583834
7778.000000;0.583929
7777.000000;0.584016
7776.000000;0.584087
7775.000000;0.584146
7774.000000;0.584177
7773.000000;0.584146
7772.000000;0.584055
7771.000000;0.583969
7770.000000;0.583971
7769.000000;0.584107
7768.000000;0.584369
7767.000000;0.584690
7766.000000;0.584945
7765.000000;0.585032
7764.000000;0.584963
7763.000000;0.584856
7762.000000;0.584812
7761.000000;0.584833
7760.000000;0.584882
7759.000000;0.584946
7758.000000;0.585014
7757.000000;0.585046
7756.000000;0.585034
7755.000000;0.585049
7754.000000;0.585152
7753.000000;0.585275
7752.000000;0.585298
7751.000000;0.585241
7750.000000;0.585292
7749.000000;0.585573
7748.000000;0.585964
7747.000000;0.586205
7746.000000;0.586173
7745.000000;0.585992
7744.000000;0.585884
7743.000000;0.585964
7742.000000;0.586181
7741.000000;0.586412
7740.000000;0.586568
7739.000000;0.586613
7738.000000;0.586555
7737.000000;0.586437
7736.000000;0.586336
7735.000000;0.586308
7734.000000;0.586349
7733.000000;0.586416
7732.000000;0.586490
7731.000000;0.586583
7730.000000;0.586700
7729.000000;0.586831
7728.000000;0.586989
7727.000000;0.587192
7726.000000;0.587381
7725.000000;0.587424
7724.000000;0.587275
7723.000000;0.587090
7722.000000;0.587099
7721.000000;0.587354
7720.000000;0.587672
7719.000000;0.587841
7718.000000;0.587834
7717.000000;0.587800
7716.000000;0.587881
7715.000000;0.588070
7714.000000;0.588252
7713.000000;0.588351
7712.000000;0.588419
7711.000000;0.588572
7710.000000;0.588835
7709.000000;0.589110
7708.000000;0.589290
7707.000000;0.589356
7706.000000;0.589338
7705.000000;0.589249
7704.000000;0.589130
7703.000000;0.589089
7702.000000;0.589207
7701.000000;0.589407
7700.000000;0.589526
7699.000000;0.589523
7698.000000;0.589530
7697.000000;0.589669
7696.000000;0.589896
7695.000000;0.590084
7694.000000;0.590184
7693.000000;0.590256
7692.000000;0.590363
7691.000000;0.590518
7690.000000;0.590688
7689.000000;0.590831
7688.000000;0.590922
7687.000000;0.590992
7686.000000;0.591114
7685.000000;0.591314
7684.000000;0.591524
7683.000000;0.591660
7682.000000;0.591736
7681.000000;0.591838
7680.000000;0.592004
7679.000000;0.592154
7678.000000;0.592201
7677.000000;0.592177
7676.000000;0.592222
7675.000000;0.592420
7674.000000;0.592709
7673.000000;0.592955
7672.000000;0.593101
7671.000000;0.593204
7670.000000;0.593318
7669.000000;0.593396
7668.000000;0.593350
7667.000000;0.593179
7666.000000;0.593001
7665.000000;0.592956
7664.000000;0.593095
7663.000000;0.593362
7662.000000;0.593645
7661.000000;0.593853
7660.000000;0.593972
7659.000000;0.594069
7658.000000;0.594216
7657.000000;0.594423
7656.000000;0.594636
7655.000000;0.594818
7654.000000;0.594996
7653.000000;0.595214
7652.000000;0.595481
7651.000000;0.595752
7650.000000;0.595982
7649.000000;0.596153
7648.000000;0.596285
7647.000000;0.596398
7646.000000;0.596488
7645.000000;0.596541
7644.000000;0.596585
7643.000000;0.596695
7642.000000;0.596918
7641.000000;0.597202
7640.000000;0.597445
7639.000000;0.597611
7638.000000;0.597777
7637.000000;0.598036
7636.000000;0.598397
7635.000000;0.598797
7634.000000;0.599184
7633.000000;0.599524
7632.000000;0.599751
7631.000000;0.599780
7630.000000;0.599611
7629.000000;0.599401
7628.000000;0.599351
7627.000000;0.599521
7626.000000;0.599794
7625.000000;0.600035
7624.000000;0.600240
7623.000000;0.600464
7622.000000;0.600673
7621.000000;0.600765
7620.000000;0.600731
7619.000000;0.600720
7618.000000;0.600885
7617.000000;0.601230
7616.000000;0.601648
7615.000000;0.602046
7614.000000;0.602376
7613.000000;0.602594
7612.000000;0.602682
7611.000000;0.602715
7610.000000;0.602821
7609.000000;0.603068
7608.000000;0.603409
7607.000000;0.603768
7606.000000;0.604119
7605.000000;0.604477
7604.000000;0.604845
7603.000000;0.605192
7602.000000;0.605483
7601.000000;0.605696
7600.000000;0.605839
7599.000000;0.605930
7598.000000;0.605980
7597.000000;0.606002
7596.000000;0.606031
7595.000000;0.606115
7594.000000;0.606274
7593.000000;0.606498
7592.000000;0.606795
7591.000000;0.607191
7590.000000;0.607655
7589.000000;0.608059
7588.000000;0.608289
7587.000000;0.608382
7586.000000;0.608498
7585.000000;0.608753
7584.000000;0.609112
7583.000000;0.609460
7582.000000;0.609727
7581.000000;0.609939
7580.000000;0.610171
7579.000000;0.610462
7578.000000;0.610779
7577.000000;0.611068
7576.000000;0.611332
7575.000000;0.611615
7574.000000;0.611897
7573.000000;0.612074
7572.000000;0.612096
7571.000000;0.612080
7570.000000;0.612226
7569.000000;0.612609
7568.000000;0.613129
7567.000000;0.613642
7566.000000;0.614077
7565.000000;0.614431
7564.000000;0.614713
7563.000000;0.614937
7562.000000;0.615142
7561.000000;0.615373
7560.000000;0.615671
7559.000000;0.616055
7558.000000;0.616502
7557.000000;0.616927
7556.000000;0.617247
7555.000000;0.617463
7554.000000;0.617649
7553.000000;0.617863
7552.000000;0.618101
7551.000000;0.618344
7550.000000;0.618585
7549.000000;0.618819
7548.000000;0.619052
7547.000000;0.619353
7546.000000;0.619819
7545.000000;0.620457
7544.000000;0.621141
7543.000000;0.621710
7542.000000;0.622087
7541.000000;0.622288
7540.000000;0.622388
7539.000000;0.622511
7538.000000;0.622780
7537.000000;0.623200
7536.000000;0.623618
7535.000000;0.623875
7534.000000;0.623983
7533.000000;0.624093
7532.000000;0.624300
7531.000000;0.624560
7530.000000;0.624805
7529.000000;0.625046
7528.000000;0.625349
7527.000000;0.625741
7526.000000;0.626196
7525.000000;0.626678
7524.000000;0.627151
7523.000000;0.627573
7522.000000;0.627918
7521.000000;0.628208
7520.000000;0.628506
7519.000000;0.628856
7518.000000;0.629247
7517.000000;0.629633
7516.000000;0.629973
7515.000000;0.630258
7514.000000;0.630510
7513.000000;0.630753
7512.000000;0.631008
7511.000000;0.631291
7510.000000;0.631618
7509.000000;0.631985
7508.000000;0.632366
7507.000000;0.632754
7506.000000;0.633185
7505.000000;0.633684
7504.000000;0.634171
7503.000000;0.634560
7502.000000;0.634798
7501.000000;0.634996
7500.000000;0.635299
7499.000000;0.635745
7498.000000;0.636261
7497.000000;0.636778
7496.000000;0.637293
7495.000000;0.637835
7494.000000;0.638409
7493.000000;0.638989
7492.000000;0.639505
7491.000000;0.639861
7490.000000;0.640005
7489.000000;0.640013
7488.000000;0.640058
7487.000000;0.640285
7486.000000;0.640719
7485.000000;0.641296
7484.000000;0.641909
7483.000000;0.642436
7482.000000;0.642792
7481.000000;0.643012
7480.000000;0.643232
7479.000000;0.643558
7478.000000;0.643961
7477.000000;0.644348
7476.000000;0.644691
7475.000000;0.645054
7474.000000;0.645507
7473.000000;0.646073
7472.000000;0.646726
7471.000000;0.647398
7470.000000;0.647971
7469.000000;0.648339
7468.000000;0.648495
7467.000000;0.648574
7466.000000;0.648767
7465.000000;0.649165
7464.000000;0.649674
7463.000000;0.650099
7462.000000;0.650338
7461.000000;0.650491
7460.000000;0.650748
7459.000000;0.651205
7458.000000;0.651817
7457.000000;0.652500
7456.000000;0.653188
7455.000000;0.653786
7454.000000;0.654196
7453.000000;0.654412
7452.000000;0.654552
7451.000000;0.654749
7450.000000;0.655061
7449.000000;0.655513
7448.000000;0.656088
7447.000000;0.656659
7446.000000;0.657021
7445.000000;0.657119
7444.000000;0.657161
7443.000000;0.657399
7442.000000;0.657857
7441.000000;0.658351
7440.000000;0.658737
7439.000000;0.659026
7438.000000;0.659295
7437.000000;0.659627
7436.000000;0.660102
7435.000000;0.660729
7434.000000;0.661360
7433.000000;0.661785
7432.000000;0.661966
7431.000000;0.662094
7430.000000;0.662377
7429.000000;0.662833
7428.000000;0.663319
7427.000000;0.663695
7426.000000;0.663930
7425.000000;0.664125
7424.000000;0.664417
7423.000000;0.664824
7422.000000;0.665169
7421.000000;0.665243
7420.000000;0.665062
7419.000000;0.664882
7418.000000;0.664952
7417.000000;0.665304
7416.000000;0.665816
7415.000000;0.666419
7414.000000;0.667148
7413.000000;0.667980
7412.000000;0.668734
7411.000000;0.669195
7410.000000;0.669345
7409.000000;0.669385
7408.000000;0.669478
7407.000000;0.669545
7406.000000;0.669467
7405.000000;0.669379
7404.000000;0.669565
7403.000000;0.670085
7402.000000;0.670645
7401.000000;0.670875
7400.000000;0.670690
7399.000000;0.670353
7398.000000;0.670189
7397.000000;0.670260
7396.000000;0.670350
7395.000000;0.670266
7394.000000;0.670150
7393.000000;0.670346
7392.000000;0.670953
7391.000000;0.671693
7390.000000;0.672258
7389.000000;0.672596
7388.000000;0.672731
7387.000000;0.672510
7386.000000;0.671867
7385.000000;0.671210
7384.000000;0.670996
7383.000000;0.670939
7382.000000;0.670272
7381.000000;0.669032
7380.000000;0.668434
7379.000000;0.669408
7378.000000;0.671273
7377.000000;0.672535
7376.000000;0.672646
7375.000000;0.672450
7374.000000;0.673021
7373.000000;0.674527
7372.000000;0.676278
7371.000000;0.677456
7370.000000;0.677632
7369.000000;0.676970
7368.000000;0.676133
7367.000000;0.675763
7366.000000;0.676002
7365.000000;0.676735
7364.000000;0.677871
7363.000000;0.678995
7362.000000;0.679302
7361.000000;0.678530
7360.000000;0.677630
7359.000000;0.677705
7358.000000;0.678504
7357.000000;0.678646
7356.000000;0.677412
7355.000000;0.675613
7354.000000;0.674582
7353.000000;0.674801
7352.000000;0.675681
7351.000000;0.676076
7350.000000;0.675064
7349.000000;0.672908
7348.000000;0.671140
7347.000000;0.671029
7346.000000;0.672126
7345.000000;0.673098
7344.000000;0.673681
7343.000000;0.674642
7342.000000;0.676022
7341.000000;0.676822
7340.000000;0.676974
7339.000000;0.678052
7338.000000;0.681133
7337.000000;0.685155
7336.000000;0.688199
7335.000000;0.689281
7334.000000;0.688639
7333.000000;0.687259
7332.000000;0.686433
7331.000000;0.686753
7330.000000;0.687193
7329.000000;0.686250
7328.000000;0.684432
7327.000000;0.684418
7326.000000;0.687796
7325.000000;0.692815
7324.000000;0.696562
7323.000000;0.698277
7322.000000;0.699406
7321.000000;0.701020
7320.000000;0.702563
7319.000000;0.703019
7318.000000;0.702065
7317.000000;0.700205
7316.000000;0.698586
7315.000000;0.698320
7314.000000;0.699197
7313.000000;0.699535
7312.000000;0.698289
7311.000000;0.696777
7310.000000;0.697142
7309.000000;0.699462
7308.000000;0.701713
7307.000000;0.702498
7306.000000;0.702589
7305.000000;0.703434
7304.000000;0.705394
7303.000000;0.707964
7302.000000;0.710389
7301.000000;0.711684
7300.000000;0.711319
7299.000000;0.710433
7298.000000;0.711122
7297.000000;0.713844
7296.000000;0.716644
7295.000000;0.717642
7294.000000;0.717486
7293.000000;0.718454
7292.000000;0.721521
7291.000000;0.725408
7290.000000;0.728322
7289.000000;0.729647
7288.000000;0.730029
7287.000000;0.730543
7286.000000;0.731927
7285.000000;0.734089
7284.000000;0.736240
7283.000000;0.737741
7282.000000;0.738715
7281.000000;0.739704
7280.000000;0.740949
7279.000000;0.742270
7278.000000;0.743497
7277.000000;0.744675
7276.000000;0.745821
7275.000000;0.746820
7274.000000;0.747670
7273.000000;0.748647
7272.000000;0.750076
7271.000000;0.751980
7270.000000;0.753984
7269.000000;0.755595
7268.000000;0.756680
7267.000000;0.757646
7266.000000;0.758964
7265.000000;0.760532
7264.000000;0.761777
7263.000000;0.762498
7262.000000;0.763299
7261.000000;0.764950
7260.000000;0.767436
7259.000000;0.770036
7258.000000;0.772205
7257.000000;0.773884
7256.000000;0.774969
7255.000000;0.775150
7254.000000;0.774452
7253.000000;0.773707
7252.000000;0.774167
7251.000000;0.776288
7250.000000;0.779089
7249.000000;0.781098
7248.000000;0.781987
7247.000000;0.782833
7246.000000;0.784454
7245.000000;0.785976
7244.000000;0.785891
7243.000000;0.784502
7242.000000;0.784440
7241.000000;0.787981
7240.000000;0.794287
7239.000000;0.800271
7238.000000;0.803804
7237.000000;0.805331
7236.000000;0.806552
7235.000000;0.808246
7234.000000;0.809666
7233.000000;0.810136
7232.000000;0.810863
7231.000000;0.814158
7230.000000;0.820729
7229.000000;0.828688
7228.000000;0.835408
7227.000000;0.839705
7226.000000;0.842317
7225.000000;0.844831
7224.000000;0.848280
7223.000000;0.852534
7222.000000;0.856681
7221.000000;0.859987
7220.000000;0.862690
7219.000000;0.865823
7218.000000;0.870064
7217.000000;0.874903
7216.000000;0.879252
7215.000000;0.882777
7214.000000;0.886167
7213.000000;0.890102
7212.000000;0.894456
7211.000000;0.898704
7210.000000;0.902642
7209.000000;0.906415
7208.000000;0.910061
7207.000000;0.913365
7206.000000;0.916201
7205.000000;0.918940
7204.000000;0.922422
7203.000000;0.927381
7202.000000;0.933771
7201.000000;0.940716
7200.000000;0.947235
7199.000000;0.953010
7198.000000;0.958320
7197.000000;0.963372
7196.000000;0.968033
7195.000000;0.972259
7194.000000;0.976296
7193.000000;0.980314
7192.000000;0.984181
7191.000000;0.987892
7190.000000;0.991828
7189.000000;0.996151
7188.000000;1.000381
7187.000000;1.004165
7186.000000;1.008109
7185.000000;1.013117
7184.000000;1.019057
7183.000000;1.024835
7182.000000;1.029915
7181.000000;1.035135
7180.000000;1.041575
7179.000000;1.049121
7178.000000;1.056659
7177.000000;1.063313
7176.000000;1.069029
7175.000000;1.074226
7174.000000;1.079238
7173.000000;1.084098
7172.000000;1.088575
7171.000000;1.092491
7170.000000;1.096143
7169.000000;1.100110
7168.000000;1.104683
7167.000000;1.109823
7166.000000;1.115732
7165.000000;1.122887
7164.000000;1.131130
7163.000000;1.139247
7162.000000;1.146117
7161.000000;1.152179
7160.000000;1.159056
7159.000000;1.167479
7158.000000;1.176357
7157.000000;1.184179
7156.000000;1.190572
7155.000000;1.196264
7154.000000;1.202015
7153.000000;1.207925
7152.000000;1.213649
7151.000000;1.218982
7150.000000;1.224113
7149.000000;1.229447
7148.000000;1.235190
7147.000000;1.240948
7146.000000;1.245958
7145.000000;1.250082
7144.000000;1.254405
7143.000000;1.260213
7142.000000;1.267383
7141.000000;1.274511
7140.000000;1.280826
7139.000000;1.287202
7138.000000;1.294743
7137.000000;1.303135
7136.000000;1.311200
7135.000000;1.318608
7134.000000;1.326067
7133.000000;1.333979
7132.000000;1.341803
7131.000000;1.348845
7130.000000;1.354900
7129.000000;1.359980
7128.000000;1.364157
7127.000000;1.368015
7126.000000;1.372527
7125.000000;1.377970
7124.000000;1.383496
7123.000000;1.388268
7122.000000;1.392601
7121.000000;1.397378
7120.000000;1.402673
7119.000000;1.407735
7118.000000;1.412375
7117.000000;1.417649
7116.000000;1.424695
7115.000000;1.433236
7114.000000;1.441712
7113.000000;1.448757
7112.000000;1.454240
7111.000000;1.458922
7110.000000;1.463453
7109.000000;1.467882
7108.000000;1.472050
7107.000000;1.476239
7106.000000;1.481084
7105.000000;1.486811
7104.000000;1.492888
7103.000000;1.498548
7102.000000;1.503476
7101.000000;1.507972
7100.000000;1.512637
7099.000000;1.517854
7098.000000;1.523339
7097.000000;1.528297
7096.000000;1.532285
7095.000000;1.535848
7094.000000;1.539951
7093.000000;1.544881
7092.000000;1.550072
7091.000000;1.554947
7090.000000;1.559535
7089.000000;1.564197
7088.000000;1.569031
7087.000000;1.573707
7086.000000;1.577811
7085.000000;1.581339
7084.000000;1.584880
7083.000000;1.589072
7082.000000;1.593701
7081.000000;1.597772
7080.000000;1.600747
7079.000000;1.603270
7078.000000;1.606239
7077.000000;1.609606
7076.000000;1.612727
7075.000000;1.615517
7074.000000;1.618451
7073.000000;1.621621
7072.000000;1.624643
7071.000000;1.627493
7070.000000;1.630658
7069.000000;1.634284
7068.000000;1.637896
7067.000000;1.641246
7066.000000;1.644774
7065.000000;1.648851
7064.000000;1.653088
7063.000000;1.656757
7062.000000;1.659489
7061.000000;1.661396
7060.000000;1.662949
7059.000000;1.664841
7058.000000;1.667577
7057.000000;1.670959
7056.000000;1.674309
7055.000000;1.677316
7054.000000;1.680311
7053.000000;1.683569
7052.000000;1.686810
7051.000000;1.689614
7050.000000;1.691888
7049.000000;1.693630
7048.000000;1.694690
7047.000000;1.695160
7046.000000;1.695745
7045.000000;1.697324
7044.000000;1.700170
7043.000000;1.703708
7042.000000;1.706886
7041.000000;1.708843
7040.000000;1.709561
7039.000000;1.709958
7038.000000;1.711035
7037.000000;1.712867
7036.000000;1.714702
7035.000000;1.716036
7034.000000;1.717193
7033.000000;1.718712
7032.000000;1.720674
7031.000000;1.722882
7030.000000;1.725290
7029.000000;1.727870
7028.000000;1.730223
7027.000000;1.731727
7026.000000;1.732128
7025.000000;1.731900
7024.000000;1.731981
7023.000000;1.733128
7022.000000;1.735393
7021.000000;1.738237
7020.000000;1.741173
7019.000000;1.744119
7018.000000;1.746998
7017.000000;1.749357
7016.000000;1.750774
7015.000000;1.751415
7014.000000;1.751741
7013.000000;1.751899
7012.000000;1.751939
7011.000000;1.752318
7010.000000;1.753466
7009.000000;1.754969
7008.000000;1.756002
7007.000000;1.756606
7006.000000;1.757689
7005.000000;1.759529
7004.000000;1.761086
7003.000000;1.761284
7002.000000;1.760386
7001.000000;1.759520
7000.000000;1.759340
6999.000000;1.759734
6998.000000;1.760428
6997.000000;1.761180
6996.000000;1.761625
6995.000000;1.761566
6994.000000;1.761380
6993.000000;1.761738
6992.000000;1.762859
6991.000000;1.764259
6990.000000;1.765296
6989.000000;1.765798
6988.000000;1.766069
6987.000000;1.766436
6986.000000;1.766889
6985.000000;1.767174
6984.000000;1.767180
6983.000000;1.767199
6982.000000;1.767702
6981.000000;1.768871
6980.000000;1.770394
6979.000000;1.771694
6978.000000;1.772352
6977.000000;1.772397
6976.000000;1.772260
6975.000000;1.772372
6974.000000;1.772712
6973.000000;1.772878
6972.000000;1.772682
6971.000000;1.772460
6970.000000;1.772624
6969.000000;1.773123
6968.000000;1.773598
6967.000000;1.773921
6966.000000;1.774257
6965.000000;1.774686
6964.000000;1.775014
6963.000000;1.774931
6962.000000;1.774177
6961.000000;1.772755
6960.000000;1.771165
6959.000000;1.770227
6958.000000;1.770325
6957.000000;1.770994
6956.000000;1.771604
6955.000000;1.772255
6954.000000;1.773494
6953.000000;1.775297
6952.000000;1.776817
6951.000000;1.777267
6950.000000;1.776735
6949.000000;1.775988
6948.000000;1.775663
6947.000000;1.775752
6946.000000;1.775739
6945.000000;1.775151
6944.000000;1.774035
6943.000000;1.772828
6942.000000;1.771809
6941.000000;1.770900
6940.000000;1.770023
6939.000000;1.769355
6938.000000;1.769085
6937.000000;1.769228
6936.000000;1.769861
6935.000000;1.771127
6934.000000;1.772668
6933.000000;1.773511
6932.000000;1.773072
6931.000000;1.771976
6930.000000;1.771315
6929.000000;1.771353
6928.000000;1.771490
6927.000000;1.771261
6926.000000;1.770708
6925.000000;1.769881
6924.000000;1.768712
6923.000000;1.767472
6922.000000;1.766721
6921.000000;1.766556
6920.000000;1.766338
6919.000000;1.765384
6918.000000;1.763672
6917.000000;1.761831
6916.000000;1.760663
6915.000000;1.760573
6914.000000;1.761146
6913.000000;1.761392
6912.000000;1.760779
6911.000000;1.759813
6910.000000;1.759180
6909.000000;1.758602
6908.000000;1.757263
6907.000000;1.755348
6906.000000;1.754248
6905.000000;1.754878
6904.000000;1.756473
6903.000000;1.757436
6902.000000;1.756950
6901.000000;1.755366
6900.000000;1.753507
6899.000000;1.752143
6898.000000;1.751777
6897.000000;1.752279
6896.000000;1.752775
6895.000000;1.752418
6894.000000;1.751307
6893.000000;1.750319
6892.000000;1.750059
6891.000000;1.750303
6890.000000;1.750472
6889.000000;1.750334
6888.000000;1.750111
6887.000000;1.750038
6886.000000;1.750001
6885.000000;1.749617
6884.000000;1.748645
6883.000000;1.747328
6882.000000;1.746235
6881.000000;1.745730
6880.000000;1.745594
6879.000000;1.745244
6878.000000;1.744307
6877.000000;1.742996
6876.000000;1.741858
6875.000000;1.741182
6874.000000;1.740673
6873.000000;1.739777
6872.000000;1.738294
6871.000000;1.736598
6870.000000;1.735327
6869.000000;1.734975
6868.000000;1.735561
6867.000000;1.736394
6866.000000;1.736338
6865.000000;1.734797
6864.000000;1.732514
6863.000000;1.730913
6862.000000;1.730565
6861.000000;1.730736
6860.000000;1.730561
6859.000000;1.730092
6858.000000;1.729844
6857.000000;1.729837
6856.000000;1.729617
6855.000000;1.728948
6854.000000;1.727947
6853.000000;1.726757
6852.000000;1.725527
6851.000000;1.724577
6850.000000;1.724100
6849.000000;1.723789
6848.000000;1.723177
6847.000000;1.722235
6846.000000;1.721232
6845.000000;1.720128
6844.000000;1.718571
6843.000000;1.716452
6842.000000;1.714037
6841.000000;1.711611
6840.000000;1.709387
6839.000000;1.707663
6838.000000;1.706593
6837.000000;1.705776
6836.000000;1.704499
6835.000000;1.702531
6834.000000;1.700423
6833.000000;1.698890
6832.000000;1.698078
6831.000000;1.697470
6830.000000;1.696327
6829.000000;1.694233
6828.000000;1.691461
6827.000000;1.688827
6826.000000;1.686986
6825.000000;1.685849
6824.000000;1.684798
6823.000000;1.683392
6822.000000;1.681658
6821.000000;1.679785
6820.000000;1.677834
6819.000000;1.675789
6818.000000;1.673624
6817.000000;1.671278
6816.000000;1.668741
6815.000000;1.666191
6814.000000;1.663913
6813.000000;1.662068
6812.000000;1.660560
6811.000000;1.659065
6810.000000;1.657183
6809.000000;1.654700
6808.000000;1.651794
6807.000000;1.648816
6806.000000;1.645876
6805.000000;1.642901
6804.000000;1.640132
6803.000000;1.638100
6802.000000;1.636844
6801.000000;1.635576
6800.000000;1.633486
6799.000000;1.630606
6798.000000;1.627523
6797.000000;1.624564
6796.000000;1.621720
6795.000000;1.619087
6794.000000;1.616765
6793.000000;1.614477
6792.000000;1.611833
6791.000000;1.608978
6790.000000;1.606439
6789.000000;1.604342
6788.000000;1.602297
6787.000000;1.600129
6786.000000;1.598179
6785.000000;1.596705
6784.000000;1.595395
6783.000000;1.593719
6782.000000;1.591489
6781.000000;1.588887
6780.000000;1.586158
6779.000000;1.583427
6778.000000;1.580651
6777.000000;1.577684
6776.000000;1.574547
6775.000000;1.571628
6774.000000;1.569350
6773.000000;1.567597
6772.000000;1.565702
6771.000000;1.563101
6770.000000;1.559828
6769.000000;1.556355
6768.000000;1.553177
6767.000000;1.550587
6766.000000;1.548546
6765.000000;1.546629
6764.000000;1.544314
6763.000000;1.541500
6762.000000;1.538619
6761.000000;1.536150
6760.000000;1.534141
6759.000000;1.532234
6758.000000;1.530027
6757.000000;1.527378
6756.000000;1.524498
6755.000000;1.521740
6754.000000;1.519182
6753.000000;1.516465
6752.000000;1.513244
6751.000000;1.509726
6750.000000;1.506537
6749.000000;1.504036
6748.000000;1.502014
6747.000000;1.500074
6746.000000;1.498024
6745.000000;1.495841
6744.000000;1.493522
6743.000000;1.491164
6742.000000;1.488966
6741.000000;1.486969
6740.000000;1.484904
6739.000000;1.482443
6738.000000;1.479504
6737.000000;1.476238
6736.000000;1.472838
6735.000000;1.469485
6734.000000;1.466378
6733.000000;1.463670
6732.000000;1.461362
6731.000000;1.459298
6730.000000;1.457231
6729.000000;1.454936
6728.000000;1.452345
6727.000000;1.449602
6726.000000;1.446877
6725.000000;1.444138
6724.000000;1.441240
6723.000000;1.438228
6722.000000;1.435382
6721.000000;1.432916
6720.000000;1.430738
6719.000000;1.428605
6718.000000;1.426383
6717.000000;1.424026
6716.000000;1.421489
6715.000000;1.418747
6714.000000;1.415869
6713.000000;1.413010
6712.000000;1.410303
6711.000000;1.407715
6710.000000;1.405230
6709.000000;1.402801
6708.000000;1.400301
6707.000000;1.397684
6706.000000;1.394955
6705.000000;1.392322
6704.000000;1.390056
6703.000000;1.388231
6702.000000;1.386571
6701.000000;1.384688
6700.000000;1.382455
6699.000000;1.380028
6698.000000;1.377510
6697.000000;1.374837
6696.000000;1.372082
6695.000000;1.369602
6694.000000;1.367598
6693.000000;1.365678
6692.000000;1.363174
6691.000000;1.359914
6690.000000;1.356414
6689.000000;1.353287
6688.000000;1.350720
6687.000000;1.348559
6686.000000;1.346593
6685.000000;1.344596
6684.000000;1.342297
6683.000000;1.339569
6682.000000;1.336636
6681.000000;1.333949
6680.000000;1.331795
6679.000000;1.330095
6678.000000;1.328522
6677.000000;1.326781
6676.000000;1.324774
6675.000000;1.322553
6674.000000;1.320176
6673.000000;1.317664
6672.000000;1.315076
6671.000000;1.312504
6670.000000;1.309930
6669.000000;1.307221
6668.000000;1.304409
6667.000000;1.301872
6666.000000;1.299996
6665.000000;1.298656
6664.000000;1.297223
6663.000000;1.295173
6662.000000;1.292559
6661.000000;1.289829
6660.000000;1.287324
6659.000000;1.285075
6658.000000;1.282962
6657.000000;1.280878
6656.000000;1.278724
6655.000000;1.276378
6654.000000;1.273749
6653.000000;1.270907
6652.000000;1.268106
6651.000000;1.265622
6650.000000;1.263500
6649.000000;1.261500
6648.000000;1.259361
6647.000000;1.257092
6646.000000;1.254918
6645.000000;1.252982
6644.000000;1.251189
6643.000000;1.249359
6642.000000;1.247408
6641.000000;1.245366
6640.000000;1.243300
6639.000000;1.241257
6638.000000;1.239248
6637.000000;1.237265
6636.000000;1.235341
6635.000000;1.233537
6634.000000;1.231795
6633.000000;1.229879
6632.000000;1.227589
6631.000000;1.225023
6630.000000;1.222495
6629.000000;1.220182
6628.000000;1.217994
6627.000000;1.215819
6626.000000;1.213732
6625.000000;1.211878
6624.000000;1.210255
6623.000000;1.208693
6622.000000;1.206996
6621.000000;1.205038
6620.000000;1.202802
6619.000000;1.200414
6618.000000;1.198091
6617.000000;1.195961
6616.000000;1.193981
6615.000000;1.192033
6614.000000;1.190072
6613.000000;1.188106
6612.000000;1.186115
6611.000000;1.184080
6610.000000;1.182060
6609.000000;1.180157
6608.000000;1.178383
6607.000000;1.176638
6606.000000;1.174831
6605.000000;1.172963
6604.000000;1.171077
6603.000000;1.169156
6602.000000;1.167126
6601.000000;1.164991
6600.000000;1.162896
6599.000000;1.161020
6598.000000;1.159381
6597.000000;1.157793
6596.000000;1.156053
6595.000000;1.154140
6594.000000;1.152200
6593.000000;1.150377
6592.000000;1.148690
6591.000000;1.147073
6590.000000;1.145435
6589.000000;1.143704
6588.000000;1.141846
6587.000000;1.139893
6586.000000;1.137933
6585.000000;1.136062
6584.000000;1.134307
6583.000000;1.132600
6582.000000;1.130812
6581.000000;1.128867
6580.000000;1.126835
6579.000000;1.124885
6578.000000;1.123122
6577.000000;1.121510
6576.000000;1.119949
6575.000000;1.118373
6574.000000;1.116748
6573.000000;1.115052
6572.000000;1.113320
6571.000000;1.111649
6570.000000;1.110099
6569.000000;1.108607
6568.000000;1.107061
6567.000000;1.105401
6566.000000;1.103611
6565.000000;1.101677
6564.000000;1.099660
6563.000000;1.097722
6562.000000;1.095999
6561.000000;1.094451
6560.000000;1.092939
6559.000000;1.091410
6558.000000;1.089900
6557.000000;1.088415
6556.000000;1.086915
6555.000000;1.085406
6554.000000;1.083929
6553.000000;1.082458
6552.000000;1.080909
6551.000000;1.079272
6550.000000;1.077626
6549.000000;1.076040
6548.000000;1.074534
6547.000000;1.073139
6546.000000;1.071867
6545.000000;1.070607
6544.000000;1.069168
6543.000000;1.067469
6542.000000;1.065616
6541.000000;1.063767
6540.000000;1.061993
6539.000000;1.060306
6538.000000;1.058718
6537.000000;1.057208
6536.000000;1.055705
6535.000000;1.054180
6534.000000;1.052682
6533.000000;1.051247
6532.000000;1.049804
6531.000000;1.048251
6530.000000;1.046581
6529.000000;1.044895
6528.000000;1.043301
6527.000000;1.041847
6526.000000;1.040512
6525.000000;1.039234
6524.000000;1.037949
6523.000000;1.036612
6522.000000;1.035210
6521.000000;1.033748
6520.000000;1.032276
6519.000000;1.030871
6518.000000;1.029559
6517.000000;1.028267
6516.000000;1.026899
6515.000000;1.025456
6514.000000;1.024017
6513.000000;1.022625
6512.000000;1.021249
6511.000000;1.019863
6510.000000;1.018492
6509.000000;1.017160
6508.000000;1.015847
6507.000000;1.014525
6506.000000;1.013175
6505.000000;1.011785
6504.000000;1.010369
6503.000000;1.008987
6502.000000;1.007713
6501.000000;1.006553
6500.000000;1.005442
6499.000000;1.004306
6498.000000;1.003100
6497.000000;1.001812
6496.000000;1.000492
6495.000000;0.999227
6494.000000;0.998035
6493.000000;0.996793
6492.000000;0.995383
6491.000000;0.993858
6490.000000;0.992398
6489.000000;0.991084
6488.000000;0.989831
6487.000000;0.988534
6486.000000;0.987194
6485.000000;0.985858
6484.000000;0.984542
6483.000000;0.983250
6482.000000;0.981996
6481.000000;0.980780
6480.000000;0.979594
6479.000000;0.978457
6478.000000;0.977376
6477.000000;0.976280
6476.000000;0.975091
6475.000000;0.973852
6474.000000;0.972704
6473.000000;0.971687
6472.000000;0.970674
6471.000000;0.969540
6470.000000;0.968304
6469.000000;0.967053
6468.000000;0.965819
6467.000000;0.964592
6466.000000;0.963388
6465.000000;0.962227
6464.000000;0.961089
6463.000000;0.959946
6462.000000;0.958798
6461.000000;0.957643
6460.000000;0.956476
6459.000000;0.955323
6458.000000;0.954241
6457.000000;0.953225
6456.000000;0.952204
6455.000000;0.951138
6454.000000;0.950068
6453.000000;0.949030
6452.000000;0.947987
6451.000000;0.946911
6450.000000;0.945840
6449.000000;0.944821
6448.000000;0.943828
6447.000000;0.942802
6446.000000;0.941717
6445.000000;0.940562
6444.000000;0.939341
6443.000000;0.938106
6442.000000;0.936939
6441.000000;0.935848
6440.000000;0.934746
6439.000000;0.933584
6438.000000;0.932437
6437.000000;0.931395
6436.000000;0.930444
6435.000000;0.929519
6434.000000;0.928624
6433.000000;0.927801
6432.000000;0.927025
6431.000000;0.926200
6430.000000;0.925246
6429.000000;0.924144
6428.000000;0.922939
6427.000000;0.921750
6426.000000;0.920724
6425.000000;0.919891
6424.000000;0.919112
6423.000000;0.918242
6422.000000;0.917303
6421.000000;0.916428
6420.000000;0.915649
6419.000000;0.914856
6418.000000;0.913952
6417.000000;0.912959
6416.000000;0.911960
6415.000000;0.911009
6414.000000;0.910115
6413.000000;0.909256
6412.000000;0.908377
6411.000000;0.907429
6410.000000;0.906402
6409.000000;0.905328
6408.000000;0.904230
6407.000000;0.903121
6406.000000;0.902029
6405.000000;0.900992
6404.000000;0.900028
6403.000000;0.899130
6402.000000;0.898286
6401.000000;0.897480
6400.000000;0.896669
6399.000000;0.895824
6398.000000;0.894965
6397.000000;0.894131
6396.000000;0.893321
6395.000000;0.892501
6394.000000;0.891662
6393.000000;0.890829
6392.000000;0.890009
6391.000000;0.889181
6390.000000;0.888339
6389.000000;0.887507
6388.000000;0.886708
6387.000000;0.885923
6386.000000;0.885121
6385.000000;0.884301
6384.000000;0.883493
6383.000000;0.882727
6382.000000;0.881986
6381.000000;0.881213
6380.000000;0.880364
6379.000000;0.879466
6378.000000;0.878601
6377.000000;0.877832
6376.000000;0.877150
6375.000000;0.876504
6374.000000;0.875852
6373.000000;0.875153
6372.000000;0.874370
6371.000000;0.873505
6370.000000;0.872633
6369.000000;0.871849
6368.000000;0.871180
6367.000000;0.870562
6366.000000;0.869886
6365.000000;0.869083
6364.000000;0.868169
6363.000000;0.867239
6362.000000;0.866402
6361.000000;0.865698
6360.000000;0.865067
6359.000000;0.864420
6358.000000;0.863715
6357.000000;0.862961
6356.000000;0.862164
6355.000000;0.861322
6354.000000;0.860450
6353.000000;0.859603
6352.000000;0.858839
6351.000000;0.858177
6350.000000;0.857580
6349.000000;0.856984
6348.000000;0.856343
6347.000000;0.855647
6346.000000;0.854904
6345.000000;0.854124
6344.000000;0.853319
6343.000000;0.852526
6342.000000;0.851778
6341.000000;0.851065
6340.000000;0.850346
6339.000000;0.849595
6338.000000;0.848820
6337.000000;0.848055
6336.000000;0.847341
6335.000000;0.846723
6334.000000;0.846197
6333.000000;0.845680
6332.000000;0.845075
6331.000000;0.844379
6330.000000;0.843689
6329.000000;0.843087
6328.000000;0.842563
6327.000000;0.842063
6326.000000;0.841562
6325.000000;0.841045
6324.000000;0.840472
6323.000000;0.839813
6322.000000;0.839104
6321.000000;0.838418
6320.000000;0.837778
6319.000000;0.837126
6318.000000;0.836406
6317.000000;0.835647
6316.000000;0.834954
6315.000000;0.834402
6314.000000;0.833947
6313.000000;0.833458
6312.000000;0.832837
6311.000000;0.832119
6310.000000;0.831418
6309.000000;0.830799
6308.000000;0.830242
6307.000000;0.829694
6306.000000;0.829117
6305.000000;0.828486
6304.000000;0.827806
6303.000000;0.827137
6302.000000;0.826560
6301.000000;0.826078
6300.000000;0.825596
6299.000000;0.825039
6298.000000;0.824434
6297.000000;0.823851
6296.000000;0.823308
6295.000000;0.822767
6294.000000;0.822227
6293.000000;0.821731
6292.000000;0.821298
6291.000000;0.820867
6290.000000;0.820347
6289.000000;0.819709
6288.000000;0.819036
6287.000000;0.818453
6286.000000;0.818011
6285.000000;0.817635
6284.000000;0.817204
6283.000000;0.816664
6282.000000;0.816046
6281.000000;0.815393
6280.000000;0.814728
6279.000000;0.814093
6278.000000;0.813540
6277.000000;0.813066
6276.000000;0.812596
6275.000000;0.812065
6274.000000;0.811489
6273.000000;0.810944
6272.000000;0.810483
6271.000000;0.810106
6270.000000;0.809767
6269.000000;0.809382
6268.000000;0.808883
6267.000000;0.808276
6266.000000;0.807648
6265.000000;0.807090
6264.000000;0.806612
6263.000000;0.806153
6262.000000;0.805656
6261.000000;0.805120
6260.000000;0.804603
6259.000000;0.804169
6258.000000;0.803815
6257.000000;0.803461
6256.000000;0.803024
6255.000000;0.802506
6254.000000;0.801979
6253.000000;0.801489
6252.000000;0.801016
6251.000000;0.800525
6250.000000;0.800012
6249.000000;0.799485
6248.000000;0.798952
6247.000000;0.798440
6246.000000;0.797992
6245.000000;0.797611
6244.000000;0.797245
6243.000000;0.796844
6242.000000;0.796410
6241.000000;0.795975
6240.000000;0.795559
6239.000000;0.795166
6238.000000;0.794793
6237.000000;0.794404
6236.000000;0.793949
6235.000000;0.793423
6234.000000;0.792889
6233.000000;0.792422
6232.000000;0.792038
6231.000000;0.791689
6230.000000;0.791311
6229.000000;0.790876
6228.000000;0.790418
6227.000000;0.789998
6226.000000;0.789628
6225.000000;0.789234
6224.000000;0.788745
6223.000000;0.788191
6222.000000;0.787670
6221.000000;0.787221
6220.000000;0.786800
6219.000000;0.786373
6218.000000;0.785958
6217.000000;0.785563
6216.000000;0.785165
6215.000000;0.784760
6214.000000;0.784379
6213.000000;0.784018
6212.000000;0.783648
6211.000000;0.783284
6210.000000;0.782997
6209.000000;0.782794
6208.000000;0.782582
6207.000000;0.782287
6206.000000;0.781931
6205.000000;0.781551
6204.000000;0.781114
6203.000000;0.780602
6202.000000;0.780098
6201.000000;0.779696
6200.000000;0.779365
6199.000000;0.778999
6198.000000;0.778574
6197.000000;0.778169
6196.000000;0.777840
6195.000000;0.777556
6194.000000;0.777259
6193.000000;0.776922
6192.000000;0.776534
6191.000000;0.776086
6190.000000;0.775600
6189.000000;0.775128
6188.000000;0.774712
6187.000000;0.774367
6186.000000;0.774069
6185.000000;0.773768
6184.000000;0.773409
6183.000000;0.772992
6182.000000;0.772583
6181.000000;0.772243
6180.000000;0.771961
6179.000000;0.771687
6178.000000;0.771397
6177.000000;0.771098
6176.000000;0.770781
6175.000000;0.770438
6174.000000;0.770089
6173.000000;0.769769
6172.000000;0.769478
6171.000000;0.769191
6170.000000;0.768894
6169.000000;0.768583
6168.000000;0.768242
6167.000000;0.767870
6166.000000;0.767514
6165.000000;0.767229
6164.000000;0.767004
6163.000000;0.766775
6162.000000;0.766502
6161.000000;0.766207
6160.000000;0.765918
6159.000000;0.765636
6158.000000;0.765349
6157.000000;0.765042
6156.000000;0.764704
6155.000000;0.764325
6154.000000;0.763927
6153.000000;0.763544
6152.000000;0.763189
6151.000000;0.762842
6150.000000;0.762487
6149.000000;0.762142
6148.000000;0.761844
6147.000000;0.761615
6146.000000;0.761437
6145.000000;0.761249
6144.000000;0.760989
6143.000000;0.760641
6142.000000;0.760246
6141.000000;0.759855
6140.000000;0.759493
6139.000000;0.759165
6138.000000;0.758880
6137.000000;0.758640
6136.000000;0.758418
6135.000000;0.758192
6134.000000;0.757965
6133.000000;0.757753
6132.000000;0.757547
6131.000000;0.757319
6130.000000;0.757051
6129.000000;0.756733
6128.000000;0.756367
6127.000000;0.755991
6126.000000;0.755683
6125.000000;0.755502
6124.000000;0.755421
6123.000000;0.755341
6122.000000;0.755173
6121.000000;0.754894
6120.000000;0.754546
6119.000000;0.754192
6118.000000;0.753881
6117.000000;0.753626
6116.000000;0.753404
6115.000000;0.753180
6114.000000;0.752937
6113.000000;0.752682
6112.000000;0.752442
6111.000000;0.752233
6110.000000;0.752031
6109.000000;0.751775
6108.000000;0.751433
6107.000000;0.751049
6106.000000;0.750700
6105.000000;0.750403
6104.000000;0.750118
6103.000000;0.749840
6102.000000;0.749609
6101.000000;0.749422
6100.000000;0.749198
6099.000000;0.748878
6098.000000;0.748518
6097.000000;0.748232
6096.000000;0.748065
6095.000000;0.747969
6094.000000;0.747873
6093.000000;0.747735
6092.000000;0.747543
6091.000000;0.747320
6090.000000;0.747111
6089.000000;0.746947
6088.000000;0.746797
6087.000000;0.746607
6086.000000;0.746360
6085.000000;0.746084
6084.000000;0.745815
6083.000000;0.745573
6082.000000;0.745361
6081.000000;0.745166
6080.000000;0.744970
6079.000000;0.744764
6078.000000;0.744563
6077.000000;0.744377
6076.000000;0.744198
6075.000000;0.744015
6074.000000;0.743833
6073.000000;0.743659
6072.000000;0.743476
6071.000000;0.743254
6070.000000;0.742977
6069.000000;0.742642
6068.000000;0.742281
6067.000000;0.741970
6066.000000;0.741793
6065.000000;0.741757
6064.000000;0.741770
6063.000000;0.741717
6062.000000;0.741558
6061.000000;0.741339
6060.000000;0.741152
6059.000000;0.741067
6058.000000;0.741082
6057.000000;0.741096
6056.000000;0.740981
6055.000000;0.740704
6054.000000;0.740357
6053.000000;0.740047
6052.000000;0.739799
6051.000000;0.739586
6050.000000;0.739391
6049.000000;0.739213
6048.000000;0.739041
6047.000000;0.738864
6046.000000;0.738696
6045.000000;0.738556
6044.000000;0.738436
6043.000000;0.738332
6042.000000;0.738260
6041.000000;0.738219
6040.000000;0.738159
6039.000000;0.738026
6038.000000;0.737825
6037.000000;0.737595
6036.000000;0.737356
6035.000000;0.737107
6034.000000;0.736876
6033.000000;0.736699
6032.000000;0.736570
6031.000000;0.736442
6030.000000;0.736275
6029.000000;0.736069
6028.000000;0.735864
6027.000000;0.735705
6026.000000;0.735623
6025.000000;0.735597
6024.000000;0.735570
6023.000000;0.735506
6022.000000;0.735431
6021.000000;0.735389
6020.000000;0.735392
6019.000000;0.735409
6018.000000;0.735381
6017.000000;0.735253
6016.000000;0.735023
6015.000000;0.734765
6014.000000;0.734581
6013.000000;0.734491
6012.000000;0.734420
6011.000000;0.734314
6010.000000;0.734210
6009.000000;0.734152
6008.000000;0.734101
6007.000000;0.733991
6006.000000;0.733827
6005.000000;0.733665
6004.000000;0.733515
6003.000000;0.733341
6002.000000;0.733151
6001.000000;0.733014
6000.000000;0.732980
5999.000000;0.733018
5998.000000;0.733062
5997.000000;0.733060
5996.000000;0.732995
5995.000000;0.732881
5994.000000;0.732752
5993.000000;0.732628
5992.000000;0.732493
5991.000000;0.732332
5990.000000;0.732174
5989.000000;0.732073
5988.000000;0.732042
5987.000000;0.732047
5986.000000;0.732058
5985.000000;0.732070
5984.000000;0.732088
5983.000000;0.732117
5982.000000;0.732173
5981.000000;0.732264
5980.000000;0.732364
5979.000000;0.732418
5978.000000;0.732401
5977.000000;0.732338
5976.000000;0.732252
5975.000000;0.732139
5974.000000;0.731994
5973.000000;0.731848
5972.000000;0.731753
5971.000000;0.731722
5970.000000;0.731717
5969.000000;0.731690
5968.000000;0.731654
5967.000000;0.731671
5966.000000;0.731772
5965.000000;0.731904
5964.000000;0.731977
5963.000000;0.731953
5962.000000;0.731866
5961.000000;0.731770
5960.000000;0.731702
5959.000000;0.731675
5958.000000;0.731669
5957.000000;0.731625
5956.000000;0.731509
5955.000000;0.731388
5954.000000;0.731377
5953.000000;0.731506
5952.000000;0.731675
5951.000000;0.731767
5950.000000;0.731755
5949.000000;0.731689
5948.000000;0.731613
5947.000000;0.731556
5946.000000;0.731533
5945.000000;0.731527
5944.000000;0.731493
5943.000000;0.731426
5942.000000;0.731378
5941.000000;0.731393
5940.000000;0.731442
5939.000000;0.731479
5938.000000;0.731510
5937.000000;0.731571
5936.000000;0.731658
5935.000000;0.731733
5934.000000;0.731774
5933.000000;0.731790
5932.000000;0.731800
5931.000000;0.731831
5930.000000;0.731919
5929.000000;0.732069
5928.000000;0.732228
5927.000000;0.732328
5926.000000;0.732343
5925.000000;0.732292
5924.000000;0.732205
5923.000000;0.732122
5922.000000;0.732090
5921.000000;0.732127
5920.000000;0.732203
5919.000000;0.732290
5918.000000;0.732400
5917.000000;0.732534
5916.000000;0.732649
5915.000000;0.732703
5914.000000;0.732723
5913.000000;0.732773
5912.000000;0.732871
5911.000000;0.732991
5910.000000;0.733118
5909.000000;0.733249
5908.000000;0.733355
5907.000000;0.733393
5906.000000;0.733368
5905.000000;0.733340
5904.000000;0.733359
5903.000000;0.733427
5902.000000;0.733517
5901.000000;0.733601
5900.000000;0.733664
5899.000000;0.733718
5898.000000;0.733805
5897.000000;0.733945
5896.000000;0.734104
5895.000000;0.734224
5894.000000;0.734292
5893.000000;0.734342
5892.000000;0.734410
5891.000000;0.734502
5890.000000;0.734596
5889.000000;0.734663
5888.000000;0.734698
5887.000000;0.734740
5886.000000;0.734842
5885.000000;0.735000
5884.000000;0.735153
5883.000000;0.735272
5882.000000;0.735409
5881.000000;0.735632
5880.000000;0.735925
5879.000000;0.736202
5878.000000;0.736391
5877.000000;0.736474
5876.000000;0.736472
5875.000000;0.736416
5874.000000;0.736349
5873.000000;0.736318
5872.000000;0.736366
5871.000000;0.736522
5870.000000;0.736776
5869.000000;0.737057
5868.000000;0.737275
5867.000000;0.737423
5866.000000;0.737586
5865.000000;0.737834
5864.000000;0.738139
5863.000000;0.738432
5862.000000;0.738689
5861.000000;0.738924
5860.000000;0.739130
5859.000000;0.739309
5858.000000;0.739501
5857.000000;0.739743
5856.000000;0.740000
5855.000000;0.740212
5854.000000;0.740368
5853.000000;0.740498
5852.000000;0.740602
5851.000000;0.740678
5850.000000;0.740772
5849.000000;0.740947
5848.000000;0.741185
5847.000000;0.741410
5846.000000;0.741596
5845.000000;0.741799
5844.000000;0.742057
5843.000000;0.742338
5842.000000;0.742604
5841.000000;0.742864
5840.000000;0.743136
5839.000000;0.743397
5838.000000;0.743625
5837.000000;0.743851
5836.000000;0.744146
5835.000000;0.744533
5834.000000;0.744958
5833.000000;0.745339
5832.000000;0.745640
5831.000000;0.745889
5830.000000;0.746130
5829.000000;0.746375
5828.000000;0.746596
5827.000000;0.746786
5826.000000;0.746983
5825.000000;0.747231
5824.000000;0.747532
5823.000000;0.747855
5822.000000;0.748179
5821.000000;0.748502
5820.000000;0.748824
5819.000000;0.749150
5818.000000;0.749488
5817.000000;0.749828
5816.000000;0.750148
5815.000000;0.750443
5814.000000;0.750757
5813.000000;0.751131
5812.000000;0.751542
5811.000000;0.751929
5810.000000;0.752258
5809.000000;0.752557
5808.000000;0.752882
5807.000000;0.753262
5806.000000;0.753671
5805.000000;0.754049
5804.000000;0.754352
5803.000000;0.754606
5802.000000;0.754890
5801.000000;0.755260
5800.000000;0.755694
5799.000000;0.756132
5798.000000;0.756535
5797.000000;0.756908
5796.000000;0.757279
5795.000000;0.757677
5794.000000;0.758107
5793.000000;0.758548
5792.000000;0.758985
5791.000000;0.759436
5790.000000;0.759928
5789.000000;0.760426
5788.000000;0.760851
5787.000000;0.761177
5786.000000;0.761462
5785.000000;0.761775
5784.000000;0.762136
5783.000000;0.762540
5782.000000;0.762995
5781.000000;0.763492
5780.000000;0.763996
5779.000000;0.764489
5778.000000;0.764994
5777.000000;0.765518
5776.000000;0.766020
5775.000000;0.766475
5774.000000;0.766927
5773.000000;0.767412
5772.000000;0.767894
5771.000000;0.768323
5770.000000;0.768730
5769.000000;0.769198
5768.000000;0.769747
5767.000000;0.770317
5766.000000;0.770847
5765.000000;0.771326
5764.000000;0.771786
5763.000000;0.772266
5762.000000;0.772784
5761.000000;0.773313
5760.000000;0.773796
5759.000000;0.774234
5758.000000;0.774711
5757.000000;0.775309
5756.000000;0.776009
5755.000000;0.776727
5754.000000;0.777405
5753.000000;0.778035
5752.000000;0.778616
5751.000000;0.779160
5750.000000;0.779707
5749.000000;0.780286
5748.000000;0.780880
5747.000000;0.781469
5746.000000;0.782081
5745.000000;0.782756
5744.000000;0.783479
5743.000000;0.784195
5742.000000;0.784872
5741.000000;0.785506
5740.000000;0.786080
5739.000000;0.786580
5738.000000;0.787055
5737.000000;0.787590
5736.000000;0.788220
5735.000000;0.788916
5734.000000;0.789639
5733.000000;0.790382
5732.000000;0.791143
5731.000000;0.791901
5730.000000;0.792619
5729.000000;0.793269
5728.000000;0.793843
5727.000000;0.794379
5726.000000;0.794948
5725.000000;0.795585
5724.000000;0.796251
5723.000000;0.796898
5722.000000;0.797551
5721.000000;0.798266
5720.000000;0.799045
5719.000000;0.799815
5718.000000;0.800511
5717.000000;0.801139
5716.000000;0.801760
5715.000000;0.802442
5714.000000;0.803215
5713.000000;0.804042
5712.000000;0.804842
5711.000000;0.805578
5710.000000;0.806303
5709.000000;0.807088
5708.000000;0.807931
5707.000000;0.808785
5706.000000;0.809634
5705.000000;0.810519
5704.000000;0.811445
5703.000000;0.812369
5702.000000;0.813236
5701.000000;0.814006
5700.000000;0.814691
5699.000000;0.815340
5698.000000;0.816028
5697.000000;0.816797
5696.000000;0.817615
5695.000000;0.818414
5694.000000;0.819174
5693.000000;0.819937
5692.000000;0.820747
5691.000000;0.821598
5690.000000;0.822444
5689.000000;0.823244
5688.000000;0.823992
5687.000000;0.824728
5686.000000;0.825506
5685.000000;0.826331
5684.000000;0.827136
5683.000000;0.827857
5682.000000;0.828515
5681.000000;0.829203
5680.000000;0.829994
5679.000000;0.830894
5678.000000;0.831853
5677.000000;0.832813
5676.000000;0.833737
5675.000000;0.834619
5674.000000;0.835475
5673.000000;0.836317
5672.000000;0.837150
5671.000000;0.837984
5670.000000;0.838825
5669.000000;0.839654
5668.000000;0.840447
5667.000000;0.841217
5666.000000;0.841996
5665.000000;0.842768
5664.000000;0.843478
5663.000000;0.844132
5662.000000;0.844817
5661.000000;0.845592
5660.000000;0.846404
5659.000000;0.847163
5658.000000;0.847863
5657.000000;0.848578
5656.000000;0.849356
5655.000000;0.850178
5654.000000;0.851002
5653.000000;0.851794
5652.000000;0.852541
5651.000000;0.853238
5650.000000;0.853896
5649.000000;0.854520
5648.000000;0.855117
5647.000000;0.855731
5646.000000;0.856435
5645.000000;0.857255
5644.000000;0.858117
5643.000000;0.858906
5642.000000;0.859560
5641.000000;0.860108
5640.000000;0.860637
5639.000000;0.861231
5638.000000;0.861908
5637.000000;0.862609
5636.000000;0.863271
5635.000000;0.863915
5634.000000;0.864606
5633.000000;0.865339
5632.000000;0.866031
5631.000000;0.866646
5630.000000;0.867231
5629.000000;0.867810
5628.000000;0.868326
5627.000000;0.868747
5626.000000;0.869163
5625.000000;0.869685
5624.000000;0.870313
5623.000000;0.870967
5622.000000;0.871607
5621.000000;0.872244
5620.000000;0.872870
5619.000000;0.873464
5618.000000;0.874028
5617.000000;0.874556
5616.000000;0.874999
5615.000000;0.875329
5614.000000;0.875618
5613.000000;0.875970
5612.000000;0.876386
5611.000000;0.876786
5610.000000;0.877131
5609.000000;0.877461
5608.000000;0.877815
5607.000000;0.878185
5606.000000;0.878546
5605.000000;0.878885
5604.000000;0.879214
5603.000000;0.879572
5602.000000;0.879996
5601.000000;0.880467
5600.000000;0.880901
5599.000000;0.881254
5598.000000;0.881572
5597.000000;0.881914
5596.000000;0.882276
5595.000000;0.882637
5594.000000;0.883022
5593.000000;0.883441
5592.000000;0.883819
5591.000000;0.884075
5590.000000;0.884241
5589.000000;0.884418
5588.000000;0.884640
5587.000000;0.884857
5586.000000;0.885032
5585.000000;0.885171
5584.000000;0.885269
5583.000000;0.885314
5582.000000;0.885341
5581.000000;0.885419
5580.000000;0.885570
5579.000000;0.885769
5578.000000;0.885998
5577.000000;0.886251
5576.000000;0.886501
5575.000000;0.886723
5574.000000;0.886933
5573.000000;0.887157
5572.000000;0.887370
5571.000000;0.887531
5570.000000;0.887657
5569.000000;0.887797
5568.000000;0.887953
5567.000000;0.888084
5566.000000;0.888181
5565.000000;0.888264
5564.000000;0.888322
5563.000000;0.888338
5562.000000;0.888339
5561.000000;0.888360
5560.000000;0.888363
5559.000000;0.888267
5558.000000;0.888062
5557.000000;0.887837
5556.000000;0.887691
5555.000000;0.887660
5554.000000;0.887715
5553.000000;0.887798
5552.000000;0.887856
5551.000000;0.887887
5550.000000;0.887949
5549.000000;0.888082
5548.000000;0.888247
5547.000000;0.888378
5546.000000;0.888462
5545.000000;0.888533
5544.000000;0.888601
5543.000000;0.888611
5542.000000;0.888509
5541.000000;0.888299
5540.000000;0.888062
5539.000000;0.887894
5538.000000;0.887849
5537.000000;0.887910
5536.000000;0.888038
5535.000000;0.888221
5534.000000;0.888460
5533.000000;0.888707
5532.000000;0.888879
5531.000000;0.888930
5530.000000;0.888906
5529.000000;0.888875
5528.000000;0.888832
5527.000000;0.888725
5526.000000;0.888539
5525.000000;0.888322
5524.000000;0.888144
5523.000000;0.888046
5522.000000;0.888040
5521.000000;0.888137
5520.000000;0.888342
5519.000000;0.888616
5518.000000;0.888831
5517.000000;0.888838
5516.000000;0.888644
5515.000000;0.888418
5514.000000;0.888271
5513.000000;0.888107
5512.000000;0.887808
5511.000000;0.887457
5510.000000;0.887246
5509.000000;0.887222
5508.000000;0.887310
5507.000000;0.887575
5506.000000;0.888183
5505.000000;0.889018
5504.000000;0.889618
5503.000000;0.889607
5502.000000;0.889092
5501.000000;0.888515
5500.000000;0.888042
5499.000000;0.887385
5498.000000;0.886294
5497.000000;0.885011
5496.000000;0.884063
5495.000000;0.883668
5494.000000;0.883631
5493.000000;0.883856
5492.000000;0.884621
5491.000000;0.886129
5490.000000;0.888063
5489.000000;0.889868
5488.000000;0.891329
5487.000000;0.892577
5486.000000;0.893516
5485.000000;0.893614
5484.000000;0.892617
5483.000000;0.891046
5482.000000;0.889567
5481.000000;0.888277
5480.000000;0.887008
5479.000000;0.886094
5478.000000;0.886106
5477.000000;0.886959
5476.000000;0.888031
5475.000000;0.889155
5474.000000;0.890709
5473.000000;0.892629
5472.000000;0.894162
5471.000000;0.894625
5470.000000;0.894028
5469.000000;0.892981
5468.000000;0.892131
5467.000000;0.891785
5466.000000;0.891918
5465.000000;0.892360
5464.000000;0.893054
5463.000000;0.894095
5462.000000;0.895463
5461.000000;0.896932
5460.000000;0.898339
5459.000000;0.899733
5458.000000;0.901153
5457.000000;0.902333
5456.000000;0.902759
5455.000000;0.902150
5454.000000;0.900878
5453.000000;0.899620
5452.000000;0.898613
5451.000000;0.897434
5450.000000;0.895862
5449.000000;0.894651
5448.000000;0.894754
5447.000000;0.896050
5446.000000;0.897557
5445.000000;0.898775
5444.000000;0.900124
5443.000000;0.902006
5442.000000;0.904055
5441.000000;0.905615
5440.000000;0.906570
5439.000000;0.907237
5438.000000;0.907814
5437.000000;0.908296
5436.000000;0.908620
5435.000000;0.908880
5434.000000;0.909509
5433.000000;0.911039
5432.000000;0.913627
5431.000000;0.916806
5430.000000;0.919898
5429.000000;0.922845
5428.000000;0.926255
5427.000000;0.930463
5426.000000;0.934966
5425.000000;0.938767
5424.000000;0.941011
5423.000000;0.941556
5422.000000;0.941044
5421.000000;0.940130
5420.000000;0.938847
5419.000000;0.937039
5418.000000;0.935195
5417.000000;0.934291
5416.000000;0.934692
5415.000000;0.935967
5414.000000;0.938029
5413.000000;0.941586
5412.000000;0.946946
5411.000000;0.953174
5410.000000;0.959030
5409.000000;0.964123
5408.000000;0.968686
5407.000000;0.972728
5406.000000;0.975939
5405.000000;0.978302
5404.000000;0.980082
5403.000000;0.981349
5402.000000;0.982209
5401.000000;0.983077
5400.000000;0.984294
5399.000000;0.985822
5398.000000;0.987674
5397.000000;0.990283
5396.000000;0.993858
5395.000000;0.997892
5394.000000;1.001879
5393.000000;1.006031
5392.000000;1.010745
5391.000000;1.015741
5390.000000;1.020464
5389.000000;1.024946
5388.000000;1.029572
5387.000000;1.034157
5386.000000;1.038163
5385.000000;1.041813
5384.000000;1.045857
5383.000000;1.050333
5382.000000;1.054574
5381.000000;1.058430
5380.000000;1.062641
5379.000000;1.067812
5378.000000;1.073789
5377.000000;1.080465
5376.000000;1.088257
5375.000000;1.097220
5374.000000;1.106487
5373.000000;1.115060
5372.000000;1.122733
5371.000000;1.129900
5370.000000;1.136879
5369.000000;1.143751
5368.000000;1.150687
5367.000000;1.157943
5366.000000;1.165591
5365.000000;1.173516
5364.000000;1.181493
5363.000000;1.189287
5362.000000;1.196837
5361.000000;1.204330
5360.000000;1.211927
5359.000000;1.219477
5358.000000;1.226948
5357.000000;1.234954
5356.000000;1.244240
5355.000000;1.254571
5354.000000;1.264934
5353.000000;1.275004
5352.000000;1.285531
5351.000000;1.297063
5350.000000;1.309052
5349.000000;1.320634
5348.000000;1.331871
5347.000000;1.343665
5346.000000;1.356543
5345.000000;1.370317
5344.000000;1.384930
5343.000000;1.400675
5342.000000;1.417472
5341.000000;1.434694
5340.000000;1.451795
5339.000000;1.469002
5338.000000;1.487218
5337.000000;1.506803
5336.000000;1.527081
5335.000000;1.547283
5334.000000;1.567246
5333.000000;1.587165
5332.000000;1.607376
5331.000000;1.628498
5330.000000;1.651052
5329.000000;1.674640
5328.000000;1.698209
5327.000000;1.721620
5326.000000;1.745909
5325.000000;1.771471
5324.000000;1.797177
5323.000000;1.821943
5322.000000;1.846155
5321.000000;1.870791
5320.000000;1.896013
5319.000000;1.921555
5318.000000;1.947628
5317.000000;1.974137
5316.000000;1.999999
5315.000000;2.024677
5314.000000;2.049598
5313.000000;2.076488
5312.000000;2.104958
5311.000000;2.133194
5310.000000;2.160429
5309.000000;2.187111
5308.000000;2.213213
5307.000000;2.238372
5306.000000;2.263421
5305.000000;2.289890
5304.000000;2.318085
5303.000000;2.346841
5302.000000;2.374468
5301.000000;2.398944
5300.000000;2.418653
5299.000000;2.434718
5298.000000;2.450789
5297.000000;2.468456
5296.000000;2.485009
5295.000000;2.498070
5294.000000;2.510294
5293.000000;2.526217
5292.000000;2.546099
5291.000000;2.565825
5290.000000;2.581712
5289.000000;2.593240
5288.000000;2.602345
5287.000000;2.612104
5286.000000;2.624304
5285.000000;2.636800
5284.000000;2.645525
5283.000000;2.650272
5282.000000;2.654767
5281.000000;2.660199
5280.000000;2.663542
5279.000000;2.663666
5278.000000;2.663588
5277.000000;2.664393
5276.000000;2.662848
5275.000000;2.658058
5274.000000;2.654833
5273.000000;2.656960
5272.000000;2.662091
5271.000000;2.666270
5270.000000;2.669447
5269.000000;2.672850
5268.000000;2.675143
5267.000000;2.675900
5266.000000;2.678681
5265.000000;2.685698
5264.000000;2.693678
5263.000000;2.698831
5262.000000;2.702438
5261.000000;2.706907
5260.000000;2.709942
5259.000000;2.707824
5258.000000;2.700956
5257.000000;2.691820
5256.000000;2.681237
5255.000000;2.670495
5254.000000;2.662844
5253.000000;2.658931
5252.000000;2.654955
5251.000000;2.649182
5250.000000;2.645882
5249.000000;2.649312
5248.000000;2.657331
5247.000000;2.663815
5246.000000;2.666186
5245.000000;2.667156
5244.000000;2.670116
5243.000000;2.676388
5242.000000;2.685205
5241.000000;2.693715
5240.000000;2.698503
5239.000000;2.698953
5238.000000;2.698018
5237.000000;2.698821
5236.000000;2.701505
5235.000000;2.704440
5234.000000;2.706628
5233.000000;2.707367
5232.000000;2.706549
5231.000000;2.706118
5230.000000;2.707439
5229.000000;2.706700
5228.000000;2.697586
5227.000000;2.680488
5226.000000;2.664108
5225.000000;2.656358
5224.000000;2.657831
5223.000000;2.664350
5222.000000;2.672414
5221.000000;2.680150
5220.000000;2.686065
5219.000000;2.690077
5218.000000;2.693596
5217.000000;2.696347
5216.000000;2.695921
5215.000000;2.692486
5214.000000;2.690419
5213.000000;2.692946
5212.000000;2.697970
5211.000000;2.700601
5210.000000;2.697634
5209.000000;2.688726
5208.000000;2.676084
5207.000000;2.664640
5206.000000;2.659363
5205.000000;2.660200
5204.000000;2.662304
5203.000000;2.662803
5202.000000;2.664103
5201.000000;2.668865
5200.000000;2.675602
5199.000000;2.681428
5198.000000;2.686309
5197.000000;2.691827
5196.000000;2.697778
5195.000000;2.702502
5194.000000;2.704932
5193.000000;2.704668
5192.000000;2.701979
5191.000000;2.698452
5190.000000;2.695234
5189.000000;2.690651
5188.000000;2.682755
5187.000000;2.674075
5186.000000;2.669875
5185.000000;2.671538
5184.000000;2.675204
5183.000000;2.677359
5182.000000;2.678602
5181.000000;2.679691
5180.000000;2.678437
5179.000000;2.674166
5178.000000;2.670130
5177.000000;2.668126
5176.000000;2.665567
5175.000000;2.660843
5174.000000;2.657330
5173.000000;2.658513
5172.000000;2.662770
5171.000000;2.666325
5170.000000;2.668766
5169.000000;2.672112
5168.000000;2.676438
5167.000000;2.680129
5166.000000;2.682940
5165.000000;2.685447
5164.000000;2.686845
5163.000000;2.686457
5162.000000;2.686199
5161.000000;2.688495
5160.000000;2.692760
5159.000000;2.696169
5158.000000;2.696974
5157.000000;2.695358
5156.000000;2.692284
5155.000000;2.689419
5154.000000;2.688784
5153.000000;2.690573
5152.000000;2.692356
5151.000000;2.691945
5150.000000;2.689905
5149.000000;2.687771
5148.000000;2.685406
5147.000000;2.681806
5146.000000;2.677351
5145.000000;2.673998
5144.000000;2.673892
5143.000000;2.677766
5142.000000;2.683491
5141.000000;2.686721
5140.000000;2.684959
5139.000000;2.680338
5138.000000;2.676143
5137.000000;2.672442
5136.000000;2.668024
5135.000000;2.664859
5134.000000;2.666782
5133.000000;2.673824
5132.000000;2.681074
5131.000000;2.684121
5130.000000;2.682496
5129.000000;2.677270
5128.000000;2.670324
5127.000000;2.665965
5126.000000;2.667802
5125.000000;2.673311
5124.000000;2.675765
5123.000000;2.673559
5122.000000;2.672916
5121.000000;2.678831
5120.000000;2.688133
5119.000000;2.693442
5118.000000;2.691013
5117.000000;2.682376
5116.000000;2.671678
5115.000000;2.664261
5114.000000;2.663865
5113.000000;2.668457
5112.000000;2.671489
5111.000000;2.670068
5110.000000;2.668063
5109.000000;2.668693
5108.000000;2.669728
5107.000000;2.668370
5106.000000;2.666722
5105.000000;2.668745
5104.000000;2.674519
5103.000000;2.681207
5102.000000;2.687262
5101.000000;2.691668
5100.000000;2.691869
5099.000000;2.686664
5098.000000;2.678978
5097.000000;2.672985
5096.000000;2.670035
5095.000000;2.668805
5094.000000;2.667775
5093.000000;2.666171
5092.000000;2.664146
5091.000000;2.663353
5090.000000;2.665623
5089.000000;2.670296
5088.000000;2.674703
5087.000000;2.677911
5086.000000;2.681610
5085.000000;2.685452
5084.000000;2.685312
5083.000000;2.679660
5082.000000;2.673383
5081.000000;2.671824
5080.000000;2.674303
5079.000000;2.675615
5078.000000;2.672224
5077.000000;2.664794
5076.000000;2.656356
5075.000000;2.651048
5074.000000;2.652797
5073.000000;2.661802
5072.000000;2.672339
5071.000000;2.676798
5070.000000;2.673272
5069.000000;2.666606
5068.000000;2.661833
5067.000000;2.659738
5066.000000;2.658332
5065.000000;2.656014
5064.000000;2.652993
5063.000000;2.650799
5062.000000;2.650734
5061.000000;2.652389
5060.000000;2.653885
5059.000000;2.653985
5058.000000;2.653120
5057.000000;2.652691
5056.000000;2.654419
5055.000000;2.659236
5054.000000;2.665777
5053.000000;2.670799
5052.000000;2.672292
5051.000000;2.671834
5050.000000;2.672185
5049.000000;2.672975
5048.000000;2.671122
5047.000000;2.665139
5046.000000;2.656640
5045.000000;2.647733
5044.000000;2.640031
5043.000000;2.636263
5042.000000;2.638449
5041.000000;2.643879
5040.000000;2.646794
5039.000000;2.645168
5038.000000;2.642192
5037.000000;2.639998
5036.000000;2.636611
5035.000000;2.630765
5034.000000;2.625567
5033.000000;2.624782
5032.000000;2.628217
5031.000000;2.632865
5030.000000;2.636944
5029.000000;2.640624
5028.000000;2.643945
5027.000000;2.646182
5026.000000;2.646635
5025.000000;2.645059
5024.000000;2.642059
5023.000000;2.639119
5022.000000;2.636743
5021.000000;2.632945
5020.000000;2.625851
5019.000000;2.617294
5018.000000;2.610983
5017.000000;2.607558
5016.000000;2.604335
5015.000000;2.600122
5014.000000;2.596972
5013.000000;2.596359
5012.000000;2.596928
5011.000000;2.596976
5010.000000;2.596434
5009.000000;2.594748
5008.000000;2.589770
5007.000000;2.581734
5006.000000;2.575260
5005.000000;2.574736
5004.000000;2.579497
5003.000000;2.584791
5002.000000;2.586413
5001.000000;2.583842
5000.000000;2.580034
4999.000000;2.578951
4998.000000;2.581675
4997.000000;2.583802
4996.000000;2.579019
4995.000000;2.567455
4994.000000;2.556923
4993.000000;2.553631
4992.000000;2.555244
4991.000000;2.554205
4990.000000;2.546525
4989.000000;2.535253
4988.000000;2.525954
4987.000000;2.522004
4986.000000;2.523493
4985.000000;2.527745
4984.000000;2.530762
4983.000000;2.530227
4982.000000;2.527568
4981.000000;2.525789
4980.000000;2.525472
4979.000000;2.523827
4978.000000;2.517836
4977.000000;2.507731
4976.000000;2.496894
4975.000000;2.488951
4974.000000;2.485140
4973.000000;2.484058
4972.000000;2.483756
4971.000000;2.483623
4970.000000;2.483400
4969.000000;2.481512
4968.000000;2.476376
4967.000000;2.468991
4966.000000;2.462018
4965.000000;2.456417
4964.000000;2.450896
4963.000000;2.444683
4962.000000;2.438752
4961.000000;2.433730
4960.000000;2.428723
4959.000000;2.423130
4958.000000;2.418149
4957.000000;2.415309
4956.000000;2.414522
4955.000000;2.414539
4954.000000;2.414376
4953.000000;2.413737
4952.000000;2.412520
4951.000000;2.410343
4950.000000;2.406407
4949.000000;2.400223
4948.000000;2.392763
4947.000000;2.386281
4946.000000;2.382328
4945.000000;2.380353
4944.000000;2.378611
4943.000000;2.376080
4942.000000;2.372652
4941.000000;2.367921
4940.000000;2.361301
4939.000000;2.353241
4938.000000;2.344878
4937.000000;2.336767
4936.000000;2.329238
4935.000000;2.323421
4934.000000;2.320217
4933.000000;2.318554
4932.000000;2.316453
4931.000000;2.313750
4930.000000;2.311584
4929.000000;2.309440
4928.000000;2.305181
4927.000000;2.297979
4926.000000;2.289394
4925.000000;2.281279
4924.000000;2.274286
4923.000000;2.268819
4922.000000;2.265451
4921.000000;2.263456
4920.000000;2.260674
4919.000000;2.255826
4918.000000;2.249597
4917.000000;2.243067
4916.000000;2.236611
4915.000000;2.230570
4914.000000;2.225512
4913.000000;2.221108
4912.000000;2.216124
4911.000000;2.210519
4910.000000;2.206075
4909.000000;2.203850
4908.000000;2.202396
4907.000000;2.199592
4906.000000;2.195230
4905.000000;2.190487
4904.000000;2.185771
4903.000000;2.180518
4902.000000;2.174582
4901.000000;2.168576
4900.000000;2.163035
4899.000000;2.158025
4898.000000;2.153353
4897.000000;2.148514
4896.000000;2.142853
4895.000000;2.136535
4894.000000;2.131003
4893.000000;2.127583
4892.000000;2.125811
4891.000000;2.123760
4890.000000;2.119988
4889.000000;2.114636
4888.000000;2.108653
4887.000000;2.102520
4886.000000;2.096009
4885.000000;2.088990
4884.000000;2.082142
4883.000000;2.076657
4882.000000;2.073106
4881.000000;2.070741
4880.000000;2.068262
4879.000000;2.065243
4878.000000;2.062242
4877.000000;2.059561
4876.000000;2.056651
4875.000000;2.052891
4874.000000;2.048212
4873.000000;2.042692
4872.000000;2.036244
4871.000000;2.029061
4870.000000;2.021805
4869.000000;2.014911
4868.000000;2.008141
4867.000000;2.001298
4866.000000;1.995110
4865.000000;1.990844
4864.000000;1.988977
4863.000000;1.988475
4862.000000;1.987464
4861.000000;1.984733
4860.000000;1.980602
4859.000000;1.976171
4858.000000;1.971877
4857.000000;1.967218
4856.000000;1.961912
4855.000000;1.956536
4854.000000;1.951522
4853.000000;1.946252
4852.000000;1.940090
4851.000000;1.933902
4850.000000;1.929266
4849.000000;1.926160
4848.000000;1.922637
4847.000000;1.917225
4846.000000;1.910784
4845.000000;1.905255
4844.000000;1.901344
4843.000000;1.898164
4842.000000;1.894607
4841.000000;1.890358
4840.000000;1.885707
4839.000000;1.881090
4838.000000;1.876827
4837.000000;1.872902
4836.000000;1.869019
4835.000000;1.865104
4834.000000;1.861604
4833.000000;1.858967
4832.000000;1.856873
4831.000000;1.854298
4830.000000;1.850423
4829.000000;1.845418
4828.000000;1.840271
4827.000000;1.835900
4826.000000;1.832393
4825.000000;1.828988
4824.000000;1.824823
4823.000000;1.819734
4822.000000;1.814306
4821.000000;1.809228
4820.000000;1.804727
4819.000000;1.800614
4818.000000;1.796627
4817.000000;1.792649
4816.000000;1.788648
4815.000000;1.784573
4814.000000;1.780288
4813.000000;1.775782
4812.000000;1.771342
4811.000000;1.767349
4810.000000;1.763903
4809.000000;1.760728
4808.000000;1.757580
4807.000000;1.754378
4806.000000;1.750932
4805.000000;1.746965
4804.000000;1.742626
4803.000000;1.738613
4802.000000;1.735360
4801.000000;1.732343
4800.000000;1.728677
4799.000000;1.724293
4798.000000;1.720058
4797.000000;1.716667
4796.000000;1.713820
4795.000000;1.710635
4794.000000;1.706667
4793.000000;1.702380
4792.000000;1.698592
4791.000000;1.695452
4790.000000;1.692117
4789.000000;1.687691
4788.000000;1.682445
4787.000000;1.677628
4786.000000;1.673927
4785.000000;1.670654
4784.000000;1.666764
4783.000000;1.662249
4782.000000;1.657963
4781.000000;1.654441
4780.000000;1.651478
4779.000000;1.648699
4778.000000;1.645915
4777.000000;1.642958
4776.000000;1.639702
4775.000000;1.636279
4774.000000;1.632881
4773.000000;1.629405
4772.000000;1.625665
4771.000000;1.621868
4770.000000;1.618431
4769.000000;1.615373
4768.000000;1.612387
4767.000000;1.609430
4766.000000;1.606678
4765.000000;1.603910
4764.000000;1.600543
4763.000000;1.596489
4762.000000;1.592427
4761.000000;1.588968
4760.000000;1.585969
4759.000000;1.582916
4758.000000;1.579648
4757.000000;1.576400
4756.000000;1.573369
4755.000000;1.570513
4754.000000;1.567641
4753.000000;1.564536
4752.000000;1.561079
4751.000000;1.557340
4750.000000;1.553467
4749.000000;1.549500
4748.000000;1.545472
4747.000000;1.541680
4746.000000;1.538595
4745.000000;1.536405
4744.000000;1.534770
4743.000000;1.533083
4742.000000;1.530875
4741.000000;1.528024
4740.000000;1.524757
4739.000000;1.521428
4738.000000;1.518164
4737.000000;1.514809
4736.000000;1.511359
4735.000000;1.508229
4734.000000;1.505767
4733.000000;1.503667
4732.000000;1.501244
4731.000000;1.498242
4730.000000;1.494987
4729.000000;1.491818
4728.000000;1.488835
4727.000000;1.486186
4726.000000;1.484054
4725.000000;1.482226
4724.000000;1.480126
4723.000000;1.477521
4722.000000;1.474792
4721.000000;1.472289
4720.000000;1.469825
4719.000000;1.467099
4718.000000;1.464267
4717.000000;1.461702
4716.000000;1.459423
4715.000000;1.457144
4714.000000;1.454736
4713.000000;1.452299
4712.000000;1.449874
4711.000000;1.447382
4710.000000;1.444870
4709.000000;1.442487
4708.000000;1.440172
4707.000000;1.437605
4706.000000;1.434612
4705.000000;1.431462
4704.000000;1.428629
4703.000000;1.426275
4702.000000;1.424106
4701.000000;1.421776
4700.000000;1.419335
4699.000000;1.417121
4698.000000;1.415224
4697.000000;1.413298
4696.000000;1.411013
4695.000000;1.408505
4694.000000;1.406179
4693.000000;1.404189
4692.000000;1.402357
4691.000000;1.400517
4690.000000;1.398640
4689.000000;1.396650
4688.000000;1.394405
4687.000000;1.391948
4686.000000;1.389558
4685.000000;1.387467
4684.000000;1.385675
4683.000000;1.384034
4682.000000;1.382370
4681.000000;1.380550
4680.000000;1.378630
4679.000000;1.376924
4678.000000;1.375636
4677.000000;1.374397
4676.000000;1.372507
4675.000000;1.369756
4674.000000;1.366728
4673.000000;1.364128
4672.000000;1.362045
4671.000000;1.360072
4670.000000;1.357920
4669.000000;1.355739
4668.000000;1.353907
4667.000000;1.352689
4666.000000;1.351996
4665.000000;1.351349
4664.000000;1.350197
4663.000000;1.348390
4662.000000;1.346274
4661.000000;1.344217
4660.000000;1.342237
4659.000000;1.340201
4658.000000;1.338201
4657.000000;1.336473
4656.000000;1.335025
4655.000000;1.333592
4654.000000;1.331985
4653.000000;1.330277
4652.000000;1.328621
4651.000000;1.327026
4650.000000;1.325384
4649.000000;1.323617
4648.000000;1.321748
4647.000000;1.319867
4646.000000;1.318091
4645.000000;1.316475
4644.000000;1.314962
4643.000000;1.313463
4642.000000;1.311990
4641.000000;1.310636
4640.000000;1.309375
4639.000000;1.307985
4638.000000;1.306313
4637.000000;1.304577
4636.000000;1.303218
4635.000000;1.302355
4634.000000;1.301531
4633.000000;1.300167
4632.000000;1.298245
4631.000000;1.296309
4630.000000;1.294803
4629.000000;1.293632
4628.000000;1.292460
4627.000000;1.291209
4626.000000;1.290065
4625.000000;1.289110
4624.000000;1.288182
4623.000000;1.287102
4622.000000;1.285864
4621.000000;1.284565
4620.000000;1.283232
4619.000000;1.281792
4618.000000;1.280189
4617.000000;1.278523
4616.000000;1.277040
4615.000000;1.275903
4614.000000;1.274968
4613.000000;1.273910
4612.000000;1.272611
4611.000000;1.271308
4610.000000;1.270298
4609.000000;1.269599
4608.000000;1.268991
4607.000000;1.268202
4606.000000;1.267011
4605.000000;1.265360
4604.000000;1.263508
4603.000000;1.261903
4602.000000;1.260724
4601.000000;1.259725
4600.000000;1.258678
4599.000000;1.257757
4598.000000;1.257216
4597.000000;1.256896
4596.000000;1.256403
4595.000000;1.255653
4594.000000;1.254879
4593.000000;1.254124
4592.000000;1.253133
4591.000000;1.251812
4590.000000;1.250414
4589.000000;1.249162
4588.000000;1.247969
4587.000000;1.246702
4586.000000;1.245455
4585.000000;1.244385
4584.000000;1.243454
4583.000000;1.242514
4582.000000;1.241531
4581.000000;1.240575
4580.000000;1.239667
4579.000000;1.238747
4578.000000;1.237787
4577.000000;1.236855
4576.000000;1.236086
4575.000000;1.235560
4574.000000;1.235146
4573.000000;1.234544
4572.000000;1.233598
4571.000000;1.232529
4570.000000;1.231696
4569.000000;1.231130
4568.000000;1.230487
4567.000000;1.229475
4566.000000;1.228185
4565.000000;1.226956
4564.000000;1.226073
4563.000000;1.225603
4562.000000;1.225381
4561.000000;1.225120
4560.000000;1.224676
4559.000000;1.224219
4558.000000;1.224009
4557.000000;1.223996
4556.000000;1.223824
4555.000000;1.223207
4554.000000;1.222117
4553.000000;1.220639
4552.000000;1.218919
4551.000000;1.217307
4550.000000;1.216221
4549.000000;1.215693
4548.000000;1.215241
4547.000000;1.214408
4546.000000;1.213275
4545.000000;1.212278
4544.000000;1.211651
4543.000000;1.211269
4542.000000;1.210964
4541.000000;1.210772
4540.000000;1.210840
4539.000000;1.211198
4538.000000;1.211654
4537.000000;1.211887
4536.000000;1.211654
4535.000000;1.210978
4534.000000;1.210124
4533.000000;1.209367
4532.000000;1.208776
4531.000000;1.208178
4530.000000;1.207327
4529.000000;1.206146
4528.000000;1.204883
4527.000000;1.203926
4526.000000;1.203365
4525.000000;1.202851
4524.000000;1.202066
4523.000000;1.201250
4522.000000;1.200998
4521.000000;1.201496
4520.000000;1.202259
4519.000000;1.202707
4518.000000;1.202791
4517.000000;1.202872
4516.000000;1.203195
4515.000000;1.203671
4514.000000;1.204062
4513.000000;1.204163
4512.000000;1.203889
4511.000000;1.203358
4510.000000;1.202875
4509.000000;1.202663
4508.000000;1.202647
4507.000000;1.202642
4506.000000;1.202751
4505.000000;1.203332
4504.000000;1.204449
4503.000000;1.205506
4502.000000;1.205669
4501.000000;1.204697
4500.000000;1.203218
4499.000000;1.202099
4498.000000;1.201643
4497.000000;1.201477
4496.000000;1.201143
4495.000000;1.200631
4494.000000;1.200357
4493.000000;1.200721
4492.000000;1.201715
4491.000000;1.202860
4490.000000;1.203544
4489.000000;1.203595
4488.000000;1.203533
4487.000000;1.204044
4486.000000;1.205149
4485.000000;1.206115
4484.000000;1.206324
4483.000000;1.206003
4482.000000;1.205871
4481.000000;1.206241
4480.000000;1.206725
4479.000000;1.206708
4478.000000;1.205925
4477.000000;1.204688
4476.000000;1.203751
4475.000000;1.203809
4474.000000;1.204870
4473.000000;1.206157
4472.000000;1.206852
4471.000000;1.206902
4470.000000;1.206946
4469.000000;1.207571
4468.000000;1.208874
4467.000000;1.210585
4466.000000;1.212296
4465.000000;1.213656
4464.000000;1.214663
4463.000000;1.215714
4462.000000;1.217056
4461.000000;1.218234
4460.000000;1.218495
4459.000000;1.217756
4458.000000;1.216793
4457.000000;1.216398
4456.000000;1.216674
4455.000000;1.217245
4454.000000;1.217832
4453.000000;1.218437
4452.000000;1.219186
4451.000000;1.220149
4450.000000;1.221227
4449.000000;1.222219
4448.000000;1.223097
4447.000000;1.224158
4446.000000;1.225668
4445.000000;1.227420
4444.000000;1.228892
4443.000000;1.229796
4442.000000;1.230264
4441.000000;1.230552
4440.000000;1.230880
4439.000000;1.231485
4438.000000;1.232448
4437.000000;1.233473
4436.000000;1.234176
4435.000000;1.234594
4434.000000;1.235096
4433.000000;1.235816
4432.000000;1.236567
4431.000000;1.237278
4430.000000;1.238103
4429.000000;1.239113
4428.000000;1.240263
4427.000000;1.241652
4426.000000;1.243340
4425.000000;1.244966
4424.000000;1.246146
4423.000000;1.247214
4422.000000;1.248883
4421.000000;1.251095
4420.000000;1.252995
4419.000000;1.254275
4418.000000;1.255662
4417.000000;1.257617
4416.000000;1.259406
4415.000000;1.260186
4414.000000;1.260345
4413.000000;1.260864
4412.000000;1.261840
4411.000000;1.262549
4410.000000;1.262738
4409.000000;1.262993
4408.000000;1.263858
4407.000000;1.265294
4406.000000;1.267057
4405.000000;1.269014
4404.000000;1.271005
4403.000000;1.272822
4402.000000;1.274433
4401.000000;1.275898
4400.000000;1.277092
4399.000000;1.277914
4398.000000;1.278639
4397.000000;1.279634
4396.000000;1.280774
4395.000000;1.281661
4394.000000;1.282342
4393.000000;1.283312
4392.000000;1.284726
4391.000000;1.286094
4390.000000;1.286992
4389.000000;1.287711
4388.000000;1.288927
4387.000000;1.290959
4386.000000;1.293529
4385.000000;1.296050
4384.000000;1.297982
4383.000000;1.299088
4382.000000;1.299588
4381.000000;1.300109
4380.000000;1.301322
4379.000000;1.303414
4378.000000;1.305762
4377.000000;1.307309
4376.000000;1.307642
4375.000000;1.307693
4374.000000;1.308814
4373.000000;1.311044
4372.000000;1.312898
4371.000000;1.313353
4370.000000;1.313396
4369.000000;1.314739
4368.000000;1.317393
4367.000000;1.319567
4366.000000;1.320098
4365.000000;1.319974
4364.000000;1.320909
4363.000000;1.323180
4362.000000;1.325538
4361.000000;1.326943
4360.000000;1.327797
4359.000000;1.329341
4358.000000;1.332054
4357.000000;1.334822
4356.000000;1.335842
4355.000000;1.334673
4354.000000;1.333179
4353.000000;1.333828
4352.000000;1.337084
4351.000000;1.341064
4350.000000;1.343915
4349.000000;1.345831
4348.000000;1.348128
4347.000000;1.351060
4346.000000;1.353529
4345.000000;1.354893
4344.000000;1.355906
4343.000000;1.357483
4342.000000;1.359424
4341.000000;1.360837
4340.000000;1.361266
4339.000000;1.360981
4338.000000;1.360607
4337.000000;1.360920
4336.000000;1.362610
4335.000000;1.365627
4334.000000;1.368865
4333.000000;1.371004
4332.000000;1.371840
4331.000000;1.372486
4330.000000;1.374125
4329.000000;1.376813
4328.000000;1.379576
4327.000000;1.381526
4326.000000;1.382670
4325.000000;1.383690
4324.000000;1.385027
4323.000000;1.386221
4322.000000;1.386549
4321.000000;1.386277
4320.000000;1.386544
4319.000000;1.387710
4318.000000;1.388602
4317.000000;1.388182
4316.000000;1.387397
4315.000000;1.388177
4314.000000;1.390835
4313.000000;1.393807
4312.000000;1.396163
4311.000000;1.398868
4310.000000;1.402927
4309.000000;1.407524
4308.000000;1.411068
4307.000000;1.412983
4306.000000;1.413177
4305.000000;1.411165
4304.000000;1.407497
4303.000000;1.404768
4302.000000;1.405220
4301.000000;1.408067
4300.000000;1.411027
4299.000000;1.414218
4298.000000;1.420224
4297.000000;1.429914
4296.000000;1.440369
4295.000000;1.447821
4294.000000;1.451188
4293.000000;1.451441
4292.000000;1.448919
4291.000000;1.443364
4290.000000;1.435759
4289.000000;1.428031
4288.000000;1.421252
4287.000000;1.415711
4286.000000;1.412089
4285.000000;1.410941
4284.000000;1.411493
4283.000000;1.412607
4282.000000;1.414910
4281.000000;1.420383
4280.000000;1.429731
4279.000000;1.440965
4278.000000;1.450893
4277.000000;1.457446
4276.000000;1.460403
4275.000000;1.460577
4274.000000;1.458799
4273.000000;1.455811
4272.000000;1.452209
4271.000000;1.447654
4270.000000;1.441125
4269.000000;1.432971
4268.000000;1.425857
4267.000000;1.422538
4266.000000;1.423100
4265.000000;1.425261
4264.000000;1.427225
4263.000000;1.428942
4262.000000;1.430108
4261.000000;1.428894
4260.000000;1.424364
4259.000000;1.418881
4258.000000;1.416266
4257.000000;1.418185
4256.000000;1.423321
4255.000000;1.429183
4254.000000;1.433602
4253.000000;1.435425
4252.000000;1.435476
4251.000000;1.435955
4250.000000;1.437539
4249.000000;1.437604
4248.000000;1.433722
4247.000000;1.427803
4246.000000;1.423463
4245.000000;1.419986
4244.000000;1.413172
4243.000000;1.402486
4242.000000;1.393019
4241.000000;1.389710
4240.000000;1.392579
4239.000000;1.397770
4238.000000;1.400799
4237.000000;1.398379
4236.000000;1.390276
4235.000000;1.380354
4234.000000;1.373393
4233.000000;1.370326
4232.000000;1.367906
4231.000000;1.363073
4230.000000;1.355628
4229.000000;1.346248
4228.000000;1.334729
4227.000000;1.321020
4226.000000;1.307268
4225.000000;1.297558
4224.000000;1.293790
4223.000000;1.293272
4222.000000;1.289907
4221.000000;1.277062
4220.000000;1.252451
4219.000000;1.220493
4218.000000;1.188444
4217.000000;1.161277
4216.000000;1.140688
4215.000000;1.126779
4214.000000;1.117923
4213.000000;1.110630
4212.000000;1.103587
4211.000000;1.099598
4210.000000;1.099216
4209.000000;1.094562
4208.000000;1.076985
4207.000000;1.050092
4206.000000;1.023394
4205.000000;0.996830
4204.000000;0.963850
4203.000000;0.923026
4202.000000;0.871715
4201.000000;0.796587
4200.000000;0.694428
4199.000000;0.596218
4198.000000;0.543725
4197.000000;0.551390
4196.000000;0.600625
4195.000000;0.658029
4194.000000;0.706853
4193.000000;0.757721
4192.000000;0.822160
4191.000000;0.899331
4190.000000;0.984086
4189.000000;1.067055
4188.000000;1.134174
4187.000000;1.182561
4186.000000;1.227934
4185.000000;1.290974
4184.000000;1.377145
4183.000000;1.463066
4182.000000;1.512146
4181.000000;1.519654
4180.000000;1.514452
4179.000000;1.517830
4178.000000;1.533447
4177.000000;1.561975
4176.000000;1.606648
4175.000000;1.664913
4174.000000;1.723342
4173.000000;1.759685
4172.000000;1.758019
4171.000000;1.735903
4170.000000;1.726571
4169.000000;1.743544
4168.000000;1.775619
4167.000000;1.800129
4166.000000;1.804203
4165.000000;1.791281
4164.000000;1.774376
4163.000000;1.771984
4162.000000;1.790598
4161.000000;1.809159
4160.000000;1.814408
4159.000000;1.832349
4158.000000;1.891324
4157.000000;2.006473
4156.000000;2.180412
4155.000000;2.374080
4154.000000;2.416267
4153.000000;2.274073
4152.000000;2.132533
4151.000000;2.052070
4150.000000;2.028172
4149.000000;2.042226
4148.000000;2.063008
4147.000000;2.059611
4146.000000;2.057893
4145.000000;2.096356
4144.000000;2.163514
4143.000000;2.209382
4142.000000;2.209288
4141.000000;2.197178
4140.000000;2.216508
4139.000000;2.278564
4138.000000;2.348224
4137.000000;2.377066
4136.000000;2.355447
4135.000000;2.298928
4134.000000;2.230143
4133.000000;2.172365
4132.000000;2.136163
4131.000000;2.114877
4130.000000;2.109154
4129.000000;2.127241
4128.000000;2.173005
4127.000000;2.255470
4126.000000;2.392301
4125.000000;2.576594
4124.000000;2.704839
4123.000000;2.657635
4122.000000;2.536459
4121.000000;2.449103
4120.000000;2.404339
4119.000000;2.369037
4118.000000;2.316607
4117.000000;2.267908
4116.000000;2.252853
4115.000000;2.265496
4114.000000;2.278239
4113.000000;2.281937
4112.000000;2.292682
4111.000000;2.318048
4110.000000;2.343624
4109.000000;2.354158
4108.000000;2.358793
4107.000000;2.384139
4106.000000;2.446808
4105.000000;2.548228
4104.000000;2.687457
4103.000000;2.924693
4102.000000;3.162759
4101.000000;3.044133
4100.000000;2.878203
4099.000000;2.726159
4098.000000;2.634837
4097.000000;2.618929
4096.000000;2.620493
4095.000000;2.632243
4094.000000;2.676700
4093.000000;2.755895
4092.000000;2.916993
4091.000000;3.168760
4090.000000;2.847811
4089.000000;2.625267
4088.000000;2.534548
4087.000000;2.492419
4086.000000;2.483067
4085.000000;2.500003
4084.000000;2.522613
4083.000000;2.542431
4082.000000;2.563845
4081.000000;2.590358
4080.000000;2.619320
4079.000000;2.627899
4078.000000;2.590263
4077.000000;2.510581
4076.000000;2.435026
4075.000000;2.413295
4074.000000;2.463315
4073.000000;2.556133
4072.000000;2.614347
4071.000000;2.648849
4070.000000;2.739318
4069.000000;2.969973
4068.000000;3.498414
4067.000000;3.062727
4066.000000;2.871970
4065.000000;2.925811
4064.000000;2.936608
4063.000000;2.770918
4062.000000;2.658078
4061.000000;2.686576
4060.000000;2.851576
4059.000000;3.016178
4058.000000;2.901063
4057.000000;2.692377
4056.000000;2.584845
4055.000000;2.593171
4054.000000;2.655115
4053.000000;2.698835
4052.000000;2.720355
4051.000000;2.720670
4050.000000;2.730573
4049.000000;2.795865
4048.000000;2.920564
4047.000000;3.095001
4046.000000;3.171581
4045.000000;3.062124
4044.000000;2.950403
4043.000000;2.870869
4042.000000;2.790559
4041.000000;2.699706
4040.000000;2.631141
4039.000000;2.613831
4038.000000;2.617898
4037.000000;2.632090
4036.000000;2.727427
4035.000000;3.001062
4034.000000;3.429517
4033.000000;3.555650
4032.000000;3.997291
4031.000000;3.740339
4030.000000;3.595414
4029.000000;3.323338
4028.000000;3.009062
4027.000000;2.894733
4026.000000;2.923288
4025.000000;2.999209
4024.000000;2.888151
4023.000000;2.695609
4022.000000;2.601576
4021.000000;2.615559
4020.000000;2.692709
4019.000000;2.725643
4018.000000;2.723725
4017.000000;2.787763
4016.000000;2.873046
4015.000000;2.893818
4014.000000;2.894751
4013.000000;2.893019
4012.000000;2.869427
4011.000000;2.813854
4010.000000;2.782833
4009.000000;2.812775
4008.000000;2.857545
4007.000000;2.871549
4006.000000;2.866707
4005.000000;2.894915
4004.000000;2.968217
4003.000000;2.987900
4002.000000;3.023885
4001.000000;3.271716
4000.000000;3.583749
3999.000000;3.387557
3998.000000;3.240131
3997.000000;3.093719
3996.000000;2.920965
3995.000000;2.751275
3994.000000;2.577447
3993.000000;2.467791
3992.000000;2.437796
3991.000000;2.435906
3990.000000;2.433170
3989.000000;2.463171
3988.000000;2.543967
3987.000000;2.655239
3986.000000;2.779156
3985.000000;2.963738
3984.000000;3.396646
3983.000000;3.591111
3982.000000;3.187470
3981.000000;3.001444
3980.000000;2.900703
3979.000000;2.900488
3978.000000;3.044681
3977.000000;3.234096
3976.000000;3.162811
3975.000000;3.076426
3974.000000;3.107863
3973.000000;3.262399
3972.000000;3.595852
3971.000000;3.480130
3970.000000;3.133674
3969.000000;2.996299
3968.000000;3.013943
3967.000000;3.302073
3966.000000;3.416105
3965.000000;3.126680
3964.000000;3.076999
3963.000000;3.093141
3962.000000;3.026375
3961.000000;2.987804
3960.000000;3.004873
3959.000000;2.977803
3958.000000;2.883899
3957.000000;2.778174
3956.000000;2.708795
3955.000000;2.694256
3954.000000;2.719194
3953.000000;2.749707
3952.000000;2.766761
3951.000000;2.781248
3950.000000;2.817662
3949.000000;2.866406
3948.000000;2.860943
3947.000000;2.855270
3946.000000;2.945199
3945.000000;3.171440
3944.000000;3.618660
3943.000000;4.247720
3942.000000;3.638658
3941.000000;3.221159
3940.000000;3.066837
3939.000000;3.179599
3938.000000;3.815156
3937.000000;3.524939
3936.000000;3.211118
3935.000000;3.198692
3934.000000;3.121781
3933.000000;3.066917
3932.000000;3.101710
3931.000000;3.231342
3930.000000;3.393515
3929.000000;3.457799
3928.000000;3.491973
3927.000000;3.567299
3926.000000;3.487064
3925.000000;3.400025
3924.000000;3.431007
3923.000000;3.432774
3922.000000;3.419405
3921.000000;3.413139
3920.000000;3.327529
3919.000000;3.171978
3918.000000;3.032345
3917.000000;2.928325
3916.000000;2.836728
3915.000000;2.783487
3914.000000;2.827929
3913.000000;2.963137
3912.000000;3.074991
3911.000000;3.139702
3910.000000;3.252414
3909.000000;3.418224
3908.000000;3.520686
3907.000000;3.493708
3906.000000;3.381482
3905.000000;3.277876
3904.000000;3.239486
3903.000000;3.220197
3902.000000;3.161575
3901.000000;3.099743
3900.000000;3.086519
3899.000000;3.109838
3898.000000;3.159131
3897.000000;3.289619
3896.000000;3.485833
3895.000000;3.644450
3894.000000;3.487264
3893.000000;3.189761
3892.000000;3.027460
3891.000000;2.947984
3890.000000;2.909074
3889.000000;2.899206
3888.000000;2.942495
3887.000000;3.024588
3886.000000;3.074026
3885.000000;3.072926
3884.000000;3.057873
3883.000000;3.084056
3882.000000;3.180134
3881.000000;3.296943
3880.000000;3.310437
3879.000000;3.254563
3878.000000;3.250616
3877.000000;3.292260
3876.000000;3.311576
3875.000000;3.281345
3874.000000;3.234728
3873.000000;3.205577
3872.000000;3.191141
3871.000000;3.180135
3870.000000;3.141611
3869.000000;3.064219
3868.000000;2.976415
3867.000000;2.909920
3866.000000;2.854662
3865.000000;2.795309
3864.000000;2.763003
3863.000000;2.798402
3862.000000;2.885317
3861.000000;2.955050
3860.000000;2.998069
3859.000000;3.054501
3858.000000;3.132985
3857.000000;3.207898
3856.000000;3.250248
3855.000000;3.227305
3854.000000;3.126864
3853.000000;3.002730
3852.000000;2.937485
3851.000000;2.875498
3850.000000;2.781549
3849.000000;2.752405
3848.000000;2.830370
3847.000000;2.986860
3846.000000;3.086616
3845.000000;3.148163
3844.000000;3.328300
3843.000000;3.620190
3842.000000;3.838564
3841.000000;3.693811
3840.000000;3.496250
3839.000000;3.393538
3838.000000;3.316873
3837.000000;3.226034
3836.000000;3.151629
3835.000000;3.120791
3834.000000;3.114544
3833.000000;3.086346
3832.000000;3.013823
3831.000000;2.933692
3830.000000;2.927203
3829.000000;3.033035
3828.000000;3.157740
3827.000000;3.153023
3826.000000;3.084454
3825.000000;3.076645
3824.000000;3.146191
3823.000000;3.219472
3822.000000;3.221310
3821.000000;3.147273
3820.000000;3.065838
3819.000000;3.074808
3818.000000;3.126496
3817.000000;3.092225
3816.000000;3.012418
3815.000000;2.967964
3814.000000;3.020142
3813.000000;3.183532
3812.000000;3.409434
3811.000000;3.674240
3810.000000;3.867194
3809.000000;3.930401
3808.000000;4.068992
3807.000000;4.174578
3806.000000;3.973618
3805.000000;3.765577
3804.000000;3.672072
3803.000000;3.680627
3802.000000;3.723712
3801.000000;3.712073
3800.000000;3.535537
3799.000000;3.400119
3798.000000;3.717748
3797.000000;3.444223
3796.000000;3.160603
3795.000000;3.443888
3794.000000;3.240995
3793.000000;2.915121
3792.000000;2.906433
3791.000000;2.936652
3790.000000;2.852869
3789.000000;2.795640
3788.000000;2.866004
3787.000000;3.116404
3786.000000;3.526159
3785.000000;3.638573
3784.000000;3.454915
3783.000000;3.498580
3782.000000;3.594522
3781.000000;3.343698
3780.000000;3.262053
3779.000000;3.279502
3778.000000;3.359436
3777.000000;3.399061
3776.000000;3.192498
3775.000000;3.123805
3774.000000;3.238189
3773.000000;3.480532
3772.000000;3.655748
3771.000000;3.534197
3770.000000;3.421747
3769.000000;3.371557
3768.000000;3.299278
3767.000000;3.201133
3766.000000;3.127141
3765.000000;3.094258
3764.000000;3.125121
3763.000000;3.165132
3762.000000;3.119700
3761.000000;3.055214
3760.000000;3.062185
3759.000000;3.143897
3758.000000;3.257434
3757.000000;3.376305
3756.000000;3.502683
3755.000000;3.706081
3754.000000;3.869753
3753.000000;3.765388
3752.000000;3.675489
3751.000000;3.635763
3750.000000;3.566642
3749.000000;3.459338
3748.000000;3.299298
3747.000000;3.302932
3746.000000;3.414762
3745.000000;3.396425
3744.000000;3.297279
3743.000000;3.391644
3742.000000;3.971009
3741.000000;3.839267
3740.000000;3.656406
3739.000000;3.826735
3738.000000;3.685873
3737.000000;3.454400
3736.000000;3.260540
3735.000000;3.193067
3734.000000;3.273953
3733.000000;3.320515
3732.000000;3.171744
3731.000000;2.958883
3730.000000;2.852806
3729.000000;2.912285
3728.000000;2.966393
3727.000000;2.894364
3726.000000;2.841993
3725.000000;2.837413
3724.000000;2.842284
3723.000000;2.816024
3722.000000;2.767041
3721.000000;2.757500
3720.000000;2.825484
3719.000000;2.946608
3718.000000;3.051177
3717.000000;3.114378
3716.000000;3.158629
3715.000000;3.243667
3714.000000;3.380546
3713.000000;3.631323
3712.000000;4.100415
3711.000000;4.046323
3710.000000;3.662657
3709.000000;3.277088
3708.000000;3.180248
3707.000000;3.340768
3706.000000;3.495072
3705.000000;3.539231
3704.000000;3.380654
3703.000000;3.143875
3702.000000;3.033146
3701.000000;3.056349
3700.000000;3.137817
3699.000000;3.080491
3698.000000;3.006856
3697.000000;3.073969
3696.000000;3.316994
3695.000000;3.533965
3694.000000;3.613109
3693.000000;4.177711
3692.000000;3.685951
3691.000000;3.508574
3690.000000;3.823511
3689.000000;3.942356
3688.000000;3.891882
3687.000000;3.318000
3686.000000;3.158362
3685.000000;3.321601
3684.000000;3.343189
3683.000000;3.327767
3682.000000;3.580792
3681.000000;3.930632
3680.000000;3.858255
3679.000000;4.149611
3678.000000;4.041692
3677.000000;3.683102
3676.000000;3.587939
3675.000000;3.724403
3674.000000;4.150413
3673.000000;4.900449
3672.000000;3.874464
3671.000000;3.353442
3670.000000;3.612147
3669.000000;3.397110
3668.000000;2.874490
3667.000000;2.786775
3666.000000;2.837754
3665.000000;2.840873
3664.000000;2.786230
3663.000000;2.758940
3662.000000;2.795177
3661.000000;2.901448
3660.000000;3.087031
3659.000000;3.257792
3658.000000;3.374910
3657.000000;3.508739
3656.000000;3.717419
3655.000000;3.766733
3654.000000;3.564035
3653.000000;3.504476
3652.000000;3.567650
3651.000000;3.670998
3650.000000;3.554556
3649.000000;3.287295
3648.000000;3.313147
3647.000000;3.450197
3646.000000;3.333615
3645.000000;3.382040
3644.000000;3.340587
3643.000000;3.177501
3642.000000;3.041876
3641.000000;2.877596
3640.000000;2.852621
3639.000000;2.928161
3638.000000;2.879157
3637.000000;2.787060
3636.000000;2.787843
3635.000000;2.884316
3634.000000;2.987801
3633.000000;2.947874
3632.000000;2.895365
3631.000000;2.893969
3630.000000;2.881120
3629.000000;2.841101
3628.000000;2.754562
3627.000000;2.652364
3626.000000;2.611275
3625.000000;2.671133
3624.000000;2.834293
3623.000000;2.989362
3622.000000;3.022443
3621.000000;3.049773
3620.000000;3.073792
3619.000000;3.100434
3618.000000;3.185194
3617.000000;3.284522
3616.000000;3.243976
3615.000000;3.095703
3614.000000;3.007901
3613.000000;3.007261
3612.000000;3.098185
3611.000000;3.232166
3610.000000;3.312202
3609.000000;3.500290
3608.000000;3.397799
3607.000000;3.183413
3606.000000;3.122906
3605.000000;2.977765
3604.000000;2.899195
3603.000000;2.936769
3602.000000;3.032355
3601.000000;3.091727
3600.000000;3.049264
3599.000000;3.014630
3598.000000;3.284075
3597.000000;3.846232
3596.000000;3.330787
3595.000000;3.538198
3594.000000;3.520114
3593.000000;3.055081
3592.000000;3.035167
3591.000000;3.172153
3590.000000;3.319296
3589.000000;3.245540
3588.000000;3.063248
3587.000000;2.940468
3586.000000;2.903474
3585.000000;2.923538
3584.000000;2.893483
3583.000000;2.824687
3582.000000;2.815646
3581.000000;2.885815
3580.000000;3.049299
3579.000000;3.307267
3578.000000;3.461157
3577.000000;3.574993
3576.000000;3.332724
3575.000000;3.005443
3574.000000;2.948182
3573.000000;3.056335
3572.000000;3.182012
3571.000000;3.193832
3570.000000;3.129382
3569.000000;3.084730
3568.000000;3.079168
3567.000000;3.080625
3566.000000;3.086830
3565.000000;3.251184
3564.000000;3.248131
3563.000000;2.990279
3562.000000;2.960456
3561.000000;3.091460
3560.000000;3.165972
3559.000000;3.112504
3558.000000;3.192881
3557.000000;3.405178
3556.000000;3.129476
3555.000000;2.848969
3554.000000;2.745997
3553.000000;2.775715
3552.000000;2.844049
3551.000000;2.807985
3550.000000;2.737333
3549.000000;2.704204
3548.000000;2.710638
3547.000000;2.757038
3546.000000;2.796189
3545.000000;2.798448
3544.000000;2.843086
3543.000000;2.980174
3542.000000;2.992895
3541.000000;2.802674
3540.000000;2.699828
3539.000000;2.745618
3538.000000;2.921135
3537.000000;3.080897
3536.000000;3.004811
3535.000000;2.853086
3534.000000;2.771556
3533.000000;2.722282
3532.000000;2.648695
3531.000000;2.599271
3530.000000;2.622451
3529.000000;2.729068
3528.000000;2.870833
3527.000000;2.841416
3526.000000;2.672022
3525.000000;2.568994
3524.000000;2.599667
3523.000000;2.731472
3522.000000;2.769333
3521.000000;2.728186
3520.000000;2.832384
3519.000000;2.977035
3518.000000;2.848330
3517.000000;2.845017
3516.000000;3.039418
3515.000000;3.004879
3514.000000;2.891525
3513.000000;2.888835
3512.000000;2.835818
3511.000000;2.778005
3510.000000;2.784398
3509.000000;2.806631
3508.000000;2.868496
3507.000000;3.025541
3506.000000;3.156210
3505.000000;3.060708
3504.000000;2.902337
3503.000000;2.886064
3502.000000;3.118000
3501.000000;3.222889
3500.000000;2.969276
3499.000000;2.828355
3498.000000;2.805780
3497.000000;2.834183
3496.000000;2.774076
3495.000000;2.684409
3494.000000;2.636907
3493.000000;2.615657
3492.000000;2.602378
3491.000000;2.557108
3490.000000;2.484842
3489.000000;2.455481
3488.000000;2.523619
3487.000000;2.664743
3486.000000;2.746846
3485.000000;2.744626
3484.000000;2.813890
3483.000000;3.107570
3482.000000;3.630008
3481.000000;3.807956
3480.000000;3.085000
3479.000000;2.741697
3478.000000;2.661541
3477.000000;2.678202
3476.000000;2.753717
3475.000000;2.818337
3474.000000;2.700464
3473.000000;2.583251
3472.000000;2.599358
3471.000000;2.684327
3470.000000;2.678274
3469.000000;2.632480
3468.000000;2.686970
3467.000000;2.841971
3466.000000;2.993623
3465.000000;2.987907
3464.000000;2.900852
3463.000000;2.922615
3462.000000;3.026064
3461.000000;2.970936
3460.000000;2.793861
3459.000000;2.696918
3458.000000;2.824251
3457.000000;3.082842
3456.000000;3.070681
3455.000000;3.561933
3454.000000;3.340738
3453.000000;2.951848
3452.000000;2.982607
3451.000000;3.011016
3450.000000;3.108604
3449.000000;2.949243
3448.000000;2.716697
3447.000000;2.642714
3446.000000;2.803689
3445.000000;3.212655
3444.000000;2.918969
3443.000000;2.799627
3442.000000;3.014096
3441.000000;3.308781
3440.000000;2.991181
3439.000000;3.189612
3438.000000;3.901001
3437.000000;3.221154
3436.000000;3.273495
3435.000000;3.280169
3434.000000;3.025614
3433.000000;2.940223
3432.000000;3.051351
3431.000000;3.143694
3430.000000;3.540022
3429.000000;3.210494
3428.000000;2.882828
3427.000000;3.423256
3426.000000;3.254544
3425.000000;2.908096
3424.000000;3.106974
3423.000000;3.684229
3422.000000;3.349777
3421.000000;3.280409
3420.000000;3.717546
3419.000000;3.189620
3418.000000;2.839197
3417.000000;2.679733
3416.000000;2.610560
3415.000000;2.529995
3414.000000;2.432040
3413.000000;2.402739
3412.000000;2.420440
3411.000000;2.398305
3410.000000;2.351340
3409.000000;2.358711
3408.000000;2.444983
3407.000000;2.555371
3406.000000;2.555596
3405.000000;2.465477
3404.000000;2.419128
3403.000000;2.442791
3402.000000;2.454548
3401.000000;2.426968
3400.000000;2.424372
3399.000000;2.452769
3398.000000;2.481641
3397.000000;2.496080
3396.000000;2.501443
3395.000000;2.516820
3394.000000;2.583984
3393.000000;2.718342
3392.000000;2.792724
3391.000000;2.722613
3390.000000;2.606717
3389.000000;2.508948
3388.000000;2.412334
3387.000000;2.332976
3386.000000;2.313773
3385.000000;2.351508
3384.000000;2.402853
3383.000000;2.419520
3382.000000;2.403304
3381.000000;2.390699
3380.000000;2.403096
3379.000000;2.370245
3378.000000;2.287621
3377.000000;2.279051
3376.000000;2.369904
3375.000000;2.459629
3374.000000;2.417561
3373.000000;2.330588
3372.000000;2.308218
3371.000000;2.339472
3370.000000;2.351491
3369.000000;2.309472
3368.000000;2.267940
3367.000000;2.276471
3366.000000;2.325403
3365.000000;2.356146
3364.000000;2.334433
3363.000000;2.305105
3362.000000;2.322864
3361.000000;2.406475
3360.000000;2.529878
3359.000000;2.616212
3358.000000;2.629514
3357.000000;2.614352
3356.000000;2.580535
3355.000000;2.556120
3354.000000;2.533271
3353.000000;2.420978
3352.000000;2.305421
3351.000000;2.264305
3350.000000;2.279635
3349.000000;2.327805
3348.000000;2.399030
3347.000000;2.479995
3346.000000;2.577880
3345.000000;2.669433
3344.000000;2.613352
3343.000000;2.550618
3342.000000;2.564775
3341.000000;2.548207
3340.000000;2.465930
3339.000000;2.391889
3338.000000;2.387905
3337.000000;2.492178
3336.000000;2.803107
3335.000000;3.177895
3334.000000;2.691285
3333.000000;2.492309
3332.000000;2.401203
3331.000000;2.378257
3330.000000;2.366067
3329.000000;2.348728
3328.000000;2.357992
3327.000000;2.383918
3326.000000;2.371438
3325.000000;2.358813
3324.000000;2.426942
3323.000000;2.611263
3322.000000;2.663565
3321.000000;2.562075
3320.000000;2.644397
3319.000000;2.940112
3318.000000;3.139848
3317.000000;2.800323
3316.000000;2.590399
3315.000000;2.596451
3314.000000;2.760315
3313.000000;2.758017
3312.000000;2.600394
3311.000000;2.546752
3310.000000;2.559161
3309.000000;2.484936
3308.000000;2.340233
3307.000000;2.250064
3306.000000;2.254205
3305.000000;2.322074
3304.000000;2.354141
3303.000000;2.328436
3302.000000;2.319533
3301.000000;2.336868
3300.000000;2.351218
3299.000000;2.359221
3298.000000;2.379699
3297.000000;2.426956
3296.000000;2.505855
3295.000000;2.645488
3294.000000;2.794007
3293.000000;2.731336
3292.000000;2.630422
3291.000000;2.576072
3290.000000;2.512531
3289.000000;2.504390
3288.000000;2.546429
3287.000000;2.574516
3286.000000;2.491573
3285.000000;2.371760
3284.000000;2.367160
3283.000000;2.496440
3282.000000;2.597629
3281.000000;2.533434
3280.000000;2.528772
3279.000000;2.618025
3278.000000;2.770672
3277.000000;2.886626
3276.000000;2.775530
3275.000000;2.636296
3274.000000;2.679961
3273.000000;2.824947
3272.000000;2.655764
3271.000000;2.482974
3270.000000;2.455028
3269.000000;2.508223
3268.000000;2.648609
3267.000000;2.712211
3266.000000;2.569201
3265.000000;2.483903
3264.000000;2.487599
3263.000000;2.472263
3262.000000;2.382298
3261.000000;2.269239
3260.000000;2.183279
3259.000000;2.147138
3258.000000;2.170082
3257.000000;2.225130
3256.000000;2.269389
3255.000000;2.343808
3254.000000;2.502220
3253.000000;2.662870
3252.000000;2.612799
3251.000000;2.447605
3250.000000;2.348556
3249.000000;2.321606
3248.000000;2.329367
3247.000000;2.342419
3246.000000;2.321939
3245.000000;2.239137
3244.000000;2.163138
3243.000000;2.161338
3242.000000;2.200177
3241.000000;2.222365
3240.000000;2.237599
3239.000000;2.261163
3238.000000;2.266638
3237.000000;2.250932
3236.000000;2.248937
3235.000000;2.255843
3234.000000;2.241063
3233.000000;2.219058
3232.000000;2.216361
3231.000000;2.228172
3230.000000;2.234248
3229.000000;2.228100
3228.000000;2.226250
3227.000000;2.242893
3226.000000;2.275569
3225.000000;2.325431
3224.000000;2.388721
3223.000000;2.444274
3222.000000;2.481331
3221.000000;2.489675
3220.000000;2.478019
3219.000000;2.468113
3218.000000;2.474480
3217.000000;2.513505
3216.000000;2.512037
3215.000000;2.441591
3214.000000;2.416505
3213.000000;2.485318
3212.000000;2.641845
3211.000000;2.838831
3210.000000;2.795755
3209.000000;2.606140
3208.000000;2.500117
3207.000000;2.489827
3206.000000;2.532392
3205.000000;2.527744
3204.000000;2.438791
3203.000000;2.354270
3202.000000;2.331607
3201.000000;2.342857
3200.000000;2.333251
3199.000000;2.318061
3198.000000;2.319678
3197.000000;2.325055
3196.000000;2.338999
3195.000000;2.356799
3194.000000;2.357311
3193.000000;2.345894
3192.000000;2.317300
3191.000000;2.277625
3190.000000;2.242498
3189.000000;2.233524
3188.000000;2.264628
3187.000000;2.304333
3186.000000;2.334782
3185.000000;2.372713
3184.000000;2.395387
3183.000000;2.415426
3182.000000;2.487108
3181.000000;2.587182
3180.000000;2.654684
3179.000000;2.686821
3178.000000;2.633105
3177.000000;2.581296
3176.000000;2.540561
3175.000000;2.510886
3174.000000;2.649750
3173.000000;3.202818
3172.000000;3.265162
3171.000000;3.203617
3170.000000;3.268179
3169.000000;3.375968
3168.000000;3.676587
3167.000000;3.242796
3166.000000;3.262532
3165.000000;3.239510
3164.000000;2.972375
3163.000000;2.971810
3162.000000;3.074130
3161.000000;2.966336
3160.000000;3.224004
3159.000000;3.253013
3158.000000;2.649423
3157.000000;2.431695
3156.000000;2.411475
3155.000000;2.559013
3154.000000;2.629334
3153.000000;2.457370
3152.000000;2.363910
3151.000000;2.422872
3150.000000;2.603565
3149.000000;2.558730
3148.000000;2.484643
3147.000000;2.540955
3146.000000;2.643613
3145.000000;2.680304
3144.000000;2.600112
3143.000000;2.457706
3142.000000;2.378457
3141.000000;2.440813
3140.000000;2.643529
3139.000000;2.857681
3138.000000;3.093087
3137.000000;2.754370
3136.000000;2.490230
3135.000000;2.499621
3134.000000;2.529919
3133.000000;2.483770
3132.000000;2.481711
3131.000000;2.650967
3130.000000;3.185386
3129.000000;2.817791
3128.000000;2.689600
3127.000000;2.988050
3126.000000;2.757852
3125.000000;2.676915
3124.000000;2.894044
3123.000000;3.204435
3122.000000;3.010559
3121.000000;2.932831
3120.000000;2.783235
3119.000000;2.591913
3118.000000;2.555936
3117.000000;2.676486
3116.000000;2.974984
3115.000000;3.317015
3114.000000;3.384455
3113.000000;3.381021
3112.000000;2.977413
3111.000000;2.832736
3110.000000;2.816887
3109.000000;3.144814
3108.000000;2.950668
3107.000000;2.535994
3106.000000;2.441522
3105.000000;2.457218
3104.000000;2.471549
3103.000000;2.443857
3102.000000;2.509063
3101.000000;2.629725
3100.000000;2.638631
3099.000000;2.696755
3098.000000;2.817364
3097.000000;2.951178
3096.000000;2.972223
3095.000000;2.745614
3094.000000;2.725699
3093.000000;2.899012
3092.000000;3.023595
3091.000000;2.943728
3090.000000;2.892707
3089.000000;2.885260
3088.000000;3.068461
3087.000000;3.316488
3086.000000;2.744651
3085.000000;2.536815
3084.000000;2.541828
3083.000000;2.615355
3082.000000;2.540903
3081.000000;2.480520
3080.000000;2.528097
3079.000000;2.629212
3078.000000;2.686117
3077.000000;3.098142
3076.000000;3.058326
3075.000000;2.558012
3074.000000;2.410226
3073.000000;2.395212
3072.000000;2.443107
3071.000000;2.531505
3070.000000;2.681440
3069.000000;2.676036
3068.000000;2.506447
3067.000000;2.491058
3066.000000;2.740102
3065.000000;2.698786
3064.000000;2.407051
3063.000000;2.385535
3062.000000;2.551935
3061.000000;2.770672
3060.000000;2.654146
3059.000000;2.519744
3058.000000;2.552939
3057.000000;2.828848
3056.000000;2.772674
3055.000000;2.548939
3054.000000;2.750652
3053.000000;2.785594
3052.000000;2.541608
3051.000000;2.509263
3050.000000;2.704935
3049.000000;2.751102
3048.000000;2.506010
3047.000000;2.421141
3046.000000;2.429712
3045.000000;2.455761
3044.000000;2.484036
3043.000000;2.520612
3042.000000;2.526699
3041.000000;2.523407
3040.000000;2.640933
3039.000000;2.998051
3038.000000;3.314449
3037.000000;3.053331
3036.000000;3.076870
3035.000000;2.962377
3034.000000;2.762329
3033.000000;2.786443
3032.000000;2.840487
3031.000000;2.621445
3030.000000;2.473018
3029.000000;2.540164
3028.000000;2.651628
3027.000000;2.528309
3026.000000;2.492798
3025.000000;2.614416
3024.000000;2.759080
3023.000000;2.868679
3022.000000;2.896838
3021.000000;3.012605
3020.000000;2.975155
3019.000000;2.790855
3018.000000;2.667621
3017.000000;2.594731
3016.000000;2.627046
3015.000000;2.761875
3014.000000;2.804979
3013.000000;2.661040
3012.000000;2.549268
3011.000000;2.523938
3010.000000;2.585236
3009.000000;2.526253
3008.000000;2.365023
3007.000000;2.349714
3006.000000;2.511053
3005.000000;2.724185
3004.000000;2.691395
3003.000000;2.718748
3002.000000;3.127247
3001.000000;2.867919
3000.000000;2.472604
2999.000000;2.418925
2998.000000;2.563256
2997.000000;2.777945
2996.000000;2.612820
2995.000000;2.611308
2994.000000;2.871985
2993.000000;2.943139
2992.000000;3.130870
2991.000000;2.623780
2990.000000;2.422870
2989.000000;2.496212
2988.000000;2.640643
2987.000000;2.634255
2986.000000;2.591922
2985.000000;2.638515
2984.000000;2.790580
2983.000000;2.866314
2982.000000;2.736183
2981.000000;2.608323
2980.000000;2.520521
2979.000000;2.588370
2978.000000;2.717039
2977.000000;2.528427
2976.000000;2.348555
2975.000000;2.269138
2974.000000;2.220296
2973.000000;2.170505
2972.000000;2.103060
2971.000000;2.049854
2970.000000;2.047223
2969.000000;2.094305
2968.000000;2.176120
2967.000000;2.245397
2966.000000;2.246876
2965.000000;2.256340
2964.000000;2.419784
2963.000000;2.953672
2962.000000;2.858368
2961.000000;2.630092
2960.000000;2.654479
2959.000000;2.893591
2958.000000;2.808379
2957.000000;2.512073
2956.000000;2.436644
2955.000000;2.509328
2954.000000;2.772325
2953.000000;2.967655
2952.000000;2.674931
2951.000000;2.593960
2950.000000;2.930290
2949.000000;2.860520
2948.000000;2.405295
2947.000000;2.335608
2946.000000;2.389800
2945.000000;2.542024
2944.000000;2.525095
2943.000000;2.343231
2942.000000;2.281354
2941.000000;2.405373
2940.000000;3.009770
2939.000000;2.949516
2938.000000;2.750808
2937.000000;2.863352
2936.000000;2.806720
2935.000000;2.955566
2934.000000;3.142500
2933.000000;2.583723
2932.000000;2.305693
2931.000000;2.219846
2930.000000;2.232002
2929.000000;2.210859
2928.000000;2.119824
2927.000000;2.062542
2926.000000;2.086094
2925.000000;2.219169
2924.000000;2.356637
2923.000000;2.382161
2922.000000;2.478221
2921.000000;2.654376
2920.000000;2.934438
2919.000000;2.715501
2918.000000;2.399246
2917.000000;2.350256
2916.000000;2.512387
2915.000000;2.772708
2914.000000;2.631962
2913.000000;2.514772
2912.000000;2.504879
2911.000000;2.554768
2910.000000;2.464356
2909.000000;2.276779
2908.000000;2.231421
2907.000000;2.279575
2906.000000;2.298332
2905.000000;2.298677
2904.000000;2.363076
2903.000000;2.495105
2902.000000;2.591365
2901.000000;2.583781
2900.000000;2.559763
2899.000000;2.506804
2898.000000;2.424114
2897.000000;2.327170
2896.000000;2.191885
2895.000000;2.112911
2894.000000;2.204111
2893.000000;2.397258
2892.000000;2.409293
2891.000000;2.446301
2890.000000;2.562623
2889.000000;2.593217
2888.000000;2.546410
2887.000000;2.388693
2886.000000;2.310331
2885.000000;2.359904
2884.000000;2.449033
2883.000000;2.492155
2882.000000;2.506902
2881.000000;2.496666
2880.000000;2.465161
2879.000000;2.511680
2878.000000;2.604735
2877.000000;2.518116
2876.000000;2.429213
2875.000000;2.498907
2874.000000;2.640455
2873.000000;2.722125
2872.000000;2.953480
2871.000000;3.351500
2870.000000;3.323866
2869.000000;3.203412
2868.000000;2.929365
2867.000000;2.674411
2866.000000;2.521178
2865.000000;2.515771
2864.000000;2.772320
2863.000000;3.040825
2862.000000;2.705099
2861.000000;2.522600
2860.000000;2.440443
2859.000000;2.369252
2858.000000;2.326259
2857.000000;2.318839
2856.000000;2.347024
2855.000000;2.383871
2854.000000;2.416882
2853.000000;2.343144
2852.000000;2.211060
2851.000000;2.189979
2850.000000;2.335499
2849.000000;2.578073
2848.000000;2.711532
2847.000000;2.864271
2846.000000;3.000808
2845.000000;2.864732
2844.000000;2.792980
2843.000000;2.899547
2842.000000;2.693790
2841.000000;2.487277
2840.000000;2.564430
2839.000000;2.702326
2838.000000;2.588558
2837.000000;2.382418
2836.000000;2.268681
2835.000000;2.242369
2834.000000;2.286017
2833.000000;2.412007
2832.000000;2.715244
2831.000000;3.348326
2830.000000;2.833035
2829.000000;2.504066
2828.000000;2.339442
2827.000000;2.239555
2826.000000;2.250490
2825.000000;2.325581
2824.000000;2.336749
2823.000000;2.266144
2822.000000;2.205990
2821.000000;2.183924
2820.000000;2.202233
2819.000000;2.239516
2818.000000;2.260166
2817.000000;2.231343
2816.000000;2.160435
2815.000000;2.117385
2814.000000;2.151593
2813.000000;2.276954
2812.000000;2.527675
2811.000000;2.650394
2810.000000;2.454168
2809.000000;2.313896
2808.000000;2.202561
2807.000000;2.105013
2806.000000;2.058322
2805.000000;2.056467
2804.000000;2.067673
2803.000000;2.070205
2802.000000;2.066719
2801.000000;2.064580
2800.000000;2.092794
2799.000000;2.176073
2798.000000;2.317333
2797.000000;2.454529
2796.000000;2.453711
2795.000000;2.425587
2794.000000;2.490038
2793.000000;2.519748
2792.000000;2.382852
2791.000000;2.254016
2790.000000;2.198618
2789.000000;2.159327
2788.000000;2.116149
2787.000000;2.098981
2786.000000;2.120987
2785.000000;2.180460
2784.000000;2.265147
2783.000000;2.398330
2782.000000;2.662762
2781.000000;2.979716
2780.000000;2.920763
2779.000000;2.722333
2778.000000;2.589483
2777.000000;2.608059
2776.000000;2.851789
2775.000000;2.778780
2774.000000;2.494578
2773.000000;2.405672
2772.000000;2.387419
2771.000000;2.374081
2770.000000;2.379052
2769.000000;2.340188
2768.000000;2.300889
2767.000000;2.383899
2766.000000;2.816201
2765.000000;3.400244
2764.000000;2.868374
2763.000000;2.622802
2762.000000;2.355553
2761.000000;2.333809
2760.000000;2.390588
2759.000000;2.244448
2758.000000;2.155008
2757.000000;2.214584
2756.000000;2.531041
2755.000000;2.943343
2754.000000;2.573797
2753.000000;2.364665
2752.000000;2.377486
2751.000000;2.554416
2750.000000;2.500655
2749.000000;2.309098
2748.000000;2.327629
2747.000000;2.463277
2746.000000;2.389106
2745.000000;2.219920
2744.000000;2.162669
2743.000000;2.175189
2742.000000;2.196572
2741.000000;2.196347
2740.000000;2.179563
2739.000000;2.169125
2738.000000;2.207117
2737.000000;2.287004
2736.000000;2.337334
2735.000000;2.391303
2734.000000;2.399687
2733.000000;2.337396
2732.000000;2.340738
2731.000000;2.353407
2730.000000;2.354310
2729.000000;2.438973
2728.000000;2.484474
2727.000000;2.348559
2726.000000;2.231795
2725.000000;2.264472
2724.000000;2.418785
2723.000000;2.441809
2722.000000;2.409810
2721.000000;2.474198
2720.000000;2.416764
2719.000000;2.406776
2718.000000;2.610858
2717.000000;2.612088
2716.000000;2.414176
2715.000000;2.303137
2714.000000;2.273411
2713.000000;2.323955
2712.000000;2.288994
2711.000000;2.231250
2710.000000;2.339534
2709.000000;2.600643
2708.000000;2.747576
2707.000000;2.630883
2706.000000;2.456144
2705.000000;2.330774
2704.000000;2.295765
2703.000000;2.338996
2702.000000;2.450482
2701.000000;2.640604
2700.000000;2.867803
2699.000000;2.990332
2698.000000;2.964028
2697.000000;2.762429
2696.000000;2.633598
2695.000000;2.749331
2694.000000;2.808836
2693.000000;2.679115
2692.000000;2.715652
2691.000000;2.570818
2690.000000;2.327337
2689.000000;2.236279
2688.000000;2.302511
2687.000000;2.418845
2686.000000;2.359855
2685.000000;2.298359
2684.000000;2.342048
2683.000000;2.387707
2682.000000;2.352922
2681.000000;2.361000
2680.000000;2.474300
2679.000000;2.508653
2678.000000;2.400008
2677.000000;2.341275
2676.000000;2.395922
2675.000000;2.493038
2674.000000;2.487398
2673.000000;2.367399
2672.000000;2.270665
2671.000000;2.243331
2670.000000;2.257001
2669.000000;2.251039
2668.000000;2.187534
2667.000000;2.121698
2666.000000;2.137027
2665.000000;2.244288
2664.000000;2.301389
2663.000000;2.280700
2662.000000;2.326144
2661.000000;2.386724
2660.000000;2.384203
2659.000000;2.329179
2658.000000;2.209710
2657.000000;2.105934
2656.000000;2.082810
2655.000000;2.139620
2654.000000;2.225813
2653.000000;2.274543
2652.000000;2.278650
2651.000000;2.262068
2650.000000;2.265355
2649.000000;2.304028
2648.000000;2.307686
2647.000000;2.233204
2646.000000;2.150791
2645.000000;2.138530
2644.000000;2.183699
2643.000000;2.154887
2642.000000;2.065415
2641.000000;2.039842
2640.000000;2.094774
2639.000000;2.225649
2638.000000;2.301356
2637.000000;2.173172
2636.000000;2.078292
2635.000000;2.089844
2634.000000;2.126406
2633.000000;2.105644
2632.000000;2.043014
2631.000000;2.005850
2630.000000;2.010738
2629.000000;2.029847
2628.000000;2.050283
2627.000000;2.084899
2626.000000;2.132559
2625.000000;2.162069
2624.000000;2.127218
2623.000000;2.080301
2622.000000;2.097758
2621.000000;2.161770
2620.000000;2.161082
2619.000000;2.088660
2618.000000;2.045195
2617.000000;2.056473
2616.000000;2.088892
2615.000000;2.067223
2614.000000;2.001867
2613.000000;1.971847
2612.000000;1.992198
2611.000000;2.023261
2610.000000;2.033537
2609.000000;2.060230
2608.000000;2.171174
2607.000000;2.416112
2606.000000;2.576565
2605.000000;2.584716
2604.000000;2.827809
2603.000000;2.727435
2602.000000;2.546642
2601.000000;2.696318
2600.000000;2.831042
2599.000000;3.246480
2598.000000;3.077949
2597.000000;2.500020
2596.000000;2.419875
2595.000000;2.493201
2594.000000;2.472527
2593.000000;2.327248
2592.000000;2.269279
2591.000000;2.357926
2590.000000;2.483128
2589.000000;2.494121
2588.000000;2.422482
2587.000000;2.369970
2586.000000;2.344114
2585.000000;2.362895
2584.000000;2.429105
2583.000000;2.518335
2582.000000;2.546800
2581.000000;2.517310
2580.000000;2.460257
2579.000000;2.375541
2578.000000;2.297569
2577.000000;2.239531
2576.000000;2.231348
2575.000000;2.267409
2574.000000;2.268994
2573.000000;2.221543
2572.000000;2.202664
2571.000000;2.255188
2570.000000;2.348524
2569.000000;2.382813
2568.000000;2.357164
2567.000000;2.336405
2566.000000;2.346987
2565.000000;2.402711
2564.000000;2.567006
2563.000000;3.023291
2562.000000;3.327722
2561.000000;2.870124
2560.000000;2.690111
2559.000000;2.681702
2558.000000;2.496795
2557.000000;2.244216
2556.000000;2.159041
2555.000000;2.270903
2554.000000;2.530535
2553.000000;2.528295
2552.000000;2.384073
2551.000000;2.347075
2550.000000;2.343727
2549.000000;2.348885
2548.000000;2.386135
2547.000000;2.474035
2546.000000;2.648437
2545.000000;2.791939
2544.000000;2.611288
2543.000000;2.495561
2542.000000;2.471051
2541.000000;2.361586
2540.000000;2.247732
2539.000000;2.214839
2538.000000;2.238251
2537.000000;2.295469
2536.000000;2.354791
2535.000000;2.392393
2534.000000;2.406350
2533.000000;2.506485
2532.000000;2.903746
2531.000000;2.630217
2530.000000;2.552414
2529.000000;2.948649
2528.000000;2.527663
2527.000000;2.314971
2526.000000;2.482153
2525.000000;2.904355
2524.000000;2.666715
2523.000000;2.506310
2522.000000;2.542032
2521.000000;2.540097
2520.000000;2.458838
2519.000000;2.346974
2518.000000;2.348883
2517.000000;2.499810
2516.000000;2.582458
2515.000000;2.522775
2514.000000;2.612089
2513.000000;2.701984
2512.000000;2.515619
2511.000000;2.305710
2510.000000;2.207933
2509.000000;2.202846
2508.000000;2.250111
2507.000000;2.306770
2506.000000;2.311342
2505.000000;2.274386
2504.000000;2.283059
2503.000000;2.370298
2502.000000;2.437244
2501.000000;2.363654
2500.000000;2.273606
2499.000000;2.249826
2498.000000;2.208964
2497.000000;2.124380
2496.000000;2.108528
2495.000000;2.224549
2494.000000;2.493667
2493.000000;2.727892
2492.000000;2.467377
2491.000000;2.191374
2490.000000;2.092626
2489.000000;2.143514
2488.000000;2.318223
2487.000000;2.656063
2486.000000;2.945107
2485.000000;2.941301
2484.000000;2.898529
2483.000000;2.674819
2482.000000;2.644315
2481.000000;2.657468
2480.000000;2.554525
2479.000000;2.600385
2478.000000;2.722025
2477.000000;2.580027
2476.000000;2.382309
2475.000000;2.349295
2474.000000;2.486809
2473.000000;2.598919
2472.000000;2.505677
2471.000000;2.422660
2470.000000;2.426413
2469.000000;2.455138
2468.000000;2.383964
2467.000000;2.270479
2466.000000;2.235483
2465.000000;2.281330
2464.000000;2.349818
2463.000000;2.359779
2462.000000;2.441985
2461.000000;2.805085
2460.000000;3.060678
2459.000000;3.174471
2458.000000;2.769213
2457.000000;2.415798
2456.000000;2.392351
2455.000000;2.552606
2454.000000;2.863873
2453.000000;2.799975
2452.000000;2.485715
2451.000000;2.301863
2450.000000;2.217935
2449.000000;2.238679
2448.000000;2.363735
2447.000000;2.482648
2446.000000;2.510365
2445.000000;2.612533
2444.000000;2.677843
2443.000000;2.610148
2442.000000;2.575691
2441.000000;2.544740
2440.000000;2.492319
2439.000000;2.602262
2438.000000;3.035068
2437.000000;3.045238
2436.000000;3.019615
2435.000000;2.650678
2434.000000;2.305273
2433.000000;2.261514
2432.000000;2.343586
2431.000000;2.389995
2430.000000;2.331667
2429.000000;2.311963
2428.000000;2.425959
2427.000000;2.666604
2426.000000;2.731575
2425.000000;2.587653
2424.000000;2.649964
2423.000000;3.027363
2422.000000;2.754695
2421.000000;2.496643
2420.000000;2.448951
2419.000000;2.522768
2418.000000;2.722192
2417.000000;2.904386
2416.000000;2.859082
2415.000000;2.651875
2414.000000;2.496440
2413.000000;2.454466
2412.000000;2.509833
2411.000000;2.566179
2410.000000;2.517088
2409.000000;2.446966
2408.000000;2.475186
2407.000000;2.616320
2406.000000;2.726233
2405.000000;2.689480
2404.000000;2.559674
2403.000000;2.463241
2402.000000;2.471251
2401.000000;2.538444
2400.000000;2.562100
2399.000000;2.491405
2398.000000;2.448156
2397.000000;2.482125
2396.000000;2.435837
2395.000000;2.380118
2394.000000;2.514703
2393.000000;2.875523
2392.000000;2.880396
2391.000000;2.621531
2390.000000;2.484436
2389.000000;2.518391
2388.000000;2.604849
2387.000000;2.482660
2386.000000;2.363010
2385.000000;2.298528
2384.000000;2.225174
2383.000000;2.159685
2382.000000;2.161639
2381.000000;2.270766
2380.000000;2.450326
2379.000000;2.379803
2378.000000;2.273707
2377.000000;2.591123
2376.000000;2.376459
2375.000000;1.960822
2374.000000;1.899343
2373.000000;2.016508
2372.000000;2.197615
2371.000000;2.197394
2370.000000;2.073922
2369.000000;1.991126
2368.000000;2.095630
2367.000000;2.598147
2366.000000;2.510181
2365.000000;2.675967
2364.000000;2.736852
2363.000000;2.680327
2362.000000;2.471225
2361.000000;2.347306
2360.000000;2.334255
2359.000000;2.400760
2358.000000;2.496505
2357.000000;2.556263
2356.000000;2.536232
2355.000000;2.496562
2354.000000;2.505569
2353.000000;2.526120
2352.000000;2.582515
2351.000000;3.211746
2350.000000;3.056486
2349.000000;2.798893
2348.000000;3.452533
2347.000000;3.199880
2346.000000;3.197347
2345.000000;2.724165
2344.000000;2.561917
2343.000000;2.733518
2342.000000;2.714578
2341.000000;2.726469
2340.000000;2.668047
2339.000000;2.601264
2338.000000;2.188218
2337.000000;1.796470
2336.000000;1.833000
2335.000000;1.832893
2334.000000;1.811171
2333.000000;1.812754
2332.000000;1.890153
2331.000000;1.963714
2330.000000;1.920125
2329.000000;1.866055
2328.000000;1.935898
2327.000000;2.251549
2326.000000;2.883282
2325.000000;3.020100
2324.000000;2.606469
2323.000000;2.315831
2322.000000;2.131209
2321.000000;2.028691
2320.000000;1.980480
2319.000000;1.948179
2318.000000;1.937578
2317.000000;1.960421
2316.000000;2.025811
2315.000000;2.101759
2314.000000;2.123268
2313.000000;2.120355
2312.000000;2.125788
2311.000000;2.175901
2310.000000;2.197132
2309.000000;2.126108
2308.000000;2.086031
2307.000000;2.145436
2306.000000;2.305192
2305.000000;2.435391
2304.000000;2.401971
2303.000000;2.389748
2302.000000;2.429626
2301.000000;2.479550
2300.000000;2.484344
2299.000000;2.505343
2298.000000;2.597481
2297.000000;2.774512
2296.000000;2.733767
2295.000000;2.543938
2294.000000;2.516185
2293.000000;2.625224
2292.000000;2.713023
2291.000000;2.663860
2290.000000;2.611461
2289.000000;2.547646
2288.000000;2.409171
2287.000000;2.374597
2286.000000;2.561110
2285.000000;3.090274
2284.000000;2.871809
2283.000000;2.730465
2282.000000;2.809454
2281.000000;2.865246
2280.000000;2.770592
2279.000000;2.873756
2278.000000;3.017665
2277.000000;2.863098
2276.000000;3.086361
2275.000000;3.196365
2274.000000;2.696449
2273.000000;2.434050
2272.000000;2.353435
2271.000000;2.534628
2270.000000;2.736507
2269.000000;2.461056
2268.000000;2.324368
2267.000000;2.344277
2266.000000;2.376864
2265.000000;2.285661
2264.000000;2.187665
2263.000000;2.174150
2262.000000;2.211679
2261.000000;2.244030
2260.000000;2.274584
2259.000000;2.336008
2258.000000;2.396221
2257.000000;2.397406
2256.000000;2.340638
2255.000000;2.293320
2254.000000;2.298029
2253.000000;2.323603
2252.000000;2.354798
2251.000000;2.420638
2250.000000;2.492172
2249.000000;2.518246
2248.000000;2.524571
2247.000000;2.455286
2246.000000;2.417339
2245.000000;2.403252
2244.000000;2.315091
2243.000000;2.306596
2242.000000;2.437814
2241.000000;2.556419
2240.000000;2.420165
2239.000000;2.238846
2238.000000;2.136802
2237.000000;2.136531
2236.000000;2.269551
2235.000000;2.443025
2234.000000;2.381040
2233.000000;2.364490
2232.000000;2.497811
2231.000000;2.697397
2230.000000;2.596498
2229.000000;2.462022
2228.000000;2.563857
2227.000000;2.739337
2226.000000;2.496716
2225.000000;2.554463
2224.000000;2.698328
2223.000000;2.404859
2222.000000;2.285096
2221.000000;2.343086
2220.000000;2.523030
2219.000000;2.717964
2218.000000;2.717603
2217.000000;2.591256
2216.000000;2.551211
2215.000000;2.662212
2214.000000;2.887987
2213.000000;3.052679
2212.000000;2.958721
2211.000000;2.729898
2210.000000;2.541869
2209.000000;2.445363
2208.000000;2.469542
2207.000000;2.520893
2206.000000;2.307122
2205.000000;2.175165
2204.000000;2.183919
2203.000000;2.264000
2202.000000;2.320949
2201.000000;2.315770
2200.000000;2.301894
2199.000000;2.347006
2198.000000;2.482278
2197.000000;2.646216
2196.000000;2.662040
2195.000000;2.504791
2194.000000;2.364206
2193.000000;2.319591
2192.000000;2.380324
2191.000000;2.514518
2190.000000;2.843537
2189.000000;2.754203
2188.000000;2.396184
2187.000000;2.309687
2186.000000;2.447585
2185.000000;2.800437
2184.000000;2.731084
2183.000000;2.728110
2182.000000;2.778946
2181.000000;2.813393
2180.000000;2.625920
2179.000000;2.420095
2178.000000;2.453024
2177.000000;2.823355
2176.000000;3.270482
2175.000000;2.706878
2174.000000;2.547950
2173.000000;2.660726
2172.000000;3.143705
2171.000000;2.533692
2170.000000;2.346943
2169.000000;2.376845
2168.000000;2.709169
2167.000000;3.011039
2166.000000;2.781620
2165.000000;2.707218
2164.000000;2.507637
2163.000000;2.478509
2162.000000;2.713013
2161.000000;2.718707
2160.000000;2.608871
2159.000000;2.753971
2158.000000;2.610935
2157.000000;2.484351
2156.000000;2.607988
2155.000000;2.646215
2154.000000;2.414827
2153.000000;2.350942
2152.000000;2.475946
2151.000000;2.829026
2150.000000;2.904737
2149.000000;2.689117
2148.000000;2.813131
2147.000000;3.247624
2146.000000;3.020345
2145.000000;3.235411
2144.000000;2.963977
2143.000000;2.839172
2142.000000;3.053667
2141.000000;3.016705
2140.000000;2.954243
2139.000000;2.787754
2138.000000;2.532029
2137.000000;2.391733
2136.000000;2.357337
2135.000000;2.304912
2134.000000;2.215542
2133.000000;2.179401
2132.000000;2.224837
2131.000000;2.328631
2130.000000;2.401271
2129.000000;2.435607
2128.000000;2.344204
2127.000000;2.257086
2126.000000;2.332051
2125.000000;2.602393
2124.000000;2.770927
2123.000000;2.595180
2122.000000;2.551732
2121.000000;2.662855
2120.000000;2.837851
2119.000000;2.807318
2118.000000;2.733490
2117.000000;2.888992
2116.000000;3.120202
2115.000000;2.665599
2114.000000;2.505447
2113.000000;2.467400
2112.000000;2.447218
2111.000000;2.392608
2110.000000;2.321245
2109.000000;2.281749
2108.000000;2.337157
2107.000000;2.578702
2106.000000;2.579332
2105.000000;2.404190
2104.000000;2.355627
2103.000000;2.403540
2102.000000;2.564420
2101.000000;2.500600
2100.000000;2.348114
2099.000000;2.323170
2098.000000;2.347516
2097.000000;2.371635
2096.000000;2.463745
2095.000000;2.539627
2094.000000;2.492729
2093.000000;2.457477
2092.000000;2.427831
2091.000000;2.382988
2090.000000;2.296673
2089.000000;2.221697
2088.000000;2.235668
2087.000000;2.351937
2086.000000;2.510095
2085.000000;2.491648
2084.000000;2.327065
2083.000000;2.240776
2082.000000;2.270115
2081.000000;2.392634
2080.000000;2.534274
2079.000000;2.517314
2078.000000;2.447370
2077.000000;2.490206
2076.000000;2.589157
2075.000000;2.523531
2074.000000;2.453837
2073.000000;2.538694
2072.000000;2.690952
2071.000000;2.630166
2070.000000;2.644697
2069.000000;2.781442
2068.000000;3.308545
2067.000000;2.626353
2066.000000;2.416915
2065.000000;2.453344
2064.000000;2.599554
2063.000000;2.521857
2062.000000;2.310343
2061.000000;2.236444
2060.000000;2.308232
2059.000000;2.552081
2058.000000;3.017096
2057.000000;3.476319
2056.000000;2.895629
2055.000000;2.629715
2054.000000;2.608243
2053.000000;2.609873
2052.000000;2.522148
2051.000000;2.407571
2050.000000;2.293272
2049.000000;2.191077
2048.000000;2.133467
2047.000000;2.127203
2046.000000;2.130526
2045.000000;2.092638
2044.000000;2.076847
2043.000000;2.164958
2042.000000;2.374704
2041.000000;2.534009
2040.000000;2.530912
2039.000000;2.597018
2038.000000;2.808287
2037.000000;2.913910
2036.000000;2.684992
2035.000000;2.727772
2034.000000;3.218642
2033.000000;3.418140
2032.000000;2.867392
2031.000000;2.735375
2030.000000;2.786682
2029.000000;3.037370
2028.000000;2.945440
2027.000000;2.671996
2026.000000;2.501918
2025.000000;2.419019
2024.000000;2.411191
2023.000000;2.401633
2022.000000;2.326009
2021.000000;2.306375
2020.000000;2.291322
2019.000000;2.203895
2018.000000;2.178048
2017.000000;2.207543
2016.000000;2.232294
2015.000000;2.306800
2014.000000;2.457331
2013.000000;2.625700
2012.000000;2.774235
2011.000000;2.926379
2010.000000;3.059532
2009.000000;2.910758
2008.000000;2.713635
2007.000000;2.729932
2006.000000;2.823775
2005.000000;2.690777
2004.000000;2.566354
2003.000000;2.505147
2002.000000;2.316199
2001.000000;2.143910
2000.000000;2.089184
1999.000000;2.101007
1998.000000;2.090672
1997.000000;2.066342
1996.000000;2.103293
1995.000000;2.233458
1994.000000;2.297896
1993.000000;2.228244
1992.000000;2.217850
1991.000000;2.252244
1990.000000;2.264675
1989.000000;2.271565
1988.000000;2.328718
1987.000000;2.466056
1986.000000;2.638673
1985.000000;2.631702
1984.000000;2.545467
1983.000000;2.466508
1982.000000;2.397157
1981.000000;2.513623
1980.000000;2.924951
1979.000000;3.356932
1978.000000;2.964521
1977.000000;2.824719
1976.000000;2.780656
1975.000000;2.470710
1974.000000;2.276406
1973.000000;2.191941
1972.000000;2.187641
1971.000000;2.261307
1970.000000;2.268939
1969.000000;2.253645
1968.000000;2.292443
1967.000000;2.294244
1966.000000;2.268828
1965.000000;2.241886
1964.000000;2.212441
1963.000000;2.217860
1962.000000;2.245885
1961.000000;2.255887
1960.000000;2.283437
1959.000000;2.351613
1958.000000;2.397457
1957.000000;2.339441
1956.000000;2.248320
1955.000000;2.224826
1954.000000;2.240829
1953.000000;2.272793
1952.000000;2.373806
1951.000000;2.452265
1950.000000;2.387475
1949.000000;2.378087
1948.000000;2.551049
1947.000000;2.747925
1946.000000;2.682029
1945.000000;2.662425
1944.000000;2.612025
1943.000000;2.508081
1942.000000;2.449170
1941.000000;2.379186
1940.000000;2.331263
1939.000000;2.397137
1938.000000;2.625263
1937.000000;2.723418
1936.000000;2.669730
1935.000000;2.599429
1934.000000;2.392018
1933.000000;2.281390
1932.000000;2.326119
1931.000000;2.461203
1930.000000;2.385497
1929.000000;2.279530
1928.000000;2.317446
1927.000000;2.423220
1926.000000;2.420604
1925.000000;2.248919
1924.000000;2.163182
1923.000000;2.248944
1922.000000;2.538245
1921.000000;3.209023
1920.000000;3.684603
1919.000000;3.266113
1918.000000;2.891057
1917.000000;2.683653
1916.000000;2.624461
1915.000000;2.634992
1914.000000;2.744069
1913.000000;2.966075
1912.000000;2.882228
1911.000000;2.613078
1910.000000;2.486644
1909.000000;2.454192
1908.000000;2.488082
1907.000000;2.665529
1906.000000;3.093557
1905.000000;3.169708
1904.000000;2.836001
1903.000000;2.553385
1902.000000;2.353909
1901.000000;2.338707
1900.000000;2.529967
1899.000000;2.734145
1898.000000;2.624338
1897.000000;2.419022
1896.000000;2.277887
1895.000000;2.273734
1894.000000;2.356486
1893.000000;2.404665
1892.000000;2.388695
1891.000000;2.391655
1890.000000;2.492900
1889.000000;3.000158
1888.000000;2.843651
1887.000000;2.421080
1886.000000;2.304710
1885.000000;2.339675
1884.000000;2.536447
1883.000000;2.809429
1882.000000;2.704212
1881.000000;2.504922
1880.000000;2.418661
1879.000000;2.485482
1878.000000;2.617200
1877.000000;2.609736
1876.000000;2.610725
1875.000000;2.601013
1874.000000;2.407367
1873.000000;2.199603
1872.000000;2.109537
1871.000000;2.150981
1870.000000;2.283644
1869.000000;2.361412
1868.000000;2.358720
1867.000000;2.399480
1866.000000;2.520511
1865.000000;2.706057
1864.000000;2.833444
1863.000000;2.743223
1862.000000;2.504456
1861.000000;2.368507
1860.000000;2.386216
1859.000000;2.506254
1858.000000;2.562454
1857.000000;2.487213
1856.000000;2.438839
1855.000000;2.591156
1854.000000;2.877390
1853.000000;2.633731
1852.000000;2.538598
1851.000000;2.527131
1850.000000;2.488520
1849.000000;2.726922
1848.000000;3.249484
1847.000000;2.895913
1846.000000;2.982112
1845.000000;3.351005
1844.000000;3.350452
1843.000000;2.831324
1842.000000;2.468827
1841.000000;2.405341
1840.000000;2.707942
1839.000000;2.958873
1838.000000;2.584261
1837.000000;2.529905
1836.000000;2.492291
1835.000000;2.349875
1834.000000;2.294446
1833.000000;2.344410
1832.000000;2.445011
1831.000000;2.520713
1830.000000;2.557452
1829.000000;2.653781
1828.000000;2.711840
1827.000000;2.507497
1826.000000;2.443330
1825.000000;2.489504
1824.000000;2.468471
1823.000000;2.493859
1822.000000;2.696964
1821.000000;2.909320
1820.000000;2.654531
1819.000000;2.452607
1818.000000;2.360388
1817.000000;2.312818
1816.000000;2.325672
1815.000000;2.310816
1814.000000;2.194002
1813.000000;2.136263
1812.000000;2.228369
1811.000000;2.414663
1810.000000;2.486797
1809.000000;2.384028
1808.000000;2.303667
1807.000000;2.347773
1806.000000;2.475593
1805.000000;2.573516
1804.000000;2.630035
1803.000000;2.561023
1802.000000;2.497442
1801.000000;2.654905
1800.000000;2.898607
1799.000000;2.748910
1798.000000;2.621886
1797.000000;2.494340
1796.000000;2.398029
1795.000000;2.358991
1794.000000;2.296869
1793.000000;2.169927
1792.000000;2.055547
1791.000000;2.018356
1790.000000;2.040328
1789.000000;2.088109
1788.000000;2.169528
1787.000000;2.317748
1786.000000;2.464779
1785.000000;2.480078
1784.000000;2.444628
1783.000000;2.420107
1782.000000;2.394983
1781.000000;2.416558
1780.000000;2.525396
1779.000000;2.715796
1778.000000;2.915545
1777.000000;2.818079
1776.000000;2.578839
1775.000000;2.442164
1774.000000;2.395272
1773.000000;2.450704
1772.000000;2.597466
1771.000000;2.796379
1770.000000;2.866885
1769.000000;2.532851
1768.000000;2.315846
1767.000000;2.302507
1766.000000;2.437218
1765.000000;2.658695
1764.000000;3.015853
1763.000000;2.788777
1762.000000;2.380432
1761.000000;2.273912
1760.000000;2.378398
1759.000000;2.586391
1758.000000;2.567927
1757.000000;2.481222
1756.000000;2.457662
1755.000000;2.468944
1754.000000;2.566305
1753.000000;2.680385
1752.000000;2.637608
1751.000000;2.423551
1750.000000;2.235180
1749.000000;2.153711
1748.000000;2.168724
1747.000000;2.239732
1746.000000;2.326223
1745.000000;2.413184
1744.000000;2.518925
1743.000000;2.585300
1742.000000;2.555951
1741.000000;2.522576
1740.000000;2.616748
1739.000000;2.962541
1738.000000;2.836444
1737.000000;2.521934
1736.000000;2.445161
1735.000000;2.438747
1734.000000;2.475074
1733.000000;2.454937
1732.000000;2.366694
1731.000000;2.341283
1730.000000;2.466539
1729.000000;2.880354
1728.000000;3.483272
1727.000000;2.753083
1726.000000;2.326387
1725.000000;2.209182
1724.000000;2.281407
1723.000000;2.279663
1722.000000;2.221001
1721.000000;2.275029
1720.000000;2.346012
1719.000000;2.423290
1718.000000;2.454426
1717.000000;2.669019
1716.000000;3.110541
1715.000000;2.491071
1714.000000;2.300319
1713.000000;2.333994
1712.000000;2.355587
1711.000000;2.287123
1710.000000;2.223146
1709.000000;2.288455
1708.000000;2.452337
1707.000000;2.397803
1706.000000;2.243122
1705.000000;2.244971
1704.000000;2.339425
1703.000000;2.414759
1702.000000;2.390079
1701.000000;2.350608
1700.000000;2.424907
1699.000000;2.642337
1698.000000;2.792811
1697.000000;2.723689
1696.000000;2.809722
1695.000000;3.143938
1694.000000;3.149986
1693.000000;2.799713
1692.000000;2.518997
1691.000000;2.347920
1690.000000;2.260880
1689.000000;2.247941
1688.000000;2.301814
1687.000000;2.378252
1686.000000;2.435939
1685.000000;2.524749
1684.000000;2.474721
1683.000000;2.240237
1682.000000;2.143664
1681.000000;2.190403
1680.000000;2.309024
1679.000000;2.467570
1678.000000;2.605749
1677.000000;2.741906
1676.000000;2.842006
1675.000000;2.907681
1674.000000;2.759550
1673.000000;2.537967
1672.000000;2.412227
1671.000000;2.234671
1670.000000;2.096309
1669.000000;2.085387
1668.000000;2.153493
1667.000000;2.221983
1666.000000;2.293613
1665.000000;2.385945
1664.000000;2.425060
1663.000000;2.385308
1662.000000;2.316933
1661.000000;2.288586
1660.000000;2.281870
1659.000000;2.283609
1658.000000;2.279978
1657.000000;2.281712
1656.000000;2.316173
1655.000000;2.402343
1654.000000;2.895474
1653.000000;2.949866
1652.000000;2.471327
1651.000000;2.438677
1650.000000;2.472194
1649.000000;2.537994
1648.000000;2.521906
1647.000000;2.429855
1646.000000;2.465489
1645.000000;2.708008
1644.000000;2.919238
1643.000000;2.872627
1642.000000;2.840695
1641.000000;2.660804
1640.000000;2.540491
1639.000000;2.502843
1638.000000;2.494039
1637.000000;2.458113
1636.000000;2.337998
1635.000000;2.242602
1634.000000;2.235685
1633.000000;2.292013
1632.000000;2.339127
1631.000000;2.348886
1630.000000;2.360204
1629.000000;2.369028
1628.000000;2.388516
1627.000000;2.420394
1626.000000;2.474448
1625.000000;2.503767
1624.000000;2.493065
1623.000000;2.688237
1622.000000;2.773922
1621.000000;2.516111
1620.000000;2.448983
1619.000000;2.478054
1618.000000;2.522510
1617.000000;2.829255
1616.000000;2.934243
1615.000000;2.496026
1614.000000;2.434429
1613.000000;2.806364
1612.000000;3.334140
1611.000000;3.189160
1610.000000;3.430596
1609.000000;2.839151
1608.000000;2.745639
1607.000000;3.044416
1606.000000;3.332529
1605.000000;3.621568
1604.000000;3.154416
1603.000000;2.711243
1602.000000;2.599447
1601.000000;2.621165
1600.000000;2.582430
1599.000000;2.514249
1598.000000;2.461459
1597.000000;2.465170
1596.000000;2.640603
1595.000000;2.898394
1594.000000;2.957095
1593.000000;2.865498
1592.000000;2.425965
1591.000000;2.210175
1590.000000;2.227915
1589.000000;2.308526
1588.000000;2.253369
1587.000000;2.191530
1586.000000;2.226070
1585.000000;2.334990
1584.000000;2.576863
1583.000000;3.105248
1582.000000;3.361474
1581.000000;2.677744
1580.000000;2.376625
1579.000000;2.276265
1578.000000;2.312038
1577.000000;2.455036
1576.000000;2.663344
1575.000000;3.164087
1574.000000;3.462247
1573.000000;3.082369
1572.000000;3.169986
1571.000000;2.881609
1570.000000;2.684099
1569.000000;2.632254
1568.000000;2.736276
1567.000000;2.951221
1566.000000;2.757619
1565.000000;2.852120
1564.000000;3.054771
1563.000000;2.867169
1562.000000;2.896522
1561.000000;3.084078
1560.000000;3.382288
1559.000000;2.793979
1558.000000;2.453741
1557.000000;2.382009
1556.000000;2.409109
1555.000000;2.408795
1554.000000;2.409126
1553.000000;2.435085
1552.000000;2.436256
1551.000000;2.515141
1550.000000;2.492485
1549.000000;2.349259
1548.000000;2.318479
1547.000000;2.394302
1546.000000;2.458802
1545.000000;2.380853
1544.000000;2.339872
1543.000000;2.426371
1542.000000;2.541888
1541.000000;2.461485
1540.000000;2.418461
1539.000000;2.602487
1538.000000;2.562863
1537.000000;2.418595
1536.000000;2.523858
1535.000000;2.918972
1534.000000;2.808066
1533.000000;2.467117
1532.000000;2.436498
1531.000000;2.786065
1530.000000;3.457754
1529.000000;2.737138
1528.000000;2.446449
1527.000000;2.346737
1526.000000;2.480506
1525.000000;2.937738
1524.000000;3.409425
1523.000000;2.769886
1522.000000;2.407254
1521.000000;2.328790
1520.000000;2.302171
1519.000000;2.238759
1518.000000;2.203664
1517.000000;2.292903
1516.000000;2.554979
1515.000000;2.617653
1514.000000;2.373629
1513.000000;2.153028
1512.000000;2.030297
1511.000000;2.044104
1510.000000;2.117873
1509.000000;2.120611
1508.000000;2.092223
1507.000000;2.106014
1506.000000;2.153176
1505.000000;2.229431
1504.000000;2.357683
1503.000000;2.585500
1502.000000;3.080220
1501.000000;3.163616
1500.000000;2.721225
1499.000000;2.621694
1498.000000;2.600462
1497.000000;2.740816
1496.000000;2.893065
1495.000000;2.764872
1494.000000;2.947721
1493.000000;2.787394
1492.000000;2.333900
1491.000000;2.150476
1490.000000;2.175170
1489.000000;2.290192
1488.000000;2.324313
1487.000000;2.341463
1486.000000;2.339439
1485.000000;2.297665
1484.000000;2.335858
1483.000000;2.459364
1482.000000;2.655792
1481.000000;2.844394
1480.000000;2.576321
1479.000000;2.312109
1478.000000;2.261036
1477.000000;2.367181
1476.000000;2.516433
1475.000000;2.525619
1474.000000;2.352484
1473.000000;2.198457
1472.000000;2.166016
1471.000000;2.270840
1470.000000;2.469609
1469.000000;2.501655
1468.000000;2.470971
1467.000000;2.517922
1466.000000;2.412254
1465.000000;2.316216
1464.000000;2.314091
1463.000000;2.320261
1462.000000;2.289872
1461.000000;2.265559
1460.000000;2.270011
1459.000000;2.352384
1458.000000;2.626724
1457.000000;2.563911
1456.000000;2.366131
1455.000000;2.549199
1454.000000;3.394841
1453.000000;3.204304
1452.000000;2.430571
1451.000000;2.112801
1450.000000;2.016640
1449.000000;2.063767
1448.000000;2.295070
1447.000000;2.701593
1446.000000;2.498289
1445.000000;2.441730
1444.000000;2.860064
1443.000000;2.871041
1442.000000;2.793147
1441.000000;2.770248
1440.000000;2.496417
1439.000000;2.595998
1438.000000;2.524133
1437.000000;2.229282
1436.000000;2.130271
1435.000000;2.120615
1434.000000;2.207409
1433.000000;2.385074
1432.000000;2.220601
1431.000000;2.034768
1430.000000;2.054813
1429.000000;2.332594
1428.000000;2.648533
1427.000000;2.329755
1426.000000;2.243843
1425.000000;2.382643
1424.000000;2.579439
1423.000000;2.655962
1422.000000;2.609906
1421.000000;2.324093
1420.000000;2.109764
1419.000000;2.069630
1418.000000;2.135181
1417.000000;2.195957
1416.000000;2.188208
1415.000000;2.211391
1414.000000;2.270359
1413.000000;2.295800
1412.000000;2.320309
1411.000000;2.392472
1410.000000;2.508428
1409.000000;2.608865
1408.000000;2.617011
1407.000000;2.501058
1406.000000;2.323237
1405.000000;2.221377
1404.000000;2.222078
1403.000000;2.263386
1402.000000;2.283297
1401.000000;2.268974
1400.000000;2.309887
1399.000000;2.394250
1398.000000;2.281231
1397.000000;2.148392
1396.000000;2.142475
1395.000000;2.214586
1394.000000;2.288286
1393.000000;2.607089
1392.000000;2.872723
1391.000000;2.345517
1390.000000;2.182408
1389.000000;2.089669
1388.000000;2.051663
1387.000000;2.062712
1386.000000;2.085345
1385.000000;2.137508
1384.000000;2.194510
1383.000000;2.265606
1382.000000;2.311656
1381.000000;2.271469
1380.000000;2.184262
1379.000000;2.081424
1378.000000;2.005281
1377.000000;2.015278
1376.000000;2.162865
1375.000000;2.359246
1374.000000;2.322216
1373.000000;2.256782
1372.000000;2.195192
1371.000000;2.163032
1370.000000;2.237223
1369.000000;2.332382
1368.000000;2.301156
1367.000000;2.229894
1366.000000;2.257297
1365.000000;2.351557
1364.000000;2.471750
1363.000000;2.747564
1362.000000;2.635587
1361.000000;2.210563
1360.000000;1.996321
1359.000000;1.922394
1358.000000;1.938984
1357.000000;2.006724
1356.000000;2.149045
1355.000000;2.353864
1354.000000;2.316817
1353.000000;2.228132
1352.000000;2.301340
1351.000000;2.429843
1350.000000;2.500918
1349.000000;2.568467
1348.000000;2.636938
1347.000000;2.558894
1346.000000;2.662854
1345.000000;2.880598
1344.000000;2.368782
1343.000000;2.172500
1342.000000;2.194451
1341.000000;2.335167
1340.000000;2.464659
1339.000000;2.663007
1338.000000;2.830350
1337.000000;2.771670
1336.000000;2.983888
1335.000000;2.694651
1334.000000;2.532866
1333.000000;2.886823
1332.000000;3.246321
1331.000000;3.420124
1330.000000;2.936625
1329.000000;2.456630
1328.000000;2.401604
1327.000000;2.635456
1326.000000;2.790627
1325.000000;2.346861
1324.000000;2.125889
1323.000000;2.093423
1322.000000;2.165522
1321.000000;2.229217
1320.000000;2.217049
1319.000000;2.254407
1318.000000;2.328970
1317.000000;2.422536
1316.000000;2.627462
1315.000000;2.486761
1314.000000;2.258656
1313.000000;2.329385
1312.000000;2.616959
1311.000000;2.579294
1310.000000;2.648839
1309.000000;3.122927
1308.000000;3.126080
1307.000000;2.944230
1306.000000;2.869173
1305.000000;3.204823
1304.000000;2.915145
1303.000000;2.553349
1302.000000;2.543856
1301.000000;2.601618
1300.000000;2.458713
1299.000000;2.306177
1298.000000;2.306566
1297.000000;2.431720
1296.000000;2.505947
1295.000000;2.341913
1294.000000;2.234075
1293.000000;2.319458
1292.000000;2.727447
1291.000000;2.815878
1290.000000;2.341270
1289.000000;2.212180
1288.000000;2.261120
1287.000000;2.389124
1286.000000;2.450969
1285.000000;2.498495
1284.000000;2.694688
1283.000000;3.130719
1282.000000;3.468675
1281.000000;3.002786
1280.000000;2.590569
1279.000000;2.459420
1278.000000;2.547393
1277.000000;2.739972
1276.000000;3.196669
1275.000000;2.760333
1274.000000;2.380079
1273.000000;2.218635
1272.000000;2.120169
1271.000000;2.140041
1270.000000;2.300117
1269.000000;2.356230
1268.000000;2.242026
1267.000000;2.255976
1266.000000;2.406801
1265.000000;2.502355
1264.000000;2.457012
1263.000000;2.485779
1262.000000;2.468837
1261.000000;2.345221
1260.000000;2.259562
1259.000000;2.147879
1258.000000;2.027523
1257.000000;1.983971
1256.000000;2.052721
1255.000000;2.162320
1254.000000;2.228514
1253.000000;2.325690
1252.000000;2.340738
1251.000000;2.175181
1250.000000;2.023051
1249.000000;1.953402
1248.000000;1.960871
1247.000000;2.022913
1246.000000;2.103613
1245.000000;2.166757
1244.000000;2.234001
1243.000000;2.381930
1242.000000;2.525457
1241.000000;2.313090
1240.000000;2.155662
1239.000000;2.174789
1238.000000;2.345755
1237.000000;2.480277
1236.000000;2.663258
1235.000000;3.191971
1234.000000;2.456267
1233.000000;2.342853
1232.000000;2.499892
1231.000000;2.535958
1230.000000;2.285824
1229.000000;2.200834
1228.000000;2.163301
1227.000000;2.153487
1226.000000;2.151962
1225.000000;2.132899
1224.000000;2.129278
1223.000000;2.155016
1222.000000;2.190978
1221.000000;2.264086
1220.000000;2.412175
1219.000000;2.593769
1218.000000;2.534838
1217.000000;2.361094
1216.000000;2.272384
1215.000000;2.216480
1214.000000;2.158536
1213.000000;2.144429
1212.000000;2.198739
1211.000000;2.214107
1210.000000;2.180141
1209.000000;2.230855
1208.000000;2.390539
1207.000000;2.519401
1206.000000;2.409218
1205.000000;2.265513
1204.000000;2.215815
1203.000000;2.316252
1202.000000;2.458539
1201.000000;2.306590
1200.000000;2.212662
