Criado como novo conjunto de dados;"1909daniel.spp","-4228901.8 Secs"
cm-1;Abs
10000.000000;1.502793
9999.000000;1.503350
9998.000000;1.504010
9997.000000;1.503381
9996.000000;1.501289
9995.000000;1.498981
9994.000000;1.497834
9993.000000;1.498516
9992.000000;1.500349
9991.000000;1.501986
9990.000000;1.502520
9989.000000;1.502050
9988.000000;1.501050
9987.000000;1.499722
9986.000000;1.498102
9985.000000;1.496369
9984.000000;1.494757
9983.000000;1.493446
9982.000000;1.492748
9981.000000;1.492962
9980.000000;1.493759
9979.000000;1.494131
9978.000000;1.493469
9977.000000;1.492390
9976.000000;1.491894
9975.000000;1.491949
9974.000000;1.491595
9973.000000;1.490394
9972.000000;1.489080
9971.000000;1.488597
9970.000000;1.489016
9969.000000;1.489588
9968.000000;1.489478
9967.000000;1.488331
9966.000000;1.486532
9965.000000;1.485061
9964.000000;1.484688
9963.000000;1.485153
9962.000000;1.485488
9961.000000;1.485250
9960.000000;1.484867
9959.000000;1.484589
9958.000000;1.483812
9957.000000;1.481946
9956.000000;1.479433
9955.000000;1.477287
9954.000000;1.475951
9953.000000;1.475214
9952.000000;1.474950
9951.000000;1.475282
9950.000000;1.476066
9949.000000;1.476775
9948.000000;1.476959
9947.000000;1.476488
9946.000000;1.475408
9945.000000;1.473941
9944.000000;1.472613
9943.000000;1.471846
9942.000000;1.471330
9941.000000;1.470241
9940.000000;1.468314
9939.000000;1.466363
9938.000000;1.465552
9937.000000;1.466310
9936.000000;1.468023
9935.000000;1.469468
9934.000000;1.469528
9933.000000;1.467869
9932.000000;1.465286
9931.000000;1.463225
9930.000000;1.462685
9929.000000;1.463453
9928.000000;1.464368
9927.000000;1.464335
9926.000000;1.463278
9925.000000;1.462129
9924.000000;1.461724
9923.000000;1.461705
9922.000000;1.460834
9921.000000;1.458554
9920.000000;1.455835
9919.000000;1.454029
9918.000000;1.453339
9917.000000;1.452997
9916.000000;1.452642
9915.000000;1.452631
9914.000000;1.452951
9913.000000;1.452784
9912.000000;1.451609
9911.000000;1.449937
9910.000000;1.448480
9909.000000;1.447239
9908.000000;1.445961
9907.000000;1.444884
9906.000000;1.444358
9905.000000;1.444134
9904.000000;1.443673
9903.000000;1.442853
9902.000000;1.441843
9901.000000;1.440635
9900.000000;1.439377
9899.000000;1.438829
9898.000000;1.439640
9897.000000;1.441285
9896.000000;1.442449
9895.000000;1.442415
9894.000000;1.441373
9893.000000;1.439582
9892.000000;1.437290
9891.000000;1.435556
9890.000000;1.435846
9889.000000;1.438083
9888.000000;1.439983
9887.000000;1.439324
9886.000000;1.436498
9885.000000;1.433826
9884.000000;1.432732
9883.000000;1.432578
9882.000000;1.432040
9881.000000;1.430638
9880.000000;1.428745
9879.000000;1.426921
9878.000000;1.425656
9877.000000;1.425206
9876.000000;1.425297
9875.000000;1.425272
9874.000000;1.424850
9873.000000;1.424435
9872.000000;1.424465
9871.000000;1.424862
9870.000000;1.425405
9869.000000;1.426177
9868.000000;1.427119
9867.000000;1.427503
9866.000000;1.426550
9865.000000;1.424510
9864.000000;1.422521
9863.000000;1.421281
9862.000000;1.420420
9861.000000;1.419327
9860.000000;1.418052
9859.000000;1.417068
9858.000000;1.416532
9857.000000;1.416215
9856.000000;1.415935
9855.000000;1.415579
9854.000000;1.414803
9853.000000;1.413301
9852.000000;1.411465
9851.000000;1.410295
9850.000000;1.410409
9849.000000;1.411292
9848.000000;1.411756
9847.000000;1.411063
9846.000000;1.409427
9845.000000;1.407539
9844.000000;1.405889
9843.000000;1.404575
9842.000000;1.403469
9841.000000;1.402419
9840.000000;1.401407
9839.000000;1.400621
9838.000000;1.400226
9837.000000;1.400003
9836.000000;1.399449
9835.000000;1.398428
9834.000000;1.397478
9833.000000;1.397123
9832.000000;1.397044
9831.000000;1.396456
9830.000000;1.395306
9829.000000;1.394498
9828.000000;1.394624
9827.000000;1.394988
9826.000000;1.394439
9825.000000;1.393001
9824.000000;1.392033
9823.000000;1.392657
9822.000000;1.394489
9821.000000;1.396159
9820.000000;1.396696
9819.000000;1.396061
9818.000000;1.394560
9817.000000;1.392303
9816.000000;1.389407
9815.000000;1.386451
9814.000000;1.384320
9813.000000;1.383473
9812.000000;1.383525
9811.000000;1.383760
9810.000000;1.383930
9809.000000;1.384216
9808.000000;1.384412
9807.000000;1.383768
9806.000000;1.382006
9805.000000;1.380051
9804.000000;1.379120
9803.000000;1.379271
9802.000000;1.379494
9801.000000;1.379172
9800.000000;1.378713
9799.000000;1.378572
9798.000000;1.378488
9797.000000;1.378109
9796.000000;1.377697
9795.000000;1.377573
9794.000000;1.377297
9793.000000;1.376143
9792.000000;1.374162
9791.000000;1.372070
9790.000000;1.370245
9789.000000;1.368492
9788.000000;1.366787
9787.000000;1.365602
9786.000000;1.365278
9785.000000;1.365515
9784.000000;1.365700
9783.000000;1.365466
9782.000000;1.364787
9781.000000;1.363845
9780.000000;1.362966
9779.000000;1.362408
9778.000000;1.362047
9777.000000;1.361493
9776.000000;1.360697
9775.000000;1.360130
9774.000000;1.360127
9773.000000;1.360320
9772.000000;1.359966
9771.000000;1.358763
9770.000000;1.357153
9769.000000;1.355817
9768.000000;1.355000
9767.000000;1.354428
9766.000000;1.353785
9765.000000;1.353096
9764.000000;1.352574
9763.000000;1.352275
9762.000000;1.352202
9761.000000;1.352650
9760.000000;1.354001
9759.000000;1.355909
9758.000000;1.357092
9757.000000;1.356486
9756.000000;1.354469
9755.000000;1.352491
9754.000000;1.351562
9753.000000;1.351501
9752.000000;1.351549
9751.000000;1.351181
9750.000000;1.350219
9749.000000;1.348714
9748.000000;1.347050
9747.000000;1.345821
9746.000000;1.345295
9745.000000;1.345124
9744.000000;1.344757
9743.000000;1.344021
9742.000000;1.343066
9741.000000;1.341867
9740.000000;1.340198
9739.000000;1.338097
9738.000000;1.336084
9737.000000;1.334748
9736.000000;1.334237
9735.000000;1.334239
9734.000000;1.334339
9733.000000;1.334343
9732.000000;1.334210
9731.000000;1.333793
9730.000000;1.332906
9729.000000;1.331602
9728.000000;1.330210
9727.000000;1.329028
9726.000000;1.328085
9725.000000;1.327326
9724.000000;1.326867
9723.000000;1.326833
9722.000000;1.327025
9721.000000;1.326983
9720.000000;1.326381
9719.000000;1.325249
9718.000000;1.323853
9717.000000;1.322555
9716.000000;1.321711
9715.000000;1.321361
9714.000000;1.321029
9713.000000;1.320168
9712.000000;1.318878
9711.000000;1.317886
9710.000000;1.317698
9709.000000;1.318055
9708.000000;1.318343
9707.000000;1.318293
9706.000000;1.318078
9705.000000;1.317897
9704.000000;1.317689
9703.000000;1.317125
9702.000000;1.315807
9701.000000;1.313716
9700.000000;1.311618
9699.000000;1.310742
9698.000000;1.311717
9697.000000;1.313831
9696.000000;1.315513
9695.000000;1.315628
9694.000000;1.314271
9693.000000;1.312407
9692.000000;1.310976
9691.000000;1.310288
9690.000000;1.309999
9689.000000;1.309570
9688.000000;1.308813
9687.000000;1.307964
9686.000000;1.307246
9685.000000;1.306576
9684.000000;1.305840
9683.000000;1.305279
9682.000000;1.305295
9681.000000;1.305904
9680.000000;1.306607
9679.000000;1.306812
9678.000000;1.306183
9677.000000;1.304613
9676.000000;1.302210
9675.000000;1.299496
9674.000000;1.297358
9673.000000;1.296451
9672.000000;1.296618
9671.000000;1.297083
9670.000000;1.297286
9669.000000;1.297357
9668.000000;1.297700
9667.000000;1.298288
9666.000000;1.298604
9665.000000;1.298272
9664.000000;1.297468
9663.000000;1.296585
9662.000000;1.295675
9661.000000;1.294411
9660.000000;1.292588
9659.000000;1.290488
9658.000000;1.288703
9657.000000;1.287731
9656.000000;1.287731
9655.000000;1.288356
9654.000000;1.288741
9653.000000;1.287998
9652.000000;1.286048
9651.000000;1.283893
9650.000000;1.282746
9649.000000;1.282825
9648.000000;1.283237
9647.000000;1.283158
9646.000000;1.282801
9645.000000;1.282873
9644.000000;1.283291
9643.000000;1.283022
9642.000000;1.281374
9641.000000;1.279015
9640.000000;1.277326
9639.000000;1.276943
9638.000000;1.277285
9637.000000;1.277397
9636.000000;1.276900
9635.000000;1.276071
9634.000000;1.275295
9633.000000;1.274607
9632.000000;1.273655
9631.000000;1.272090
9630.000000;1.270093
9629.000000;1.268425
9628.000000;1.267731
9627.000000;1.267860
9626.000000;1.268170
9625.000000;1.268472
9624.000000;1.269162
9623.000000;1.270283
9622.000000;1.270992
9621.000000;1.270443
9620.000000;1.268960
9619.000000;1.267778
9618.000000;1.267691
9617.000000;1.268289
9616.000000;1.268473
9615.000000;1.267407
9614.000000;1.265065
9613.000000;1.262167
9612.000000;1.259642
9611.000000;1.257959
9610.000000;1.256943
9609.000000;1.256258
9608.000000;1.255955
9607.000000;1.256343
9606.000000;1.257409
9605.000000;1.258615
9604.000000;1.259225
9603.000000;1.258742
9602.000000;1.257194
9601.000000;1.255225
9600.000000;1.253749
9599.000000;1.253232
9598.000000;1.253350
9597.000000;1.253516
9596.000000;1.253521
9595.000000;1.253358
9594.000000;1.252734
9593.000000;1.251369
9592.000000;1.249731
9591.000000;1.248781
9590.000000;1.248782
9589.000000;1.248840
9588.000000;1.247922
9587.000000;1.245990
9586.000000;1.243855
9585.000000;1.242265
9584.000000;1.241480
9583.000000;1.241467
9582.000000;1.242022
9581.000000;1.242727
9580.000000;1.243064
9579.000000;1.242641
9578.000000;1.241339
9577.000000;1.239482
9576.000000;1.237943
9575.000000;1.237701
9574.000000;1.238925
9573.000000;1.240550
9572.000000;1.241089
9571.000000;1.239965
9570.000000;1.237963
9569.000000;1.236416
9568.000000;1.236060
9567.000000;1.236535
9566.000000;1.236794
9565.000000;1.236008
9564.000000;1.234204
9563.000000;1.232074
9562.000000;1.230290
9561.000000;1.229174
9560.000000;1.228896
9559.000000;1.229500
9558.000000;1.230477
9557.000000;1.230750
9556.000000;1.229637
9555.000000;1.227779
9554.000000;1.226650
9553.000000;1.227024
9552.000000;1.228193
9551.000000;1.228749
9550.000000;1.227978
9549.000000;1.226351
9548.000000;1.224810
9547.000000;1.223863
9546.000000;1.223435
9545.000000;1.223361
9544.000000;1.223730
9543.000000;1.224575
9542.000000;1.225412
9541.000000;1.225471
9540.000000;1.224385
9539.000000;1.222446
9538.000000;1.220171
9537.000000;1.217957
9536.000000;1.216186
9535.000000;1.215192
9534.000000;1.214843
9533.000000;1.214500
9532.000000;1.213788
9531.000000;1.213187
9530.000000;1.213370
9529.000000;1.214178
9528.000000;1.214741
9527.000000;1.214540
9526.000000;1.213800
9525.000000;1.212779
9524.000000;1.211286
9523.000000;1.209217
9522.000000;1.207075
9521.000000;1.205564
9520.000000;1.204904
9519.000000;1.204901
9518.000000;1.205434
9517.000000;1.206468
9516.000000;1.207727
9515.000000;1.208717
9514.000000;1.209099
9513.000000;1.208793
9512.000000;1.207757
9511.000000;1.206050
9510.000000;1.204174
9509.000000;1.202942
9508.000000;1.202784
9507.000000;1.203295
9506.000000;1.203591
9505.000000;1.203069
9504.000000;1.201829
9503.000000;1.200521
9502.000000;1.199860
9501.000000;1.200096
9500.000000;1.200786
9499.000000;1.201142
9498.000000;1.200733
9497.000000;1.199828
9496.000000;1.198962
9495.000000;1.198352
9494.000000;1.197862
9493.000000;1.197308
9492.000000;1.196502
9491.000000;1.195174
9490.000000;1.193235
9489.000000;1.191212
9488.000000;1.190065
9487.000000;1.190303
9486.000000;1.191352
9485.000000;1.192032
9484.000000;1.191660
9483.000000;1.190526
9482.000000;1.189316
9481.000000;1.188383
9480.000000;1.187689
9479.000000;1.187159
9478.000000;1.186738
9477.000000;1.186192
9476.000000;1.185230
9475.000000;1.184035
9474.000000;1.183304
9473.000000;1.183447
9472.000000;1.183936
9471.000000;1.183861
9470.000000;1.183044
9469.000000;1.182184
9468.000000;1.181882
9467.000000;1.182024
9466.000000;1.182236
9465.000000;1.182430
9464.000000;1.182548
9463.000000;1.182214
9462.000000;1.181192
9461.000000;1.179970
9460.000000;1.179282
9459.000000;1.179104
9458.000000;1.178654
9457.000000;1.177476
9456.000000;1.176084
9455.000000;1.175356
9454.000000;1.175603
9453.000000;1.176328
9452.000000;1.176657
9451.000000;1.175982
9450.000000;1.174535
9449.000000;1.173322
9448.000000;1.173130
9447.000000;1.173596
9446.000000;1.173644
9445.000000;1.172880
9444.000000;1.171958
9443.000000;1.171422
9442.000000;1.170891
9441.000000;1.169845
9440.000000;1.168630
9439.000000;1.168013
9438.000000;1.168079
9437.000000;1.168215
9436.000000;1.168029
9435.000000;1.167712
9434.000000;1.167536
9433.000000;1.167515
9432.000000;1.167524
9431.000000;1.167279
9430.000000;1.166233
9429.000000;1.164042
9428.000000;1.161269
9427.000000;1.159140
9426.000000;1.158435
9425.000000;1.158903
9424.000000;1.159763
9423.000000;1.160361
9422.000000;1.160299
9421.000000;1.159471
9420.000000;1.158286
9419.000000;1.157500
9418.000000;1.157484
9417.000000;1.157822
9416.000000;1.157847
9415.000000;1.157325
9414.000000;1.156432
9413.000000;1.155315
9412.000000;1.154011
9411.000000;1.152700
9410.000000;1.151749
9409.000000;1.151499
9408.000000;1.152043
9407.000000;1.153093
9406.000000;1.153927
9405.000000;1.153752
9404.000000;1.152416
9403.000000;1.150699
9402.000000;1.149633
9401.000000;1.149528
9400.000000;1.149759
9399.000000;1.149463
9398.000000;1.148334
9397.000000;1.146786
9396.000000;1.145487
9395.000000;1.144781
9394.000000;1.144481
9393.000000;1.144180
9392.000000;1.143740
9391.000000;1.143389
9390.000000;1.143344
9389.000000;1.143450
9388.000000;1.143343
9387.000000;1.142884
9386.000000;1.142261
9385.000000;1.141665
9384.000000;1.141017
9383.000000;1.140109
9382.000000;1.138969
9381.000000;1.138007
9380.000000;1.137747
9379.000000;1.138396
9378.000000;1.139657
9377.000000;1.140928
9376.000000;1.141639
9375.000000;1.141420
9374.000000;1.140196
9373.000000;1.138337
9372.000000;1.136579
9371.000000;1.135484
9370.000000;1.134876
9369.000000;1.134084
9368.000000;1.132827
9367.000000;1.131638
9366.000000;1.131191
9365.000000;1.131441
9364.000000;1.131742
9363.000000;1.131672
9362.000000;1.131372
9361.000000;1.131045
9360.000000;1.130569
9359.000000;1.129796
9358.000000;1.128940
9357.000000;1.128323
9356.000000;1.127868
9355.000000;1.127202
9354.000000;1.126294
9353.000000;1.125621
9352.000000;1.125520
9351.000000;1.125603
9350.000000;1.125122
9349.000000;1.123884
9348.000000;1.122531
9347.000000;1.121832
9346.000000;1.121928
9345.000000;1.122380
9344.000000;1.122781
9343.000000;1.123121
9342.000000;1.123536
9341.000000;1.123866
9340.000000;1.123652
9339.000000;1.122692
9338.000000;1.121497
9337.000000;1.120960
9336.000000;1.121436
9335.000000;1.122311
9334.000000;1.122656
9333.000000;1.122218
9332.000000;1.121499
9331.000000;1.120942
9330.000000;1.120446
9329.000000;1.119778
9328.000000;1.119063
9327.000000;1.118592
9326.000000;1.118392
9325.000000;1.118275
9324.000000;1.118122
9323.000000;1.117842
9322.000000;1.117208
9321.000000;1.116109
9320.000000;1.114868
9319.000000;1.113938
9318.000000;1.113296
9317.000000;1.112478
9316.000000;1.111281
9315.000000;1.110098
9314.000000;1.109382
9313.000000;1.109021
9312.000000;1.108488
9311.000000;1.107573
9310.000000;1.106756
9309.000000;1.106756
9308.000000;1.107715
9307.000000;1.108870
9306.000000;1.109139
9305.000000;1.108115
9304.000000;1.106393
9303.000000;1.104853
9302.000000;1.103829
9301.000000;1.103179
9300.000000;1.102872
9299.000000;1.103094
9298.000000;1.103744
9297.000000;1.104238
9296.000000;1.104063
9295.000000;1.103355
9294.000000;1.102698
9293.000000;1.102448
9292.000000;1.102356
9291.000000;1.101855
9290.000000;1.100653
9289.000000;1.099101
9288.000000;1.097969
9287.000000;1.097798
9286.000000;1.098490
9285.000000;1.099529
9284.000000;1.100479
9283.000000;1.101065
9282.000000;1.100964
9281.000000;1.099921
9280.000000;1.098240
9279.000000;1.096779
9278.000000;1.096177
9277.000000;1.096216
9276.000000;1.096153
9275.000000;1.095611
9274.000000;1.094961
9273.000000;1.094854
9272.000000;1.095494
9271.000000;1.096360
9270.000000;1.096645
9269.000000;1.096042
9268.000000;1.095082
9267.000000;1.094561
9266.000000;1.094642
9265.000000;1.094706
9264.000000;1.094166
9263.000000;1.093195
9262.000000;1.092475
9261.000000;1.092328
9260.000000;1.092365
9259.000000;1.091962
9258.000000;1.090917
9257.000000;1.089557
9256.000000;1.088288
9255.000000;1.087199
9254.000000;1.086186
9253.000000;1.085368
9252.000000;1.085178
9251.000000;1.085881
9250.000000;1.087103
9249.000000;1.088064
9248.000000;1.088318
9247.000000;1.088068
9246.000000;1.087679
9245.000000;1.087128
9244.000000;1.086146
9243.000000;1.084789
9242.000000;1.083588
9241.000000;1.083053
9240.000000;1.083140
9239.000000;1.083339
9238.000000;1.083263
9237.000000;1.083075
9236.000000;1.083207
9235.000000;1.083713
9234.000000;1.084069
9233.000000;1.083730
9232.000000;1.082722
9231.000000;1.081533
9230.000000;1.080565
9229.000000;1.079917
9228.000000;1.079597
9227.000000;1.079581
9226.000000;1.079627
9225.000000;1.079358
9224.000000;1.078697
9223.000000;1.078007
9222.000000;1.077639
9221.000000;1.077504
9220.000000;1.077249
9219.000000;1.076695
9218.000000;1.075963
9217.000000;1.075267
9216.000000;1.074753
9215.000000;1.074449
9214.000000;1.074238
9213.000000;1.073957
9212.000000;1.073633
9211.000000;1.073563
9210.000000;1.074010
9209.000000;1.074818
9208.000000;1.075435
9207.000000;1.075316
9206.000000;1.074328
9205.000000;1.072866
9204.000000;1.071637
9203.000000;1.071198
9202.000000;1.071521
9201.000000;1.072002
9200.000000;1.071981
9199.000000;1.071296
9198.000000;1.070338
9197.000000;1.069601
9196.000000;1.069209
9195.000000;1.068883
9194.000000;1.068304
9193.000000;1.067472
9192.000000;1.066698
9191.000000;1.066240
9190.000000;1.066071
9189.000000;1.066030
9188.000000;1.066051
9187.000000;1.066109
9186.000000;1.066089
9185.000000;1.065929
9184.000000;1.065762
9183.000000;1.065673
9182.000000;1.065443
9181.000000;1.064877
9180.000000;1.064314
9179.000000;1.064330
9178.000000;1.064777
9177.000000;1.064662
9176.000000;1.063309
9175.000000;1.061318
9174.000000;1.059966
9173.000000;1.059918
9172.000000;1.060893
9171.000000;1.062299
9170.000000;1.063697
9169.000000;1.064686
9168.000000;1.064914
9167.000000;1.064376
9166.000000;1.063418
9165.000000;1.062305
9164.000000;1.061063
9163.000000;1.059797
9162.000000;1.058869
9161.000000;1.058581
9160.000000;1.058852
9159.000000;1.059320
9158.000000;1.059645
9157.000000;1.059612
9156.000000;1.059153
9155.000000;1.058450
9154.000000;1.057900
9153.000000;1.057749
9152.000000;1.057831
9151.000000;1.057754
9150.000000;1.057299
9149.000000;1.056533
9148.000000;1.055687
9147.000000;1.055086
9146.000000;1.055074
9145.000000;1.055692
9144.000000;1.056399
9143.000000;1.056375
9142.000000;1.055318
9141.000000;1.053798
9140.000000;1.052641
9139.000000;1.052075
9138.000000;1.051665
9137.000000;1.051012
9136.000000;1.050205
9135.000000;1.049536
9134.000000;1.049080
9133.000000;1.048819
9132.000000;1.048966
9131.000000;1.049803
9130.000000;1.051173
9129.000000;1.052384
9128.000000;1.052733
9127.000000;1.052043
9126.000000;1.050703
9125.000000;1.049375
9124.000000;1.048629
9123.000000;1.048566
9122.000000;1.048727
9121.000000;1.048577
9120.000000;1.048169
9119.000000;1.048066
9118.000000;1.048486
9117.000000;1.048852
9116.000000;1.048497
9115.000000;1.047589
9114.000000;1.046955
9113.000000;1.047053
9112.000000;1.047514
9111.000000;1.047712
9110.000000;1.047433
9109.000000;1.046837
9108.000000;1.046030
9107.000000;1.045028
9106.000000;1.044035
9105.000000;1.043457
9104.000000;1.043509
9103.000000;1.043923
9102.000000;1.044196
9101.000000;1.044118
9100.000000;1.043943
9099.000000;1.043982
9098.000000;1.044148
9097.000000;1.044092
9096.000000;1.043701
9095.000000;1.043256
9094.000000;1.042999
9093.000000;1.042800
9092.000000;1.042419
9091.000000;1.041941
9090.000000;1.041685
9089.000000;1.041743
9088.000000;1.041831
9087.000000;1.041603
9086.000000;1.040952
9085.000000;1.039965
9084.000000;1.038775
9083.000000;1.037558
9082.000000;1.036580
9081.000000;1.036116
9080.000000;1.036252
9079.000000;1.036757
9078.000000;1.037190
9077.000000;1.037220
9076.000000;1.036896
9075.000000;1.036504
9074.000000;1.036161
9073.000000;1.035721
9072.000000;1.035171
9071.000000;1.034871
9070.000000;1.035193
9069.000000;1.036033
9068.000000;1.036893
9067.000000;1.037344
9066.000000;1.037209
9065.000000;1.036440
9064.000000;1.035182
9063.000000;1.033959
9062.000000;1.033422
9061.000000;1.033746
9060.000000;1.034450
9059.000000;1.034898
9058.000000;1.034811
9057.000000;1.034260
9056.000000;1.033450
9055.000000;1.032718
9054.000000;1.032461
9053.000000;1.032761
9052.000000;1.033156
9051.000000;1.033037
9050.000000;1.032317
9049.000000;1.031525
9048.000000;1.031244
9047.000000;1.031581
9046.000000;1.032177
9045.000000;1.032567
9044.000000;1.032484
9043.000000;1.031948
9042.000000;1.031191
9041.000000;1.030510
9040.000000;1.030065
9039.000000;1.029748
9038.000000;1.029247
9037.000000;1.028357
9036.000000;1.027293
9035.000000;1.026679
9034.000000;1.027066
9033.000000;1.028440
9032.000000;1.030210
9031.000000;1.031660
9030.000000;1.032366
9029.000000;1.032277
9028.000000;1.031587
9027.000000;1.030604
9026.000000;1.029614
9025.000000;1.028751
9024.000000;1.028003
9023.000000;1.027384
9022.000000;1.027006
9021.000000;1.026929
9020.000000;1.027018
9019.000000;1.027044
9018.000000;1.026895
9017.000000;1.026613
9016.000000;1.026258
9015.000000;1.025789
9014.000000;1.025095
9013.000000;1.024128
9012.000000;1.023035
9011.000000;1.022179
9010.000000;1.021954
9009.000000;1.022472
9008.000000;1.023351
9007.000000;1.023863
9006.000000;1.023444
9005.000000;1.022203
9004.000000;1.020955
9003.000000;1.020586
9002.000000;1.021233
9001.000000;1.022128
9000.000000;1.022390
8999.000000;1.021964
8998.000000;1.021599
8997.000000;1.021922
8996.000000;1.022766
8995.000000;1.023472
8994.000000;1.023650
8993.000000;1.023442
8992.000000;1.023153
8991.000000;1.022888
8990.000000;1.022545
8989.000000;1.021986
8988.000000;1.021193
8987.000000;1.020339
8986.000000;1.019669
8985.000000;1.019238
8984.000000;1.018820
8983.000000;1.018224
8982.000000;1.017646
8981.000000;1.017514
8980.000000;1.017943
8979.000000;1.018540
8978.000000;1.018860
8977.000000;1.018918
8976.000000;1.019046
8975.000000;1.019329
8974.000000;1.019476
8973.000000;1.019323
8972.000000;1.019167
8971.000000;1.019370
8970.000000;1.019802
8969.000000;1.019937
8968.000000;1.019499
8967.000000;1.018780
8966.000000;1.018237
8965.000000;1.018030
8964.000000;1.018053
8963.000000;1.018193
8962.000000;1.018360
8961.000000;1.018394
8960.000000;1.018185
8959.000000;1.017816
8958.000000;1.017419
8957.000000;1.016944
8956.000000;1.016299
8955.000000;1.015693
8954.000000;1.015591
8953.000000;1.016184
8952.000000;1.017055
8951.000000;1.017463
8950.000000;1.016962
8949.000000;1.015781
8948.000000;1.014681
8947.000000;1.014407
8946.000000;1.015109
8945.000000;1.016214
8944.000000;1.016899
8943.000000;1.016721
8942.000000;1.015828
8941.000000;1.014742
8940.000000;1.014084
8939.000000;1.014289
8938.000000;1.015235
8937.000000;1.016188
8936.000000;1.016437
8935.000000;1.016014
8934.000000;1.015495
8933.000000;1.015074
8932.000000;1.014299
8931.000000;1.012901
8930.000000;1.011438
8929.000000;1.010768
8928.000000;1.011109
8927.000000;1.011929
8926.000000;1.012602
8925.000000;1.012855
8924.000000;1.012700
8923.000000;1.012303
8922.000000;1.011947
8921.000000;1.011851
8920.000000;1.011973
8919.000000;1.012134
8918.000000;1.012304
8917.000000;1.012541
8916.000000;1.012716
8915.000000;1.012574
8914.000000;1.012125
8913.000000;1.011733
8912.000000;1.011698
8911.000000;1.011855
8910.000000;1.011723
8909.000000;1.011004
8908.000000;1.009925
8907.000000;1.009123
8906.000000;1.009130
8905.000000;1.009847
8904.000000;1.010587
8903.000000;1.010739
8902.000000;1.010342
8901.000000;1.009869
8900.000000;1.009612
8899.000000;1.009485
8898.000000;1.009372
8897.000000;1.009327
8896.000000;1.009376
8895.000000;1.009382
8894.000000;1.009237
8893.000000;1.009016
8892.000000;1.008792
8891.000000;1.008461
8890.000000;1.007935
8889.000000;1.007398
8888.000000;1.007179
8887.000000;1.007383
8886.000000;1.007744
8885.000000;1.007861
8884.000000;1.007543
8883.000000;1.006886
8882.000000;1.006102
8881.000000;1.005341
8880.000000;1.004743
8879.000000;1.004569
8878.000000;1.005094
8877.000000;1.006227
8876.000000;1.007411
8875.000000;1.008085
8874.000000;1.008248
8873.000000;1.008345
8872.000000;1.008626
8871.000000;1.008815
8870.000000;1.008495
8869.000000;1.007636
8868.000000;1.006652
8867.000000;1.006051
8866.000000;1.006112
8865.000000;1.006705
8864.000000;1.007309
8863.000000;1.007379
8862.000000;1.006844
8861.000000;1.006166
8860.000000;1.005789
8859.000000;1.005652
8858.000000;1.005412
8857.000000;1.005024
8856.000000;1.004807
8855.000000;1.004943
8854.000000;1.005206
8853.000000;1.005335
8852.000000;1.005461
8851.000000;1.005908
8850.000000;1.006655
8849.000000;1.007247
8848.000000;1.007310
8847.000000;1.006984
8846.000000;1.006725
8845.000000;1.006818
8844.000000;1.007193
8843.000000;1.007605
8842.000000;1.007767
8841.000000;1.007382
8840.000000;1.006357
8839.000000;1.005080
8838.000000;1.004256
8837.000000;1.004262
8836.000000;1.004808
8835.000000;1.005335
8834.000000;1.005613
8833.000000;1.005768
8832.000000;1.005875
8831.000000;1.005854
8830.000000;1.005756
8829.000000;1.005868
8828.000000;1.006372
8827.000000;1.007070
8826.000000;1.007508
8825.000000;1.007306
8824.000000;1.006391
8823.000000;1.005112
8822.000000;1.004186
8821.000000;1.004241
8820.000000;1.005227
8819.000000;1.006336
8818.000000;1.006702
8817.000000;1.006161
8816.000000;1.005259
8815.000000;1.004628
8814.000000;1.004471
8813.000000;1.004569
8812.000000;1.004604
8811.000000;1.004483
8810.000000;1.004397
8809.000000;1.004549
8808.000000;1.004855
8807.000000;1.005020
8806.000000;1.004947
8805.000000;1.004909
8804.000000;1.005192
8803.000000;1.005688
8802.000000;1.006042
8801.000000;1.006145
8800.000000;1.006273
8799.000000;1.006690
8798.000000;1.007309
8797.000000;1.007837
8796.000000;1.008117
8795.000000;1.008170
8794.000000;1.007984
8793.000000;1.007457
8792.000000;1.006624
8791.000000;1.005831
8790.000000;1.005519
8789.000000;1.005842
8788.000000;1.006535
8787.000000;1.007172
8786.000000;1.007457
8785.000000;1.007285
8784.000000;1.006682
8783.000000;1.005862
8782.000000;1.005250
8781.000000;1.005248
8780.000000;1.005912
8779.000000;1.006935
8778.000000;1.007958
8777.000000;1.008817
8776.000000;1.009492
8775.000000;1.009904
8774.000000;1.009888
8773.000000;1.009352
8772.000000;1.008469
8771.000000;1.007676
8770.000000;1.007373
8769.000000;1.007550
8768.000000;1.007806
8767.000000;1.007842
8766.000000;1.007847
8765.000000;1.008221
8764.000000;1.008983
8763.000000;1.009730
8762.000000;1.010192
8761.000000;1.010559
8760.000000;1.011108
8759.000000;1.011752
8758.000000;1.012173
8757.000000;1.012281
8756.000000;1.012284
8755.000000;1.012357
8754.000000;1.012416
8753.000000;1.012255
8752.000000;1.011791
8751.000000;1.011142
8750.000000;1.010547
8749.000000;1.010215
8748.000000;1.010190
8747.000000;1.010325
8746.000000;1.010415
8745.000000;1.010361
8744.000000;1.010237
8743.000000;1.010244
8742.000000;1.010557
8741.000000;1.011103
8740.000000;1.011483
8739.000000;1.011310
8738.000000;1.010701
8737.000000;1.010267
8736.000000;1.010482
8735.000000;1.011208
8734.000000;1.011936
8733.000000;1.012361
8732.000000;1.012515
8731.000000;1.012510
8730.000000;1.012437
8729.000000;1.012492
8728.000000;1.012845
8727.000000;1.013318
8726.000000;1.013453
8725.000000;1.013057
8724.000000;1.012492
8723.000000;1.012257
8722.000000;1.012413
8721.000000;1.012618
8720.000000;1.012614
8719.000000;1.012504
8718.000000;1.012530
8717.000000;1.012765
8716.000000;1.013114
8715.000000;1.013502
8714.000000;1.013985
8713.000000;1.014657
8712.000000;1.015496
8711.000000;1.016326
8710.000000;1.016922
8709.000000;1.017142
8708.000000;1.016980
8707.000000;1.016527
8706.000000;1.015917
8705.000000;1.015277
8704.000000;1.014712
8703.000000;1.014325
8702.000000;1.014206
8701.000000;1.014358
8700.000000;1.014610
8699.000000;1.014718
8698.000000;1.014613
8697.000000;1.014511
8696.000000;1.014656
8695.000000;1.015004
8694.000000;1.015303
8693.000000;1.015511
8692.000000;1.015934
8691.000000;1.016794
8690.000000;1.017745
8689.000000;1.018018
8688.000000;1.017179
8687.000000;1.015664
8686.000000;1.014475
8685.000000;1.014290
8684.000000;1.014928
8683.000000;1.015643
8682.000000;1.015865
8681.000000;1.015599
8680.000000;1.015195
8679.000000;1.014932
8678.000000;1.014925
8677.000000;1.015272
8676.000000;1.016017
8675.000000;1.016891
8674.000000;1.017344
8673.000000;1.017077
8672.000000;1.016505
8671.000000;1.016444
8670.000000;1.017241
8669.000000;1.018356
8668.000000;1.018886
8667.000000;1.018451
8666.000000;1.017421
8665.000000;1.016411
8664.000000;1.015802
8663.000000;1.015756
8662.000000;1.016325
8661.000000;1.017298
8660.000000;1.018141
8659.000000;1.018400
8658.000000;1.018152
8657.000000;1.017829
8656.000000;1.017662
8655.000000;1.017561
8654.000000;1.017491
8653.000000;1.017578
8652.000000;1.017725
8651.000000;1.017484
8650.000000;1.016628
8649.000000;1.015606
8648.000000;1.015104
8647.000000;1.015254
8646.000000;1.015589
8645.000000;1.015743
8644.000000;1.015836
8643.000000;1.016098
8642.000000;1.016441
8641.000000;1.016597
8640.000000;1.016502
8639.000000;1.016319
8638.000000;1.016217
8637.000000;1.016271
8636.000000;1.016509
8635.000000;1.016863
8634.000000;1.017120
8633.000000;1.017080
8632.000000;1.016766
8631.000000;1.016355
8630.000000;1.015905
8629.000000;1.015311
8628.000000;1.014613
8627.000000;1.014194
8626.000000;1.014483
8625.000000;1.015425
8624.000000;1.016371
8623.000000;1.016619
8622.000000;1.016089
8621.000000;1.015408
8620.000000;1.015312
8619.000000;1.015985
8618.000000;1.016974
8617.000000;1.017643
8616.000000;1.017644
8615.000000;1.017048
8614.000000;1.016221
8613.000000;1.015592
8612.000000;1.015416
8611.000000;1.015642
8610.000000;1.016033
8609.000000;1.016409
8608.000000;1.016689
8607.000000;1.016716
8606.000000;1.016286
8605.000000;1.015452
8604.000000;1.014642
8603.000000;1.014281
8602.000000;1.014377
8601.000000;1.014623
8600.000000;1.014832
8599.000000;1.015056
8598.000000;1.015336
8597.000000;1.015615
8596.000000;1.015961
8595.000000;1.016574
8594.000000;1.017398
8593.000000;1.017928
8592.000000;1.017659
8591.000000;1.016644
8590.000000;1.015412
8589.000000;1.014407
8588.000000;1.013742
8587.000000;1.013420
8586.000000;1.013468
8585.000000;1.013768
8584.000000;1.014001
8583.000000;1.013950
8582.000000;1.013737
8581.000000;1.013628
8580.000000;1.013706
8579.000000;1.013859
8578.000000;1.014032
8577.000000;1.014320
8576.000000;1.014818
8575.000000;1.015455
8574.000000;1.015964
8573.000000;1.015990
8572.000000;1.015332
8571.000000;1.014203
8570.000000;1.013176
8569.000000;1.012702
8568.000000;1.012701
8567.000000;1.012722
8566.000000;1.012467
8565.000000;1.012045
8564.000000;1.011750
8563.000000;1.011791
8562.000000;1.012273
8561.000000;1.013191
8560.000000;1.014283
8559.000000;1.015055
8558.000000;1.015145
8557.000000;1.014642
8556.000000;1.013936
8555.000000;1.013322
8554.000000;1.012868
8553.000000;1.012582
8552.000000;1.012516
8551.000000;1.012636
8550.000000;1.012733
8549.000000;1.012557
8548.000000;1.012036
8547.000000;1.011358
8546.000000;1.010858
8545.000000;1.010816
8544.000000;1.011274
8543.000000;1.012016
8542.000000;1.012724
8541.000000;1.013154
8540.000000;1.013176
8539.000000;1.012781
8538.000000;1.012168
8537.000000;1.011758
8536.000000;1.011906
8535.000000;1.012519
8534.000000;1.013117
8533.000000;1.013342
8532.000000;1.013336
8531.000000;1.013470
8530.000000;1.013803
8529.000000;1.014018
8528.000000;1.013885
8527.000000;1.013543
8526.000000;1.013251
8525.000000;1.013025
8524.000000;1.012715
8523.000000;1.012334
8522.000000;1.012095
8521.000000;1.012100
8520.000000;1.012161
8519.000000;1.012056
8518.000000;1.011849
8517.000000;1.011811
8516.000000;1.012030
8515.000000;1.012228
8514.000000;1.012032
8513.000000;1.011383
8512.000000;1.010628
8511.000000;1.010206
8510.000000;1.010272
8509.000000;1.010603
8508.000000;1.010809
8507.000000;1.010647
8506.000000;1.010186
8505.000000;1.009740
8504.000000;1.009639
8503.000000;1.009979
8502.000000;1.010534
8501.000000;1.010918
8500.000000;1.010920
8499.000000;1.010690
8498.000000;1.010556
8497.000000;1.010641
8496.000000;1.010734
8495.000000;1.010615
8494.000000;1.010396
8493.000000;1.010400
8492.000000;1.010691
8491.000000;1.010906
8490.000000;1.010673
8489.000000;1.010102
8488.000000;1.009701
8487.000000;1.009796
8486.000000;1.010180
8485.000000;1.010411
8484.000000;1.010341
8483.000000;1.010220
8482.000000;1.010288
8481.000000;1.010434
8480.000000;1.010334
8479.000000;1.009887
8478.000000;1.009392
8477.000000;1.009283
8476.000000;1.009694
8475.000000;1.010327
8474.000000;1.010720
8473.000000;1.010632
8472.000000;1.010177
8471.000000;1.009648
8470.000000;1.009269
8469.000000;1.009105
8468.000000;1.009111
8467.000000;1.009179
8466.000000;1.009166
8465.000000;1.008964
8464.000000;1.008602
8463.000000;1.008245
8462.000000;1.008074
8461.000000;1.008165
8460.000000;1.008464
8459.000000;1.008815
8458.000000;1.009010
8457.000000;1.008908
8456.000000;1.008570
8455.000000;1.008241
8454.000000;1.008150
8453.000000;1.008336
8452.000000;1.008672
8451.000000;1.008967
8450.000000;1.009004
8449.000000;1.008610
8448.000000;1.007837
8447.000000;1.007023
8446.000000;1.006524
8445.000000;1.006404
8444.000000;1.006488
8443.000000;1.006677
8442.000000;1.007030
8441.000000;1.007529
8440.000000;1.007978
8439.000000;1.008245
8438.000000;1.008430
8437.000000;1.008692
8436.000000;1.008992
8435.000000;1.009139
8434.000000;1.009000
8433.000000;1.008594
8432.000000;1.008073
8431.000000;1.007714
8430.000000;1.007772
8429.000000;1.008178
8428.000000;1.008503
8427.000000;1.008426
8426.000000;1.008148
8425.000000;1.008102
8424.000000;1.008310
8423.000000;1.008328
8422.000000;1.007906
8421.000000;1.007393
8420.000000;1.007325
8419.000000;1.007770
8418.000000;1.008261
8417.000000;1.008292
8416.000000;1.007734
8415.000000;1.006865
8414.000000;1.006149
8413.000000;1.005940
8412.000000;1.006217
8411.000000;1.006587
8410.000000;1.006641
8409.000000;1.006347
8408.000000;1.006051
8407.000000;1.006104
8406.000000;1.006558
8405.000000;1.007190
8404.000000;1.007708
8403.000000;1.007933
8402.000000;1.007894
8401.000000;1.007771
8400.000000;1.007694
8399.000000;1.007596
8398.000000;1.007340
8397.000000;1.006989
8396.000000;1.006812
8395.000000;1.007003
8394.000000;1.007478
8393.000000;1.008001
8392.000000;1.008380
8391.000000;1.008483
8390.000000;1.008205
8389.000000;1.007580
8388.000000;1.006873
8387.000000;1.006403
8386.000000;1.006286
8385.000000;1.006478
8384.000000;1.006993
8383.000000;1.007853
8382.000000;1.008782
8381.000000;1.009213
8380.000000;1.008800
8379.000000;1.007853
8378.000000;1.007058
8377.000000;1.006790
8376.000000;1.006836
8375.000000;1.006794
8374.000000;1.006607
8373.000000;1.006596
8372.000000;1.007038
8371.000000;1.007784
8370.000000;1.008370
8369.000000;1.008511
8368.000000;1.008391
8367.000000;1.008365
8366.000000;1.008404
8365.000000;1.008076
8364.000000;1.007181
8363.000000;1.006198
8362.000000;1.005825
8361.000000;1.006174
8360.000000;1.006686
8359.000000;1.006831
8358.000000;1.006617
8357.000000;1.006348
8356.000000;1.006162
8355.000000;1.006004
8354.000000;1.005857
8353.000000;1.005781
8352.000000;1.005765
8351.000000;1.005720
8350.000000;1.005593
8349.000000;1.005379
8348.000000;1.005087
8347.000000;1.004774
8346.000000;1.004578
8345.000000;1.004601
8344.000000;1.004809
8343.000000;1.005142
8342.000000;1.005638
8341.000000;1.006280
8340.000000;1.006773
8339.000000;1.006704
8338.000000;1.006013
8337.000000;1.005154
8336.000000;1.004669
8335.000000;1.004705
8334.000000;1.005010
8333.000000;1.005306
8332.000000;1.005516
8331.000000;1.005657
8330.000000;1.005726
8329.000000;1.005777
8328.000000;1.005965
8327.000000;1.006345
8326.000000;1.006656
8325.000000;1.006500
8324.000000;1.005817
8323.000000;1.005022
8322.000000;1.004554
8321.000000;1.004433
8320.000000;1.004416
8319.000000;1.004454
8318.000000;1.004694
8317.000000;1.005056
8316.000000;1.005166
8315.000000;1.004868
8314.000000;1.004536
8313.000000;1.004658
8312.000000;1.005242
8311.000000;1.005846
8310.000000;1.006093
8309.000000;1.005978
8308.000000;1.005707
8307.000000;1.005460
8306.000000;1.005303
8305.000000;1.005190
8304.000000;1.005005
8303.000000;1.004689
8302.000000;1.004323
8301.000000;1.004028
8300.000000;1.003849
8299.000000;1.003801
8298.000000;1.003912
8297.000000;1.004088
8296.000000;1.004062
8295.000000;1.003673
8294.000000;1.003151
8293.000000;1.002898
8292.000000;1.003028
8291.000000;1.003313
8290.000000;1.003553
8289.000000;1.003764
8288.000000;1.003977
8287.000000;1.004082
8286.000000;1.004017
8285.000000;1.003904
8284.000000;1.003884
8283.000000;1.003917
8282.000000;1.003877
8281.000000;1.003744
8280.000000;1.003638
8279.000000;1.003694
8278.000000;1.003934
8277.000000;1.004185
8276.000000;1.004120
8275.000000;1.003554
8274.000000;1.002734
8273.000000;1.002184
8272.000000;1.002200
8271.000000;1.002601
8270.000000;1.003013
8269.000000;1.003213
8268.000000;1.003134
8267.000000;1.002744
8266.000000;1.002157
8265.000000;1.001707
8264.000000;1.001702
8263.000000;1.002110
8262.000000;1.002627
8261.000000;1.003009
8260.000000;1.003211
8259.000000;1.003282
8258.000000;1.003312
8257.000000;1.003427
8256.000000;1.003684
8255.000000;1.003946
8254.000000;1.004016
8253.000000;1.003887
8252.000000;1.003717
8251.000000;1.003588
8250.000000;1.003424
8249.000000;1.003163
8248.000000;1.002834
8247.000000;1.002458
8246.000000;1.002038
8245.000000;1.001715
8244.000000;1.001735
8243.000000;1.002139
8242.000000;1.002628
8241.000000;1.002874
8240.000000;1.002867
8239.000000;1.002807
8238.000000;1.002753
8237.000000;1.002579
8236.000000;1.002281
8235.000000;1.002099
8234.000000;1.002230
8233.000000;1.002540
8232.000000;1.002670
8231.000000;1.002407
8230.000000;1.001869
8229.000000;1.001349
8228.000000;1.001087
8227.000000;1.001170
8226.000000;1.001538
8225.000000;1.001980
8224.000000;1.002191
8223.000000;1.001964
8222.000000;1.001392
8221.000000;1.000823
8220.000000;1.000564
8219.000000;1.000642
8218.000000;1.000880
8217.000000;1.001160
8216.000000;1.001519
8215.000000;1.001958
8214.000000;1.002263
8213.000000;1.002119
8212.000000;1.001420
8211.000000;1.000453
8210.000000;0.999753
8209.000000;0.999756
8208.000000;1.000490
8207.000000;1.001527
8206.000000;1.002257
8205.000000;1.002322
8204.000000;1.001858
8203.000000;1.001309
8202.000000;1.000995
8201.000000;1.000863
8200.000000;1.000646
8199.000000;1.000244
8198.000000;0.999921
8197.000000;1.000072
8196.000000;1.000769
8195.000000;1.001569
8194.000000;1.001861
8193.000000;1.001465
8192.000000;1.000799
8191.000000;1.000399
8190.000000;1.000377
8189.000000;1.000443
8188.000000;1.000374
8187.000000;1.000252
8186.000000;1.000235
8185.000000;1.000301
8184.000000;1.000326
8183.000000;1.000249
8182.000000;1.000057
8181.000000;0.999721
8180.000000;0.999298
8179.000000;0.998995
8178.000000;0.998982
8177.000000;0.999200
8176.000000;0.999495
8175.000000;0.999841
8174.000000;1.000291
8173.000000;1.000770
8172.000000;1.001111
8171.000000;1.001264
8170.000000;1.001262
8169.000000;1.001027
8168.000000;1.000464
8167.000000;0.999755
8166.000000;0.999321
8165.000000;0.999364
8164.000000;0.999667
8163.000000;0.999933
8162.000000;1.000138
8161.000000;1.000419
8160.000000;1.000769
8159.000000;1.001056
8158.000000;1.001229
8157.000000;1.001309
8156.000000;1.001239
8155.000000;1.000915
8154.000000;1.000383
8153.000000;0.999871
8152.000000;0.999608
8151.000000;0.999659
8150.000000;0.999902
8149.000000;1.000119
8148.000000;1.000151
8147.000000;1.000033
8146.000000;0.999915
8145.000000;0.999840
8144.000000;0.999696
8143.000000;0.999425
8142.000000;0.999154
8141.000000;0.999034
8140.000000;0.999081
8139.000000;0.999251
8138.000000;0.999519
8137.000000;0.999769
8136.000000;0.999766
8135.000000;0.999452
8134.000000;0.999137
8133.000000;0.999209
8132.000000;0.999673
8131.000000;1.000177
8130.000000;1.000416
8129.000000;1.000328
8128.000000;0.999962
8127.000000;0.999413
8126.000000;0.998893
8125.000000;0.998655
8124.000000;0.998759
8123.000000;0.999040
8122.000000;0.999328
8121.000000;0.999575
8120.000000;0.999770
8119.000000;0.999897
8118.000000;1.000007
8117.000000;1.000156
8116.000000;1.000248
8115.000000;1.000113
8114.000000;0.999808
8113.000000;0.999643
8112.000000;0.999825
8111.000000;1.000191
8110.000000;1.000404
8109.000000;1.000267
8108.000000;0.999783
8107.000000;0.999041
8106.000000;0.998225
8105.000000;0.997632
8104.000000;0.997521
8103.000000;0.997915
8102.000000;0.998589
8101.000000;0.999223
8100.000000;0.999524
8099.000000;0.999325
8098.000000;0.998698
8097.000000;0.997969
8096.000000;0.997500
8095.000000;0.997417
8094.000000;0.997564
8093.000000;0.997712
8092.000000;0.997781
8091.000000;0.997845
8090.000000;0.997992
8089.000000;0.998232
8088.000000;0.998539
8087.000000;0.998935
8086.000000;0.999437
8085.000000;0.999944
8084.000000;1.000268
8083.000000;1.000309
8082.000000;1.000114
8081.000000;0.999730
8080.000000;0.999129
8079.000000;0.998408
8078.000000;0.997921
8077.000000;0.997996
8076.000000;0.998552
8075.000000;0.999153
8074.000000;0.999466
8073.000000;0.999502
8072.000000;0.999411
8071.000000;0.999234
8070.000000;0.998949
8069.000000;0.998617
8068.000000;0.998348
8067.000000;0.998240
8066.000000;0.998365
8065.000000;0.998718
8064.000000;0.999116
8063.000000;0.999267
8062.000000;0.999045
8061.000000;0.998603
8060.000000;0.998171
8059.000000;0.997841
8058.000000;0.997639
8057.000000;0.997672
8056.000000;0.998052
8055.000000;0.998748
8054.000000;0.999594
8053.000000;1.000372
8052.000000;1.000797
8051.000000;1.000548
8050.000000;0.999531
8049.000000;0.998110
8048.000000;0.996929
8047.000000;0.996439
8046.000000;0.996623
8045.000000;0.997133
8044.000000;0.997574
8043.000000;0.997686
8042.000000;0.997429
8041.000000;0.997016
8040.000000;0.996814
8039.000000;0.997077
8038.000000;0.997737
8037.000000;0.998446
8036.000000;0.998845
8035.000000;0.998832
8034.000000;0.998606
8033.000000;0.998479
8032.000000;0.998618
8031.000000;0.998929
8030.000000;0.999165
8029.000000;0.999150
8028.000000;0.998913
8027.000000;0.998614
8026.000000;0.998350
8025.000000;0.998074
8024.000000;0.997725
8023.000000;0.997411
8022.000000;0.997348
8021.000000;0.997588
8020.000000;0.997908
8019.000000;0.998049
8018.000000;0.998019
8017.000000;0.998051
8016.000000;0.998277
8015.000000;0.998547
8014.000000;0.998607
8013.000000;0.998389
8012.000000;0.998081
8011.000000;0.997940
8010.000000;0.998039
8009.000000;0.998199
8008.000000;0.998187
8007.000000;0.997980
8006.000000;0.997771
8005.000000;0.997706
8004.000000;0.997731
8003.000000;0.997748
8002.000000;0.997791
8001.000000;0.997920
8000.000000;0.998083
7999.000000;0.998222
7998.000000;0.998421
7997.000000;0.998731
7996.000000;0.998951
7995.000000;0.998810
7994.000000;0.998377
7993.000000;0.998014
7992.000000;0.997895
7991.000000;0.997816
7990.000000;0.997588
7989.000000;0.997332
7988.000000;0.997263
7987.000000;0.997368
7986.000000;0.997491
7985.000000;0.997587
7984.000000;0.997699
7983.000000;0.997810
7982.000000;0.997880
7981.000000;0.997967
7980.000000;0.998143
7979.000000;0.998329
7978.000000;0.998362
7977.000000;0.998194
7976.000000;0.997915
7975.000000;0.997642
7974.000000;0.997484
7973.000000;0.997552
7972.000000;0.997864
7971.000000;0.998279
7970.000000;0.998605
7969.000000;0.998760
7968.000000;0.998744
7967.000000;0.998586
7966.000000;0.998400
7965.000000;0.998392
7964.000000;0.998626
7963.000000;0.998885
7962.000000;0.998933
7961.000000;0.998846
7960.000000;0.998874
7959.000000;0.999009
7958.000000;0.998973
7957.000000;0.998638
7956.000000;0.998244
7955.000000;0.998086
7954.000000;0.998198
7953.000000;0.998435
7952.000000;0.998696
7951.000000;0.998906
7950.000000;0.998936
7949.000000;0.998706
7948.000000;0.998342
7947.000000;0.998064
7946.000000;0.997950
7945.000000;0.997924
7944.000000;0.997952
7943.000000;0.998113
7942.000000;0.998467
7941.000000;0.998929
7940.000000;0.999328
7939.000000;0.999514
7938.000000;0.999424
7937.000000;0.999118
7936.000000;0.998792
7935.000000;0.998690
7934.000000;0.998936
7933.000000;0.999424
7932.000000;0.999893
7931.000000;1.000108
7930.000000;1.000000
7929.000000;0.999687
7928.000000;0.999382
7927.000000;0.999244
7926.000000;0.999272
7925.000000;0.999350
7924.000000;0.999400
7923.000000;0.999453
7922.000000;0.999569
7921.000000;0.999717
7920.000000;0.999809
7919.000000;0.999802
7918.000000;0.999709
7917.000000;0.999531
7916.000000;0.999275
7915.000000;0.999044
7914.000000;0.999017
7913.000000;0.999264
7912.000000;0.999663
7911.000000;1.000030
7910.000000;1.000287
7909.000000;1.000427
7908.000000;1.000426
7907.000000;1.000284
7906.000000;1.000102
7905.000000;1.000001
7904.000000;0.999987
7903.000000;0.999994
7902.000000;1.000042
7901.000000;1.000190
7900.000000;1.000357
7899.000000;1.000338
7898.000000;1.000065
7897.000000;0.999730
7896.000000;0.999576
7895.000000;0.999646
7894.000000;0.999826
7893.000000;1.000047
7892.000000;1.000324
7891.000000;1.000633
7890.000000;1.000850
7889.000000;1.000857
7888.000000;1.000668
7887.000000;1.000435
7886.000000;1.000318
7885.000000;1.000336
7884.000000;1.000337
7883.000000;1.000165
7882.000000;0.999867
7881.000000;0.999672
7880.000000;0.999751
7879.000000;1.000050
7878.000000;1.000378
7877.000000;1.000601
7876.000000;1.000715
7875.000000;1.000812
7874.000000;1.001027
7873.000000;1.001458
7872.000000;1.002055
7871.000000;1.002614
7870.000000;1.002925
7869.000000;1.002916
7868.000000;1.002636
7867.000000;1.002183
7866.000000;1.001697
7865.000000;1.001365
7864.000000;1.001322
7863.000000;1.001543
7862.000000;1.001874
7861.000000;1.002176
7860.000000;1.002378
7859.000000;1.002424
7858.000000;1.002248
7857.000000;1.001840
7856.000000;1.001319
7855.000000;1.000921
7854.000000;1.000869
7853.000000;1.001205
7852.000000;1.001743
7851.000000;1.002207
7850.000000;1.002473
7849.000000;1.002617
7848.000000;1.002748
7847.000000;1.002829
7846.000000;1.002724
7845.000000;1.002373
7844.000000;1.001897
7843.000000;1.001552
7842.000000;1.001575
7841.000000;1.001988
7840.000000;1.002511
7839.000000;1.002753
7838.000000;1.002575
7837.000000;1.002246
7836.000000;1.002177
7835.000000;1.002526
7834.000000;1.003098
7833.000000;1.003542
7832.000000;1.003583
7831.000000;1.003145
7830.000000;1.002400
7829.000000;1.001723
7828.000000;1.001479
7827.000000;1.001768
7826.000000;1.002390
7825.000000;1.003051
7824.000000;1.003553
7823.000000;1.003822
7822.000000;1.003856
7821.000000;1.003724
7820.000000;1.003566
7819.000000;1.003504
7818.000000;1.003556
7817.000000;1.003644
7816.000000;1.003697
7815.000000;1.003725
7814.000000;1.003814
7813.000000;1.004030
7812.000000;1.004305
7811.000000;1.004444
7810.000000;1.004281
7809.000000;1.003870
7808.000000;1.003487
7807.000000;1.003417
7806.000000;1.003736
7805.000000;1.004299
7804.000000;1.004879
7803.000000;1.005293
7802.000000;1.005428
7801.000000;1.005270
7800.000000;1.004965
7799.000000;1.004777
7798.000000;1.004876
7797.000000;1.005162
7796.000000;1.005379
7795.000000;1.005411
7794.000000;1.005362
7793.000000;1.005326
7792.000000;1.005216
7791.000000;1.004970
7790.000000;1.004792
7789.000000;1.005008
7788.000000;1.005641
7787.000000;1.006316
7786.000000;1.006645
7785.000000;1.006616
7784.000000;1.006522
7783.000000;1.006599
7782.000000;1.006830
7781.000000;1.007049
7780.000000;1.007135
7779.000000;1.007121
7778.000000;1.007141
7777.000000;1.007260
7776.000000;1.007354
7775.000000;1.007254
7774.000000;1.007021
7773.000000;1.006965
7772.000000;1.007259
7771.000000;1.007651
7770.000000;1.007708
7769.000000;1.007354
7768.000000;1.006973
7767.000000;1.006945
7766.000000;1.007232
7765.000000;1.007505
7764.000000;1.007577
7763.000000;1.007546
7762.000000;1.007550
7761.000000;1.007542
7760.000000;1.007407
7759.000000;1.007215
7758.000000;1.007221
7757.000000;1.007585
7756.000000;1.008158
7755.000000;1.008606
7754.000000;1.008717
7753.000000;1.008558
7752.000000;1.008356
7751.000000;1.008278
7750.000000;1.008340
7749.000000;1.008453
7748.000000;1.008544
7747.000000;1.008619
7746.000000;1.008751
7745.000000;1.008975
7744.000000;1.009241
7743.000000;1.009478
7742.000000;1.009679
7741.000000;1.009869
7740.000000;1.009998
7739.000000;1.009939
7738.000000;1.009644
7737.000000;1.009242
7736.000000;1.008936
7735.000000;1.008808
7734.000000;1.008779
7733.000000;1.008755
7732.000000;1.008771
7731.000000;1.008963
7730.000000;1.009381
7729.000000;1.009857
7728.000000;1.010125
7727.000000;1.010087
7726.000000;1.009915
7725.000000;1.009855
7724.000000;1.009988
7723.000000;1.010238
7722.000000;1.010550
7721.000000;1.010936
7720.000000;1.011367
7719.000000;1.011728
7718.000000;1.011937
7717.000000;1.012023
7716.000000;1.012050
7715.000000;1.012045
7714.000000;1.012025
7713.000000;1.012039
7712.000000;1.012140
7711.000000;1.012339
7710.000000;1.012595
7709.000000;1.012803
7708.000000;1.012819
7707.000000;1.012581
7706.000000;1.012217
7705.000000;1.011952
7704.000000;1.011924
7703.000000;1.012138
7702.000000;1.012576
7701.000000;1.013181
7700.000000;1.013725
7699.000000;1.013893
7698.000000;1.013618
7697.000000;1.013219
7696.000000;1.013095
7695.000000;1.013349
7694.000000;1.013786
7693.000000;1.014194
7692.000000;1.014510
7691.000000;1.014762
7690.000000;1.014979
7689.000000;1.015128
7688.000000;1.015121
7687.000000;1.014922
7686.000000;1.014706
7685.000000;1.014789
7684.000000;1.015300
7683.000000;1.015996
7682.000000;1.016487
7681.000000;1.016606
7680.000000;1.016468
7679.000000;1.016270
7678.000000;1.016156
7677.000000;1.016217
7676.000000;1.016446
7675.000000;1.016693
7674.000000;1.016799
7673.000000;1.016793
7672.000000;1.016844
7671.000000;1.017023
7670.000000;1.017218
7669.000000;1.017274
7668.000000;1.017128
7667.000000;1.016823
7666.000000;1.016494
7665.000000;1.016361
7664.000000;1.016567
7663.000000;1.016991
7662.000000;1.017338
7661.000000;1.017475
7660.000000;1.017539
7659.000000;1.017663
7658.000000;1.017729
7657.000000;1.017549
7656.000000;1.017199
7655.000000;1.017003
7654.000000;1.017186
7653.000000;1.017661
7652.000000;1.018181
7651.000000;1.018601
7650.000000;1.018921
7649.000000;1.019169
7648.000000;1.019329
7647.000000;1.019396
7646.000000;1.019415
7645.000000;1.019476
7644.000000;1.019672
7643.000000;1.020051
7642.000000;1.020541
7641.000000;1.020923
7640.000000;1.020989
7639.000000;1.020781
7638.000000;1.020620
7637.000000;1.020820
7636.000000;1.021397
7635.000000;1.022113
7634.000000;1.022741
7633.000000;1.023182
7632.000000;1.023363
7631.000000;1.023226
7630.000000;1.022875
7629.000000;1.022588
7628.000000;1.022579
7627.000000;1.022805
7626.000000;1.023068
7625.000000;1.023210
7624.000000;1.023169
7623.000000;1.022960
7622.000000;1.022728
7621.000000;1.022734
7620.000000;1.023151
7619.000000;1.023856
7618.000000;1.024505
7617.000000;1.024831
7616.000000;1.024840
7615.000000;1.024753
7614.000000;1.024825
7613.000000;1.025156
7612.000000;1.025618
7611.000000;1.025992
7610.000000;1.026242
7609.000000;1.026566
7608.000000;1.027116
7607.000000;1.027743
7606.000000;1.028174
7605.000000;1.028355
7604.000000;1.028497
7603.000000;1.028779
7602.000000;1.029161
7601.000000;1.029498
7600.000000;1.029696
7599.000000;1.029742
7598.000000;1.029679
7597.000000;1.029595
7596.000000;1.029548
7595.000000;1.029509
7594.000000;1.029447
7593.000000;1.029484
7592.000000;1.029803
7591.000000;1.030381
7590.000000;1.030928
7589.000000;1.031192
7588.000000;1.031242
7587.000000;1.031343
7586.000000;1.031615
7585.000000;1.031909
7584.000000;1.032032
7583.000000;1.031999
7582.000000;1.032031
7581.000000;1.032314
7580.000000;1.032799
7579.000000;1.033247
7578.000000;1.033481
7577.000000;1.033549
7576.000000;1.033640
7575.000000;1.033858
7574.000000;1.034131
7573.000000;1.034320
7572.000000;1.034378
7571.000000;1.034398
7570.000000;1.034538
7569.000000;1.034869
7568.000000;1.035285
7567.000000;1.035597
7566.000000;1.035763
7565.000000;1.035957
7564.000000;1.036345
7563.000000;1.036832
7562.000000;1.037154
7561.000000;1.037222
7560.000000;1.037259
7559.000000;1.037545
7558.000000;1.038103
7557.000000;1.038656
7556.000000;1.038885
7555.000000;1.038705
7554.000000;1.038347
7553.000000;1.038172
7552.000000;1.038378
7551.000000;1.038859
7550.000000;1.039355
7549.000000;1.039707
7548.000000;1.039948
7547.000000;1.040190
7546.000000;1.040522
7545.000000;1.040989
7544.000000;1.041567
7543.000000;1.042140
7542.000000;1.042569
7541.000000;1.042801
7540.000000;1.042863
7539.000000;1.042786
7538.000000;1.042610
7537.000000;1.042459
7536.000000;1.042494
7535.000000;1.042763
7534.000000;1.043147
7533.000000;1.043504
7532.000000;1.043814
7531.000000;1.044150
7530.000000;1.044565
7529.000000;1.045017
7528.000000;1.045381
7527.000000;1.045554
7526.000000;1.045590
7525.000000;1.045713
7524.000000;1.046100
7523.000000;1.046670
7522.000000;1.047173
7521.000000;1.047481
7520.000000;1.047694
7519.000000;1.047951
7518.000000;1.048280
7517.000000;1.048674
7516.000000;1.049180
7515.000000;1.049809
7514.000000;1.050427
7513.000000;1.050865
7512.000000;1.051097
7511.000000;1.051228
7510.000000;1.051337
7509.000000;1.051423
7508.000000;1.051492
7507.000000;1.051634
7506.000000;1.051922
7505.000000;1.052297
7504.000000;1.052600
7503.000000;1.052757
7502.000000;1.052878
7501.000000;1.053153
7500.000000;1.053602
7499.000000;1.054058
7498.000000;1.054379
7497.000000;1.054566
7496.000000;1.054703
7495.000000;1.054837
7494.000000;1.055032
7493.000000;1.055409
7492.000000;1.056016
7491.000000;1.056696
7490.000000;1.057240
7489.000000;1.057636
7488.000000;1.058009
7487.000000;1.058356
7486.000000;1.058540
7485.000000;1.058585
7484.000000;1.058761
7483.000000;1.059263
7482.000000;1.059952
7481.000000;1.060533
7480.000000;1.060882
7479.000000;1.061081
7478.000000;1.061231
7477.000000;1.061382
7476.000000;1.061594
7475.000000;1.061911
7474.000000;1.062298
7473.000000;1.062689
7472.000000;1.063112
7471.000000;1.063670
7470.000000;1.064375
7469.000000;1.065060
7468.000000;1.065487
7467.000000;1.065550
7466.000000;1.065378
7465.000000;1.065247
7464.000000;1.065331
7463.000000;1.065549
7462.000000;1.065713
7461.000000;1.065822
7460.000000;1.066084
7459.000000;1.066610
7458.000000;1.067201
7457.000000;1.067574
7456.000000;1.067717
7455.000000;1.067874
7454.000000;1.068205
7453.000000;1.068632
7452.000000;1.069043
7451.000000;1.069502
7450.000000;1.070141
7449.000000;1.070906
7448.000000;1.071531
7447.000000;1.071806
7446.000000;1.071796
7445.000000;1.071766
7444.000000;1.071936
7443.000000;1.072342
7442.000000;1.072917
7441.000000;1.073591
7440.000000;1.074270
7439.000000;1.074790
7438.000000;1.074998
7437.000000;1.074925
7436.000000;1.074815
7435.000000;1.074949
7434.000000;1.075414
7433.000000;1.076061
7432.000000;1.076651
7431.000000;1.077047
7430.000000;1.077285
7429.000000;1.077471
7428.000000;1.077630
7427.000000;1.077723
7426.000000;1.077800
7425.000000;1.078023
7424.000000;1.078457
7423.000000;1.078935
7422.000000;1.079208
7421.000000;1.079196
7420.000000;1.079041
7419.000000;1.078969
7418.000000;1.079133
7417.000000;1.079545
7416.000000;1.080078
7415.000000;1.080584
7414.000000;1.081041
7413.000000;1.081549
7412.000000;1.082135
7411.000000;1.082660
7410.000000;1.083000
7409.000000;1.083218
7408.000000;1.083423
7407.000000;1.083555
7406.000000;1.083501
7405.000000;1.083357
7404.000000;1.083397
7403.000000;1.083795
7402.000000;1.084457
7401.000000;1.085145
7400.000000;1.085642
7399.000000;1.085833
7398.000000;1.085784
7397.000000;1.085764
7396.000000;1.085954
7395.000000;1.086170
7394.000000;1.086157
7393.000000;1.086081
7392.000000;1.086426
7391.000000;1.087378
7390.000000;1.088616
7389.000000;1.089736
7388.000000;1.090525
7387.000000;1.090809
7386.000000;1.090497
7385.000000;1.089878
7384.000000;1.089423
7383.000000;1.089203
7382.000000;1.088894
7381.000000;1.088463
7380.000000;1.088406
7379.000000;1.088994
7378.000000;1.089744
7377.000000;1.090025
7376.000000;1.089860
7375.000000;1.089890
7374.000000;1.090647
7373.000000;1.092059
7372.000000;1.093596
7371.000000;1.094628
7370.000000;1.094744
7369.000000;1.094126
7368.000000;1.093533
7367.000000;1.093528
7366.000000;1.093961
7365.000000;1.094494
7364.000000;1.095136
7363.000000;1.095929
7362.000000;1.096610
7361.000000;1.096896
7360.000000;1.096885
7359.000000;1.096829
7358.000000;1.096684
7357.000000;1.096247
7356.000000;1.095661
7355.000000;1.095500
7354.000000;1.096179
7353.000000;1.097519
7352.000000;1.098974
7351.000000;1.100013
7350.000000;1.100272
7349.000000;1.099731
7348.000000;1.098858
7347.000000;1.098293
7346.000000;1.098288
7345.000000;1.098584
7344.000000;1.098742
7343.000000;1.098334
7342.000000;1.097140
7341.000000;1.095552
7340.000000;1.094730
7339.000000;1.095788
7338.000000;1.098580
7337.000000;1.101843
7336.000000;1.104477
7335.000000;1.106141
7334.000000;1.106933
7333.000000;1.107073
7332.000000;1.106891
7331.000000;1.106687
7330.000000;1.106365
7329.000000;1.105503
7328.000000;1.104161
7327.000000;1.103368
7326.000000;1.104071
7325.000000;1.105911
7324.000000;1.107824
7323.000000;1.109300
7322.000000;1.110532
7321.000000;1.111719
7320.000000;1.112775
7319.000000;1.113638
7318.000000;1.114288
7317.000000;1.114645
7316.000000;1.114744
7315.000000;1.114853
7314.000000;1.115113
7313.000000;1.115169
7312.000000;1.114604
7311.000000;1.113793
7310.000000;1.113673
7309.000000;1.114520
7308.000000;1.115602
7307.000000;1.116283
7306.000000;1.116889
7305.000000;1.118032
7304.000000;1.119641
7303.000000;1.121234
7302.000000;1.122471
7301.000000;1.123172
7300.000000;1.123299
7299.000000;1.123188
7298.000000;1.123474
7297.000000;1.124363
7296.000000;1.125275
7295.000000;1.125497
7294.000000;1.125200
7293.000000;1.125428
7292.000000;1.126747
7291.000000;1.128538
7290.000000;1.129836
7289.000000;1.130306
7288.000000;1.130369
7287.000000;1.130734
7286.000000;1.131835
7285.000000;1.133504
7284.000000;1.135169
7283.000000;1.136436
7282.000000;1.137360
7281.000000;1.138179
7280.000000;1.138945
7279.000000;1.139538
7278.000000;1.140015
7277.000000;1.140643
7276.000000;1.141541
7275.000000;1.142529
7274.000000;1.143395
7273.000000;1.144132
7272.000000;1.144895
7271.000000;1.145855
7270.000000;1.147078
7269.000000;1.148457
7268.000000;1.149787
7267.000000;1.150968
7266.000000;1.152078
7265.000000;1.153160
7264.000000;1.154049
7263.000000;1.154626
7262.000000;1.155164
7261.000000;1.156184
7260.000000;1.157919
7259.000000;1.160064
7258.000000;1.162043
7257.000000;1.163423
7256.000000;1.164124
7255.000000;1.164398
7254.000000;1.164649
7253.000000;1.165293
7252.000000;1.166631
7251.000000;1.168592
7250.000000;1.170767
7249.000000;1.172772
7248.000000;1.174427
7247.000000;1.175689
7246.000000;1.176499
7245.000000;1.176696
7244.000000;1.176210
7243.000000;1.175553
7242.000000;1.175958
7241.000000;1.178382
7240.000000;1.182417
7239.000000;1.186719
7238.000000;1.190175
7237.000000;1.192363
7236.000000;1.193355
7235.000000;1.193378
7234.000000;1.192664
7233.000000;1.191757
7232.000000;1.191817
7231.000000;1.193926
7230.000000;1.197982
7229.000000;1.202751
7228.000000;1.206917
7227.000000;1.209938
7226.000000;1.212165
7225.000000;1.214280
7224.000000;1.216544
7223.000000;1.218733
7222.000000;1.220647
7221.000000;1.222376
7220.000000;1.224215
7219.000000;1.226546
7218.000000;1.229554
7217.000000;1.232921
7216.000000;1.236008
7215.000000;1.238481
7214.000000;1.240620
7213.000000;1.242942
7212.000000;1.245656
7211.000000;1.248563
7210.000000;1.251389
7209.000000;1.254003
7208.000000;1.256311
7207.000000;1.258237
7206.000000;1.259876
7205.000000;1.261557
7204.000000;1.263694
7203.000000;1.266559
7202.000000;1.270117
7201.000000;1.273990
7200.000000;1.277711
7199.000000;1.281088
7198.000000;1.284252
7197.000000;1.287305
7196.000000;1.290121
7195.000000;1.292625
7194.000000;1.295090
7193.000000;1.297868
7192.000000;1.300988
7191.000000;1.304246
7190.000000;1.307623
7189.000000;1.311275
7188.000000;1.315192
7187.000000;1.319068
7186.000000;1.322528
7185.000000;1.325383
7184.000000;1.327649
7183.000000;1.329463
7182.000000;1.331139
7181.000000;1.333222
7180.000000;1.336161
7179.000000;1.339957
7178.000000;1.344274
7177.000000;1.348696
7176.000000;1.352827
7175.000000;1.356469
7174.000000;1.359722
7173.000000;1.362759
7172.000000;1.365540
7171.000000;1.367905
7170.000000;1.369961
7169.000000;1.372166
7168.000000;1.375053
7167.000000;1.378789
7166.000000;1.382998
7165.000000;1.387132
7164.000000;1.390880
7163.000000;1.394166
7162.000000;1.396993
7161.000000;1.399554
7160.000000;1.402333
7159.000000;1.405708
7158.000000;1.409549
7157.000000;1.413398
7156.000000;1.416940
7155.000000;1.420244
7154.000000;1.423553
7153.000000;1.426961
7152.000000;1.430460
7151.000000;1.434029
7150.000000;1.437531
7149.000000;1.440808
7148.000000;1.443919
7147.000000;1.447009
7146.000000;1.449936
7145.000000;1.452328
7144.000000;1.454112
7143.000000;1.455756
7142.000000;1.457767
7141.000000;1.460175
7140.000000;1.462720
7139.000000;1.465394
7138.000000;1.468469
7137.000000;1.472007
7136.000000;1.475717
7135.000000;1.479309
7134.000000;1.482697
7133.000000;1.485854
7132.000000;1.488794
7131.000000;1.491699
7130.000000;1.494794
7129.000000;1.497992
7128.000000;1.500845
7127.000000;1.503032
7126.000000;1.504756
7125.000000;1.506480
7124.000000;1.508404
7123.000000;1.510365
7122.000000;1.512199
7121.000000;1.513965
7120.000000;1.515724
7119.000000;1.517337
7118.000000;1.518720
7117.000000;1.520222
7116.000000;1.522429
7115.000000;1.525514
7114.000000;1.529045
7113.000000;1.532388
7112.000000;1.535168
7111.000000;1.537409
7110.000000;1.539344
7109.000000;1.541129
7108.000000;1.542855
7107.000000;1.544699
7106.000000;1.546796
7105.000000;1.549045
7104.000000;1.551236
7103.000000;1.553289
7102.000000;1.555271
7101.000000;1.557226
7100.000000;1.559053
7099.000000;1.560663
7098.000000;1.562157
7097.000000;1.563685
7096.000000;1.565192
7095.000000;1.566484
7094.000000;1.567545
7093.000000;1.568639
7092.000000;1.570077
7091.000000;1.571964
7090.000000;1.574140
7089.000000;1.576267
7088.000000;1.578003
7087.000000;1.579285
7086.000000;1.580439
7085.000000;1.581876
7084.000000;1.583611
7083.000000;1.585241
7082.000000;1.586482
7081.000000;1.587538
7080.000000;1.588703
7079.000000;1.589853
7078.000000;1.590720
7077.000000;1.591474
7076.000000;1.592634
7075.000000;1.594383
7074.000000;1.596261
7073.000000;1.597664
7072.000000;1.598460
7071.000000;1.599015
7070.000000;1.599717
7069.000000;1.600618
7068.000000;1.601513
7067.000000;1.602305
7066.000000;1.603192
7065.000000;1.604440
7064.000000;1.605967
7063.000000;1.607242
7062.000000;1.607768
7061.000000;1.607710
7060.000000;1.607808
7059.000000;1.608616
7058.000000;1.610011
7057.000000;1.611463
7056.000000;1.612607
7055.000000;1.613464
7054.000000;1.614233
7053.000000;1.615056
7052.000000;1.615983
7051.000000;1.616978
7050.000000;1.617823
7049.000000;1.618143
7048.000000;1.617741
7047.000000;1.616932
7046.000000;1.616406
7045.000000;1.616653
7044.000000;1.617568
7043.000000;1.618673
7042.000000;1.619640
7041.000000;1.620514
7040.000000;1.621482
7039.000000;1.622596
7038.000000;1.623787
7037.000000;1.624968
7036.000000;1.625992
7035.000000;1.626655
7034.000000;1.626907
7033.000000;1.626996
7032.000000;1.627274
7031.000000;1.627866
7030.000000;1.628556
7029.000000;1.629022
7028.000000;1.629131
7027.000000;1.629038
7026.000000;1.629046
7025.000000;1.629348
7024.000000;1.629912
7023.000000;1.630640
7022.000000;1.631540
7021.000000;1.632601
7020.000000;1.633550
7019.000000;1.633993
7018.000000;1.633899
7017.000000;1.633726
7016.000000;1.633908
7015.000000;1.634390
7014.000000;1.634844
7013.000000;1.635145
7012.000000;1.635376
7011.000000;1.635520
7010.000000;1.635474
7009.000000;1.635352
7008.000000;1.635461
7007.000000;1.635991
7006.000000;1.636965
7005.000000;1.638430
7004.000000;1.640327
7003.000000;1.642100
7002.000000;1.642866
7001.000000;1.642247
7000.000000;1.640876
6999.000000;1.639847
6998.000000;1.639798
6997.000000;1.640616
6996.000000;1.641762
6995.000000;1.642683
6994.000000;1.643051
6993.000000;1.642876
6992.000000;1.642420
6991.000000;1.641974
6990.000000;1.641760
6989.000000;1.641984
6988.000000;1.642752
6987.000000;1.643777
6986.000000;1.644401
6985.000000;1.644209
6984.000000;1.643552
6983.000000;1.643170
6982.000000;1.643362
6981.000000;1.643780
6980.000000;1.644031
6979.000000;1.644164
6978.000000;1.644463
6977.000000;1.644978
6976.000000;1.645472
6975.000000;1.645726
6974.000000;1.645692
6973.000000;1.645404
6972.000000;1.644941
6971.000000;1.644530
6970.000000;1.644517
6969.000000;1.645097
6968.000000;1.646106
6967.000000;1.647113
6966.000000;1.647707
6965.000000;1.647721
6964.000000;1.647303
6963.000000;1.646833
6962.000000;1.646705
6961.000000;1.647025
6960.000000;1.647488
6959.000000;1.647645
6958.000000;1.647347
6957.000000;1.646861
6956.000000;1.646591
6955.000000;1.646728
6954.000000;1.647169
6953.000000;1.647637
6952.000000;1.647826
6951.000000;1.647614
6950.000000;1.647221
6949.000000;1.647039
6948.000000;1.647207
6947.000000;1.647432
6946.000000;1.647347
6945.000000;1.646942
6944.000000;1.646520
6943.000000;1.646337
6942.000000;1.646477
6941.000000;1.646940
6940.000000;1.647577
6939.000000;1.647966
6938.000000;1.647671
6937.000000;1.646730
6936.000000;1.645700
6935.000000;1.645081
6934.000000;1.644910
6933.000000;1.644998
6932.000000;1.645321
6931.000000;1.645952
6930.000000;1.646730
6929.000000;1.647253
6928.000000;1.647260
6927.000000;1.646860
6926.000000;1.646319
6925.000000;1.645766
6924.000000;1.645245
6923.000000;1.644981
6922.000000;1.645376
6921.000000;1.646604
6920.000000;1.648231
6919.000000;1.649358
6918.000000;1.649322
6917.000000;1.648296
6916.000000;1.647148
6915.000000;1.646687
6914.000000;1.647078
6913.000000;1.647874
6912.000000;1.648455
6911.000000;1.648442
6910.000000;1.647901
6909.000000;1.647247
6908.000000;1.646888
6907.000000;1.646928
6906.000000;1.647189
6905.000000;1.647469
6904.000000;1.647681
6903.000000;1.647761
6902.000000;1.647603
6901.000000;1.647241
6900.000000;1.646999
6899.000000;1.647274
6898.000000;1.648091
6897.000000;1.648901
6896.000000;1.648937
6895.000000;1.647897
6894.000000;1.646348
6893.000000;1.645314
6892.000000;1.645340
6891.000000;1.645966
6890.000000;1.646262
6889.000000;1.645836
6888.000000;1.645131
6887.000000;1.644766
6886.000000;1.644902
6885.000000;1.645326
6884.000000;1.645834
6883.000000;1.646260
6882.000000;1.646309
6881.000000;1.645749
6880.000000;1.644785
6879.000000;1.643970
6878.000000;1.643677
6877.000000;1.643787
6876.000000;1.643927
6875.000000;1.643889
6874.000000;1.643718
6873.000000;1.643521
6872.000000;1.643314
6871.000000;1.643072
6870.000000;1.642840
6869.000000;1.642727
6868.000000;1.642789
6867.000000;1.642917
6866.000000;1.642896
6865.000000;1.642591
6864.000000;1.642095
6863.000000;1.641708
6862.000000;1.641767
6861.000000;1.642412
6860.000000;1.643424
6859.000000;1.644261
6858.000000;1.644359
6857.000000;1.643544
6856.000000;1.642184
6855.000000;1.640965
6854.000000;1.640473
6853.000000;1.640867
6852.000000;1.641805
6851.000000;1.642657
6850.000000;1.642891
6849.000000;1.642367
6848.000000;1.641305
6847.000000;1.640061
6846.000000;1.638966
6845.000000;1.638269
6844.000000;1.638051
6843.000000;1.638155
6842.000000;1.638339
6841.000000;1.638507
6840.000000;1.638700
6839.000000;1.638832
6838.000000;1.638629
6837.000000;1.637940
6836.000000;1.636988
6835.000000;1.636206
6834.000000;1.635867
6833.000000;1.635924
6832.000000;1.636106
6831.000000;1.636072
6830.000000;1.635564
6829.000000;1.634592
6828.000000;1.633480
6827.000000;1.632659
6826.000000;1.632360
6825.000000;1.632472
6824.000000;1.632609
6823.000000;1.632369
6822.000000;1.631640
6821.000000;1.630737
6820.000000;1.630139
6819.000000;1.630025
6818.000000;1.630141
6817.000000;1.630146
6816.000000;1.629936
6815.000000;1.629553
6814.000000;1.628986
6813.000000;1.628248
6812.000000;1.627509
6811.000000;1.626923
6810.000000;1.626404
6809.000000;1.625788
6808.000000;1.625159
6807.000000;1.624709
6806.000000;1.624326
6805.000000;1.623638
6804.000000;1.622570
6803.000000;1.621568
6802.000000;1.621080
6801.000000;1.620996
6800.000000;1.620794
6799.000000;1.620106
6798.000000;1.618983
6797.000000;1.617661
6796.000000;1.616319
6795.000000;1.615048
6794.000000;1.613901
6793.000000;1.612864
6792.000000;1.611891
6791.000000;1.611028
6790.000000;1.610457
6789.000000;1.610343
6788.000000;1.610622
6787.000000;1.610947
6786.000000;1.610894
6785.000000;1.610270
6784.000000;1.609238
6783.000000;1.608104
6782.000000;1.607027
6781.000000;1.605967
6780.000000;1.604894
6779.000000;1.603917
6778.000000;1.603171
6777.000000;1.602649
6776.000000;1.602210
6775.000000;1.601706
6774.000000;1.601041
6773.000000;1.600187
6772.000000;1.599198
6771.000000;1.598198
6770.000000;1.597308
6769.000000;1.596564
6768.000000;1.595900
6767.000000;1.595177
6766.000000;1.594253
6765.000000;1.593102
6764.000000;1.591874
6763.000000;1.590784
6762.000000;1.589879
6761.000000;1.589000
6760.000000;1.587997
6759.000000;1.586907
6758.000000;1.585846
6757.000000;1.584845
6756.000000;1.583899
6755.000000;1.583121
6754.000000;1.582693
6753.000000;1.582643
6752.000000;1.582735
6751.000000;1.582580
6750.000000;1.581811
6749.000000;1.580277
6748.000000;1.578222
6747.000000;1.576263
6746.000000;1.575010
6745.000000;1.574599
6744.000000;1.574612
6743.000000;1.574490
6742.000000;1.573967
6741.000000;1.573135
6740.000000;1.572209
6739.000000;1.571338
6738.000000;1.570558
6737.000000;1.569800
6736.000000;1.568927
6735.000000;1.567839
6734.000000;1.566588
6733.000000;1.565359
6732.000000;1.564318
6731.000000;1.563481
6730.000000;1.562710
6729.000000;1.561837
6728.000000;1.560797
6727.000000;1.559631
6726.000000;1.558383
6725.000000;1.557052
6724.000000;1.555694
6723.000000;1.554470
6722.000000;1.553512
6721.000000;1.552757
6720.000000;1.552047
6719.000000;1.551341
6718.000000;1.550721
6717.000000;1.550152
6716.000000;1.549473
6715.000000;1.548606
6714.000000;1.547674
6713.000000;1.546774
6712.000000;1.545800
6711.000000;1.544665
6710.000000;1.543541
6709.000000;1.542589
6708.000000;1.541725
6707.000000;1.540720
6706.000000;1.539517
6705.000000;1.538333
6704.000000;1.537191
6703.000000;1.535920
6702.000000;1.534487
6701.000000;1.533217
6700.000000;1.532432
6699.000000;1.532022
6698.000000;1.531529
6697.000000;1.530626
6696.000000;1.529370
6695.000000;1.528033
6694.000000;1.526814
6693.000000;1.525754
6692.000000;1.524842
6691.000000;1.524117
6690.000000;1.523640
6689.000000;1.523339
6688.000000;1.522924
6687.000000;1.522063
6686.000000;1.520679
6685.000000;1.519003
6684.000000;1.517304
6683.000000;1.515689
6682.000000;1.514203
6681.000000;1.512980
6680.000000;1.512098
6679.000000;1.511367
6678.000000;1.510472
6677.000000;1.509327
6676.000000;1.508165
6675.000000;1.507204
6674.000000;1.506369
6673.000000;1.505424
6672.000000;1.504276
6671.000000;1.503073
6670.000000;1.502019
6669.000000;1.501197
6668.000000;1.500528
6667.000000;1.499863
6666.000000;1.499074
6665.000000;1.498099
6664.000000;1.496959
6663.000000;1.495761
6662.000000;1.494687
6661.000000;1.493870
6660.000000;1.493231
6659.000000;1.492462
6658.000000;1.491292
6657.000000;1.489770
6656.000000;1.488248
6655.000000;1.487056
6654.000000;1.486229
6653.000000;1.485505
6652.000000;1.484557
6651.000000;1.483258
6650.000000;1.481799
6649.000000;1.480551
6648.000000;1.479710
6647.000000;1.479098
6646.000000;1.478365
6645.000000;1.477376
6644.000000;1.476297
6643.000000;1.475302
6642.000000;1.474365
6641.000000;1.473397
6640.000000;1.472429
6639.000000;1.471531
6638.000000;1.470660
6637.000000;1.469712
6636.000000;1.468698
6635.000000;1.467717
6634.000000;1.466770
6633.000000;1.465727
6632.000000;1.464497
6631.000000;1.463147
6630.000000;1.461829
6629.000000;1.460637
6628.000000;1.459561
6627.000000;1.458533
6626.000000;1.457502
6625.000000;1.456506
6624.000000;1.455640
6623.000000;1.454913
6622.000000;1.454180
6621.000000;1.453288
6620.000000;1.452266
6619.000000;1.451301
6618.000000;1.450506
6617.000000;1.449786
6616.000000;1.448949
6615.000000;1.447884
6614.000000;1.446638
6613.000000;1.445356
6612.000000;1.444190
6611.000000;1.443193
6610.000000;1.442291
6609.000000;1.441387
6608.000000;1.440466
6607.000000;1.439545
6606.000000;1.438598
6605.000000;1.437613
6604.000000;1.436681
6603.000000;1.435888
6602.000000;1.435105
6601.000000;1.434075
6600.000000;1.432758
6599.000000;1.431439
6598.000000;1.430396
6597.000000;1.429595
6596.000000;1.428806
6595.000000;1.427894
6594.000000;1.426862
6593.000000;1.425726
6592.000000;1.424517
6591.000000;1.423352
6590.000000;1.422330
6589.000000;1.421385
6588.000000;1.420391
6587.000000;1.419383
6586.000000;1.418525
6585.000000;1.417868
6584.000000;1.417308
6583.000000;1.416730
6582.000000;1.416040
6581.000000;1.415068
6580.000000;1.413677
6579.000000;1.412044
6578.000000;1.410627
6577.000000;1.409713
6576.000000;1.409159
6575.000000;1.408642
6574.000000;1.408028
6573.000000;1.407329
6572.000000;1.406477
6571.000000;1.405354
6570.000000;1.404025
6569.000000;1.402720
6568.000000;1.401590
6567.000000;1.400602
6566.000000;1.399679
6565.000000;1.398803
6564.000000;1.397983
6563.000000;1.397208
6562.000000;1.396485
6561.000000;1.395835
6560.000000;1.395199
6559.000000;1.394446
6558.000000;1.393480
6557.000000;1.392310
6556.000000;1.391023
6555.000000;1.389743
6554.000000;1.388614
6553.000000;1.387722
6552.000000;1.386981
6551.000000;1.386197
6550.000000;1.385290
6549.000000;1.384390
6548.000000;1.383673
6547.000000;1.383129
6546.000000;1.382560
6545.000000;1.381788
6544.000000;1.380824
6543.000000;1.379829
6542.000000;1.378959
6541.000000;1.378239
6540.000000;1.377576
6539.000000;1.376853
6538.000000;1.376008
6537.000000;1.375035
6536.000000;1.373967
6535.000000;1.372870
6534.000000;1.371847
6533.000000;1.370994
6532.000000;1.370337
6531.000000;1.369829
6530.000000;1.369374
6529.000000;1.368856
6528.000000;1.368170
6527.000000;1.367284
6526.000000;1.366265
6525.000000;1.365198
6524.000000;1.364106
6523.000000;1.362972
6522.000000;1.361848
6521.000000;1.360857
6520.000000;1.360076
6519.000000;1.359457
6518.000000;1.358887
6517.000000;1.358294
6516.000000;1.357666
6515.000000;1.356992
6514.000000;1.356238
6513.000000;1.355369
6512.000000;1.354374
6511.000000;1.353271
6510.000000;1.352123
6509.000000;1.351032
6508.000000;1.350101
6507.000000;1.349363
6506.000000;1.348753
6505.000000;1.348165
6504.000000;1.347555
6503.000000;1.346958
6502.000000;1.346389
6501.000000;1.345770
6500.000000;1.345010
6499.000000;1.344141
6498.000000;1.343314
6497.000000;1.342616
6496.000000;1.341970
6495.000000;1.341245
6494.000000;1.340404
6493.000000;1.339479
6492.000000;1.338483
6491.000000;1.337428
6490.000000;1.336405
6489.000000;1.335539
6488.000000;1.334841
6487.000000;1.334197
6486.000000;1.333534
6485.000000;1.332916
6484.000000;1.332430
6483.000000;1.332024
6482.000000;1.331541
6481.000000;1.330882
6480.000000;1.330071
6479.000000;1.329183
6478.000000;1.328253
6477.000000;1.327285
6476.000000;1.326309
6475.000000;1.325410
6474.000000;1.324680
6473.000000;1.324158
6472.000000;1.323792
6471.000000;1.323456
6470.000000;1.323012
6469.000000;1.322372
6468.000000;1.321528
6467.000000;1.320546
6466.000000;1.319521
6465.000000;1.318542
6464.000000;1.317678
6463.000000;1.316957
6462.000000;1.316345
6461.000000;1.315738
6460.000000;1.315035
6459.000000;1.314229
6458.000000;1.313413
6457.000000;1.312690
6456.000000;1.312084
6455.000000;1.311556
6454.000000;1.311047
6453.000000;1.310502
6452.000000;1.309880
6451.000000;1.309188
6450.000000;1.308474
6449.000000;1.307768
6448.000000;1.307060
6447.000000;1.306360
6446.000000;1.305738
6445.000000;1.305245
6444.000000;1.304804
6443.000000;1.304255
6442.000000;1.303525
6441.000000;1.302702
6440.000000;1.301934
6439.000000;1.301277
6438.000000;1.300654
6437.000000;1.299957
6436.000000;1.299159
6435.000000;1.298363
6434.000000;1.297710
6433.000000;1.297230
6432.000000;1.296786
6431.000000;1.296198
6430.000000;1.295437
6429.000000;1.294675
6428.000000;1.294131
6427.000000;1.293875
6426.000000;1.293757
6425.000000;1.293518
6424.000000;1.292983
6423.000000;1.292186
6422.000000;1.291312
6421.000000;1.290509
6420.000000;1.289767
6419.000000;1.288996
6418.000000;1.288196
6417.000000;1.287482
6416.000000;1.286961
6415.000000;1.286607
6414.000000;1.286294
6413.000000;1.285912
6412.000000;1.285448
6411.000000;1.284953
6410.000000;1.284442
6409.000000;1.283853
6408.000000;1.283119
6407.000000;1.282272
6406.000000;1.281450
6405.000000;1.280777
6404.000000;1.280264
6403.000000;1.279829
6402.000000;1.279387
6401.000000;1.278906
6400.000000;1.278391
6399.000000;1.277855
6398.000000;1.277293
6397.000000;1.276668
6396.000000;1.275957
6395.000000;1.275218
6394.000000;1.274563
6393.000000;1.274056
6392.000000;1.273650
6391.000000;1.273265
6390.000000;1.272852
6389.000000;1.272360
6388.000000;1.271702
6387.000000;1.270845
6386.000000;1.269934
6385.000000;1.269226
6384.000000;1.268861
6383.000000;1.268744
6382.000000;1.268634
6381.000000;1.268342
6380.000000;1.267840
6379.000000;1.267233
6378.000000;1.266636
6377.000000;1.266087
6376.000000;1.265555
6375.000000;1.265030
6374.000000;1.264554
6373.000000;1.264155
6372.000000;1.263783
6371.000000;1.263373
6370.000000;1.262927
6369.000000;1.262478
6368.000000;1.261997
6367.000000;1.261412
6366.000000;1.260720
6365.000000;1.260022
6364.000000;1.259416
6363.000000;1.258902
6362.000000;1.258384
6361.000000;1.257774
6360.000000;1.257082
6359.000000;1.256434
6358.000000;1.255974
6357.000000;1.255722
6356.000000;1.255545
6355.000000;1.255288
6354.000000;1.254908
6353.000000;1.254454
6352.000000;1.253956
6351.000000;1.253420
6350.000000;1.252884
6349.000000;1.252400
6348.000000;1.251964
6347.000000;1.251519
6346.000000;1.251036
6345.000000;1.250523
6344.000000;1.249977
6343.000000;1.249384
6342.000000;1.248793
6341.000000;1.248308
6340.000000;1.247975
6339.000000;1.247729
6338.000000;1.247455
6337.000000;1.247078
6336.000000;1.246593
6335.000000;1.246055
6334.000000;1.245549
6333.000000;1.245104
6332.000000;1.244648
6331.000000;1.244093
6330.000000;1.243487
6329.000000;1.242990
6328.000000;1.242697
6327.000000;1.242522
6326.000000;1.242306
6325.000000;1.241982
6324.000000;1.241610
6323.000000;1.241274
6322.000000;1.240998
6321.000000;1.240728
6320.000000;1.240374
6319.000000;1.239898
6318.000000;1.239366
6317.000000;1.238891
6316.000000;1.238513
6315.000000;1.238160
6314.000000;1.237754
6313.000000;1.237296
6312.000000;1.236845
6311.000000;1.236431
6310.000000;1.236038
6309.000000;1.235649
6308.000000;1.235256
6307.000000;1.234838
6306.000000;1.234356
6305.000000;1.233796
6304.000000;1.233222
6303.000000;1.232767
6302.000000;1.232525
6301.000000;1.232432
6300.000000;1.232291
6299.000000;1.231952
6298.000000;1.231453
6297.000000;1.230941
6296.000000;1.230483
6295.000000;1.230025
6294.000000;1.229519
6293.000000;1.229006
6292.000000;1.228564
6291.000000;1.228217
6290.000000;1.227934
6289.000000;1.227681
6288.000000;1.227438
6287.000000;1.227191
6286.000000;1.226933
6285.000000;1.226670
6284.000000;1.226408
6283.000000;1.226149
6282.000000;1.225878
6281.000000;1.225559
6280.000000;1.225160
6279.000000;1.224715
6278.000000;1.224326
6277.000000;1.224059
6276.000000;1.223862
6275.000000;1.223628
6274.000000;1.223316
6273.000000;1.222950
6272.000000;1.222550
6271.000000;1.222121
6270.000000;1.221705
6269.000000;1.221348
6268.000000;1.221015
6267.000000;1.220615
6266.000000;1.220136
6265.000000;1.219665
6264.000000;1.219278
6263.000000;1.218977
6262.000000;1.218758
6261.000000;1.218626
6260.000000;1.218514
6259.000000;1.218271
6258.000000;1.217808
6257.000000;1.217215
6256.000000;1.216664
6255.000000;1.216247
6254.000000;1.215961
6253.000000;1.215793
6252.000000;1.215719
6251.000000;1.215651
6250.000000;1.215460
6249.000000;1.215092
6248.000000;1.214622
6247.000000;1.214186
6246.000000;1.213862
6245.000000;1.213614
6244.000000;1.213333
6243.000000;1.212954
6242.000000;1.212534
6241.000000;1.212179
6240.000000;1.211913
6239.000000;1.211663
6238.000000;1.211377
6237.000000;1.211095
6236.000000;1.210864
6235.000000;1.210664
6234.000000;1.210459
6233.000000;1.210267
6232.000000;1.210104
6231.000000;1.209903
6230.000000;1.209584
6229.000000;1.209191
6228.000000;1.208886
6227.000000;1.208766
6226.000000;1.208746
6225.000000;1.208644
6224.000000;1.208356
6223.000000;1.207931
6222.000000;1.207502
6221.000000;1.207160
6220.000000;1.206896
6219.000000;1.206630
6218.000000;1.206289
6217.000000;1.205861
6216.000000;1.205411
6215.000000;1.205035
6214.000000;1.204793
6213.000000;1.204667
6212.000000;1.204576
6211.000000;1.204443
6210.000000;1.204246
6209.000000;1.203990
6208.000000;1.203677
6207.000000;1.203328
6206.000000;1.203028
6205.000000;1.202877
6204.000000;1.202888
6203.000000;1.202961
6202.000000;1.202977
6201.000000;1.202884
6200.000000;1.202685
6199.000000;1.202396
6198.000000;1.202041
6197.000000;1.201670
6196.000000;1.201326
6195.000000;1.201005
6194.000000;1.200670
6193.000000;1.200298
6192.000000;1.199911
6191.000000;1.199556
6190.000000;1.199263
6189.000000;1.199010
6188.000000;1.198738
6187.000000;1.198411
6186.000000;1.198050
6185.000000;1.197700
6184.000000;1.197384
6183.000000;1.197122
6182.000000;1.196961
6181.000000;1.196936
6180.000000;1.196999
6179.000000;1.197037
6178.000000;1.196975
6177.000000;1.196800
6176.000000;1.196511
6175.000000;1.196111
6174.000000;1.195651
6173.000000;1.195229
6172.000000;1.194907
6171.000000;1.194671
6170.000000;1.194486
6169.000000;1.194341
6168.000000;1.194212
6167.000000;1.194048
6166.000000;1.193831
6165.000000;1.193605
6164.000000;1.193415
6163.000000;1.193269
6162.000000;1.193175
6161.000000;1.193149
6160.000000;1.193131
6159.000000;1.192962
6158.000000;1.192540
6157.000000;1.191962
6156.000000;1.191449
6155.000000;1.191132
6154.000000;1.190961
6153.000000;1.190811
6152.000000;1.190610
6151.000000;1.190368
6150.000000;1.190142
6149.000000;1.189988
6148.000000;1.189915
6147.000000;1.189865
6146.000000;1.189765
6145.000000;1.189590
6144.000000;1.189351
6143.000000;1.189065
6142.000000;1.188760
6141.000000;1.188512
6140.000000;1.188395
6139.000000;1.188393
6138.000000;1.188406
6137.000000;1.188353
6136.000000;1.188228
6135.000000;1.188053
6134.000000;1.187820
6133.000000;1.187532
6132.000000;1.187252
6131.000000;1.187054
6130.000000;1.186924
6129.000000;1.186759
6128.000000;1.186482
6127.000000;1.186144
6126.000000;1.185882
6125.000000;1.185787
6124.000000;1.185818
6123.000000;1.185840
6122.000000;1.185749
6121.000000;1.185550
6120.000000;1.185330
6119.000000;1.185170
6118.000000;1.185088
6117.000000;1.185045
6116.000000;1.184995
6115.000000;1.184910
6114.000000;1.184777
6113.000000;1.184570
6112.000000;1.184262
6111.000000;1.183859
6110.000000;1.183427
6109.000000;1.183053
6108.000000;1.182789
6107.000000;1.182636
6106.000000;1.182574
6105.000000;1.182584
6104.000000;1.182643
6103.000000;1.182706
6102.000000;1.182707
6101.000000;1.182587
6100.000000;1.182330
6099.000000;1.181983
6098.000000;1.181645
6097.000000;1.181425
6096.000000;1.181381
6095.000000;1.181471
6094.000000;1.181559
6093.000000;1.181496
6092.000000;1.181232
6091.000000;1.180872
6090.000000;1.180600
6089.000000;1.180509
6088.000000;1.180518
6087.000000;1.180480
6086.000000;1.180352
6085.000000;1.180224
6084.000000;1.180208
6083.000000;1.180315
6082.000000;1.180455
6081.000000;1.180502
6080.000000;1.180376
6079.000000;1.180085
6078.000000;1.179723
6077.000000;1.179410
6076.000000;1.179195
6075.000000;1.179039
6074.000000;1.178880
6073.000000;1.178699
6072.000000;1.178526
6071.000000;1.178387
6070.000000;1.178267
6069.000000;1.178120
6068.000000;1.177913
6067.000000;1.177668
6066.000000;1.177448
6065.000000;1.177305
6064.000000;1.177235
6063.000000;1.177216
6062.000000;1.177251
6061.000000;1.177359
6060.000000;1.177508
6059.000000;1.177615
6058.000000;1.177617
6057.000000;1.177529
6056.000000;1.177409
6055.000000;1.177269
6054.000000;1.177063
6053.000000;1.176740
6052.000000;1.176315
6051.000000;1.175879
6050.000000;1.175530
6049.000000;1.175302
6048.000000;1.175157
6047.000000;1.175057
6046.000000;1.175015
6045.000000;1.175053
6044.000000;1.175140
6043.000000;1.175205
6042.000000;1.175204
6041.000000;1.175161
6040.000000;1.175118
6039.000000;1.175085
6038.000000;1.175034
6037.000000;1.174929
6036.000000;1.174773
6035.000000;1.174614
6034.000000;1.174518
6033.000000;1.174513
6032.000000;1.174558
6031.000000;1.174585
6030.000000;1.174552
6029.000000;1.174459
6028.000000;1.174322
6027.000000;1.174175
6026.000000;1.174066
6025.000000;1.174025
6024.000000;1.174038
6023.000000;1.174080
6022.000000;1.174152
6021.000000;1.174248
6020.000000;1.174303
6019.000000;1.174234
6018.000000;1.174029
6017.000000;1.173768
6016.000000;1.173542
6015.000000;1.173401
6014.000000;1.173359
6013.000000;1.173395
6012.000000;1.173444
6011.000000;1.173427
6010.000000;1.173327
6009.000000;1.173208
6008.000000;1.173142
6007.000000;1.173154
6006.000000;1.173235
6005.000000;1.173370
6004.000000;1.173523
6003.000000;1.173612
6002.000000;1.173545
6001.000000;1.173280
6000.000000;1.172857
5999.000000;1.172391
5998.000000;1.172039
5997.000000;1.171910
5996.000000;1.171993
5995.000000;1.172166
5994.000000;1.172302
5993.000000;1.172351
5992.000000;1.172328
5991.000000;1.172258
5990.000000;1.172170
5989.000000;1.172108
5988.000000;1.172117
5987.000000;1.172211
5986.000000;1.172344
5985.000000;1.172438
5984.000000;1.172417
5983.000000;1.172256
5982.000000;1.172004
5981.000000;1.171767
5980.000000;1.171652
5979.000000;1.171714
5978.000000;1.171913
5977.000000;1.172112
5976.000000;1.172157
5975.000000;1.172007
5974.000000;1.171788
5973.000000;1.171678
5972.000000;1.171723
5971.000000;1.171816
5970.000000;1.171840
5969.000000;1.171787
5968.000000;1.171728
5967.000000;1.171728
5966.000000;1.171810
5965.000000;1.171972
5964.000000;1.172175
5963.000000;1.172346
5962.000000;1.172423
5961.000000;1.172403
5960.000000;1.172322
5959.000000;1.172204
5958.000000;1.172069
5957.000000;1.171974
5956.000000;1.171991
5955.000000;1.172131
5954.000000;1.172313
5953.000000;1.172441
5952.000000;1.172504
5951.000000;1.172563
5950.000000;1.172645
5949.000000;1.172697
5948.000000;1.172646
5947.000000;1.172512
5946.000000;1.172414
5945.000000;1.172457
5944.000000;1.172651
5943.000000;1.172911
5942.000000;1.173132
5941.000000;1.173239
5940.000000;1.173219
5939.000000;1.173119
5938.000000;1.173016
5937.000000;1.172962
5936.000000;1.172963
5935.000000;1.173004
5934.000000;1.173070
5933.000000;1.173128
5932.000000;1.173124
5931.000000;1.173040
5930.000000;1.172926
5929.000000;1.172858
5928.000000;1.172873
5927.000000;1.172970
5926.000000;1.173133
5925.000000;1.173321
5924.000000;1.173470
5923.000000;1.173557
5922.000000;1.173642
5921.000000;1.173800
5920.000000;1.174027
5919.000000;1.174242
5918.000000;1.174388
5917.000000;1.174471
5916.000000;1.174529
5915.000000;1.174588
5914.000000;1.174659
5913.000000;1.174726
5912.000000;1.174739
5911.000000;1.174671
5910.000000;1.174578
5909.000000;1.174569
5908.000000;1.174696
5907.000000;1.174912
5906.000000;1.175126
5905.000000;1.175277
5904.000000;1.175346
5903.000000;1.175341
5902.000000;1.175297
5901.000000;1.175257
5900.000000;1.175252
5899.000000;1.175293
5898.000000;1.175377
5897.000000;1.175483
5896.000000;1.175564
5895.000000;1.175599
5894.000000;1.175636
5893.000000;1.175748
5892.000000;1.175942
5891.000000;1.176144
5890.000000;1.176283
5889.000000;1.176353
5888.000000;1.176395
5887.000000;1.176443
5886.000000;1.176511
5885.000000;1.176595
5884.000000;1.176678
5883.000000;1.176753
5882.000000;1.176822
5881.000000;1.176877
5880.000000;1.176900
5879.000000;1.176914
5878.000000;1.177002
5877.000000;1.177212
5876.000000;1.177463
5875.000000;1.177612
5874.000000;1.177616
5873.000000;1.177570
5872.000000;1.177586
5871.000000;1.177696
5870.000000;1.177882
5869.000000;1.178133
5868.000000;1.178419
5867.000000;1.178669
5866.000000;1.178835
5865.000000;1.178956
5864.000000;1.179118
5863.000000;1.179365
5862.000000;1.179657
5861.000000;1.179909
5860.000000;1.180050
5859.000000;1.180083
5858.000000;1.180095
5857.000000;1.180192
5856.000000;1.180407
5855.000000;1.180673
5854.000000;1.180901
5853.000000;1.181059
5852.000000;1.181171
5851.000000;1.181288
5850.000000;1.181454
5849.000000;1.181691
5848.000000;1.181974
5847.000000;1.182240
5846.000000;1.182447
5845.000000;1.182606
5844.000000;1.182754
5843.000000;1.182919
5842.000000;1.183104
5841.000000;1.183296
5840.000000;1.183469
5839.000000;1.183600
5838.000000;1.183692
5837.000000;1.183762
5836.000000;1.183830
5835.000000;1.183944
5834.000000;1.184182
5833.000000;1.184583
5832.000000;1.185078
5831.000000;1.185539
5830.000000;1.185913
5829.000000;1.186247
5828.000000;1.186573
5827.000000;1.186845
5826.000000;1.187015
5825.000000;1.187125
5824.000000;1.187268
5823.000000;1.187480
5822.000000;1.187720
5821.000000;1.187947
5820.000000;1.188148
5819.000000;1.188317
5818.000000;1.188448
5817.000000;1.188562
5816.000000;1.188714
5815.000000;1.188959
5814.000000;1.189314
5813.000000;1.189727
5812.000000;1.190110
5811.000000;1.190402
5810.000000;1.190631
5809.000000;1.190874
5808.000000;1.191167
5807.000000;1.191464
5806.000000;1.191701
5805.000000;1.191880
5804.000000;1.192057
5803.000000;1.192273
5802.000000;1.192540
5801.000000;1.192882
5800.000000;1.193332
5799.000000;1.193873
5798.000000;1.194411
5797.000000;1.194842
5796.000000;1.195146
5795.000000;1.195387
5794.000000;1.195633
5793.000000;1.195895
5792.000000;1.196171
5791.000000;1.196488
5790.000000;1.196881
5789.000000;1.197320
5788.000000;1.197729
5787.000000;1.198075
5786.000000;1.198395
5785.000000;1.198734
5784.000000;1.199093
5783.000000;1.199472
5782.000000;1.199896
5781.000000;1.200368
5780.000000;1.200823
5779.000000;1.201193
5778.000000;1.201487
5777.000000;1.201780
5776.000000;1.202118
5775.000000;1.202478
5774.000000;1.202796
5773.000000;1.203027
5772.000000;1.203196
5771.000000;1.203407
5770.000000;1.203769
5769.000000;1.204268
5768.000000;1.204766
5767.000000;1.205157
5766.000000;1.205492
5765.000000;1.205888
5764.000000;1.206359
5763.000000;1.206822
5762.000000;1.207234
5761.000000;1.207615
5760.000000;1.207966
5759.000000;1.208258
5758.000000;1.208533
5757.000000;1.208904
5756.000000;1.209413
5755.000000;1.209976
5754.000000;1.210504
5753.000000;1.211005
5752.000000;1.211524
5751.000000;1.212046
5750.000000;1.212524
5749.000000;1.212960
5748.000000;1.213383
5747.000000;1.213797
5746.000000;1.214189
5745.000000;1.214581
5744.000000;1.215007
5743.000000;1.215471
5742.000000;1.215950
5741.000000;1.216425
5740.000000;1.216893
5739.000000;1.217354
5738.000000;1.217831
5737.000000;1.218361
5736.000000;1.218960
5735.000000;1.219596
5734.000000;1.220221
5733.000000;1.220793
5732.000000;1.221269
5731.000000;1.221618
5730.000000;1.221885
5729.000000;1.222186
5728.000000;1.222608
5727.000000;1.223130
5726.000000;1.223673
5725.000000;1.224194
5724.000000;1.224694
5723.000000;1.225173
5722.000000;1.225642
5721.000000;1.226158
5720.000000;1.226777
5719.000000;1.227466
5718.000000;1.228123
5717.000000;1.228689
5716.000000;1.229211
5715.000000;1.229762
5714.000000;1.230357
5713.000000;1.230974
5712.000000;1.231609
5711.000000;1.232276
5710.000000;1.232941
5709.000000;1.233528
5708.000000;1.234000
5707.000000;1.234431
5706.000000;1.234943
5705.000000;1.235598
5704.000000;1.236353
5703.000000;1.237123
5702.000000;1.237856
5701.000000;1.238536
5700.000000;1.239138
5699.000000;1.239646
5698.000000;1.240095
5697.000000;1.240554
5696.000000;1.241074
5695.000000;1.241654
5694.000000;1.242269
5693.000000;1.242905
5692.000000;1.243558
5691.000000;1.244202
5690.000000;1.244801
5689.000000;1.245337
5688.000000;1.245848
5687.000000;1.246431
5686.000000;1.247159
5685.000000;1.247997
5684.000000;1.248796
5683.000000;1.249420
5682.000000;1.249887
5681.000000;1.250356
5680.000000;1.250966
5679.000000;1.251717
5678.000000;1.252494
5677.000000;1.253175
5676.000000;1.253710
5675.000000;1.254130
5674.000000;1.254531
5673.000000;1.255029
5672.000000;1.255683
5671.000000;1.256452
5670.000000;1.257231
5669.000000;1.257939
5668.000000;1.258554
5667.000000;1.259082
5666.000000;1.259529
5665.000000;1.259913
5664.000000;1.260281
5663.000000;1.260689
5662.000000;1.261161
5661.000000;1.261702
5660.000000;1.262332
5659.000000;1.263071
5658.000000;1.263874
5657.000000;1.264614
5656.000000;1.265185
5655.000000;1.265610
5654.000000;1.266004
5653.000000;1.266453
5652.000000;1.266960
5651.000000;1.267509
5650.000000;1.268111
5649.000000;1.268759
5648.000000;1.269390
5647.000000;1.269941
5646.000000;1.270420
5645.000000;1.270892
5644.000000;1.271414
5643.000000;1.272006
5642.000000;1.272656
5641.000000;1.273316
5640.000000;1.273919
5639.000000;1.274424
5638.000000;1.274846
5637.000000;1.275238
5636.000000;1.275646
5635.000000;1.276095
5634.000000;1.276580
5633.000000;1.277052
5632.000000;1.277469
5631.000000;1.277864
5630.000000;1.278310
5629.000000;1.278819
5628.000000;1.279301
5627.000000;1.279674
5626.000000;1.279951
5625.000000;1.280198
5624.000000;1.280452
5623.000000;1.280732
5622.000000;1.281063
5621.000000;1.281434
5620.000000;1.281779
5619.000000;1.282061
5618.000000;1.282337
5617.000000;1.282685
5616.000000;1.283115
5615.000000;1.283589
5614.000000;1.284090
5613.000000;1.284587
5612.000000;1.284993
5611.000000;1.285245
5610.000000;1.285402
5609.000000;1.285576
5608.000000;1.285808
5607.000000;1.286098
5606.000000;1.286490
5605.000000;1.287019
5604.000000;1.287570
5603.000000;1.287970
5602.000000;1.288208
5601.000000;1.288444
5600.000000;1.288775
5599.000000;1.289114
5598.000000;1.289364
5597.000000;1.289569
5596.000000;1.289829
5595.000000;1.290137
5594.000000;1.290415
5593.000000;1.290625
5592.000000;1.290783
5591.000000;1.290904
5590.000000;1.291003
5589.000000;1.291109
5588.000000;1.291238
5587.000000;1.291376
5586.000000;1.291524
5585.000000;1.291724
5584.000000;1.291986
5583.000000;1.292259
5582.000000;1.292490
5581.000000;1.292692
5580.000000;1.292895
5579.000000;1.293087
5578.000000;1.293226
5577.000000;1.293303
5576.000000;1.293337
5575.000000;1.293360
5574.000000;1.293423
5573.000000;1.293574
5572.000000;1.293786
5571.000000;1.293963
5570.000000;1.294050
5569.000000;1.294092
5568.000000;1.294151
5567.000000;1.294196
5566.000000;1.294147
5565.000000;1.294000
5564.000000;1.293858
5563.000000;1.293846
5562.000000;1.294029
5561.000000;1.294396
5560.000000;1.294851
5559.000000;1.295241
5558.000000;1.295432
5557.000000;1.295404
5556.000000;1.295269
5555.000000;1.295193
5554.000000;1.295264
5553.000000;1.295413
5552.000000;1.295476
5551.000000;1.295377
5550.000000;1.295228
5549.000000;1.295217
5548.000000;1.295404
5547.000000;1.295668
5546.000000;1.295848
5545.000000;1.295890
5544.000000;1.295844
5543.000000;1.295782
5542.000000;1.295751
5541.000000;1.295768
5540.000000;1.295844
5539.000000;1.295995
5538.000000;1.296199
5537.000000;1.296358
5536.000000;1.296366
5535.000000;1.296231
5534.000000;1.296082
5533.000000;1.296022
5532.000000;1.296028
5531.000000;1.296042
5530.000000;1.296075
5529.000000;1.296152
5528.000000;1.296230
5527.000000;1.296238
5526.000000;1.296204
5525.000000;1.296243
5524.000000;1.296413
5523.000000;1.296650
5522.000000;1.296863
5521.000000;1.297008
5520.000000;1.297106
5519.000000;1.297207
5518.000000;1.297339
5517.000000;1.297472
5516.000000;1.297529
5515.000000;1.297486
5514.000000;1.297415
5513.000000;1.297384
5512.000000;1.297376
5511.000000;1.297374
5510.000000;1.297444
5509.000000;1.297629
5508.000000;1.297852
5507.000000;1.298013
5506.000000;1.298121
5505.000000;1.298253
5504.000000;1.298392
5503.000000;1.298480
5502.000000;1.298585
5501.000000;1.298819
5500.000000;1.299144
5499.000000;1.299388
5498.000000;1.299425
5497.000000;1.299347
5496.000000;1.299371
5495.000000;1.299597
5494.000000;1.299886
5493.000000;1.300014
5492.000000;1.299955
5491.000000;1.299904
5490.000000;1.300047
5489.000000;1.300345
5488.000000;1.300591
5487.000000;1.300680
5486.000000;1.300701
5485.000000;1.300791
5484.000000;1.300960
5483.000000;1.301145
5482.000000;1.301369
5481.000000;1.301605
5480.000000;1.301672
5479.000000;1.301517
5478.000000;1.301397
5477.000000;1.301583
5476.000000;1.301987
5475.000000;1.302366
5474.000000;1.302731
5473.000000;1.303231
5472.000000;1.303867
5471.000000;1.304515
5470.000000;1.305092
5469.000000;1.305555
5468.000000;1.305879
5467.000000;1.306122
5466.000000;1.306402
5465.000000;1.306740
5464.000000;1.307019
5463.000000;1.307189
5462.000000;1.307398
5461.000000;1.307749
5460.000000;1.308144
5459.000000;1.308561
5458.000000;1.309175
5457.000000;1.310008
5456.000000;1.310778
5455.000000;1.311291
5454.000000;1.311681
5453.000000;1.312165
5452.000000;1.312726
5451.000000;1.313185
5450.000000;1.313477
5449.000000;1.313698
5448.000000;1.314034
5447.000000;1.314638
5446.000000;1.315388
5445.000000;1.315974
5444.000000;1.316331
5443.000000;1.316773
5442.000000;1.317594
5441.000000;1.318659
5440.000000;1.319576
5439.000000;1.320214
5438.000000;1.320865
5437.000000;1.321834
5436.000000;1.323015
5435.000000;1.324091
5434.000000;1.324913
5433.000000;1.325526
5432.000000;1.326138
5431.000000;1.327015
5430.000000;1.328086
5429.000000;1.328973
5428.000000;1.329579
5427.000000;1.330216
5426.000000;1.331164
5425.000000;1.332375
5424.000000;1.333571
5423.000000;1.334578
5422.000000;1.335532
5421.000000;1.336737
5420.000000;1.338268
5419.000000;1.339823
5418.000000;1.341159
5417.000000;1.342429
5416.000000;1.343914
5415.000000;1.345520
5414.000000;1.346866
5413.000000;1.347898
5412.000000;1.348967
5411.000000;1.350349
5410.000000;1.351954
5409.000000;1.353498
5408.000000;1.354883
5407.000000;1.356331
5406.000000;1.358153
5405.000000;1.360365
5404.000000;1.362633
5403.000000;1.364683
5402.000000;1.366467
5401.000000;1.368158
5400.000000;1.370018
5399.000000;1.372059
5398.000000;1.374103
5397.000000;1.376107
5396.000000;1.378189
5395.000000;1.380402
5394.000000;1.382621
5393.000000;1.384802
5392.000000;1.387041
5391.000000;1.389369
5390.000000;1.391760
5389.000000;1.394283
5388.000000;1.397022
5387.000000;1.399933
5386.000000;1.402919
5385.000000;1.405940
5384.000000;1.409043
5383.000000;1.412259
5382.000000;1.415442
5381.000000;1.418479
5380.000000;1.421531
5379.000000;1.424802
5378.000000;1.428210
5377.000000;1.431544
5376.000000;1.434851
5375.000000;1.438365
5374.000000;1.442167
5373.000000;1.446202
5372.000000;1.450378
5371.000000;1.454578
5370.000000;1.458767
5369.000000;1.463034
5368.000000;1.467450
5367.000000;1.471930
5366.000000;1.476369
5365.000000;1.480772
5364.000000;1.485282
5363.000000;1.490026
5362.000000;1.494942
5361.000000;1.499942
5360.000000;1.505042
5359.000000;1.510245
5358.000000;1.515522
5357.000000;1.520930
5356.000000;1.526569
5355.000000;1.532323
5354.000000;1.537901
5353.000000;1.543257
5352.000000;1.548737
5351.000000;1.554638
5350.000000;1.560785
5349.000000;1.566764
5348.000000;1.572546
5347.000000;1.578578
5346.000000;1.585178
5345.000000;1.592108
5344.000000;1.598949
5343.000000;1.605593
5342.000000;1.612229
5341.000000;1.619197
5340.000000;1.626517
5339.000000;1.633703
5338.000000;1.640525
5337.000000;1.647336
5336.000000;1.654416
5335.000000;1.661641
5334.000000;1.668823
5333.000000;1.675894
5332.000000;1.682872
5331.000000;1.689883
5330.000000;1.697043
5329.000000;1.704343
5328.000000;1.711618
5327.000000;1.718656
5326.000000;1.725413
5325.000000;1.732004
5324.000000;1.738494
5323.000000;1.744900
5322.000000;1.751317
5321.000000;1.757844
5320.000000;1.764363
5319.000000;1.770598
5318.000000;1.776415
5317.000000;1.781941
5316.000000;1.787377
5315.000000;1.792847
5314.000000;1.798449
5313.000000;1.804133
5312.000000;1.809618
5311.000000;1.814717
5310.000000;1.819557
5309.000000;1.824238
5308.000000;1.828500
5307.000000;1.832138
5306.000000;1.835501
5305.000000;1.839149
5304.000000;1.843199
5303.000000;1.847306
5302.000000;1.851136
5301.000000;1.854574
5300.000000;1.857577
5299.000000;1.860171
5298.000000;1.862600
5297.000000;1.865152
5296.000000;1.867684
5295.000000;1.869705
5294.000000;1.871118
5293.000000;1.872423
5292.000000;1.874047
5291.000000;1.875802
5290.000000;1.877243
5289.000000;1.878333
5288.000000;1.879449
5287.000000;1.880940
5286.000000;1.882794
5285.000000;1.884645
5284.000000;1.886147
5283.000000;1.887218
5282.000000;1.887927
5281.000000;1.888322
5280.000000;1.888525
5279.000000;1.888872
5278.000000;1.889667
5277.000000;1.890791
5276.000000;1.891756
5275.000000;1.892234
5274.000000;1.892443
5273.000000;1.892888
5272.000000;1.893801
5271.000000;1.895052
5270.000000;1.896341
5269.000000;1.897355
5268.000000;1.897974
5267.000000;1.898406
5266.000000;1.898947
5265.000000;1.899570
5264.000000;1.900022
5263.000000;1.900277
5262.000000;1.900607
5261.000000;1.901150
5260.000000;1.901740
5259.000000;1.902289
5258.000000;1.903053
5257.000000;1.904143
5256.000000;1.905050
5255.000000;1.905190
5254.000000;1.904745
5253.000000;1.904447
5252.000000;1.904642
5251.000000;1.905160
5250.000000;1.905636
5249.000000;1.905680
5248.000000;1.905278
5247.000000;1.904965
5246.000000;1.905286
5245.000000;1.906145
5244.000000;1.906911
5243.000000;1.907194
5242.000000;1.907288
5241.000000;1.907627
5240.000000;1.908129
5239.000000;1.908443
5238.000000;1.908622
5237.000000;1.908941
5236.000000;1.909203
5235.000000;1.908950
5234.000000;1.908257
5233.000000;1.907743
5232.000000;1.907782
5231.000000;1.908095
5230.000000;1.908233
5229.000000;1.908192
5228.000000;1.908335
5227.000000;1.908813
5226.000000;1.909353
5225.000000;1.909712
5224.000000;1.909978
5223.000000;1.910336
5222.000000;1.910766
5221.000000;1.911079
5220.000000;1.911148
5219.000000;1.911029
5218.000000;1.910890
5217.000000;1.910815
5216.000000;1.910778
5215.000000;1.910760
5214.000000;1.910734
5213.000000;1.910717
5212.000000;1.910825
5211.000000;1.911156
5210.000000;1.911661
5209.000000;1.912190
5208.000000;1.912640
5207.000000;1.912939
5206.000000;1.912974
5205.000000;1.912616
5204.000000;1.911917
5203.000000;1.911227
5202.000000;1.910928
5201.000000;1.911103
5200.000000;1.911531
5199.000000;1.911926
5198.000000;1.912071
5197.000000;1.911839
5196.000000;1.911356
5195.000000;1.911013
5194.000000;1.911125
5193.000000;1.911649
5192.000000;1.912253
5191.000000;1.912596
5190.000000;1.912533
5189.000000;1.912116
5188.000000;1.911507
5187.000000;1.910917
5186.000000;1.910538
5185.000000;1.910485
5184.000000;1.910792
5183.000000;1.911342
5182.000000;1.911824
5181.000000;1.911944
5180.000000;1.911719
5179.000000;1.911475
5178.000000;1.911505
5177.000000;1.911798
5176.000000;1.912154
5175.000000;1.912376
5174.000000;1.912277
5173.000000;1.911680
5172.000000;1.910638
5171.000000;1.909598
5170.000000;1.909115
5169.000000;1.909389
5168.000000;1.910164
5167.000000;1.910987
5166.000000;1.911459
5165.000000;1.911390
5164.000000;1.910929
5163.000000;1.910483
5162.000000;1.910292
5161.000000;1.910179
5160.000000;1.909901
5159.000000;1.909567
5158.000000;1.909463
5157.000000;1.909577
5156.000000;1.909623
5155.000000;1.909536
5154.000000;1.909564
5153.000000;1.909766
5152.000000;1.909803
5151.000000;1.909437
5150.000000;1.908930
5149.000000;1.908690
5148.000000;1.908716
5147.000000;1.908672
5146.000000;1.908351
5145.000000;1.907850
5144.000000;1.907394
5143.000000;1.907176
5142.000000;1.907291
5141.000000;1.907635
5140.000000;1.907937
5139.000000;1.908016
5138.000000;1.907948
5137.000000;1.907905
5136.000000;1.907914
5135.000000;1.907854
5134.000000;1.907607
5133.000000;1.907126
5132.000000;1.906446
5131.000000;1.905727
5130.000000;1.905213
5129.000000;1.905035
5128.000000;1.905061
5127.000000;1.905001
5126.000000;1.904676
5125.000000;1.904181
5124.000000;1.903803
5123.000000;1.903791
5122.000000;1.904100
5121.000000;1.904351
5120.000000;1.904128
5119.000000;1.903366
5118.000000;1.902368
5117.000000;1.901507
5116.000000;1.901019
5115.000000;1.901045
5114.000000;1.901609
5113.000000;1.902467
5112.000000;1.903199
5111.000000;1.903586
5110.000000;1.903749
5109.000000;1.903821
5108.000000;1.903665
5107.000000;1.903120
5106.000000;1.902359
5105.000000;1.901750
5104.000000;1.901406
5103.000000;1.901073
5102.000000;1.900470
5101.000000;1.899619
5100.000000;1.898806
5099.000000;1.898303
5098.000000;1.898162
5097.000000;1.898239
5096.000000;1.898390
5095.000000;1.898601
5094.000000;1.898851
5093.000000;1.898926
5092.000000;1.898533
5091.000000;1.897629
5090.000000;1.896487
5089.000000;1.895403
5088.000000;1.894547
5087.000000;1.894128
5086.000000;1.894439
5085.000000;1.895515
5084.000000;1.896858
5083.000000;1.897732
5082.000000;1.897727
5081.000000;1.897001
5080.000000;1.896052
5079.000000;1.895379
5078.000000;1.895238
5077.000000;1.895528
5076.000000;1.895922
5075.000000;1.896160
5074.000000;1.896183
5073.000000;1.896004
5072.000000;1.895585
5071.000000;1.894973
5070.000000;1.894369
5069.000000;1.893899
5068.000000;1.893429
5067.000000;1.892787
5066.000000;1.892096
5065.000000;1.891657
5064.000000;1.891531
5063.000000;1.891422
5062.000000;1.891028
5061.000000;1.890374
5060.000000;1.889732
5059.000000;1.889339
5058.000000;1.889244
5057.000000;1.889375
5056.000000;1.889650
5055.000000;1.890011
5054.000000;1.890374
5053.000000;1.890577
5052.000000;1.890455
5051.000000;1.889982
5050.000000;1.889311
5049.000000;1.888662
5048.000000;1.888187
5047.000000;1.887944
5046.000000;1.887894
5045.000000;1.887874
5044.000000;1.887668
5043.000000;1.887180
5042.000000;1.886561
5041.000000;1.886137
5040.000000;1.886203
5039.000000;1.886837
5038.000000;1.887764
5037.000000;1.888402
5036.000000;1.888203
5035.000000;1.887096
5034.000000;1.885568
5033.000000;1.884260
5032.000000;1.883497
5031.000000;1.883176
5030.000000;1.883000
5029.000000;1.882748
5028.000000;1.882387
5027.000000;1.881999
5026.000000;1.881600
5025.000000;1.881074
5024.000000;1.880336
5023.000000;1.879513
5022.000000;1.878872
5021.000000;1.878558
5020.000000;1.878479
5019.000000;1.878400
5018.000000;1.878070
5017.000000;1.877325
5016.000000;1.876250
5015.000000;1.875213
5014.000000;1.874575
5013.000000;1.874372
5012.000000;1.874427
5011.000000;1.874700
5010.000000;1.875279
5009.000000;1.876015
5008.000000;1.876466
5007.000000;1.876302
5006.000000;1.875588
5005.000000;1.874569
5004.000000;1.873497
5003.000000;1.872691
5002.000000;1.872402
5001.000000;1.872566
5000.000000;1.872755
4999.000000;1.872657
4998.000000;1.872345
4997.000000;1.871941
4996.000000;1.871317
4995.000000;1.870429
4994.000000;1.869659
4993.000000;1.869458
4992.000000;1.869751
4991.000000;1.870028
4990.000000;1.869968
4989.000000;1.869665
4988.000000;1.869306
4987.000000;1.868924
4986.000000;1.868481
4985.000000;1.867918
4984.000000;1.867083
4983.000000;1.865891
4982.000000;1.864582
4981.000000;1.863591
4980.000000;1.863071
4979.000000;1.862721
4978.000000;1.862228
4977.000000;1.861685
4976.000000;1.861509
4975.000000;1.861945
4974.000000;1.862740
4973.000000;1.863257
4972.000000;1.862954
4971.000000;1.861876
4970.000000;1.860606
4969.000000;1.859702
4968.000000;1.859221
4967.000000;1.858858
4966.000000;1.858391
4965.000000;1.857825
4964.000000;1.857203
4963.000000;1.856527
4962.000000;1.855820
4961.000000;1.855092
4960.000000;1.854260
4959.000000;1.853317
4958.000000;1.852527
4957.000000;1.852171
4956.000000;1.852117
4955.000000;1.851890
4954.000000;1.851267
4953.000000;1.850527
4952.000000;1.850005
4951.000000;1.849689
4950.000000;1.849384
4949.000000;1.849023
4948.000000;1.848569
4947.000000;1.847853
4946.000000;1.846766
4945.000000;1.845555
4944.000000;1.844614
4943.000000;1.843995
4942.000000;1.843373
4941.000000;1.842512
4940.000000;1.841567
4939.000000;1.840835
4938.000000;1.840377
4937.000000;1.840029
4936.000000;1.839665
4935.000000;1.839290
4934.000000;1.838891
4933.000000;1.838356
4932.000000;1.837594
4931.000000;1.836673
4930.000000;1.835741
4929.000000;1.834861
4928.000000;1.833997
4927.000000;1.833146
4926.000000;1.832396
4925.000000;1.831784
4924.000000;1.831199
4923.000000;1.830484
4922.000000;1.829622
4921.000000;1.828712
4920.000000;1.827801
4919.000000;1.826837
4918.000000;1.825829
4917.000000;1.824940
4916.000000;1.824356
4915.000000;1.824075
4914.000000;1.823874
4913.000000;1.823482
4912.000000;1.822767
4911.000000;1.821818
4910.000000;1.820898
4909.000000;1.820263
4908.000000;1.819942
4907.000000;1.819632
4906.000000;1.818899
4905.000000;1.817558
4904.000000;1.815888
4903.000000;1.814407
4902.000000;1.813444
4901.000000;1.812944
4900.000000;1.812642
4899.000000;1.812319
4898.000000;1.811857
4897.000000;1.811156
4896.000000;1.810158
4895.000000;1.808946
4894.000000;1.807709
4893.000000;1.806610
4892.000000;1.805755
4891.000000;1.805233
4890.000000;1.805021
4889.000000;1.804827
4888.000000;1.804201
4887.000000;1.802963
4886.000000;1.801451
4885.000000;1.800256
4884.000000;1.799707
4883.000000;1.799624
4882.000000;1.799509
4881.000000;1.798917
4880.000000;1.797743
4879.000000;1.796246
4878.000000;1.794801
4877.000000;1.793584
4876.000000;1.792517
4875.000000;1.791467
4874.000000;1.790390
4873.000000;1.789280
4872.000000;1.788111
4871.000000;1.786922
4870.000000;1.785865
4869.000000;1.785051
4868.000000;1.784396
4867.000000;1.783691
4866.000000;1.782802
4865.000000;1.781761
4864.000000;1.780737
4863.000000;1.779939
4862.000000;1.779458
4861.000000;1.779090
4860.000000;1.778427
4859.000000;1.777222
4858.000000;1.775597
4857.000000;1.773813
4856.000000;1.771993
4855.000000;1.770237
4854.000000;1.768871
4853.000000;1.768242
4852.000000;1.768235
4851.000000;1.768210
4850.000000;1.767598
4849.000000;1.766476
4848.000000;1.765395
4847.000000;1.764702
4846.000000;1.764138
4845.000000;1.763133
4844.000000;1.761468
4843.000000;1.759537
4842.000000;1.757929
4841.000000;1.756801
4840.000000;1.755778
4839.000000;1.754504
4838.000000;1.753118
4837.000000;1.752062
4836.000000;1.751499
4835.000000;1.751141
4834.000000;1.750604
4833.000000;1.749750
4832.000000;1.748664
4831.000000;1.747459
4830.000000;1.746210
4829.000000;1.744952
4828.000000;1.743627
4827.000000;1.742128
4826.000000;1.740476
4825.000000;1.738897
4824.000000;1.737646
4823.000000;1.736793
4822.000000;1.736213
4821.000000;1.735723
4820.000000;1.735156
4819.000000;1.734375
4818.000000;1.733304
4817.000000;1.731939
4816.000000;1.730326
4815.000000;1.728552
4814.000000;1.726821
4813.000000;1.725443
4812.000000;1.724603
4811.000000;1.724174
4810.000000;1.723774
4809.000000;1.723093
4808.000000;1.722097
4807.000000;1.720966
4806.000000;1.719881
4805.000000;1.718881
4804.000000;1.717887
4803.000000;1.716792
4802.000000;1.715510
4801.000000;1.714007
4800.000000;1.712334
4799.000000;1.710647
4798.000000;1.709159
4797.000000;1.707994
4796.000000;1.707065
4795.000000;1.706126
4794.000000;1.704960
4793.000000;1.703526
4792.000000;1.701938
4791.000000;1.700359
4790.000000;1.698911
4789.000000;1.697650
4788.000000;1.696569
4787.000000;1.695599
4786.000000;1.694622
4785.000000;1.693506
4784.000000;1.692159
4783.000000;1.690626
4782.000000;1.689133
4781.000000;1.687960
4780.000000;1.687185
4779.000000;1.686560
4778.000000;1.685706
4777.000000;1.684458
4776.000000;1.682989
4775.000000;1.681554
4774.000000;1.680189
4773.000000;1.678730
4772.000000;1.677086
4771.000000;1.675413
4770.000000;1.673968
4769.000000;1.672850
4768.000000;1.671945
4767.000000;1.671092
4766.000000;1.670223
4765.000000;1.669327
4764.000000;1.668381
4763.000000;1.667368
4762.000000;1.666321
4761.000000;1.665257
4760.000000;1.664093
4759.000000;1.662692
4758.000000;1.661045
4757.000000;1.659378
4756.000000;1.657988
4755.000000;1.656972
4754.000000;1.656122
4753.000000;1.655128
4752.000000;1.653866
4751.000000;1.652453
4750.000000;1.651042
4749.000000;1.649640
4748.000000;1.648166
4747.000000;1.646604
4746.000000;1.645049
4745.000000;1.643632
4744.000000;1.642460
4743.000000;1.641572
4742.000000;1.640865
4741.000000;1.640059
4740.000000;1.638896
4739.000000;1.637400
4738.000000;1.635889
4737.000000;1.634665
4736.000000;1.633750
4735.000000;1.632941
4734.000000;1.632032
4733.000000;1.630907
4732.000000;1.629506
4731.000000;1.627852
4730.000000;1.626099
4729.000000;1.624475
4728.000000;1.623121
4727.000000;1.622024
4726.000000;1.621095
4725.000000;1.620271
4724.000000;1.619523
4723.000000;1.618808
4722.000000;1.618044
4721.000000;1.617142
4720.000000;1.616072
4719.000000;1.614888
4718.000000;1.613687
4717.000000;1.612499
4716.000000;1.611268
4715.000000;1.609953
4714.000000;1.608636
4713.000000;1.607483
4712.000000;1.606589
4711.000000;1.605863
4710.000000;1.605072
4709.000000;1.604016
4708.000000;1.602696
4707.000000;1.601330
4706.000000;1.600160
4705.000000;1.599192
4704.000000;1.598181
4703.000000;1.596902
4702.000000;1.595432
4701.000000;1.594106
4700.000000;1.593213
4699.000000;1.592720
4698.000000;1.592272
4697.000000;1.591430
4696.000000;1.590012
4695.000000;1.588269
4694.000000;1.586706
4693.000000;1.585629
4692.000000;1.584899
4691.000000;1.584153
4690.000000;1.583224
4689.000000;1.582219
4688.000000;1.581237
4687.000000;1.580193
4686.000000;1.579018
4685.000000;1.577869
4684.000000;1.576993
4683.000000;1.576389
4682.000000;1.575755
4681.000000;1.574794
4680.000000;1.573521
4679.000000;1.572210
4678.000000;1.571110
4677.000000;1.570270
4676.000000;1.569606
4675.000000;1.569043
4674.000000;1.568532
4673.000000;1.567975
4672.000000;1.567224
4671.000000;1.566204
4670.000000;1.564983
4669.000000;1.563697
4668.000000;1.562446
4667.000000;1.561295
4666.000000;1.560319
4665.000000;1.559544
4664.000000;1.558851
4663.000000;1.558040
4662.000000;1.557035
4661.000000;1.555968
4660.000000;1.555020
4659.000000;1.554228
4658.000000;1.553502
4657.000000;1.552788
4656.000000;1.552136
4655.000000;1.551610
4654.000000;1.551167
4653.000000;1.550658
4652.000000;1.549921
4651.000000;1.548886
4650.000000;1.547601
4649.000000;1.546199
4648.000000;1.544843
4647.000000;1.543686
4646.000000;1.542839
4645.000000;1.542291
4644.000000;1.541866
4643.000000;1.541303
4642.000000;1.540468
4641.000000;1.539481
4640.000000;1.538600
4639.000000;1.537959
4638.000000;1.537435
4637.000000;1.536791
4636.000000;1.535924
4635.000000;1.534954
4634.000000;1.534077
4633.000000;1.533354
4632.000000;1.532673
4631.000000;1.531900
4630.000000;1.531051
4629.000000;1.530277
4628.000000;1.529711
4627.000000;1.529334
4626.000000;1.528990
4625.000000;1.528489
4624.000000;1.527705
4623.000000;1.526646
4622.000000;1.525494
4621.000000;1.524522
4620.000000;1.523906
4619.000000;1.523576
4618.000000;1.523288
4617.000000;1.522860
4616.000000;1.522293
4615.000000;1.521657
4614.000000;1.520920
4613.000000;1.520008
4612.000000;1.518981
4611.000000;1.518054
4610.000000;1.517365
4609.000000;1.516794
4608.000000;1.516109
4607.000000;1.515238
4606.000000;1.514315
4605.000000;1.513487
4604.000000;1.512786
4603.000000;1.512195
4602.000000;1.511707
4601.000000;1.511230
4600.000000;1.510569
4599.000000;1.509649
4598.000000;1.508694
4597.000000;1.508043
4596.000000;1.507743
4595.000000;1.507465
4594.000000;1.506860
4593.000000;1.505926
4592.000000;1.504947
4591.000000;1.504164
4590.000000;1.503581
4589.000000;1.503051
4588.000000;1.502460
4587.000000;1.501802
4586.000000;1.501142
4585.000000;1.500526
4584.000000;1.499948
4583.000000;1.499383
4582.000000;1.498841
4581.000000;1.498349
4580.000000;1.497866
4579.000000;1.497299
4578.000000;1.496618
4577.000000;1.495942
4576.000000;1.495430
4575.000000;1.495127
4574.000000;1.494926
4573.000000;1.494686
4572.000000;1.494322
4571.000000;1.493802
4570.000000;1.493116
4569.000000;1.492280
4568.000000;1.491371
4567.000000;1.490518
4566.000000;1.489864
4565.000000;1.489497
4564.000000;1.489370
4563.000000;1.489271
4562.000000;1.488935
4561.000000;1.488251
4560.000000;1.487387
4559.000000;1.486666
4558.000000;1.486285
4557.000000;1.486151
4556.000000;1.485998
4555.000000;1.485657
4554.000000;1.485156
4553.000000;1.484589
4552.000000;1.483974
4551.000000;1.483300
4550.000000;1.482618
4549.000000;1.481983
4548.000000;1.481350
4547.000000;1.480647
4546.000000;1.479947
4545.000000;1.479437
4544.000000;1.479173
4543.000000;1.478963
4542.000000;1.478572
4541.000000;1.477963
4540.000000;1.477276
4539.000000;1.476634
4538.000000;1.476068
4537.000000;1.475609
4536.000000;1.475329
4535.000000;1.475248
4534.000000;1.475228
4533.000000;1.474991
4532.000000;1.474310
4531.000000;1.473252
4530.000000;1.472228
4529.000000;1.471674
4528.000000;1.471655
4527.000000;1.471852
4526.000000;1.471936
4525.000000;1.471842
4524.000000;1.471654
4523.000000;1.471409
4522.000000;1.471138
4521.000000;1.470933
4520.000000;1.470793
4519.000000;1.470539
4518.000000;1.470079
4517.000000;1.469667
4516.000000;1.469635
4515.000000;1.469905
4514.000000;1.470022
4513.000000;1.469711
4512.000000;1.469143
4511.000000;1.468606
4510.000000;1.468188
4509.000000;1.467876
4508.000000;1.467723
4507.000000;1.467687
4506.000000;1.467497
4505.000000;1.466924
4504.000000;1.466120
4503.000000;1.465509
4502.000000;1.465369
4501.000000;1.465644
4500.000000;1.466078
4499.000000;1.466384
4498.000000;1.466349
4497.000000;1.465953
4496.000000;1.465406
4495.000000;1.464951
4494.000000;1.464613
4493.000000;1.464237
4492.000000;1.463754
4491.000000;1.463297
4490.000000;1.463058
4489.000000;1.463098
4488.000000;1.463297
4487.000000;1.463420
4486.000000;1.463282
4485.000000;1.462952
4484.000000;1.462754
4483.000000;1.462960
4482.000000;1.463472
4481.000000;1.463918
4480.000000;1.464043
4479.000000;1.463907
4478.000000;1.463749
4477.000000;1.463771
4476.000000;1.464042
4475.000000;1.464468
4474.000000;1.464827
4473.000000;1.464929
4472.000000;1.464776
4471.000000;1.464488
4470.000000;1.464134
4469.000000;1.463780
4468.000000;1.463635
4467.000000;1.463904
4466.000000;1.464428
4465.000000;1.464716
4464.000000;1.464483
4463.000000;1.464004
4462.000000;1.463772
4461.000000;1.463928
4460.000000;1.464222
4459.000000;1.464444
4458.000000;1.464640
4457.000000;1.464894
4456.000000;1.465125
4455.000000;1.465220
4454.000000;1.465264
4453.000000;1.465488
4452.000000;1.465990
4451.000000;1.466593
4450.000000;1.466992
4449.000000;1.467022
4448.000000;1.466789
4447.000000;1.466518
4446.000000;1.466311
4445.000000;1.466087
4444.000000;1.465766
4443.000000;1.465443
4442.000000;1.465312
4441.000000;1.465423
4440.000000;1.465641
4439.000000;1.465858
4438.000000;1.466178
4437.000000;1.466773
4436.000000;1.467615
4435.000000;1.468460
4434.000000;1.469128
4433.000000;1.469672
4432.000000;1.470196
4431.000000;1.470616
4430.000000;1.470751
4429.000000;1.470591
4428.000000;1.470294
4427.000000;1.469951
4426.000000;1.469562
4425.000000;1.469285
4424.000000;1.469447
4423.000000;1.470138
4422.000000;1.470999
4421.000000;1.471634
4420.000000;1.472112
4419.000000;1.472771
4418.000000;1.473596
4417.000000;1.474157
4416.000000;1.474196
4415.000000;1.473952
4414.000000;1.473767
4413.000000;1.473647
4412.000000;1.473467
4411.000000;1.473382
4410.000000;1.473700
4409.000000;1.474392
4408.000000;1.475020
4407.000000;1.475246
4406.000000;1.475212
4405.000000;1.475320
4404.000000;1.475749
4403.000000;1.476323
4402.000000;1.476763
4401.000000;1.476933
4400.000000;1.476838
4399.000000;1.476525
4398.000000;1.476122
4397.000000;1.475871
4396.000000;1.475951
4395.000000;1.476247
4394.000000;1.476454
4393.000000;1.476473
4392.000000;1.476517
4391.000000;1.476711
4390.000000;1.476840
4389.000000;1.476726
4388.000000;1.476672
4387.000000;1.477138
4386.000000;1.478023
4385.000000;1.478668
4384.000000;1.478659
4383.000000;1.478286
4382.000000;1.478040
4381.000000;1.478004
4380.000000;1.478005
4379.000000;1.478062
4378.000000;1.478342
4377.000000;1.478847
4376.000000;1.479442
4375.000000;1.480081
4374.000000;1.480721
4373.000000;1.481103
4372.000000;1.480901
4371.000000;1.480090
4370.000000;1.478969
4369.000000;1.477874
4368.000000;1.477099
4367.000000;1.476940
4366.000000;1.477444
4365.000000;1.478147
4364.000000;1.478428
4363.000000;1.478233
4362.000000;1.478139
4361.000000;1.478591
4360.000000;1.479326
4359.000000;1.479740
4358.000000;1.479592
4357.000000;1.479147
4356.000000;1.478742
4355.000000;1.478408
4354.000000;1.477898
4353.000000;1.476990
4352.000000;1.475811
4351.000000;1.474889
4350.000000;1.474748
4349.000000;1.475345
4348.000000;1.476025
4347.000000;1.476141
4346.000000;1.475705
4345.000000;1.475280
4344.000000;1.475275
4343.000000;1.475492
4342.000000;1.475408
4341.000000;1.474798
4340.000000;1.473964
4339.000000;1.473316
4338.000000;1.472861
4337.000000;1.472246
4336.000000;1.471260
4335.000000;1.470138
4334.000000;1.469320
4333.000000;1.469058
4332.000000;1.469293
4331.000000;1.469658
4330.000000;1.469542
4329.000000;1.468481
4328.000000;1.466758
4327.000000;1.465361
4326.000000;1.464960
4325.000000;1.465046
4324.000000;1.464458
4323.000000;1.462749
4322.000000;1.460681
4321.000000;1.459310
4320.000000;1.458959
4319.000000;1.459186
4318.000000;1.459405
4317.000000;1.459314
4316.000000;1.458928
4315.000000;1.458440
4314.000000;1.457977
4313.000000;1.457368
4312.000000;1.456243
4311.000000;1.454457
4310.000000;1.452299
4309.000000;1.450255
4308.000000;1.448680
4307.000000;1.447707
4306.000000;1.447240
4305.000000;1.446946
4304.000000;1.446480
4303.000000;1.445816
4302.000000;1.445186
4301.000000;1.444553
4300.000000;1.443414
4299.000000;1.441372
4298.000000;1.438796
4297.000000;1.436642
4296.000000;1.435560
4295.000000;1.435274
4294.000000;1.434854
4293.000000;1.433546
4292.000000;1.431299
4291.000000;1.428557
4290.000000;1.425712
4289.000000;1.422896
4288.000000;1.420164
4287.000000;1.417554
4286.000000;1.414933
4285.000000;1.412163
4284.000000;1.409537
4283.000000;1.407608
4282.000000;1.406296
4281.000000;1.404623
4280.000000;1.401852
4279.000000;1.398595
4278.000000;1.396117
4277.000000;1.394720
4276.000000;1.393579
4275.000000;1.392038
4274.000000;1.390185
4273.000000;1.388022
4272.000000;1.385074
4271.000000;1.381314
4270.000000;1.377640
4269.000000;1.374761
4268.000000;1.372153
4267.000000;1.368806
4266.000000;1.364602
4265.000000;1.360207
4264.000000;1.355889
4263.000000;1.351168
4262.000000;1.345694
4261.000000;1.339849
4260.000000;1.334376
4259.000000;1.329918
4258.000000;1.326884
4257.000000;1.325207
4256.000000;1.324030
4255.000000;1.321951
4254.000000;1.318016
4253.000000;1.312582
4252.000000;1.307041
4251.000000;1.302615
4250.000000;1.299257
4249.000000;1.295459
4248.000000;1.289698
4247.000000;1.281931
4246.000000;1.273807
4245.000000;1.267138
4244.000000;1.262368
4243.000000;1.258519
4242.000000;1.254282
4241.000000;1.248971
4240.000000;1.242640
4239.000000;1.235738
4238.000000;1.228759
4237.000000;1.221885
4236.000000;1.214741
4235.000000;1.206562
4234.000000;1.196869
4233.000000;1.186066
4232.000000;1.175185
4231.000000;1.164838
4230.000000;1.154532
4229.000000;1.143238
4228.000000;1.130701
4227.000000;1.117882
4226.000000;1.105850
4225.000000;1.094589
4224.000000;1.083045
4223.000000;1.070071
4222.000000;1.055166
4221.000000;1.038575
4220.000000;1.021171
4219.000000;1.004016
4218.000000;0.987579
4217.000000;0.971512
4216.000000;0.955318
4215.000000;0.938584
4214.000000;0.920085
4213.000000;0.897471
4212.000000;0.868969
4211.000000;0.835416
4210.000000;0.799976
4209.000000;0.765732
4208.000000;0.733726
4207.000000;0.702372
4206.000000;0.667833
4205.000000;0.626024
4204.000000;0.575865
4203.000000;0.520111
4202.000000;0.461674
4201.000000;0.401417
4200.000000;0.343235
4199.000000;0.299582
4198.000000;0.284907
4197.000000;0.304169
4196.000000;0.351200
4195.000000;0.412428
4194.000000;0.475925
4193.000000;0.537560
4192.000000;0.597658
4191.000000;0.656352
4190.000000;0.712752
4189.000000;0.765265
4188.000000;0.811778
4187.000000;0.851046
4186.000000;0.884106
4185.000000;0.913738
4184.000000;0.943064
4183.000000;0.974632
4182.000000;1.009130
4181.000000;1.043894
4180.000000;1.074291
4179.000000;1.098494
4178.000000;1.119516
4177.000000;1.141054
4176.000000;1.163111
4175.000000;1.183275
4174.000000;1.201083
4173.000000;1.218789
4172.000000;1.238255
4171.000000;1.259573
4170.000000;1.282312
4169.000000;1.305760
4168.000000;1.327934
4167.000000;1.346345
4166.000000;1.360250
4165.000000;1.371068
4164.000000;1.381141
4163.000000;1.393421
4162.000000;1.410876
4161.000000;1.433510
4160.000000;1.456225
4159.000000;1.472560
4158.000000;1.481824
4157.000000;1.489586
4156.000000;1.500648
4155.000000;1.514785
4154.000000;1.528802
4153.000000;1.539778
4152.000000;1.546292
4151.000000;1.549362
4150.000000;1.552929
4149.000000;1.561032
4148.000000;1.573688
4147.000000;1.587293
4146.000000;1.599637
4145.000000;1.612449
4144.000000;1.627748
4143.000000;1.644014
4142.000000;1.657884
4141.000000;1.668248
4140.000000;1.676842
4139.000000;1.685732
4138.000000;1.695923
4137.000000;1.707794
4136.000000;1.721246
4135.000000;1.735209
4134.000000;1.747697
4133.000000;1.756532
4132.000000;1.760619
4131.000000;1.761480
4130.000000;1.763042
4129.000000;1.768678
4128.000000;1.778347
4127.000000;1.789310
4126.000000;1.799437
4125.000000;1.808608
4124.000000;1.817014
4123.000000;1.824148
4122.000000;1.830064
4121.000000;1.835901
4120.000000;1.842663
4119.000000;1.850502
4118.000000;1.859499
4117.000000;1.869717
4116.000000;1.879788
4115.000000;1.887494
4114.000000;1.893156
4113.000000;1.900008
4112.000000;1.910136
4111.000000;1.922237
4110.000000;1.934007
4109.000000;1.944522
4108.000000;1.953082
4107.000000;1.958215
4106.000000;1.959754
4105.000000;1.960084
4104.000000;1.961904
4103.000000;1.966107
4102.000000;1.972639
4101.000000;1.981518
4100.000000;1.991450
4099.000000;1.999042
4098.000000;2.001885
4097.000000;2.001566
4096.000000;2.002018
4095.000000;2.005888
4094.000000;2.013778
4093.000000;2.024929
4092.000000;2.037106
4091.000000;2.047416
4090.000000;2.054796
4089.000000;2.060722
4088.000000;2.066533
4087.000000;2.071330
4086.000000;2.073617
4085.000000;2.074308
4084.000000;2.076422
4083.000000;2.082043
4082.000000;2.090949
4081.000000;2.101197
4080.000000;2.109784
4079.000000;2.114443
4078.000000;2.117495
4077.000000;2.125790
4076.000000;2.143489
4075.000000;2.165062
4074.000000;2.177429
4073.000000;2.172656
4072.000000;2.157300
4071.000000;2.144416
4070.000000;2.141303
4069.000000;2.147076
4068.000000;2.156739
4067.000000;2.166182
4066.000000;2.174418
4065.000000;2.181968
4064.000000;2.189131
4063.000000;2.196623
4062.000000;2.206469
4061.000000;2.220483
4060.000000;2.237591
4059.000000;2.253813
4058.000000;2.265391
4057.000000;2.270775
4056.000000;2.269606
4055.000000;2.262610
4054.000000;2.253350
4053.000000;2.247833
4052.000000;2.250239
4051.000000;2.259914
4050.000000;2.272729
4049.000000;2.284274
4048.000000;2.292131
4047.000000;2.296527
4046.000000;2.300532
4045.000000;2.308484
4044.000000;2.320911
4043.000000;2.331425
4042.000000;2.333049
4041.000000;2.327641
4040.000000;2.323921
4039.000000;2.327553
4038.000000;2.336473
4037.000000;2.344355
4036.000000;2.346880
4035.000000;2.344940
4034.000000;2.342533
4033.000000;2.342904
4032.000000;2.346265
4031.000000;2.350338
4030.000000;2.353592
4029.000000;2.357797
4028.000000;2.365991
4027.000000;2.378576
4026.000000;2.392378
4025.000000;2.402961
4024.000000;2.408668
4023.000000;2.413316
4022.000000;2.422134
4021.000000;2.433936
4020.000000;2.439462
4019.000000;2.431885
4018.000000;2.418545
4017.000000;2.414002
4016.000000;2.423216
4015.000000;2.436872
4014.000000;2.443440
4013.000000;2.443873
4012.000000;2.448467
4011.000000;2.460702
4010.000000;2.470392
4009.000000;2.466154
4008.000000;2.452052
4007.000000;2.443311
4006.000000;2.448567
4005.000000;2.462222
4004.000000;2.471823
4003.000000;2.474377
4002.000000;2.480518
4001.000000;2.499596
4000.000000;2.528732
3999.000000;2.555365
3998.000000;2.568757
3997.000000;2.569946
3996.000000;2.565608
3995.000000;2.558080
3994.000000;2.547292
3993.000000;2.538910
3992.000000;2.541986
3991.000000;2.557287
3990.000000;2.576926
3989.000000;2.593701
3988.000000;2.605662
3987.000000;2.612861
3986.000000;2.613100
3985.000000;2.603626
3984.000000;2.585754
3983.000000;2.565320
3982.000000;2.549240
3981.000000;2.543103
3980.000000;2.551002
3979.000000;2.573972
3978.000000;2.606848
3977.000000;2.637926
3976.000000;2.655722
3975.000000;2.659512
3974.000000;2.658121
3973.000000;2.656611
3972.000000;2.650041
3971.000000;2.632844
3970.000000;2.610788
3969.000000;2.595735
3968.000000;2.592956
3967.000000;2.598464
3966.000000;2.605599
3965.000000;2.610913
3964.000000;2.612844
3963.000000;2.612222
3962.000000;2.616830
3961.000000;2.633682
3960.000000;2.656049
3959.000000;2.667247
3958.000000;2.663441
3957.000000;2.661005
3956.000000;2.675000
3955.000000;2.702361
3954.000000;2.726699
3953.000000;2.738090
3952.000000;2.744784
3951.000000;2.761471
3950.000000;2.787892
3949.000000;2.801511
3948.000000;2.782775
3947.000000;2.750135
3946.000000;2.736418
3945.000000;2.746076
3944.000000;2.759521
3943.000000;2.760943
3942.000000;2.754386
3941.000000;2.755985
3940.000000;2.776745
3939.000000;2.813596
3938.000000;2.853417
3937.000000;2.877537
3936.000000;2.874058
3935.000000;2.858193
3934.000000;2.858456
3933.000000;2.887244
3932.000000;2.931092
3931.000000;2.966426
3930.000000;2.985191
3929.000000;3.003427
3928.000000;3.041238
3927.000000;3.086704
3926.000000;3.103157
3925.000000;3.071299
3924.000000;2.994097
3923.000000;2.899464
3922.000000;2.827609
3921.000000;2.797976
3920.000000;2.822368
3919.000000;2.899331
3918.000000;2.989103
3917.000000;3.023709
3916.000000;2.994115
3915.000000;2.956534
3914.000000;2.949315
3913.000000;2.985705
3912.000000;3.075349
3911.000000;3.207203
3910.000000;3.306007
3909.000000;3.340528
3908.000000;3.315240
3907.000000;3.214394
3906.000000;3.111371
3905.000000;3.035371
3904.000000;2.969584
3903.000000;2.922883
3902.000000;2.925618
3901.000000;2.977152
3900.000000;3.070825
3899.000000;3.190901
3898.000000;3.263635
3897.000000;3.256449
3896.000000;3.246993
3895.000000;3.288995
3894.000000;3.362870
3893.000000;3.389643
3892.000000;3.319594
3891.000000;3.212117
3890.000000;3.169106
3889.000000;3.221937
3888.000000;3.294868
3887.000000;3.283221
3886.000000;3.203881
3885.000000;3.199095
3884.000000;3.355689
3883.000000;3.617999
3882.000000;3.757341
3881.000000;3.833226
3880.000000;4.369490
3879.000000;3.810155
3878.000000;3.648784
3877.000000;3.679541
3876.000000;3.633884
3875.000000;3.547823
3874.000000;3.512406
3873.000000;3.585468
3872.000000;3.674012
3871.000000;3.643970
3870.000000;3.525135
3869.000000;3.512669
3868.000000;3.617975
3867.000000;3.671771
3866.000000;3.647188
3865.000000;3.632727
3864.000000;3.673098
3863.000000;3.767126
3862.000000;3.859299
3861.000000;4.151597
3860.000000;4.380416
3859.000000;3.770027
3858.000000;3.436821
3857.000000;3.319013
3856.000000;3.358318
3855.000000;3.445503
3854.000000;3.692672
3853.000000;3.652312
3852.000000;3.496717
3851.000000;3.535811
3850.000000;3.630591
3849.000000;3.788941
3848.000000;3.761997
3847.000000;3.662256
3846.000000;3.722456
3845.000000;3.828335
3844.000000;3.772574
3843.000000;3.735369
3842.000000;3.819875
3841.000000;3.874744
3840.000000;3.802303
3839.000000;3.733717
3838.000000;3.751042
3837.000000;3.836115
3836.000000;3.830604
3835.000000;3.745202
3834.000000;3.696606
3833.000000;3.698621
3832.000000;3.728500
3831.000000;3.760774
3830.000000;3.832189
3829.000000;3.908556
3828.000000;3.882623
3827.000000;3.757940
3826.000000;3.694326
3825.000000;3.837288
3824.000000;4.112725
3823.000000;4.163231
3822.000000;4.031588
3821.000000;3.990511
3820.000000;3.832119
3819.000000;3.710524
3818.000000;3.717119
3817.000000;3.706251
3816.000000;3.656977
3815.000000;3.647269
3814.000000;3.745836
3813.000000;3.860814
3812.000000;3.850930
3811.000000;3.913093
3810.000000;4.189756
3809.000000;4.656352
3808.000000;4.515287
3807.000000;4.124632
3806.000000;3.991687
3805.000000;4.299861
3804.000000;4.692990
3803.000000;4.307920
3802.000000;4.133521
3801.000000;4.649587
3800.000000;4.208866
3799.000000;4.050277
3798.000000;4.283098
3797.000000;4.197806
3796.000000;3.823518
3795.000000;3.637605
3794.000000;3.644147
3793.000000;3.925123
3792.000000;3.987174
3791.000000;3.545792
3790.000000;3.437215
3789.000000;3.510867
3788.000000;3.691910
3787.000000;3.897998
3786.000000;4.033863
3785.000000;4.119294
3784.000000;4.127334
3783.000000;4.009416
3782.000000;3.896623
3781.000000;3.809971
3780.000000;3.696817
3779.000000;3.601930
3778.000000;3.589370
3777.000000;3.627165
3776.000000;3.624947
3775.000000;3.597970
3774.000000;3.601388
3773.000000;3.598546
3772.000000;3.564907
3771.000000;3.558145
3770.000000;3.716681
3769.000000;3.709495
3768.000000;3.527110
3767.000000;3.503478
3766.000000;3.550724
3765.000000;3.594859
3764.000000;3.815092
3763.000000;4.404238
3762.000000;4.137185
3761.000000;3.878051
3760.000000;3.871839
3759.000000;4.101649
3758.000000;4.237197
3757.000000;3.977968
3756.000000;3.953975
3755.000000;3.919383
3754.000000;3.822513
3753.000000;3.743552
3752.000000;3.682244
3751.000000;3.647016
3750.000000;3.614725
3749.000000;3.503862
3748.000000;3.482489
3747.000000;3.557148
3746.000000;3.468659
3745.000000;3.341239
3744.000000;3.413526
3743.000000;3.528738
3742.000000;3.690892
3741.000000;3.907193
3740.000000;3.872911
3739.000000;3.788885
3738.000000;3.791177
3737.000000;3.846916
3736.000000;3.956275
3735.000000;3.941710
3734.000000;3.705024
3733.000000;3.490987
3732.000000;3.389657
3731.000000;3.453140
3730.000000;3.607588
3729.000000;3.645245
3728.000000;3.559660
3727.000000;3.496656
3726.000000;3.551242
3725.000000;3.796968
3724.000000;4.410413
3723.000000;4.295572
3722.000000;3.849688
3721.000000;3.642109
3720.000000;3.523417
3719.000000;3.529350
3718.000000;3.614748
3717.000000;3.816349
3716.000000;4.398594
3715.000000;4.057456
3714.000000;3.853499
3713.000000;3.851653
3712.000000;3.883521
3711.000000;4.011666
3710.000000;3.860358
3709.000000;3.650614
3708.000000;3.809129
3707.000000;4.391872
3706.000000;4.217318
3705.000000;4.417742
3704.000000;4.415284
3703.000000;3.935632
3702.000000;3.648568
3701.000000;3.444750
3700.000000;3.397784
3699.000000;3.433288
3698.000000;3.457613
3697.000000;3.444615
3696.000000;3.455014
3695.000000;3.533720
3694.000000;3.734309
3693.000000;4.010513
3692.000000;3.874362
3691.000000;3.618409
3690.000000;3.425580
3689.000000;3.334412
3688.000000;3.453871
3687.000000;3.717623
3686.000000;3.819320
3685.000000;3.889568
3684.000000;4.163207
3683.000000;4.372174
3682.000000;4.243069
3681.000000;4.135470
3680.000000;3.870510
3679.000000;3.760542
3678.000000;3.786917
3677.000000;3.744803
3676.000000;3.592255
3675.000000;3.496672
3674.000000;3.859281
3673.000000;4.296545
3672.000000;3.846427
3671.000000;3.722252
3670.000000;3.614585
3669.000000;3.525647
3668.000000;3.428327
3667.000000;3.401120
3666.000000;3.498820
3665.000000;3.613701
3664.000000;3.559375
3663.000000;3.506337
3662.000000;3.545824
3661.000000;3.617366
3660.000000;3.664958
3659.000000;3.680933
3658.000000;3.671952
3657.000000;3.592264
3656.000000;3.467365
3655.000000;3.428411
3654.000000;3.559017
3653.000000;3.845478
3652.000000;4.177411
3651.000000;4.325507
3650.000000;4.018879
3649.000000;3.645488
3648.000000;3.461657
3647.000000;3.615567
3646.000000;3.809069
3645.000000;3.575121
3644.000000;3.523751
3643.000000;3.654540
3642.000000;3.896381
3641.000000;3.955623
3640.000000;3.818566
3639.000000;3.760504
3638.000000;3.868774
3637.000000;4.015377
3636.000000;3.771913
3635.000000;3.597392
3634.000000;3.504428
3633.000000;3.448518
3632.000000;3.548226
3631.000000;3.735068
3630.000000;3.681257
3629.000000;3.658470
3628.000000;3.700348
3627.000000;3.809043
3626.000000;3.972097
3625.000000;3.917800
3624.000000;3.940871
3623.000000;4.128623
3622.000000;3.966738
3621.000000;3.618100
3620.000000;3.359537
3619.000000;3.184682
3618.000000;3.135029
3617.000000;3.212239
3616.000000;3.374948
3615.000000;3.567202
3614.000000;3.778919
3613.000000;3.978474
3612.000000;3.739077
3611.000000;3.524478
3610.000000;3.631926
3609.000000;3.628833
3608.000000;3.261614
3607.000000;3.113442
3606.000000;3.148417
3605.000000;3.291996
3604.000000;3.490997
3603.000000;3.613596
3602.000000;3.648382
3601.000000;3.698563
3600.000000;3.904054
3599.000000;4.303201
3598.000000;3.967991
3597.000000;3.743760
3596.000000;3.608889
3595.000000;3.441123
3594.000000;3.360945
3593.000000;3.400954
3592.000000;3.773497
3591.000000;3.731847
3590.000000;3.301615
3589.000000;3.196944
3588.000000;3.196184
3587.000000;3.286648
3586.000000;3.441124
3585.000000;3.662926
3584.000000;4.271010
3583.000000;4.029065
3582.000000;3.646363
3581.000000;3.544234
3580.000000;3.539188
3579.000000;3.589878
3578.000000;3.767565
3577.000000;3.924263
3576.000000;3.603215
3575.000000;3.426041
3574.000000;3.417957
3573.000000;3.537110
3572.000000;3.719314
3571.000000;3.725883
3570.000000;3.599591
3569.000000;3.498812
3568.000000;3.463503
3567.000000;3.505759
3566.000000;3.644055
3565.000000;3.681259
3564.000000;3.557470
3563.000000;3.471505
3562.000000;3.578628
3561.000000;3.991911
3560.000000;3.668649
3559.000000;3.431560
3558.000000;3.420991
3557.000000;3.449861
3556.000000;3.540820
3555.000000;3.830773
3554.000000;4.236858
3553.000000;3.741341
3552.000000;3.532563
3551.000000;3.695222
3550.000000;4.451056
3549.000000;3.787994
3548.000000;3.712544
3547.000000;3.751572
3546.000000;3.533333
3545.000000;3.540553
3544.000000;3.680023
3543.000000;3.684913
3542.000000;3.541021
3541.000000;3.521887
3540.000000;3.778220
3539.000000;4.192460
3538.000000;3.795008
3537.000000;3.564488
3536.000000;3.524675
3535.000000;3.542465
3534.000000;3.545868
3533.000000;3.522639
3532.000000;3.577607
3531.000000;3.888934
3530.000000;4.015661
3529.000000;3.632949
3528.000000;3.513830
3527.000000;3.626923
3526.000000;3.964248
3525.000000;3.869865
3524.000000;3.579985
3523.000000;3.481379
3522.000000;3.490103
3521.000000;3.571551
3520.000000;3.680885
3519.000000;3.712731
3518.000000;3.593377
3517.000000;3.485510
3516.000000;3.448482
3515.000000;3.448866
3514.000000;3.423152
3513.000000;3.348952
3512.000000;3.303359
3511.000000;3.364393
3510.000000;3.540984
3509.000000;3.854753
3508.000000;3.982326
3507.000000;3.660152
3506.000000;3.491238
3505.000000;3.540354
3504.000000;3.877264
3503.000000;3.875537
3502.000000;3.563512
3501.000000;3.537502
3500.000000;3.629379
3499.000000;3.802313
3498.000000;4.008115
3497.000000;3.581381
3496.000000;3.281545
3495.000000;3.197917
3494.000000;3.263858
3493.000000;3.501516
3492.000000;3.975181
3491.000000;3.960325
3490.000000;3.693923
3489.000000;3.646261
3488.000000;3.550583
3487.000000;3.456753
3486.000000;3.423661
3485.000000;3.397391
3484.000000;3.374881
3483.000000;3.374776
3482.000000;3.398161
3481.000000;3.380922
3480.000000;3.395819
3479.000000;3.653535
3478.000000;3.723881
3477.000000;3.389644
3476.000000;3.259426
3475.000000;3.276290
3474.000000;3.414353
3473.000000;3.609773
3472.000000;3.599871
3471.000000;3.515134
3470.000000;3.543523
3469.000000;3.687022
3468.000000;4.104116
3467.000000;4.548355
3466.000000;3.996237
3465.000000;3.836047
3464.000000;3.630192
3463.000000;3.485381
3462.000000;3.438338
3461.000000;3.412042
3460.000000;3.430630
3459.000000;3.583710
3458.000000;4.148768
3457.000000;3.964985
3456.000000;3.533075
3455.000000;3.458251
3454.000000;3.453981
3453.000000;3.429113
3452.000000;3.400240
3451.000000;3.483303
3450.000000;3.553954
3449.000000;3.399989
3448.000000;3.254576
3447.000000;3.172410
3446.000000;3.110826
3445.000000;3.039275
3444.000000;2.993394
3443.000000;3.026333
3442.000000;3.179655
3441.000000;3.418756
3440.000000;3.460157
3439.000000;3.533132
3438.000000;3.784654
3437.000000;3.503074
3436.000000;3.245749
3435.000000;3.183950
3434.000000;3.260489
3433.000000;3.432371
3432.000000;3.432544
3431.000000;3.310455
3430.000000;3.273082
3429.000000;3.294749
3428.000000;3.362038
3427.000000;3.471699
3426.000000;3.682423
3425.000000;3.919422
3424.000000;3.711487
3423.000000;3.500364
3422.000000;3.397920
3421.000000;3.339117
3420.000000;3.293545
3419.000000;3.225532
3418.000000;3.166730
3417.000000;3.150611
3416.000000;3.188406
3415.000000;3.287850
3414.000000;3.424207
3413.000000;3.515378
3412.000000;3.542038
3411.000000;3.635738
3410.000000;3.660198
3409.000000;3.508460
3408.000000;3.491107
3407.000000;3.582652
3406.000000;3.650422
3405.000000;3.843023
3404.000000;4.135777
3403.000000;3.748790
3402.000000;3.546913
3401.000000;3.705891
3400.000000;3.674371
3399.000000;3.356021
3398.000000;3.212325
3397.000000;3.207647
3396.000000;3.295038
3395.000000;3.436012
3394.000000;3.657281
3393.000000;3.992755
3392.000000;3.975970
3391.000000;3.777899
3390.000000;3.759251
3389.000000;3.830878
3388.000000;3.619420
3387.000000;3.373672
3386.000000;3.276365
3385.000000;3.282130
3384.000000;3.330434
3383.000000;3.351202
3382.000000;3.349627
3381.000000;3.343294
3380.000000;3.316721
3379.000000;3.299917
3378.000000;3.337741
3377.000000;3.373670
3376.000000;3.353132
3375.000000;3.346727
3374.000000;3.447927
3373.000000;3.634914
3372.000000;3.556246
3371.000000;3.391856
3370.000000;3.364603
3369.000000;3.375073
3368.000000;3.336799
3367.000000;3.310357
3366.000000;3.387627
3365.000000;3.564266
3364.000000;3.627308
3363.000000;3.535001
3362.000000;3.481050
3361.000000;3.510723
3360.000000;3.633385
3359.000000;3.657164
3358.000000;3.557650
3357.000000;3.566951
3356.000000;3.718111
3355.000000;3.867795
3354.000000;3.836324
3353.000000;3.812677
3352.000000;3.732660
3351.000000;3.460639
3350.000000;3.255948
3349.000000;3.181379
3348.000000;3.257023
3347.000000;3.575663
3346.000000;3.734603
3345.000000;3.502099
3344.000000;3.463913
3343.000000;3.486501
3342.000000;3.512299
3341.000000;3.573709
3340.000000;3.749246
3339.000000;4.070479
3338.000000;3.984244
3337.000000;3.814926
3336.000000;3.773437
3335.000000;3.802810
3334.000000;4.032963
3333.000000;3.928620
3332.000000;3.563377
3331.000000;3.462237
3330.000000;3.517148
3329.000000;3.572522
3328.000000;3.545028
3327.000000;3.396074
3326.000000;3.224447
3325.000000;3.096832
3324.000000;3.037668
3323.000000;3.045919
3322.000000;3.159289
3321.000000;3.445961
3320.000000;3.454636
3319.000000;3.245436
3318.000000;3.253140
3317.000000;3.446628
3316.000000;3.563377
3315.000000;3.628775
3314.000000;3.668640
3313.000000;3.264702
3312.000000;3.066532
3311.000000;3.075804
3310.000000;3.229330
3309.000000;3.589832
3308.000000;3.910586
3307.000000;3.771236
3306.000000;3.627710
3305.000000;3.465335
3304.000000;3.335424
3303.000000;3.270210
3302.000000;3.287474
3301.000000;3.398490
3300.000000;3.494192
3299.000000;3.429589
3298.000000;3.350640
3297.000000;3.351216
3296.000000;3.534986
3295.000000;4.052500
3294.000000;3.734075
3293.000000;3.416364
3292.000000;3.300014
3291.000000;3.196677
3290.000000;3.169389
3289.000000;3.215043
3288.000000;3.282867
3287.000000;3.268612
3286.000000;3.150049
3285.000000;3.039070
3284.000000;3.003920
3283.000000;3.083562
3282.000000;3.300226
3281.000000;3.789079
3280.000000;4.007792
3279.000000;3.479758
3278.000000;3.307603
3277.000000;3.315464
3276.000000;3.449639
3275.000000;3.430449
3274.000000;3.285124
3273.000000;3.307841
3272.000000;3.521353
3271.000000;3.921861
3270.000000;3.829138
3269.000000;3.588532
3268.000000;3.511719
3267.000000;3.417189
3266.000000;3.340017
3265.000000;3.329449
3264.000000;3.403923
3263.000000;3.558714
3262.000000;3.689792
3261.000000;3.584045
3260.000000;3.309294
3259.000000;3.143667
3258.000000;3.137856
3257.000000;3.309016
3256.000000;3.617224
3255.000000;3.689796
3254.000000;3.692330
3253.000000;3.823102
3252.000000;3.767563
3251.000000;3.446074
3250.000000;3.142223
3249.000000;2.948358
3248.000000;2.890858
3247.000000;2.970723
3246.000000;3.201681
3245.000000;3.688463
3244.000000;3.724330
3243.000000;3.426600
3242.000000;3.459712
3241.000000;3.643725
3240.000000;3.647476
3239.000000;3.401425
3238.000000;3.268315
3237.000000;3.310535
3236.000000;3.425323
3235.000000;3.408001
3234.000000;3.247073
3233.000000;3.180195
3232.000000;3.193406
3231.000000;3.441250
3230.000000;4.044109
3229.000000;3.438562
3228.000000;3.239043
3227.000000;3.212611
3226.000000;3.197581
3225.000000;3.265976
3224.000000;3.510653
3223.000000;4.096853
3222.000000;4.087748
3221.000000;4.193432
3220.000000;4.324414
3219.000000;4.173163
3218.000000;4.025820
3217.000000;3.810124
3216.000000;3.715903
3215.000000;3.666735
3214.000000;3.508916
3213.000000;3.259274
3212.000000;3.078187
3211.000000;3.030413
3210.000000;3.122090
3209.000000;3.203899
3208.000000;3.077210
3207.000000;3.015075
3206.000000;3.078890
3205.000000;3.309515
3204.000000;3.905167
3203.000000;3.660026
3202.000000;3.412956
3201.000000;3.343958
3200.000000;3.248650
3199.000000;3.209787
3198.000000;3.209276
3197.000000;3.233400
3196.000000;3.252154
3195.000000;3.254380
3194.000000;3.221732
3193.000000;3.200266
3192.000000;3.224333
3191.000000;3.266261
3190.000000;3.259833
3189.000000;3.209475
3188.000000;3.170223
3187.000000;3.183916
3186.000000;3.221303
3185.000000;3.262317
3184.000000;3.298217
3183.000000;3.412728
3182.000000;3.741550
3181.000000;3.641887
3180.000000;3.393739
3179.000000;3.383651
3178.000000;3.384724
3177.000000;3.259635
3176.000000;3.157287
3175.000000;3.166311
3174.000000;3.237095
3173.000000;3.271230
3172.000000;3.210469
3171.000000;3.119712
3170.000000;3.111358
3169.000000;3.231621
3168.000000;3.429211
3167.000000;3.553821
3166.000000;3.579208
3165.000000;3.660647
3164.000000;3.759374
3163.000000;3.637727
3162.000000;3.551592
3161.000000;3.534957
3160.000000;3.556071
3159.000000;3.734764
3158.000000;3.571158
3157.000000;3.337038
3156.000000;3.332327
3155.000000;3.443979
3154.000000;3.618063
3153.000000;3.757019
3152.000000;4.017610
3151.000000;3.861708
3150.000000;3.418694
3149.000000;3.268998
3148.000000;3.384313
3147.000000;3.738367
3146.000000;3.758489
3145.000000;3.755594
3144.000000;3.793541
3143.000000;3.549089
3142.000000;3.402017
3141.000000;3.321599
3140.000000;3.315613
3139.000000;3.342182
3138.000000;3.503545
3137.000000;3.837264
3136.000000;3.447131
3135.000000;3.136364
3134.000000;3.029366
3133.000000;2.992561
3132.000000;3.006091
3131.000000;3.075398
3130.000000;3.213204
3129.000000;3.405750
3128.000000;3.523925
3127.000000;3.383396
3126.000000;3.142214
3125.000000;3.041440
3124.000000;3.069086
3123.000000;3.272223
3122.000000;3.842131
3121.000000;3.641489
3120.000000;3.368863
3119.000000;3.362282
3118.000000;3.487360
3117.000000;3.671654
3116.000000;3.507858
3115.000000;3.438926
3114.000000;3.645792
3113.000000;3.983960
3112.000000;3.819691
3111.000000;3.571843
3110.000000;3.388638
3109.000000;3.283236
3108.000000;3.344116
3107.000000;3.458672
3106.000000;3.264907
3105.000000;3.138505
3104.000000;3.187735
3103.000000;3.415401
3102.000000;3.948304
3101.000000;3.496795
3100.000000;3.204210
3099.000000;3.181729
3098.000000;3.251285
3097.000000;3.520418
3096.000000;3.731418
3095.000000;3.384341
3094.000000;3.191550
3093.000000;3.150639
3092.000000;3.206825
3091.000000;3.313025
3090.000000;3.322647
3089.000000;3.240814
3088.000000;3.203037
3087.000000;3.287135
3086.000000;3.680901
3085.000000;4.391110
3084.000000;3.701682
3083.000000;3.418004
3082.000000;3.307902
3081.000000;3.404986
3080.000000;3.870365
3079.000000;3.937173
3078.000000;3.750057
3077.000000;4.061880
3076.000000;3.723094
3075.000000;3.404172
3074.000000;3.313443
3073.000000;3.252354
3072.000000;3.180355
3071.000000;3.094322
3070.000000;3.056134
3069.000000;3.062046
3068.000000;3.131809
3067.000000;3.257902
3066.000000;3.571260
3065.000000;4.027123
3064.000000;3.469542
3063.000000;3.310202
3062.000000;3.319147
3061.000000;3.530470
3060.000000;3.973701
3059.000000;3.470776
3058.000000;3.249469
3057.000000;3.256001
3056.000000;3.444691
3055.000000;3.615614
3054.000000;3.459504
3053.000000;3.444801
3052.000000;3.497786
3051.000000;3.381684
3050.000000;3.271127
3049.000000;3.259635
3048.000000;3.344330
3047.000000;3.539860
3046.000000;3.715838
3045.000000;3.628106
3044.000000;3.460182
3043.000000;3.335458
3042.000000;3.305354
3041.000000;3.548965
3040.000000;3.580981
3039.000000;3.235334
3038.000000;3.157997
3037.000000;3.353971
3036.000000;3.717240
3035.000000;3.434494
3034.000000;3.253256
3033.000000;3.315704
3032.000000;3.570406
3031.000000;3.555516
3030.000000;3.258698
3029.000000;3.136836
3028.000000;3.107894
3027.000000;3.194255
3026.000000;3.458892
3025.000000;4.001136
3024.000000;3.799280
3023.000000;3.438509
3022.000000;3.335781
3021.000000;3.261295
3020.000000;3.178378
3019.000000;3.075690
3018.000000;3.041660
3017.000000;3.084354
3016.000000;3.346992
3015.000000;3.787357
3014.000000;3.218411
3013.000000;3.057135
3012.000000;3.108089
3011.000000;3.406114
3010.000000;3.918634
3009.000000;3.295018
3008.000000;3.147194
3007.000000;3.163208
3006.000000;3.238608
3005.000000;3.338555
3004.000000;3.374021
3003.000000;3.647055
3002.000000;3.901668
3001.000000;3.510887
3000.000000;3.317395
2999.000000;3.236784
2998.000000;3.194002
2997.000000;3.227931
2996.000000;3.312874
2995.000000;3.508910
2994.000000;3.860646
2993.000000;3.585461
2992.000000;3.331701
2991.000000;3.285817
2990.000000;3.302847
2989.000000;3.333584
2988.000000;3.229116
2987.000000;3.053370
2986.000000;2.946083
2985.000000;2.934829
2984.000000;3.018007
2983.000000;3.177811
2982.000000;3.308648
2981.000000;3.313364
2980.000000;3.287853
2979.000000;3.325676
2978.000000;3.468848
2977.000000;3.469175
2976.000000;3.306249
2975.000000;3.260068
2974.000000;3.281684
2973.000000;3.287056
2972.000000;3.250586
2971.000000;3.226569
2970.000000;3.257621
2969.000000;3.351157
2968.000000;3.556678
2967.000000;3.750243
2966.000000;3.686635
2965.000000;3.853957
2964.000000;4.298285
2963.000000;3.651123
2962.000000;3.308816
2961.000000;3.148266
2960.000000;3.067515
2959.000000;3.066129
2958.000000;3.142075
2957.000000;3.226551
2956.000000;3.199969
2955.000000;3.130965
2954.000000;3.108756
2953.000000;3.164723
2952.000000;3.300410
2951.000000;3.431219
2950.000000;3.445999
2949.000000;3.274182
2948.000000;3.204600
2947.000000;3.443653
2946.000000;3.419952
2945.000000;3.135761
2944.000000;3.141492
2943.000000;3.354681
2942.000000;3.413229
2941.000000;3.248119
2940.000000;3.227971
2939.000000;3.253468
2938.000000;3.319695
2937.000000;3.557067
2936.000000;3.451216
2935.000000;3.232537
2934.000000;3.221308
2933.000000;3.297051
2932.000000;3.427900
2931.000000;3.543619
2930.000000;3.321937
2929.000000;3.171599
2928.000000;3.227865
2927.000000;3.450619
2926.000000;3.656233
2925.000000;3.531842
2924.000000;3.369831
2923.000000;3.407349
2922.000000;3.873709
2921.000000;3.696541
2920.000000;3.266914
2919.000000;3.143268
2918.000000;3.089050
2917.000000;3.110779
2916.000000;3.281601
2915.000000;3.567296
2914.000000;3.422047
2913.000000;3.276057
2912.000000;3.391002
2911.000000;3.688358
2910.000000;3.728949
2909.000000;3.511738
2908.000000;3.408357
2907.000000;3.338047
2906.000000;3.299809
2905.000000;3.327241
2904.000000;3.408461
2903.000000;3.425703
2902.000000;3.365247
2901.000000;3.323120
2900.000000;3.371858
2899.000000;3.579287
2898.000000;3.742496
2897.000000;3.621443
2896.000000;3.414628
2895.000000;3.248760
2894.000000;3.159084
2893.000000;3.105459
2892.000000;3.106222
2891.000000;3.274312
2890.000000;3.449940
2889.000000;3.503224
2888.000000;3.878674
2887.000000;3.507804
2886.000000;3.220242
2885.000000;3.281616
2884.000000;3.646720
2883.000000;3.866956
2882.000000;3.480260
2881.000000;3.338962
2880.000000;3.281781
2879.000000;3.295391
2878.000000;3.372461
2877.000000;3.427473
2876.000000;3.448171
2875.000000;3.502511
2874.000000;3.657556
2873.000000;3.866603
2872.000000;4.048753
2871.000000;3.721342
2870.000000;3.340742
2869.000000;3.146832
2868.000000;3.061993
2867.000000;3.077119
2866.000000;3.192679
2865.000000;3.367226
2864.000000;3.469186
2863.000000;3.491062
2862.000000;3.523136
2861.000000;3.454876
2860.000000;3.391236
2859.000000;3.484022
2858.000000;3.801849
2857.000000;4.032658
2856.000000;3.952356
2855.000000;4.112167
2854.000000;3.862399
2853.000000;3.581915
2852.000000;3.456864
2851.000000;3.528923
2850.000000;3.889539
2849.000000;3.635281
2848.000000;3.347444
2847.000000;3.321455
2846.000000;3.438638
2845.000000;3.483085
2844.000000;3.375543
2843.000000;3.364690
2842.000000;3.453176
2841.000000;3.463845
2840.000000;3.295454
2839.000000;3.178218
2838.000000;3.191735
2837.000000;3.324233
2836.000000;3.567498
2835.000000;3.741038
2834.000000;3.753203
2833.000000;3.866318
2832.000000;4.185622
2831.000000;3.926441
2830.000000;3.806806
2829.000000;3.863330
2828.000000;3.975189
2827.000000;4.669638
2826.000000;3.602212
2825.000000;3.243925
2824.000000;3.142007
2823.000000;3.159461
2822.000000;3.242125
2821.000000;3.299578
2820.000000;3.355443
2819.000000;3.440421
2818.000000;3.628537
2817.000000;3.732182
2816.000000;3.574332
2815.000000;3.651128
2814.000000;4.100676
2813.000000;3.880921
2812.000000;3.545710
2811.000000;3.437243
2810.000000;3.336832
2809.000000;3.227394
2808.000000;3.139584
2807.000000;3.125559
2806.000000;3.229882
2805.000000;3.473959
2804.000000;3.775386
2803.000000;3.866309
2802.000000;3.759116
2801.000000;3.645307
2800.000000;3.447508
2799.000000;3.231355
2798.000000;3.132421
2797.000000;3.154417
2796.000000;3.240998
2795.000000;3.457141
2794.000000;3.737851
2793.000000;3.437079
2792.000000;3.305001
2791.000000;3.503287
2790.000000;3.908234
2789.000000;4.468439
2788.000000;4.157988
2787.000000;3.466449
2786.000000;3.271820
2785.000000;3.181451
2784.000000;3.105349
2783.000000;3.044357
2782.000000;3.018315
2781.000000;3.045277
2780.000000;3.083735
2779.000000;3.131563
2778.000000;3.270902
2777.000000;3.629335
2776.000000;3.854226
2775.000000;3.609800
2774.000000;3.443425
2773.000000;3.345317
2772.000000;3.306788
2771.000000;3.294083
2770.000000;3.233637
2769.000000;3.121023
2768.000000;3.057924
2767.000000;3.120320
2766.000000;3.284856
2765.000000;3.353182
2764.000000;3.276281
2763.000000;3.232870
2762.000000;3.259792
2761.000000;3.386780
2760.000000;3.914005
2759.000000;4.312833
2758.000000;3.656426
2757.000000;3.509716
2756.000000;3.375369
2755.000000;3.305203
2754.000000;3.313096
2753.000000;3.395295
2752.000000;3.588218
2751.000000;3.945087
2750.000000;4.451792
2749.000000;4.203520
2748.000000;3.839258
2747.000000;3.682963
2746.000000;3.707812
2745.000000;3.721036
2744.000000;3.444982
2743.000000;3.250318
2742.000000;3.212943
2741.000000;3.390739
2740.000000;3.914314
2739.000000;3.716313
2738.000000;3.448393
2737.000000;3.439068
2736.000000;3.472082
2735.000000;3.532302
2734.000000;3.714548
2733.000000;3.931197
2732.000000;3.625066
2731.000000;3.408705
2730.000000;3.362459
2729.000000;3.442434
2728.000000;3.983339
2727.000000;3.636592
2726.000000;3.170566
2725.000000;3.013980
2724.000000;2.964440
2723.000000;3.013606
2722.000000;3.148179
2721.000000;3.351980
2720.000000;3.544929
2719.000000;3.548987
2718.000000;3.408510
2717.000000;3.295861
2716.000000;3.267687
2715.000000;3.308003
2714.000000;3.365047
2713.000000;3.432648
2712.000000;3.631704
2711.000000;3.802754
2710.000000;3.628676
2709.000000;3.583163
2708.000000;3.656539
2707.000000;3.700902
2706.000000;3.619192
2705.000000;3.466007
2704.000000;3.311969
2703.000000;3.174512
2702.000000;3.073458
2701.000000;3.027790
2700.000000;3.047274
2699.000000;3.099059
2698.000000;3.162785
2697.000000;3.240619
2696.000000;3.321683
2695.000000;3.398099
2694.000000;3.613556
2693.000000;4.186084
2692.000000;3.617325
2691.000000;3.358742
2690.000000;3.348722
2689.000000;3.508585
2688.000000;3.941717
2687.000000;4.212701
2686.000000;4.001870
2685.000000;3.856353
2684.000000;3.651098
2683.000000;3.607585
2682.000000;3.545895
2681.000000;3.358040
2680.000000;3.241418
2679.000000;3.192503
2678.000000;3.181388
2677.000000;3.212427
2676.000000;3.327429
2675.000000;3.628663
2674.000000;3.672412
2673.000000;3.462559
2672.000000;3.456081
2671.000000;3.529516
2670.000000;3.545287
2669.000000;3.438194
2668.000000;3.319271
2667.000000;3.269480
2666.000000;3.285922
2665.000000;3.344832
2664.000000;3.422575
2663.000000;3.494234
2662.000000;3.563934
2661.000000;3.665880
2660.000000;3.904838
2659.000000;4.264542
2658.000000;4.116705
2657.000000;4.005165
2656.000000;3.848143
2655.000000;3.744152
2654.000000;3.734591
2653.000000;3.617864
2652.000000;3.471135
2651.000000;3.484781
2650.000000;3.627604
2649.000000;3.514969
2648.000000;3.366169
2647.000000;3.439867
2646.000000;3.808026
2645.000000;3.973519
2644.000000;3.783965
2643.000000;3.852608
2642.000000;3.930872
2641.000000;3.869910
2640.000000;3.692913
2639.000000;3.460703
2638.000000;3.299656
2637.000000;3.263016
2636.000000;3.286442
2635.000000;3.181762
2634.000000;3.058152
2633.000000;3.043094
2632.000000;3.137209
2631.000000;3.314776
2630.000000;3.586475
2629.000000;3.898256
2628.000000;3.722024
2627.000000;3.580783
2626.000000;3.480984
2625.000000;3.309343
2624.000000;3.254381
2623.000000;3.410457
2622.000000;3.889548
2621.000000;3.776318
2620.000000;3.532556
2619.000000;3.549259
2618.000000;3.605645
2617.000000;3.701320
2616.000000;3.773464
2615.000000;3.903262
2614.000000;3.832580
2613.000000;3.720497
2612.000000;3.746105
2611.000000;3.853478
2610.000000;3.912342
2609.000000;3.702329
2608.000000;3.679547
2607.000000;4.012747
2606.000000;3.773709
2605.000000;3.408017
2604.000000;3.314332
2603.000000;3.344353
2602.000000;3.460937
2601.000000;3.567789
2600.000000;3.518742
2599.000000;3.474549
2598.000000;3.493049
2597.000000;3.472117
2596.000000;3.367050
2595.000000;3.279968
2594.000000;3.292524
2593.000000;3.443142
2592.000000;4.004552
2591.000000;4.133988
2590.000000;3.790597
2589.000000;3.869030
2588.000000;3.890692
2587.000000;3.689349
2586.000000;3.481115
2585.000000;3.325425
2584.000000;3.228824
2583.000000;3.208852
2582.000000;3.256689
2581.000000;3.298122
2580.000000;3.272767
2579.000000;3.227011
2578.000000;3.231435
2577.000000;3.348035
2576.000000;3.655402
2575.000000;4.094380
2574.000000;4.103247
2573.000000;4.214310
2572.000000;4.222396
2571.000000;4.130814
2570.000000;4.229255
2569.000000;4.164485
2568.000000;3.877876
2567.000000;3.615070
2566.000000;3.463388
2565.000000;3.402587
2564.000000;3.372220
2563.000000;3.324451
2562.000000;3.234935
2561.000000;3.148044
2560.000000;3.132087
2559.000000;3.239205
2558.000000;3.445834
2557.000000;3.438754
2556.000000;3.344580
2555.000000;3.342388
2554.000000;3.384410
2553.000000;3.517673
2552.000000;3.713928
2551.000000;3.461006
2550.000000;3.215645
2549.000000;3.092582
2548.000000;3.025023
2547.000000;2.994819
2546.000000;2.993270
2545.000000;3.002168
2544.000000;3.003028
2543.000000;3.000428
2542.000000;3.013895
2541.000000;3.045827
2540.000000;3.060838
2539.000000;3.034862
2538.000000;2.977688
2537.000000;2.905080
2536.000000;2.820744
2535.000000;2.730405
2534.000000;2.667243
2533.000000;2.666360
2532.000000;2.748271
2531.000000;2.933631
2530.000000;3.266479
2529.000000;3.783712
2528.000000;3.868487
2527.000000;3.475321
2526.000000;3.291487
2525.000000;3.298989
2524.000000;3.437270
2523.000000;3.502660
2522.000000;3.335154
2521.000000;3.175925
2520.000000;3.106958
2519.000000;3.141755
2518.000000;3.248271
2517.000000;3.299773
2516.000000;3.266148
2515.000000;3.212920
2514.000000;3.182807
2513.000000;3.192757
2512.000000;3.193423
2511.000000;3.227529
2510.000000;3.374729
2509.000000;3.536356
2508.000000;3.609762
2507.000000;3.939426
2506.000000;3.999077
2505.000000;3.613000
2504.000000;3.458351
2503.000000;3.362453
2502.000000;3.311481
2501.000000;3.333919
2500.000000;3.377250
2499.000000;3.355940
2498.000000;3.328270
2497.000000;3.357214
2496.000000;3.344414
2495.000000;3.277452
2494.000000;3.287878
2493.000000;3.363140
2492.000000;3.433915
2491.000000;3.539280
2490.000000;3.747498
2489.000000;3.805807
2488.000000;3.660150
2487.000000;3.571716
2486.000000;3.519646
2485.000000;3.487656
2484.000000;3.494339
2483.000000;3.570075
2482.000000;3.803019
2481.000000;4.318593
2480.000000;3.756447
2479.000000;3.532076
2478.000000;3.423188
2477.000000;3.279553
2476.000000;3.229118
2475.000000;3.311381
2474.000000;3.566738
2473.000000;3.983505
2472.000000;3.695392
2471.000000;3.452056
2470.000000;3.314051
2469.000000;3.245161
2468.000000;3.254509
2467.000000;3.344767
2466.000000;3.512240
2465.000000;3.686995
2464.000000;4.110819
2463.000000;4.101515
2462.000000;3.535317
2461.000000;3.375333
2460.000000;3.389988
2459.000000;3.504010
2458.000000;3.478567
2457.000000;3.422858
2456.000000;3.524023
2455.000000;3.812673
2454.000000;3.925113
2453.000000;3.826095
2452.000000;3.755976
2451.000000;3.674665
2450.000000;3.582239
2449.000000;3.488615
2448.000000;3.455171
2447.000000;3.524248
2446.000000;3.666484
2445.000000;3.568693
2444.000000;3.403276
2443.000000;3.391028
2442.000000;3.540909
2441.000000;3.917655
2440.000000;3.822578
2439.000000;3.441747
2438.000000;3.306434
2437.000000;3.281051
2436.000000;3.361986
2435.000000;3.501414
2434.000000;3.598744
2433.000000;3.691046
2432.000000;3.758465
2431.000000;3.673867
2430.000000;3.543576
2429.000000;3.411370
2428.000000;3.305525
2427.000000;3.252474
2426.000000;3.276035
2425.000000;3.410288
2424.000000;3.523495
2423.000000;3.379970
2422.000000;3.266535
2421.000000;3.243736
2420.000000;3.291785
2419.000000;3.443452
2418.000000;3.705993
2417.000000;3.527085
2416.000000;3.254245
2415.000000;3.154442
2414.000000;3.183911
2413.000000;3.322745
2412.000000;3.514712
2411.000000;3.705089
2410.000000;3.872618
2409.000000;3.779644
2408.000000;3.659397
2407.000000;3.692141
2406.000000;3.760907
2405.000000;3.922483
2404.000000;4.436617
2403.000000;4.138898
2402.000000;3.920077
2401.000000;3.838503
2400.000000;3.722182
2399.000000;3.748345
2398.000000;3.935196
2397.000000;4.120005
2396.000000;4.334556
2395.000000;4.295508
2394.000000;3.714536
2393.000000;3.455346
2392.000000;3.347876
2391.000000;3.314364
2390.000000;3.295553
2389.000000;3.278583
2388.000000;3.298461
2387.000000;3.381424
2386.000000;3.532185
2385.000000;3.686943
2384.000000;3.648645
2383.000000;3.528087
2382.000000;3.480203
2381.000000;3.504331
2380.000000;3.571255
2379.000000;3.606540
2378.000000;3.545342
2377.000000;3.443368
2376.000000;3.384885
2375.000000;3.402610
2374.000000;3.496276
2373.000000;3.675995
2372.000000;4.298462
2371.000000;3.899330
2370.000000;3.629549
2369.000000;3.569244
2368.000000;3.524834
2367.000000;3.498883
2366.000000;3.499079
2365.000000;3.492667
2364.000000;3.470495
2363.000000;3.463871
2362.000000;3.497122
2361.000000;3.577119
2360.000000;3.665371
2359.000000;3.734152
2358.000000;3.899950
2357.000000;4.313655
2356.000000;4.639615
2355.000000;3.948743
2354.000000;3.574972
2353.000000;3.453742
2352.000000;3.494546
2351.000000;3.882029
2350.000000;3.531569
2349.000000;3.318089
2348.000000;3.464065
2347.000000;3.537711
2346.000000;3.475055
2345.000000;3.380232
2344.000000;3.354565
2343.000000;3.338617
2342.000000;3.314622
2341.000000;3.402967
2340.000000;3.713634
2339.000000;4.523275
2338.000000;4.265424
2337.000000;4.051639
2336.000000;3.689184
2335.000000;3.531440
2334.000000;3.481519
2333.000000;3.426828
2332.000000;3.327514
2331.000000;3.250464
2330.000000;3.214696
2329.000000;3.260428
2328.000000;3.396786
2327.000000;3.552763
2326.000000;3.621192
2325.000000;3.725509
2324.000000;3.890122
2323.000000;3.836992
2322.000000;3.694469
2321.000000;3.615161
2320.000000;3.570981
2319.000000;3.537408
2318.000000;3.516844
2317.000000;3.577741
2316.000000;3.741107
2315.000000;3.990274
2314.000000;4.170574
2313.000000;4.153559
2312.000000;4.087597
2311.000000;4.042923
2310.000000;3.899303
2309.000000;3.771901
2308.000000;3.733235
2307.000000;3.806839
2306.000000;3.940580
2305.000000;3.849614
2304.000000;3.707207
2303.000000;3.804642
2302.000000;4.170496
2301.000000;4.022262
2300.000000;3.864588
2299.000000;3.943846
2298.000000;3.756104
2297.000000;3.594429
2296.000000;3.562741
2295.000000;3.612142
2294.000000;3.670890
2293.000000;3.701108
2292.000000;3.751530
2291.000000;3.824461
2290.000000;3.844992
2289.000000;3.754237
2288.000000;3.733328
2287.000000;3.923490
2286.000000;4.104737
2285.000000;3.737177
2284.000000;3.614659
2283.000000;3.709016
2282.000000;3.890008
2281.000000;3.558191
2280.000000;3.289235
2279.000000;3.168649
2278.000000;3.169973
2277.000000;3.276786
2276.000000;3.479609
2275.000000;3.729870
2274.000000;4.173458
2273.000000;4.053619
2272.000000;3.639621
2271.000000;3.571660
2270.000000;3.712560
2269.000000;4.110415
2268.000000;4.225424
2267.000000;3.839523
2266.000000;3.513175
2265.000000;3.326943
2264.000000;3.269068
2263.000000;3.334941
2262.000000;3.650591
2261.000000;3.650691
2260.000000;3.247956
2259.000000;3.082501
2258.000000;3.037551
2257.000000;3.084322
2256.000000;3.201308
2255.000000;3.291689
2254.000000;3.266465
2253.000000;3.248723
2252.000000;3.286576
2251.000000;3.336486
2250.000000;3.336775
2249.000000;3.314601
2248.000000;3.304979
2247.000000;3.272081
2246.000000;3.228229
2245.000000;3.228937
2244.000000;3.278603
2243.000000;3.349921
2242.000000;3.409372
2241.000000;3.488131
2240.000000;3.615181
2239.000000;4.243013
2238.000000;3.729223
2237.000000;3.386976
2236.000000;3.270409
2235.000000;3.222801
2234.000000;3.200205
2233.000000;3.175315
2232.000000;3.150753
2231.000000;3.151939
2230.000000;3.188139
2229.000000;3.228961
2228.000000;3.242709
2227.000000;3.264644
2226.000000;3.346217
2225.000000;3.625079
2224.000000;4.151605
2223.000000;3.711372
2222.000000;3.494185
2221.000000;3.450143
2220.000000;3.508495
2219.000000;3.688019
2218.000000;3.944141
2217.000000;3.827939
2216.000000;3.556814
2215.000000;3.372316
2214.000000;3.318530
2213.000000;3.410355
2212.000000;3.780311
2211.000000;3.717499
2210.000000;3.469404
2209.000000;3.427392
2208.000000;3.445841
2207.000000;3.399053
2206.000000;3.338132
2205.000000;3.352183
2204.000000;3.437508
2203.000000;3.481655
2202.000000;3.449907
2201.000000;3.469662
2200.000000;3.538030
2199.000000;3.516262
2198.000000;3.408012
2197.000000;3.341483
2196.000000;3.336173
2195.000000;3.370997
2194.000000;3.412909
2193.000000;3.453969
2192.000000;3.547782
2191.000000;3.754863
2190.000000;4.268435
2189.000000;4.244940
2188.000000;4.007179
2187.000000;4.147259
2186.000000;4.380687
2185.000000;3.740236
2184.000000;3.398737
2183.000000;3.234063
2182.000000;3.165846
2181.000000;3.174484
2180.000000;3.244563
2179.000000;3.364282
2178.000000;3.508036
2177.000000;3.645702
2176.000000;3.887975
2175.000000;3.622107
2174.000000;3.274518
2173.000000;3.154042
2172.000000;3.157797
2171.000000;3.238730
2170.000000;3.327436
2169.000000;3.355194
2168.000000;3.310307
2167.000000;3.247078
2166.000000;3.208121
2165.000000;3.211883
2164.000000;3.261057
2163.000000;3.375184
2162.000000;3.577136
2161.000000;4.047631
2160.000000;4.319008
2159.000000;3.923140
2158.000000;3.864340
2157.000000;3.909643
2156.000000;3.690195
2155.000000;3.573749
2154.000000;3.610828
2153.000000;3.677364
2152.000000;3.756591
2151.000000;4.077194
2150.000000;4.174527
2149.000000;3.600872
2148.000000;3.406288
2147.000000;3.333801
2146.000000;3.363370
2145.000000;3.461186
2144.000000;3.518540
2143.000000;3.431520
2142.000000;3.313058
2141.000000;3.216378
2140.000000;3.155298
2139.000000;3.140235
2138.000000;3.175392
2137.000000;3.254932
2136.000000;3.353829
2135.000000;3.407738
2134.000000;3.340571
2133.000000;3.220373
2132.000000;3.146438
2131.000000;3.154001
2130.000000;3.260823
2129.000000;3.489034
2128.000000;3.906366
2127.000000;4.215294
2126.000000;3.857305
2125.000000;3.684827
2124.000000;3.556719
2123.000000;3.412557
2122.000000;3.303536
2121.000000;3.237563
2120.000000;3.195460
2119.000000;3.168814
2118.000000;3.154209
2117.000000;3.160814
2116.000000;3.198539
2115.000000;3.271944
2114.000000;3.382898
2113.000000;3.524978
2112.000000;3.683424
2111.000000;3.900921
2110.000000;3.818880
2109.000000;3.520083
2108.000000;3.352623
2107.000000;3.284954
2106.000000;3.264816
2105.000000;3.229336
2104.000000;3.184033
2103.000000;3.166886
2102.000000;3.180129
2101.000000;3.216234
2100.000000;3.272599
2099.000000;3.311493
2098.000000;3.282122
2097.000000;3.222069
2096.000000;3.174101
2095.000000;3.160631
2094.000000;3.198219
2093.000000;3.277856
2092.000000;3.328167
2091.000000;3.293435
2090.000000;3.232219
2089.000000;3.178000
2088.000000;3.139803
2087.000000;3.127833
2086.000000;3.130376
2085.000000;3.106120
2084.000000;3.061458
2083.000000;3.050092
2082.000000;3.093002
2081.000000;3.132435
2080.000000;3.079155
2079.000000;3.002637
2078.000000;2.976486
2077.000000;3.004534
2076.000000;3.063107
2075.000000;3.078952
2074.000000;3.024759
2073.000000;2.984862
2072.000000;3.008064
2071.000000;3.096304
2070.000000;3.235768
2069.000000;3.411477
2068.000000;3.628285
2067.000000;3.941835
2066.000000;4.187932
2065.000000;3.944240
2064.000000;3.691669
2063.000000;3.483470
2062.000000;3.342937
2061.000000;3.303969
2060.000000;3.370739
2059.000000;3.754385
2058.000000;3.995952
2057.000000;3.521460
2056.000000;3.360859
2055.000000;3.284608
2054.000000;3.302427
2053.000000;3.405581
2052.000000;3.575847
2051.000000;3.734784
2050.000000;3.722471
2049.000000;3.621777
2048.000000;3.598176
2047.000000;3.625629
2046.000000;3.594634
2045.000000;3.565767
2044.000000;3.640483
2043.000000;3.915719
2042.000000;4.139781
2041.000000;3.659460
2040.000000;3.514144
2039.000000;3.504626
2038.000000;3.604589
2037.000000;3.581695
2036.000000;3.384722
2035.000000;3.265518
2034.000000;3.221763
2033.000000;3.226333
2032.000000;3.273602
2031.000000;3.380276
2030.000000;3.540771
2029.000000;3.677118
2028.000000;3.765458
2027.000000;3.853680
2026.000000;3.847087
2025.000000;3.767512
2024.000000;3.718422
2023.000000;3.679886
2022.000000;3.565294
2021.000000;3.437541
2020.000000;3.350172
2019.000000;3.298039
2018.000000;3.271139
2017.000000;3.272430
2016.000000;3.320345
2015.000000;3.409410
2014.000000;3.492362
2013.000000;3.561488
2012.000000;3.721069
2011.000000;4.186988
2010.000000;4.162076
2009.000000;3.709681
2008.000000;3.565357
2007.000000;3.482006
2006.000000;3.472475
2005.000000;3.511031
2004.000000;3.604818
2003.000000;3.671610
2002.000000;3.584799
2001.000000;3.465600
2000.000000;3.427893
1999.000000;3.450906
1998.000000;3.493406
1997.000000;3.539433
1996.000000;3.995948
1995.000000;3.777674
1994.000000;3.324871
1993.000000;3.145112
1992.000000;3.077504
1991.000000;3.080184
1990.000000;3.145672
1989.000000;3.288290
1988.000000;3.524050
1987.000000;3.556143
1986.000000;3.297122
1985.000000;3.135327
1984.000000;3.033359
1983.000000;2.970189
1982.000000;2.955788
1981.000000;3.005826
1980.000000;3.093736
1979.000000;3.133683
1978.000000;3.094023
1977.000000;3.045414
1976.000000;3.033038
1975.000000;3.063856
1974.000000;3.121362
1973.000000;3.173843
1972.000000;3.204420
1971.000000;3.223193
1970.000000;3.238885
1969.000000;3.258254
1968.000000;3.285209
1967.000000;3.270102
1966.000000;3.172660
1965.000000;3.070950
1964.000000;3.013874
1963.000000;3.002556
1962.000000;3.026572
1961.000000;3.066469
1960.000000;3.105653
1959.000000;3.156995
1958.000000;3.229020
1957.000000;3.290202
1956.000000;3.320082
1955.000000;3.326030
1954.000000;3.278882
1953.000000;3.177161
1952.000000;3.099601
1951.000000;3.091592
1950.000000;3.140085
1949.000000;3.186327
1948.000000;3.190479
1947.000000;3.194644
1946.000000;3.229439
1945.000000;3.247638
1944.000000;3.218284
1943.000000;3.207288
1942.000000;3.255404
1941.000000;3.339165
1940.000000;3.354195
1939.000000;3.251189
1938.000000;3.156365
1937.000000;3.132916
1936.000000;3.178398
1935.000000;3.240172
1934.000000;3.233620
1933.000000;3.184174
1932.000000;3.148151
1931.000000;3.109693
1930.000000;3.056331
1929.000000;3.026159
1928.000000;3.055438
1927.000000;3.126178
1926.000000;3.140232
1925.000000;3.094921
1924.000000;3.076263
1923.000000;3.081894
1922.000000;3.083933
1921.000000;3.088984
1920.000000;3.127329
1919.000000;3.198923
1918.000000;3.227552
1917.000000;3.184246
1916.000000;3.141318
1915.000000;3.128537
1914.000000;3.133060
1913.000000;3.124559
1912.000000;3.094357
1911.000000;3.057964
1910.000000;3.027474
1909.000000;3.029561
1908.000000;3.093973
1907.000000;3.230546
1906.000000;3.417834
1905.000000;3.558360
1904.000000;3.547719
1903.000000;3.473563
1902.000000;3.396969
1901.000000;3.314930
1900.000000;3.241291
1899.000000;3.194963
1898.000000;3.166535
1897.000000;3.132955
1896.000000;3.087795
1895.000000;3.041195
1894.000000;3.006607
1893.000000;3.005628
1892.000000;3.063866
1891.000000;3.193291
1890.000000;3.344765
1889.000000;3.378655
1888.000000;3.321527
1887.000000;3.272428
1886.000000;3.240944
1885.000000;3.214873
1884.000000;3.196886
1883.000000;3.202567
1882.000000;3.244502
1881.000000;3.324549
1880.000000;3.404600
1879.000000;3.407966
1878.000000;3.339366
1877.000000;3.257813
1876.000000;3.206937
1875.000000;3.215157
1874.000000;3.269450
1873.000000;3.302384
1872.000000;3.292657
1871.000000;3.301644
1870.000000;3.374255
1869.000000;3.602138
1868.000000;3.605921
1867.000000;3.361267
1866.000000;3.244745
1865.000000;3.183428
1864.000000;3.135257
1863.000000;3.084782
1862.000000;3.036859
1861.000000;3.006422
1860.000000;3.012832
1859.000000;3.069201
1858.000000;3.168922
1857.000000;3.283269
1856.000000;3.400668
1855.000000;3.547302
1854.000000;3.727780
1853.000000;3.753131
1852.000000;3.539668
1851.000000;3.363325
1850.000000;3.263408
1849.000000;3.217941
1848.000000;3.197358
1847.000000;3.189296
1846.000000;3.190850
1845.000000;3.199976
1844.000000;3.201457
1843.000000;3.178056
1842.000000;3.151816
1841.000000;3.147453
1840.000000;3.171344
1839.000000;3.237775
1838.000000;3.371383
1837.000000;3.585779
1836.000000;3.620979
1835.000000;3.474325
1834.000000;3.387131
1833.000000;3.348330
1832.000000;3.314178
1831.000000;3.255165
1830.000000;3.211547
1829.000000;3.254084
1828.000000;3.396376
1827.000000;3.664788
1826.000000;4.214963
1825.000000;3.775129
1824.000000;3.479940
1823.000000;3.435659
1822.000000;3.563320
1821.000000;3.651347
1820.000000;3.480298
1819.000000;3.367751
1818.000000;3.338948
1817.000000;3.347180
1816.000000;3.322632
1815.000000;3.260827
1814.000000;3.237243
1813.000000;3.283486
1812.000000;3.375095
1811.000000;3.461983
1810.000000;3.519958
1809.000000;3.585948
1808.000000;3.721973
1807.000000;3.996805
1806.000000;4.162978
1805.000000;3.944422
1804.000000;3.830144
1803.000000;3.856234
1802.000000;4.124821
1801.000000;4.509656
1800.000000;3.824743
1799.000000;3.647445
1798.000000;3.630875
1797.000000;3.726212
1796.000000;3.894562
1795.000000;3.943818
1794.000000;3.798519
1793.000000;3.677064
1792.000000;3.606835
1791.000000;3.573935
1790.000000;3.567598
1789.000000;3.565138
1788.000000;3.559905
1787.000000;3.573154
1786.000000;3.615093
1785.000000;3.635277
1784.000000;3.573840
1783.000000;3.486095
1782.000000;3.432475
1781.000000;3.410516
1780.000000;3.398483
1779.000000;3.399287
1778.000000;3.433992
1777.000000;3.526127
1776.000000;3.697257
1775.000000;3.852814
1774.000000;3.815367
1773.000000;3.801590
1772.000000;3.894525
1771.000000;3.924315
1770.000000;3.817753
1769.000000;3.714952
1768.000000;3.681250
1767.000000;3.770223
1766.000000;4.006025
1765.000000;4.045505
1764.000000;3.818856
1763.000000;3.672159
1762.000000;3.642508
1761.000000;3.772064
1760.000000;3.755894
1759.000000;3.472640
1758.000000;3.275966
1757.000000;3.198637
1756.000000;3.211849
1755.000000;3.282266
1754.000000;3.362575
1753.000000;3.396624
1752.000000;3.382679
1751.000000;3.381647
1750.000000;3.433740
1749.000000;3.508636
1748.000000;3.526362
1747.000000;3.523994
1746.000000;3.580133
1745.000000;3.642421
1744.000000;3.598903
1743.000000;3.495895
1742.000000;3.394565
1741.000000;3.354828
1740.000000;3.411316
1739.000000;3.552411
1738.000000;3.715234
1737.000000;3.761625
1736.000000;3.651667
1735.000000;3.526761
1734.000000;3.483509
1733.000000;3.533359
1732.000000;3.827122
1731.000000;4.180973
1730.000000;3.753090
1729.000000;3.563745
1728.000000;3.454799
1727.000000;3.316397
1726.000000;3.190675
1725.000000;3.108696
1724.000000;3.080785
1723.000000;3.105587
1722.000000;3.175384
1721.000000;3.250546
1720.000000;3.274806
1719.000000;3.258217
1718.000000;3.266811
1717.000000;3.341676
1716.000000;3.488625
1715.000000;3.742385
1714.000000;3.944332
1713.000000;3.706815
1712.000000;3.504983
1711.000000;3.394103
1710.000000;3.334378
1709.000000;3.281879
1708.000000;3.195554
1707.000000;3.098809
1706.000000;3.048557
1705.000000;3.080244
1704.000000;3.198889
1703.000000;3.371729
1702.000000;3.528091
1701.000000;3.665727
1700.000000;4.046531
1699.000000;4.214123
1698.000000;3.803144
1697.000000;3.711333
1696.000000;3.768435
1695.000000;3.876528
1694.000000;3.875797
1693.000000;3.648492
1692.000000;3.453786
1691.000000;3.351631
1690.000000;3.317209
1689.000000;3.334598
1688.000000;3.414189
1687.000000;3.563072
1686.000000;3.778420
1685.000000;4.218393
1684.000000;4.018586
1683.000000;3.611371
1682.000000;3.486428
1681.000000;3.406199
1680.000000;3.356621
1679.000000;3.362462
1678.000000;3.438457
1677.000000;3.517512
1676.000000;3.478108
1675.000000;3.397190
1674.000000;3.363704
1673.000000;3.389069
1672.000000;3.455828
1671.000000;3.471784
1670.000000;3.410800
1669.000000;3.348655
1668.000000;3.294499
1667.000000;3.246454
1666.000000;3.221938
1665.000000;3.229485
1664.000000;3.258199
1663.000000;3.270777
1662.000000;3.244490
1661.000000;3.217572
1660.000000;3.228537
1659.000000;3.273961
1658.000000;3.339151
1657.000000;3.440121
1656.000000;3.563491
1655.000000;3.623858
1654.000000;3.598753
1653.000000;3.608907
1652.000000;3.670198
1651.000000;3.700043
1650.000000;3.671010
1649.000000;3.652202
1648.000000;3.777567
1647.000000;4.272020
1646.000000;4.703204
1645.000000;4.423033
1644.000000;4.029312
1643.000000;3.798588
1642.000000;3.848672
1641.000000;4.104779
1640.000000;3.700507
1639.000000;3.438975
1638.000000;3.354124
1637.000000;3.353583
1636.000000;3.421479
1635.000000;3.535036
1634.000000;3.680079
1633.000000;3.836865
1632.000000;3.829734
1631.000000;3.668369
1630.000000;3.534423
1629.000000;3.471391
1628.000000;3.499206
1627.000000;3.612522
1626.000000;3.635524
1625.000000;3.521058
1624.000000;3.470488
1623.000000;3.491297
1622.000000;3.519820
1621.000000;3.551707
1620.000000;3.608770
1619.000000;3.670452
1618.000000;3.679320
1617.000000;3.590157
1616.000000;3.439470
1615.000000;3.310875
1614.000000;3.257136
1613.000000;3.294655
1612.000000;3.411276
1611.000000;3.569207
1610.000000;3.673949
1609.000000;3.653959
1608.000000;3.604776
1607.000000;3.572683
1606.000000;3.550155
1605.000000;3.537503
1604.000000;3.489727
1603.000000;3.433064
1602.000000;3.428718
1601.000000;3.438385
1600.000000;3.392599
1599.000000;3.303679
1598.000000;3.244882
1597.000000;3.253117
1596.000000;3.298310
1595.000000;3.321376
1594.000000;3.330165
1593.000000;3.363133
1592.000000;3.455165
1591.000000;3.624680
1590.000000;3.596899
1589.000000;3.399833
1588.000000;3.285241
1587.000000;3.241993
1586.000000;3.228943
1585.000000;3.208228
1584.000000;3.165102
1583.000000;3.111367
1582.000000;3.060750
1581.000000;3.029235
1580.000000;3.041801
1579.000000;3.119843
1578.000000;3.257443
1577.000000;3.414683
1576.000000;3.495194
1575.000000;3.461370
1574.000000;3.428799
1573.000000;3.385738
1572.000000;3.274736
1571.000000;3.187905
1570.000000;3.203700
1569.000000;3.328271
1568.000000;3.488540
1567.000000;3.521685
1566.000000;3.436633
1565.000000;3.402552
1564.000000;3.447493
1563.000000;3.452387
1562.000000;3.425809
1561.000000;3.415406
1560.000000;3.419916
1559.000000;3.548562
1558.000000;3.789342
1557.000000;3.944416
1556.000000;4.092586
1555.000000;4.220945
1554.000000;3.941028
1553.000000;3.745575
1552.000000;3.691500
1551.000000;3.752443
1550.000000;3.974917
1549.000000;3.912143
1548.000000;3.677686
1547.000000;3.653786
1546.000000;3.688220
1545.000000;3.658580
1544.000000;3.586087
1543.000000;3.475817
1542.000000;3.325388
1541.000000;3.196251
1540.000000;3.147013
1539.000000;3.150454
1538.000000;3.146484
1537.000000;3.134962
1536.000000;3.132517
1535.000000;3.144958
1534.000000;3.205065
1533.000000;3.381165
1532.000000;3.655862
1531.000000;3.638026
1530.000000;3.507435
1529.000000;3.498285
1528.000000;3.540025
1527.000000;3.536975
1526.000000;3.454767
1525.000000;3.372049
1524.000000;3.346999
1523.000000;3.390096
1522.000000;3.487866
1521.000000;3.593571
1520.000000;3.633778
1519.000000;3.621974
1518.000000;3.699430
1517.000000;3.860755
1516.000000;4.020707
1515.000000;4.213207
1514.000000;4.030727
1513.000000;3.844258
1512.000000;3.805414
1511.000000;3.786061
1510.000000;3.712617
1509.000000;3.598163
1508.000000;3.473778
1507.000000;3.362858
1506.000000;3.293131
1505.000000;3.234614
1504.000000;3.182291
1503.000000;3.181878
1502.000000;3.256946
1501.000000;3.385126
1500.000000;3.497792
1499.000000;3.577919
1498.000000;3.591766
1497.000000;3.511969
1496.000000;3.457605
1495.000000;3.508819
1494.000000;3.691609
1493.000000;3.635212
1492.000000;3.394097
1491.000000;3.305397
1490.000000;3.355355
1489.000000;3.556442
1488.000000;3.985992
1487.000000;4.722217
1486.000000;4.268455
1485.000000;3.728840
1484.000000;3.472063
1483.000000;3.400184
1482.000000;3.478934
1481.000000;3.620382
1480.000000;3.601144
1479.000000;3.453077
1478.000000;3.316477
1477.000000;3.228322
1476.000000;3.196238
1475.000000;3.195173
1474.000000;3.184678
1473.000000;3.158963
1472.000000;3.143464
1471.000000;3.140120
1470.000000;3.147240
1469.000000;3.188435
1468.000000;3.287111
1467.000000;3.440921
1466.000000;3.585211
1465.000000;3.643963
1464.000000;3.681333
1463.000000;3.676477
1462.000000;3.551453
1461.000000;3.400776
1460.000000;3.282103
1459.000000;3.191508
1458.000000;3.133326
1457.000000;3.119813
1456.000000;3.129942
1455.000000;3.138542
1454.000000;3.161916
1453.000000;3.223680
1452.000000;3.330021
1451.000000;3.445613
1450.000000;3.434139
1449.000000;3.338722
1448.000000;3.310564
1447.000000;3.348124
1446.000000;3.482592
1445.000000;3.559846
1444.000000;3.333230
1443.000000;3.160943
1442.000000;3.093013
1441.000000;3.070988
1440.000000;3.061726
1439.000000;3.065403
1438.000000;3.115517
1437.000000;3.245866
1436.000000;3.517309
1435.000000;3.833857
1434.000000;3.616547
1433.000000;3.346470
1432.000000;3.213462
1431.000000;3.212887
1430.000000;3.362120
1429.000000;3.741330
1428.000000;4.146133
1427.000000;3.719603
1426.000000;3.532549
1425.000000;3.471087
1424.000000;3.436170
1423.000000;3.390940
1422.000000;3.316562
1421.000000;3.260520
1420.000000;3.247301
1419.000000;3.288926
1418.000000;3.345433
1417.000000;3.338094
1416.000000;3.257633
1415.000000;3.182581
1414.000000;3.158747
1413.000000;3.207396
1412.000000;3.317579
1411.000000;3.443548
1410.000000;3.449354
1409.000000;3.394298
1408.000000;3.382817
1407.000000;3.534997
1406.000000;4.149205
1405.000000;3.711171
1404.000000;3.407769
1403.000000;3.386316
1402.000000;3.414359
1401.000000;3.482316
1400.000000;3.536035
1399.000000;3.620208
1398.000000;3.686435
1397.000000;3.618864
1396.000000;3.541389
1395.000000;3.506426
1394.000000;3.469490
1393.000000;3.425216
1392.000000;3.393976
1391.000000;3.373254
1390.000000;3.351480
1389.000000;3.357858
1388.000000;3.384596
1387.000000;3.369938
1386.000000;3.338117
1385.000000;3.362389
1384.000000;3.451481
1383.000000;3.530282
1382.000000;3.487386
1381.000000;3.319396
1380.000000;3.127960
1379.000000;2.983758
1378.000000;2.902292
1377.000000;2.874888
1376.000000;2.887508
1375.000000;2.927169
1374.000000;2.979746
1373.000000;3.006228
1372.000000;2.974698
1371.000000;2.933244
1370.000000;2.941762
1369.000000;3.017379
1368.000000;3.139197
1367.000000;3.260384
1366.000000;3.328931
1365.000000;3.502673
1364.000000;3.670811
1363.000000;3.329840
1362.000000;3.124275
1361.000000;3.087861
1360.000000;3.152052
1359.000000;3.268930
1358.000000;3.326659
1357.000000;3.273511
1356.000000;3.205533
1355.000000;3.191671
1354.000000;3.276510
1353.000000;3.440673
1352.000000;3.701022
1351.000000;4.337052
1350.000000;3.992182
1349.000000;3.661298
1348.000000;3.410612
1347.000000;3.214198
1346.000000;3.168728
1345.000000;3.236769
1344.000000;3.385790
1343.000000;3.539049
1342.000000;3.620615
1341.000000;3.605894
1340.000000;3.521657
1339.000000;3.388453
1338.000000;3.226659
1337.000000;3.078287
1336.000000;2.975207
1335.000000;2.924708
1334.000000;2.917639
1333.000000;2.937003
1332.000000;2.964703
1331.000000;2.995796
1330.000000;3.053420
1329.000000;3.162691
1328.000000;3.341090
1327.000000;3.523520
1326.000000;3.468367
1325.000000;3.296996
1324.000000;3.139321
1323.000000;2.988920
1322.000000;2.881025
1321.000000;2.844954
1320.000000;2.889257
1319.000000;2.996060
1318.000000;3.105725
1317.000000;3.167093
1316.000000;3.191863
1315.000000;3.182997
1314.000000;3.131723
1313.000000;3.062658
1312.000000;3.028510
1311.000000;3.065988
1310.000000;3.225930
1309.000000;3.452242
1308.000000;3.406713
1307.000000;3.332749
1306.000000;3.385220
1305.000000;3.344793
1304.000000;3.203136
1303.000000;3.089296
1302.000000;3.035812
1301.000000;3.039861
1300.000000;3.067850
1299.000000;3.052241
1298.000000;2.957553
1297.000000;2.845527
1296.000000;2.778455
1295.000000;2.771035
1294.000000;2.809010
1293.000000;2.862872
1292.000000;2.912601
1291.000000;2.961836
1290.000000;3.009985
1289.000000;3.035933
1288.000000;3.035858
1287.000000;3.025001
1286.000000;3.003685
1285.000000;2.976875
1284.000000;2.973285
1283.000000;3.014731
1282.000000;3.116399
1281.000000;3.266734
1280.000000;3.380802
1279.000000;3.394695
1278.000000;3.438322
1277.000000;3.693889
1276.000000;3.772888
1275.000000;3.495993
1274.000000;3.384562
1273.000000;3.345785
1272.000000;3.319950
1271.000000;3.322735
1270.000000;3.386564
1269.000000;3.547180
1268.000000;3.648343
1267.000000;3.512278
1266.000000;3.398704
1265.000000;3.323539
1264.000000;3.202328
1263.000000;3.100085
1262.000000;3.069639
1261.000000;3.080763
1260.000000;3.062716
1259.000000;3.026812
1258.000000;3.031833
1257.000000;3.087661
1256.000000;3.151520
1255.000000;3.172529
1254.000000;3.153991
1253.000000;3.165711
1252.000000;3.249363
1251.000000;3.452080
1250.000000;3.799147
1249.000000;3.595748
1248.000000;3.279371
1247.000000;3.166830
1246.000000;3.160915
1245.000000;3.274589
1244.000000;3.569049
1243.000000;3.764818
1242.000000;3.518929
1241.000000;3.492066
1240.000000;3.771204
1239.000000;3.634697
1238.000000;3.299684
1237.000000;3.132691
1236.000000;3.040521
1235.000000;2.990575
1234.000000;2.971620
1233.000000;2.986075
1232.000000;3.046140
1231.000000;3.180414
1230.000000;3.443118
1229.000000;3.595777
1228.000000;3.458756
1227.000000;3.401525
1226.000000;3.366989
1225.000000;3.375864
1224.000000;3.335110
1223.000000;3.150162
1222.000000;3.040693
1221.000000;3.036559
1220.000000;3.078393
1219.000000;3.152321
1218.000000;3.326694
1217.000000;3.493750
1216.000000;3.373408
1215.000000;3.241249
1214.000000;3.177284
1213.000000;3.127779
1212.000000;3.151777
1211.000000;3.214883
1210.000000;3.420803
1209.000000;3.893200
1208.000000;3.410263
1207.000000;3.109551
1206.000000;3.028890
1205.000000;3.067489
1204.000000;3.199825
1203.000000;3.440644
1202.000000;3.848816
1201.000000;3.376079
1200.000000;3.042297
