Criado como novo conjunto de dados;"1909daniel.spp","-4273364.2 Secs"
cm-1;Abs
10000.000000;1.344814
9999.000000;1.344764
9998.000000;1.344714
9997.000000;1.344663
9996.000000;1.344614
9995.000000;1.344563
9994.000000;1.344515
9993.000000;1.344461
9992.000000;1.344417
9991.000000;1.344354
9990.000000;1.344334
9989.000000;1.344064
9988.000000;1.343005
9987.000000;1.341000
9986.000000;1.338571
9985.000000;1.336909
9984.000000;1.336915
9983.000000;1.338239
9982.000000;1.339413
9981.000000;1.339113
9980.000000;1.337252
9979.000000;1.334828
9978.000000;1.332905
9977.000000;1.331849
9976.000000;1.331318
9975.000000;1.330772
9974.000000;1.330042
9973.000000;1.329425
9972.000000;1.329219
9971.000000;1.329243
9970.000000;1.328957
9969.000000;1.328031
9968.000000;1.326595
9967.000000;1.324960
9966.000000;1.323442
9965.000000;1.322512
9964.000000;1.322639
9963.000000;1.323635
9962.000000;1.324446
9961.000000;1.324075
9960.000000;1.322726
9959.000000;1.321624
9958.000000;1.321614
9957.000000;1.322232
9956.000000;1.322267
9955.000000;1.321053
9954.000000;1.319057
9953.000000;1.317338
9952.000000;1.316650
9951.000000;1.316985
9950.000000;1.317694
9949.000000;1.317925
9948.000000;1.317166
9947.000000;1.315615
9946.000000;1.314088
9945.000000;1.313418
9944.000000;1.313756
9943.000000;1.314379
9942.000000;1.314290
9941.000000;1.313146
9940.000000;1.311559
9939.000000;1.310356
9938.000000;1.309618
9937.000000;1.308655
9936.000000;1.307003
9935.000000;1.305223
9934.000000;1.304360
9933.000000;1.304655
9932.000000;1.305126
9931.000000;1.304637
9930.000000;1.303223
9929.000000;1.301966
9928.000000;1.301558
9927.000000;1.301469
9926.000000;1.300682
9925.000000;1.298955
9924.000000;1.297041
9923.000000;1.295848
9922.000000;1.295705
9921.000000;1.296301
9920.000000;1.296902
9919.000000;1.296626
9918.000000;1.294955
9917.000000;1.292294
9916.000000;1.289828
9915.000000;1.288595
9914.000000;1.288728
9913.000000;1.289631
9912.000000;1.290699
9911.000000;1.291667
9910.000000;1.292379
9909.000000;1.292499
9908.000000;1.291656
9907.000000;1.289833
9906.000000;1.287541
9905.000000;1.285579
9904.000000;1.284501
9903.000000;1.284212
9902.000000;1.284082
9901.000000;1.283526
9900.000000;1.282494
9899.000000;1.281339
9898.000000;1.280292
9897.000000;1.279274
9896.000000;1.278231
9895.000000;1.277457
9894.000000;1.277378
9893.000000;1.278022
9892.000000;1.278880
9891.000000;1.279371
9890.000000;1.279303
9889.000000;1.278807
9888.000000;1.277948
9887.000000;1.276593
9886.000000;1.274741
9885.000000;1.272821
9884.000000;1.271501
9883.000000;1.271144
9882.000000;1.271441
9881.000000;1.271585
9880.000000;1.270840
9879.000000;1.269013
9878.000000;1.266500
9877.000000;1.263986
9876.000000;1.262114
9875.000000;1.261298
9874.000000;1.261503
9873.000000;1.262056
9872.000000;1.261954
9871.000000;1.260730
9870.000000;1.259031
9869.000000;1.258021
9868.000000;1.258174
9867.000000;1.258870
9866.000000;1.259183
9865.000000;1.258745
9864.000000;1.257753
9863.000000;1.256539
9862.000000;1.255440
9861.000000;1.254817
9860.000000;1.254772
9859.000000;1.254887
9858.000000;1.254574
9857.000000;1.253681
9856.000000;1.252541
9855.000000;1.251457
9854.000000;1.250416
9853.000000;1.249302
9852.000000;1.248142
9851.000000;1.247102
9850.000000;1.246392
9849.000000;1.246159
9848.000000;1.246278
9847.000000;1.246287
9846.000000;1.245748
9845.000000;1.244674
9844.000000;1.243401
9843.000000;1.242087
9842.000000;1.240664
9841.000000;1.239308
9840.000000;1.238530
9839.000000;1.238551
9838.000000;1.238815
9837.000000;1.238422
9836.000000;1.237043
9835.000000;1.235240
9834.000000;1.233931
9833.000000;1.233674
9832.000000;1.234342
9831.000000;1.235245
9830.000000;1.235617
9829.000000;1.235167
9828.000000;1.234188
9827.000000;1.233092
9826.000000;1.231949
9825.000000;1.230581
9824.000000;1.228984
9823.000000;1.227432
9822.000000;1.226140
9821.000000;1.225035
9820.000000;1.224037
9819.000000;1.223378
9818.000000;1.223395
9817.000000;1.223995
9816.000000;1.224566
9815.000000;1.224572
9814.000000;1.224081
9813.000000;1.223509
9812.000000;1.222987
9811.000000;1.222246
9810.000000;1.221114
9809.000000;1.219783
9808.000000;1.218522
9807.000000;1.217436
9806.000000;1.216635
9805.000000;1.216272
9804.000000;1.216160
9803.000000;1.215681
9802.000000;1.214486
9801.000000;1.213111
9800.000000;1.212499
9799.000000;1.212899
9798.000000;1.213566
9797.000000;1.213541
9796.000000;1.212518
9795.000000;1.210952
9794.000000;1.209599
9793.000000;1.209029
9792.000000;1.209287
9791.000000;1.209874
9790.000000;1.210156
9789.000000;1.209896
9788.000000;1.209289
9787.000000;1.208560
9786.000000;1.207711
9785.000000;1.206657
9784.000000;1.205387
9783.000000;1.203968
9782.000000;1.202522
9781.000000;1.201250
9780.000000;1.200277
9779.000000;1.199486
9778.000000;1.198655
9777.000000;1.197766
9776.000000;1.196952
9775.000000;1.196231
9774.000000;1.195558
9773.000000;1.195103
9772.000000;1.195101
9771.000000;1.195333
9770.000000;1.195132
9769.000000;1.194131
9768.000000;1.192757
9767.000000;1.191743
9766.000000;1.191299
9765.000000;1.190960
9764.000000;1.190130
9763.000000;1.188654
9762.000000;1.186906
9761.000000;1.185428
9760.000000;1.184498
9759.000000;1.184004
9758.000000;1.183779
9757.000000;1.183894
9756.000000;1.184418
9755.000000;1.185003
9754.000000;1.185091
9753.000000;1.184603
9752.000000;1.183985
9751.000000;1.183468
9750.000000;1.182713
9749.000000;1.181429
9748.000000;1.179964
9747.000000;1.178889
9746.000000;1.178246
9745.000000;1.177624
9744.000000;1.176823
9743.000000;1.176018
9742.000000;1.175282
9741.000000;1.174389
9740.000000;1.173262
9739.000000;1.172303
9738.000000;1.172010
9737.000000;1.172359
9736.000000;1.172779
9735.000000;1.172744
9734.000000;1.172264
9733.000000;1.171711
9732.000000;1.171259
9731.000000;1.170675
9730.000000;1.169694
9729.000000;1.168415
9728.000000;1.167162
9727.000000;1.166056
9726.000000;1.164943
9725.000000;1.163727
9724.000000;1.162556
9723.000000;1.161620
9722.000000;1.160924
9721.000000;1.160319
9720.000000;1.159648
9719.000000;1.158855
9718.000000;1.158099
9717.000000;1.157730
9716.000000;1.157946
9715.000000;1.158446
9714.000000;1.158610
9713.000000;1.158078
9712.000000;1.156967
9711.000000;1.155539
9710.000000;1.153969
9709.000000;1.152487
9708.000000;1.151404
9707.000000;1.150784
9706.000000;1.150296
9705.000000;1.149586
9704.000000;1.148626
9703.000000;1.147574
9702.000000;1.146528
9701.000000;1.145630
9700.000000;1.145174
9699.000000;1.145295
9698.000000;1.145643
9697.000000;1.145666
9696.000000;1.145205
9695.000000;1.144634
9694.000000;1.144391
9693.000000;1.144545
9692.000000;1.144780
9691.000000;1.144686
9690.000000;1.144015
9689.000000;1.142762
9688.000000;1.141097
9687.000000;1.139299
9686.000000;1.137747
9685.000000;1.136799
9684.000000;1.136524
9683.000000;1.136614
9682.000000;1.136699
9681.000000;1.136672
9680.000000;1.136545
9679.000000;1.136127
9678.000000;1.135155
9677.000000;1.133676
9676.000000;1.131927
9675.000000;1.129903
9674.000000;1.127583
9673.000000;1.125583
9672.000000;1.124929
9671.000000;1.125822
9670.000000;1.127107
9669.000000;1.127477
9668.000000;1.126895
9667.000000;1.126303
9666.000000;1.126184
9665.000000;1.126064
9664.000000;1.125423
9663.000000;1.124463
9662.000000;1.123752
9661.000000;1.123459
9660.000000;1.123200
9659.000000;1.122517
9658.000000;1.121358
9657.000000;1.120125
9656.000000;1.119282
9655.000000;1.118878
9654.000000;1.118522
9653.000000;1.117897
9652.000000;1.117168
9651.000000;1.116706
9650.000000;1.116505
9649.000000;1.116138
9648.000000;1.115253
9647.000000;1.113974
9646.000000;1.112794
9645.000000;1.112168
9644.000000;1.112156
9643.000000;1.112336
9642.000000;1.112111
9641.000000;1.111258
9640.000000;1.110130
9639.000000;1.109243
9638.000000;1.108728
9637.000000;1.108313
9636.000000;1.107728
9635.000000;1.106969
9634.000000;1.106219
9633.000000;1.105658
9632.000000;1.105315
9631.000000;1.105002
9630.000000;1.104481
9629.000000;1.103764
9628.000000;1.103149
9627.000000;1.102829
9626.000000;1.102557
9625.000000;1.101885
9624.000000;1.100693
9623.000000;1.099329
9622.000000;1.098259
9621.000000;1.097687
9620.000000;1.097433
9619.000000;1.097119
9618.000000;1.096474
9617.000000;1.095521
9616.000000;1.094412
9615.000000;1.093198
9614.000000;1.091918
9613.000000;1.090849
9612.000000;1.090364
9611.000000;1.090510
9610.000000;1.090959
9609.000000;1.091423
9608.000000;1.091838
9607.000000;1.092094
9606.000000;1.091927
9605.000000;1.091245
9604.000000;1.090236
9603.000000;1.088967
9602.000000;1.087275
9601.000000;1.085334
9600.000000;1.083882
9599.000000;1.083439
9598.000000;1.083591
9597.000000;1.083462
9596.000000;1.082675
9595.000000;1.081505
9594.000000;1.080301
9593.000000;1.079262
9592.000000;1.078599
9591.000000;1.078386
9590.000000;1.078292
9589.000000;1.077917
9588.000000;1.077372
9587.000000;1.077122
9586.000000;1.077282
9585.000000;1.077473
9584.000000;1.077389
9583.000000;1.077043
9582.000000;1.076413
9581.000000;1.075276
9580.000000;1.073580
9579.000000;1.071708
9578.000000;1.070229
9577.000000;1.069527
9576.000000;1.069593
9575.000000;1.069880
9574.000000;1.069468
9573.000000;1.067824
9572.000000;1.065471
9571.000000;1.063568
9570.000000;1.062811
9569.000000;1.062986
9568.000000;1.063472
9567.000000;1.063760
9566.000000;1.063510
9565.000000;1.062657
9564.000000;1.061642
9563.000000;1.061110
9562.000000;1.061137
9561.000000;1.061087
9560.000000;1.060409
9559.000000;1.059262
9558.000000;1.058175
9557.000000;1.057441
9556.000000;1.057062
9555.000000;1.056913
9554.000000;1.056699
9553.000000;1.056039
9552.000000;1.054849
9551.000000;1.053441
9550.000000;1.052123
9549.000000;1.050979
9548.000000;1.050204
9547.000000;1.050186
9546.000000;1.050899
9545.000000;1.051535
9544.000000;1.051236
9543.000000;1.050074
9542.000000;1.048875
9541.000000;1.048183
9540.000000;1.047798
9539.000000;1.047292
9538.000000;1.046549
9537.000000;1.045712
9536.000000;1.044930
9535.000000;1.044377
9534.000000;1.044271
9533.000000;1.044626
9532.000000;1.045048
9531.000000;1.044964
9530.000000;1.044112
9529.000000;1.042761
9528.000000;1.041401
9527.000000;1.040266
9526.000000;1.039236
9525.000000;1.038173
9524.000000;1.037150
9523.000000;1.036249
9522.000000;1.035336
9521.000000;1.034303
9520.000000;1.033414
9519.000000;1.033079
9518.000000;1.033293
9517.000000;1.033647
9516.000000;1.033882
9515.000000;1.034096
9514.000000;1.034332
9513.000000;1.034373
9512.000000;1.034090
9511.000000;1.033627
9510.000000;1.033015
9509.000000;1.032018
9508.000000;1.030646
9507.000000;1.029434
9506.000000;1.028791
9505.000000;1.028350
9504.000000;1.027486
9503.000000;1.026312
9502.000000;1.025646
9501.000000;1.025957
9500.000000;1.026754
9499.000000;1.027110
9498.000000;1.026546
9497.000000;1.025325
9496.000000;1.024134
9495.000000;1.023563
9494.000000;1.023655
9493.000000;1.023834
9492.000000;1.023391
9491.000000;1.022143
9490.000000;1.020574
9489.000000;1.019322
9488.000000;1.018676
9487.000000;1.018475
9486.000000;1.018320
9485.000000;1.017876
9484.000000;1.017143
9483.000000;1.016425
9482.000000;1.015921
9481.000000;1.015420
9480.000000;1.014592
9479.000000;1.013522
9478.000000;1.012669
9477.000000;1.012281
9476.000000;1.012129
9475.000000;1.011894
9474.000000;1.011576
9473.000000;1.011318
9472.000000;1.011036
9471.000000;1.010479
9470.000000;1.009641
9469.000000;1.008888
9468.000000;1.008556
9467.000000;1.008504
9466.000000;1.008193
9465.000000;1.007292
9464.000000;1.006114
9463.000000;1.005282
9462.000000;1.005005
9461.000000;1.004876
9460.000000;1.004434
9459.000000;1.003683
9458.000000;1.002910
9457.000000;1.002247
9456.000000;1.001687
9455.000000;1.001359
9454.000000;1.001388
9453.000000;1.001531
9452.000000;1.001315
9451.000000;1.000637
9450.000000;0.999875
9449.000000;0.999308
9448.000000;0.998730
9447.000000;0.997824
9446.000000;0.996641
9445.000000;0.995459
9444.000000;0.994372
9443.000000;0.993306
9442.000000;0.992370
9441.000000;0.991875
9440.000000;0.991929
9439.000000;0.992177
9438.000000;0.992097
9437.000000;0.991551
9436.000000;0.990979
9435.000000;0.990974
9434.000000;0.991598
9433.000000;0.992183
9432.000000;0.991952
9431.000000;0.990832
9430.000000;0.989538
9429.000000;0.988815
9428.000000;0.988756
9427.000000;0.988915
9426.000000;0.988895
9425.000000;0.988658
9424.000000;0.988368
9423.000000;0.988138
9422.000000;0.987916
9421.000000;0.987480
9420.000000;0.986550
9419.000000;0.985032
9418.000000;0.983206
9417.000000;0.981611
9416.000000;0.980722
9415.000000;0.980691
9414.000000;0.981265
9413.000000;0.981836
9412.000000;0.981727
9411.000000;0.980652
9410.000000;0.979031
9409.000000;0.977741
9408.000000;0.977415
9407.000000;0.977914
9406.000000;0.978464
9405.000000;0.978316
9404.000000;0.977320
9403.000000;0.975938
9402.000000;0.974765
9401.000000;0.974088
9400.000000;0.973844
9399.000000;0.973871
9398.000000;0.974051
9397.000000;0.974231
9396.000000;0.974161
9395.000000;0.973594
9394.000000;0.972438
9393.000000;0.970806
9392.000000;0.968990
9391.000000;0.967398
9390.000000;0.966419
9389.000000;0.966219
9388.000000;0.966628
9387.000000;0.967239
9386.000000;0.967643
9385.000000;0.967616
9384.000000;0.967208
9383.000000;0.966693
9382.000000;0.966350
9381.000000;0.966193
9380.000000;0.965923
9379.000000;0.965205
9378.000000;0.964011
9377.000000;0.962688
9376.000000;0.961707
9375.000000;0.961323
9374.000000;0.961387
9373.000000;0.961452
9372.000000;0.961107
9371.000000;0.960251
9370.000000;0.959081
9369.000000;0.957893
9368.000000;0.956958
9367.000000;0.956452
9366.000000;0.956321
9365.000000;0.956218
9364.000000;0.955761
9363.000000;0.954911
9362.000000;0.953956
9361.000000;0.953123
9360.000000;0.952412
9359.000000;0.951844
9358.000000;0.951592
9357.000000;0.951699
9356.000000;0.951848
9355.000000;0.951654
9354.000000;0.951107
9353.000000;0.950522
9352.000000;0.950122
9351.000000;0.949830
9350.000000;0.949480
9349.000000;0.949038
9348.000000;0.948565
9347.000000;0.948046
9346.000000;0.947348
9345.000000;0.946382
9344.000000;0.945314
9343.000000;0.944549
9342.000000;0.944357
9341.000000;0.944493
9340.000000;0.944390
9339.000000;0.943783
9338.000000;0.942999
9337.000000;0.942523
9336.000000;0.942500
9335.000000;0.942765
9334.000000;0.943082
9333.000000;0.943157
9332.000000;0.942663
9331.000000;0.941606
9330.000000;0.940481
9329.000000;0.939714
9328.000000;0.939096
9327.000000;0.938142
9326.000000;0.936957
9325.000000;0.936280
9324.000000;0.936596
9323.000000;0.937520
9322.000000;0.938192
9321.000000;0.938019
9320.000000;0.936980
9319.000000;0.935510
9318.000000;0.934231
9317.000000;0.933570
9316.000000;0.933415
9315.000000;0.933285
9314.000000;0.932905
9313.000000;0.932425
9312.000000;0.932038
9311.000000;0.931657
9310.000000;0.931143
9309.000000;0.930609
9308.000000;0.930252
9307.000000;0.930046
9306.000000;0.929785
9305.000000;0.929294
9304.000000;0.928481
9303.000000;0.927404
9302.000000;0.926455
9301.000000;0.926254
9300.000000;0.927054
9299.000000;0.928325
9298.000000;0.929157
9297.000000;0.929054
9296.000000;0.928196
9295.000000;0.927047
9294.000000;0.926001
9293.000000;0.925343
9292.000000;0.925190
9291.000000;0.925315
9290.000000;0.925194
9289.000000;0.924406
9288.000000;0.923027
9287.000000;0.921634
9286.000000;0.920907
9285.000000;0.921107
9284.000000;0.921820
9283.000000;0.922246
9282.000000;0.921877
9281.000000;0.920888
9280.000000;0.919849
9279.000000;0.919161
9278.000000;0.918844
9277.000000;0.918733
9276.000000;0.918662
9275.000000;0.918491
9274.000000;0.918146
9273.000000;0.917706
9272.000000;0.917336
9271.000000;0.917093
9270.000000;0.916859
9269.000000;0.916474
9268.000000;0.915879
9267.000000;0.915098
9266.000000;0.914174
9265.000000;0.913197
9264.000000;0.912379
9263.000000;0.912008
9262.000000;0.912202
9261.000000;0.912678
9260.000000;0.912898
9259.000000;0.912552
9258.000000;0.911838
9257.000000;0.911157
9256.000000;0.910620
9255.000000;0.910064
9254.000000;0.909463
9253.000000;0.909048
9252.000000;0.908994
9251.000000;0.909248
9250.000000;0.909697
9249.000000;0.910245
9248.000000;0.910618
9247.000000;0.910405
9246.000000;0.909463
9245.000000;0.908099
9244.000000;0.906738
9243.000000;0.905643
9242.000000;0.904996
9241.000000;0.904898
9240.000000;0.905078
9239.000000;0.904962
9238.000000;0.904346
9237.000000;0.903702
9236.000000;0.903516
9235.000000;0.903623
9234.000000;0.903579
9233.000000;0.903364
9232.000000;0.903211
9231.000000;0.902969
9230.000000;0.902277
9229.000000;0.901313
9228.000000;0.900752
9227.000000;0.900867
9226.000000;0.901205
9225.000000;0.901262
9224.000000;0.900999
9223.000000;0.900499
9222.000000;0.899611
9221.000000;0.898270
9220.000000;0.896848
9219.000000;0.895819
9218.000000;0.895274
9217.000000;0.895025
9216.000000;0.894976
9215.000000;0.895135
9214.000000;0.895397
9213.000000;0.895595
9212.000000;0.895715
9211.000000;0.895871
9210.000000;0.896099
9209.000000;0.896281
9208.000000;0.896218
9207.000000;0.895719
9206.000000;0.894745
9205.000000;0.893586
9204.000000;0.892746
9203.000000;0.892484
9202.000000;0.892549
9201.000000;0.892474
9200.000000;0.892071
9199.000000;0.891516
9198.000000;0.891025
9197.000000;0.890591
9196.000000;0.890046
9195.000000;0.889334
9194.000000;0.888693
9193.000000;0.888529
9192.000000;0.888992
9191.000000;0.889719
9190.000000;0.890124
9189.000000;0.889952
9188.000000;0.889380
9187.000000;0.888637
9186.000000;0.887794
9185.000000;0.886975
9184.000000;0.886468
9183.000000;0.886421
9182.000000;0.886627
9181.000000;0.886774
9180.000000;0.886773
9179.000000;0.886671
9178.000000;0.886412
9177.000000;0.885870
9176.000000;0.885034
9175.000000;0.884024
9174.000000;0.883009
9173.000000;0.882228
9172.000000;0.881940
9171.000000;0.882167
9170.000000;0.882571
9169.000000;0.882756
9168.000000;0.882619
9167.000000;0.882302
9166.000000;0.881952
9165.000000;0.881674
9164.000000;0.881569
9163.000000;0.881585
9162.000000;0.881440
9161.000000;0.880918
9160.000000;0.880164
9159.000000;0.879458
9158.000000;0.878801
9157.000000;0.878033
9156.000000;0.877317
9155.000000;0.877134
9154.000000;0.877660
9153.000000;0.878422
9152.000000;0.878752
9151.000000;0.878415
9150.000000;0.877636
9149.000000;0.876686
9148.000000;0.875686
9147.000000;0.874744
9146.000000;0.874028
9145.000000;0.873609
9144.000000;0.873325
9143.000000;0.872898
9142.000000;0.872190
9141.000000;0.871363
9140.000000;0.870749
9139.000000;0.870564
9138.000000;0.870704
9137.000000;0.870867
9136.000000;0.870870
9135.000000;0.870775
9134.000000;0.870702
9133.000000;0.870624
9132.000000;0.870473
9131.000000;0.870381
9130.000000;0.870644
9129.000000;0.871312
9128.000000;0.871933
9127.000000;0.871880
9126.000000;0.871010
9125.000000;0.869855
9124.000000;0.869080
9123.000000;0.868845
9122.000000;0.868833
9121.000000;0.868777
9120.000000;0.868691
9119.000000;0.868589
9118.000000;0.868295
9117.000000;0.867710
9116.000000;0.867067
9115.000000;0.866668
9114.000000;0.866494
9113.000000;0.866287
9112.000000;0.865969
9111.000000;0.865699
9110.000000;0.865505
9109.000000;0.865187
9108.000000;0.864718
9107.000000;0.864478
9106.000000;0.864835
9105.000000;0.865577
9104.000000;0.866033
9103.000000;0.865736
9102.000000;0.864805
9101.000000;0.863667
9100.000000;0.862668
9099.000000;0.862021
9098.000000;0.861930
9097.000000;0.862475
9096.000000;0.863396
9095.000000;0.864136
9094.000000;0.864199
9093.000000;0.863445
9092.000000;0.862108
9091.000000;0.860642
9090.000000;0.859509
9089.000000;0.858939
9088.000000;0.858809
9087.000000;0.858827
9086.000000;0.858861
9085.000000;0.858992
9084.000000;0.859244
9083.000000;0.859425
9082.000000;0.859364
9081.000000;0.859118
9080.000000;0.858787
9079.000000;0.858272
9078.000000;0.857469
9077.000000;0.856625
9076.000000;0.856181
9075.000000;0.856204
9074.000000;0.856212
9073.000000;0.855751
9072.000000;0.854948
9071.000000;0.854340
9070.000000;0.854266
9069.000000;0.854633
9068.000000;0.855162
9067.000000;0.855637
9066.000000;0.855889
9065.000000;0.855728
9064.000000;0.855024
9063.000000;0.853831
9062.000000;0.852443
9061.000000;0.851346
9060.000000;0.850999
9059.000000;0.851493
9058.000000;0.852383
9057.000000;0.853022
9056.000000;0.853090
9055.000000;0.852728
9054.000000;0.852140
9053.000000;0.851300
9052.000000;0.850164
9051.000000;0.849020
9050.000000;0.848368
9049.000000;0.848480
9048.000000;0.849224
9047.000000;0.850259
9046.000000;0.851191
9045.000000;0.851578
9044.000000;0.851117
9043.000000;0.850052
9042.000000;0.849183
9041.000000;0.849169
9040.000000;0.849834
9039.000000;0.850358
9038.000000;0.850141
9037.000000;0.849273
9036.000000;0.848201
9035.000000;0.847216
9034.000000;0.846418
9033.000000;0.845916
9032.000000;0.845810
9031.000000;0.846019
9030.000000;0.846272
9029.000000;0.846313
9028.000000;0.846073
9027.000000;0.845725
9026.000000;0.845588
9025.000000;0.845848
9024.000000;0.846301
9023.000000;0.846518
9022.000000;0.846345
9021.000000;0.846080
9020.000000;0.846027
9019.000000;0.846045
9018.000000;0.845762
9017.000000;0.845108
9016.000000;0.844355
9015.000000;0.843664
9014.000000;0.842913
9013.000000;0.842038
9012.000000;0.841291
9011.000000;0.841015
9010.000000;0.841299
9009.000000;0.841927
9008.000000;0.842564
9007.000000;0.842931
9006.000000;0.842934
9005.000000;0.842705
9004.000000;0.842443
9003.000000;0.842207
9002.000000;0.841930
9001.000000;0.841609
9000.000000;0.841311
8999.000000;0.841026
8998.000000;0.840706
8997.000000;0.840472
8996.000000;0.840506
8995.000000;0.840662
8994.000000;0.840469
8993.000000;0.839723
8992.000000;0.838875
8991.000000;0.838527
8990.000000;0.838701
8989.000000;0.838876
8988.000000;0.838701
8987.000000;0.838348
8986.000000;0.838160
8985.000000;0.838230
8984.000000;0.838426
8983.000000;0.838616
8982.000000;0.838705
8981.000000;0.838575
8980.000000;0.838142
8979.000000;0.837451
8978.000000;0.836689
8977.000000;0.836104
8976.000000;0.835901
8975.000000;0.836111
8974.000000;0.836512
8973.000000;0.836792
8972.000000;0.836813
8971.000000;0.836682
8970.000000;0.836551
8969.000000;0.836464
8968.000000;0.836395
8967.000000;0.836283
8966.000000;0.835953
8965.000000;0.835188
8964.000000;0.834036
8963.000000;0.832962
8962.000000;0.832475
8961.000000;0.832643
8960.000000;0.833085
8959.000000;0.833451
8958.000000;0.833698
8957.000000;0.833899
8956.000000;0.833994
8955.000000;0.833865
8954.000000;0.833546
8953.000000;0.833190
8952.000000;0.832889
8951.000000;0.832643
8950.000000;0.832438
8949.000000;0.832267
8948.000000;0.832104
8947.000000;0.831965
8946.000000;0.831929
8945.000000;0.831988
8944.000000;0.831925
8943.000000;0.831537
8942.000000;0.830960
8941.000000;0.830597
8940.000000;0.830670
8939.000000;0.830978
8938.000000;0.831166
8937.000000;0.831078
8936.000000;0.830797
8935.000000;0.830493
8934.000000;0.830323
8933.000000;0.830322
8932.000000;0.830298
8931.000000;0.829939
8930.000000;0.829163
8929.000000;0.828274
8928.000000;0.827657
8927.000000;0.827443
8926.000000;0.827553
8925.000000;0.827915
8924.000000;0.828415
8923.000000;0.828787
8922.000000;0.828814
8921.000000;0.828639
8920.000000;0.828639
8919.000000;0.828983
8918.000000;0.829459
8917.000000;0.829714
8916.000000;0.829513
8915.000000;0.828826
8914.000000;0.827887
8913.000000;0.827165
8912.000000;0.826974
8911.000000;0.827058
8910.000000;0.826842
8909.000000;0.826203
8908.000000;0.825734
8907.000000;0.826066
8906.000000;0.827109
8905.000000;0.828191
8904.000000;0.828755
8903.000000;0.828689
8902.000000;0.828085
8901.000000;0.827033
8900.000000;0.825758
8899.000000;0.824719
8898.000000;0.824358
8897.000000;0.824720
8896.000000;0.825376
8895.000000;0.825772
8894.000000;0.825717
8893.000000;0.825546
8892.000000;0.825733
8891.000000;0.826341
8890.000000;0.826921
8889.000000;0.826957
8888.000000;0.826292
8887.000000;0.825114
8886.000000;0.823761
8885.000000;0.822657
8884.000000;0.822232
8883.000000;0.822613
8882.000000;0.823412
8881.000000;0.824038
8880.000000;0.824239
8879.000000;0.824179
8878.000000;0.824051
8877.000000;0.823823
8876.000000;0.823433
8875.000000;0.823021
8874.000000;0.822838
8873.000000;0.823019
8872.000000;0.823500
8871.000000;0.824055
8870.000000;0.824352
8869.000000;0.824086
8868.000000;0.823250
8867.000000;0.822253
8866.000000;0.821647
8865.000000;0.821673
8864.000000;0.822105
8863.000000;0.822520
8862.000000;0.822701
8861.000000;0.822763
8860.000000;0.822924
8859.000000;0.823217
8858.000000;0.823465
8857.000000;0.823492
8856.000000;0.823249
8855.000000;0.822739
8854.000000;0.821963
8853.000000;0.821076
8852.000000;0.820510
8851.000000;0.820704
8850.000000;0.821640
8849.000000;0.822753
8848.000000;0.823424
8847.000000;0.823554
8846.000000;0.823546
8845.000000;0.823770
8844.000000;0.824131
8843.000000;0.824189
8842.000000;0.823640
8841.000000;0.822653
8840.000000;0.821724
8839.000000;0.821256
8838.000000;0.821270
8837.000000;0.821496
8836.000000;0.821632
8835.000000;0.821518
8834.000000;0.821162
8833.000000;0.820726
8832.000000;0.820481
8831.000000;0.820647
8830.000000;0.821243
8829.000000;0.822103
8828.000000;0.823036
8827.000000;0.823886
8826.000000;0.824462
8825.000000;0.824525
8824.000000;0.823950
8823.000000;0.822878
8822.000000;0.821687
8821.000000;0.820821
8820.000000;0.820564
8819.000000;0.820856
8818.000000;0.821282
8817.000000;0.821417
8816.000000;0.821241
8815.000000;0.821104
8814.000000;0.821208
8813.000000;0.821285
8812.000000;0.820986
8811.000000;0.820436
8810.000000;0.820162
8809.000000;0.820471
8808.000000;0.821153
8807.000000;0.821821
8806.000000;0.822295
8805.000000;0.822560
8804.000000;0.822572
8803.000000;0.822371
8802.000000;0.822265
8801.000000;0.822640
8800.000000;0.823508
8799.000000;0.824378
8798.000000;0.824672
8797.000000;0.824234
8796.000000;0.823429
8795.000000;0.822822
8794.000000;0.822767
8793.000000;0.823197
8792.000000;0.823725
8791.000000;0.823969
8790.000000;0.823869
8789.000000;0.823722
8788.000000;0.823866
8787.000000;0.824307
8786.000000;0.824707
8785.000000;0.824773
8784.000000;0.824614
8783.000000;0.824633
8782.000000;0.825044
8781.000000;0.825615
8780.000000;0.825955
8779.000000;0.825965
8778.000000;0.825867
8777.000000;0.825862
8776.000000;0.825933
8775.000000;0.825963
8774.000000;0.825890
8773.000000;0.825700
8772.000000;0.825434
8771.000000;0.825288
8770.000000;0.825504
8769.000000;0.826049
8768.000000;0.826522
8767.000000;0.826589
8766.000000;0.826423
8765.000000;0.826529
8764.000000;0.827176
8763.000000;0.828158
8762.000000;0.829097
8761.000000;0.829758
8760.000000;0.830073
8759.000000;0.830048
8758.000000;0.829784
8757.000000;0.829470
8756.000000;0.829259
8755.000000;0.829195
8754.000000;0.829286
8753.000000;0.829558
8752.000000;0.829976
8751.000000;0.830400
8750.000000;0.830696
8749.000000;0.830823
8748.000000;0.830795
8747.000000;0.830622
8746.000000;0.830353
8745.000000;0.830088
8744.000000;0.829889
8743.000000;0.829723
8742.000000;0.829567
8741.000000;0.829485
8740.000000;0.829524
8739.000000;0.829605
8738.000000;0.829656
8737.000000;0.829834
8736.000000;0.830468
8735.000000;0.831686
8734.000000;0.833137
8733.000000;0.834159
8732.000000;0.834322
8731.000000;0.833812
8730.000000;0.833252
8729.000000;0.833097
8728.000000;0.833241
8727.000000;0.833250
8726.000000;0.832912
8725.000000;0.832470
8724.000000;0.832297
8723.000000;0.832492
8722.000000;0.832860
8721.000000;0.833183
8720.000000;0.833391
8719.000000;0.833489
8718.000000;0.833456
8717.000000;0.833319
8716.000000;0.833262
8715.000000;0.833562
8714.000000;0.834334
8713.000000;0.835362
8712.000000;0.836268
8711.000000;0.836854
8710.000000;0.837180
8709.000000;0.837270
8708.000000;0.836977
8707.000000;0.836310
8706.000000;0.835730
8705.000000;0.835765
8704.000000;0.836343
8703.000000;0.836821
8702.000000;0.836781
8701.000000;0.836518
8700.000000;0.836544
8699.000000;0.836906
8698.000000;0.837270
8697.000000;0.837474
8696.000000;0.837635
8695.000000;0.837811
8694.000000;0.837904
8693.000000;0.837933
8692.000000;0.838076
8691.000000;0.838334
8690.000000;0.838392
8689.000000;0.837956
8688.000000;0.837104
8687.000000;0.836224
8686.000000;0.835720
8685.000000;0.835804
8684.000000;0.836375
8683.000000;0.837023
8682.000000;0.837330
8681.000000;0.837252
8680.000000;0.837106
8679.000000;0.837123
8678.000000;0.837215
8677.000000;0.837283
8676.000000;0.837486
8675.000000;0.837999
8674.000000;0.838659
8673.000000;0.839126
8672.000000;0.839319
8671.000000;0.839443
8670.000000;0.839618
8669.000000;0.839742
8668.000000;0.839732
8667.000000;0.839678
8666.000000;0.839669
8665.000000;0.839654
8664.000000;0.839555
8663.000000;0.839378
8662.000000;0.839130
8661.000000;0.838742
8660.000000;0.838190
8659.000000;0.837620
8658.000000;0.837266
8657.000000;0.837254
8656.000000;0.837545
8655.000000;0.838017
8654.000000;0.838562
8653.000000;0.839133
8652.000000;0.839710
8651.000000;0.840181
8650.000000;0.840311
8649.000000;0.839981
8648.000000;0.839419
8647.000000;0.839035
8646.000000;0.838960
8645.000000;0.838935
8644.000000;0.838719
8643.000000;0.838437
8642.000000;0.838349
8641.000000;0.838461
8640.000000;0.838544
8639.000000;0.838463
8638.000000;0.838300
8637.000000;0.838212
8636.000000;0.838285
8635.000000;0.838487
8634.000000;0.838617
8633.000000;0.838392
8632.000000;0.837747
8631.000000;0.836995
8630.000000;0.836513
8629.000000;0.836371
8628.000000;0.836455
8627.000000;0.836814
8626.000000;0.837576
8625.000000;0.838510
8624.000000;0.839059
8623.000000;0.838940
8622.000000;0.838474
8621.000000;0.838178
8620.000000;0.838227
8619.000000;0.838468
8618.000000;0.838716
8617.000000;0.838841
8616.000000;0.838713
8615.000000;0.838286
8614.000000;0.837704
8613.000000;0.837178
8612.000000;0.836797
8611.000000;0.836536
8610.000000;0.836364
8609.000000;0.836232
8608.000000;0.836078
8607.000000;0.835913
8606.000000;0.835835
8605.000000;0.835856
8604.000000;0.835858
8603.000000;0.835786
8602.000000;0.835734
8601.000000;0.835753
8600.000000;0.835767
8599.000000;0.835810
8598.000000;0.836122
8597.000000;0.836791
8596.000000;0.837505
8595.000000;0.837927
8594.000000;0.838130
8593.000000;0.838387
8592.000000;0.838660
8591.000000;0.838642
8590.000000;0.838202
8589.000000;0.837480
8588.000000;0.836585
8587.000000;0.835582
8586.000000;0.834750
8585.000000;0.834454
8584.000000;0.834684
8583.000000;0.835054
8582.000000;0.835326
8581.000000;0.835609
8580.000000;0.835929
8579.000000;0.835988
8578.000000;0.835595
8577.000000;0.835026
8576.000000;0.834681
8575.000000;0.834578
8574.000000;0.834455
8573.000000;0.834229
8572.000000;0.834076
8571.000000;0.834138
8570.000000;0.834380
8569.000000;0.834715
8568.000000;0.835069
8567.000000;0.835349
8566.000000;0.835489
8565.000000;0.835519
8564.000000;0.835500
8563.000000;0.835422
8562.000000;0.835264
8561.000000;0.835071
8560.000000;0.834869
8559.000000;0.834590
8558.000000;0.834214
8557.000000;0.833922
8556.000000;0.833935
8555.000000;0.834211
8554.000000;0.834425
8553.000000;0.834297
8552.000000;0.833869
8551.000000;0.833445
8550.000000;0.833302
8549.000000;0.833440
8548.000000;0.833591
8547.000000;0.833496
8546.000000;0.833162
8545.000000;0.832815
8544.000000;0.832617
8543.000000;0.832530
8542.000000;0.832458
8541.000000;0.832322
8540.000000;0.831996
8539.000000;0.831370
8538.000000;0.830642
8537.000000;0.830342
8536.000000;0.830842
8535.000000;0.831872
8534.000000;0.832713
8533.000000;0.832852
8532.000000;0.832376
8531.000000;0.831767
8530.000000;0.831477
8529.000000;0.831669
8528.000000;0.832186
8527.000000;0.832688
8526.000000;0.832895
8525.000000;0.832745
8524.000000;0.832334
8523.000000;0.831779
8522.000000;0.831184
8521.000000;0.830662
8520.000000;0.830293
8519.000000;0.830091
8518.000000;0.830091
8517.000000;0.830375
8516.000000;0.830901
8515.000000;0.831375
8514.000000;0.831467
8513.000000;0.831154
8512.000000;0.830725
8511.000000;0.830473
8510.000000;0.830480
8509.000000;0.830676
8508.000000;0.830934
8507.000000;0.831078
8506.000000;0.830950
8505.000000;0.830565
8504.000000;0.830141
8503.000000;0.829890
8502.000000;0.829830
8501.000000;0.829816
8500.000000;0.829737
8499.000000;0.829642
8498.000000;0.829685
8497.000000;0.829938
8496.000000;0.830252
8495.000000;0.830351
8494.000000;0.830139
8493.000000;0.829848
8492.000000;0.829808
8491.000000;0.830085
8490.000000;0.830416
8489.000000;0.830503
8488.000000;0.830271
8487.000000;0.829820
8486.000000;0.829240
8485.000000;0.828576
8484.000000;0.827961
8483.000000;0.827666
8482.000000;0.827901
8481.000000;0.828548
8480.000000;0.829167
8479.000000;0.829370
8478.000000;0.829148
8477.000000;0.828784
8476.000000;0.828499
8475.000000;0.828344
8474.000000;0.828382
8473.000000;0.828695
8472.000000;0.829134
8471.000000;0.829299
8470.000000;0.828990
8469.000000;0.828511
8468.000000;0.828331
8467.000000;0.828520
8466.000000;0.828751
8465.000000;0.828767
8464.000000;0.828582
8463.000000;0.828260
8462.000000;0.827788
8461.000000;0.827254
8460.000000;0.826912
8459.000000;0.826912
8458.000000;0.827109
8457.000000;0.827273
8456.000000;0.827345
8455.000000;0.827404
8454.000000;0.827473
8453.000000;0.827503
8452.000000;0.827461
8451.000000;0.827311
8450.000000;0.826981
8449.000000;0.826487
8448.000000;0.826054
8447.000000;0.825949
8446.000000;0.826186
8445.000000;0.826462
8444.000000;0.826455
8443.000000;0.826140
8442.000000;0.825793
8441.000000;0.825720
8440.000000;0.825971
8439.000000;0.826318
8438.000000;0.826507
8437.000000;0.826550
8436.000000;0.826704
8435.000000;0.827122
8434.000000;0.827588
8433.000000;0.827712
8432.000000;0.827357
8431.000000;0.826786
8430.000000;0.826372
8429.000000;0.826234
8428.000000;0.826226
8427.000000;0.826189
8426.000000;0.826125
8425.000000;0.826115
8424.000000;0.826139
8423.000000;0.826030
8422.000000;0.825625
8421.000000;0.824978
8420.000000;0.824416
8419.000000;0.824314
8418.000000;0.824765
8417.000000;0.825482
8416.000000;0.826066
8415.000000;0.826366
8414.000000;0.826501
8413.000000;0.826567
8412.000000;0.826450
8411.000000;0.826015
8410.000000;0.825380
8409.000000;0.824872
8408.000000;0.824731
8407.000000;0.824935
8406.000000;0.825305
8405.000000;0.825650
8404.000000;0.825803
8403.000000;0.825679
8402.000000;0.825360
8401.000000;0.825066
8400.000000;0.824932
8399.000000;0.824885
8398.000000;0.824825
8397.000000;0.824842
8396.000000;0.825119
8395.000000;0.825613
8394.000000;0.825989
8393.000000;0.825956
8392.000000;0.825600
8391.000000;0.825268
8390.000000;0.825153
8389.000000;0.825112
8388.000000;0.824932
8387.000000;0.824660
8386.000000;0.824503
8385.000000;0.824460
8384.000000;0.824237
8383.000000;0.823630
8382.000000;0.822854
8381.000000;0.822331
8380.000000;0.822231
8379.000000;0.822364
8378.000000;0.822497
8377.000000;0.822575
8376.000000;0.822586
8375.000000;0.822442
8374.000000;0.822156
8373.000000;0.822010
8372.000000;0.822345
8371.000000;0.823163
8370.000000;0.824050
8369.000000;0.824538
8368.000000;0.824486
8367.000000;0.824130
8366.000000;0.823829
8365.000000;0.823777
8364.000000;0.823916
8363.000000;0.824073
8362.000000;0.824160
8361.000000;0.824195
8360.000000;0.824167
8359.000000;0.823974
8358.000000;0.823567
8357.000000;0.823106
8356.000000;0.822837
8355.000000;0.822844
8354.000000;0.822961
8353.000000;0.822949
8352.000000;0.822705
8351.000000;0.822324
8350.000000;0.821993
8349.000000;0.821830
8348.000000;0.821792
8347.000000;0.821746
8346.000000;0.821669
8345.000000;0.821728
8344.000000;0.822082
8343.000000;0.822600
8342.000000;0.822895
8341.000000;0.822691
8340.000000;0.822128
8339.000000;0.821618
8338.000000;0.821445
8337.000000;0.821562
8336.000000;0.821762
8335.000000;0.821934
8334.000000;0.822081
8333.000000;0.822152
8332.000000;0.822014
8331.000000;0.821633
8330.000000;0.821198
8329.000000;0.820985
8328.000000;0.821085
8327.000000;0.821322
8326.000000;0.821418
8325.000000;0.821240
8324.000000;0.820904
8323.000000;0.820672
8322.000000;0.820704
8321.000000;0.820885
8320.000000;0.820936
8319.000000;0.820726
8318.000000;0.820406
8317.000000;0.820188
8316.000000;0.820075
8315.000000;0.819937
8314.000000;0.819752
8313.000000;0.819618
8312.000000;0.819567
8311.000000;0.819547
8310.000000;0.819589
8309.000000;0.819808
8308.000000;0.820157
8307.000000;0.820379
8306.000000;0.820322
8305.000000;0.820178
8304.000000;0.820275
8303.000000;0.820661
8302.000000;0.821024
8301.000000;0.821000
8300.000000;0.820535
8299.000000;0.819941
8298.000000;0.819634
8297.000000;0.819768
8296.000000;0.820118
8295.000000;0.820339
8294.000000;0.820306
8293.000000;0.820113
8292.000000;0.819817
8291.000000;0.819400
8290.000000;0.818966
8289.000000;0.818769
8288.000000;0.818915
8287.000000;0.819212
8286.000000;0.819411
8285.000000;0.819439
8284.000000;0.819288
8283.000000;0.818892
8282.000000;0.818286
8281.000000;0.817750
8280.000000;0.817552
8279.000000;0.817623
8278.000000;0.817694
8277.000000;0.817657
8276.000000;0.817599
8275.000000;0.817541
8274.000000;0.817394
8273.000000;0.817182
8272.000000;0.817066
8271.000000;0.817091
8270.000000;0.817091
8269.000000;0.816923
8268.000000;0.816636
8267.000000;0.816366
8266.000000;0.816187
8265.000000;0.816163
8264.000000;0.816372
8263.000000;0.816803
8262.000000;0.817278
8261.000000;0.817585
8260.000000;0.817638
8259.000000;0.817500
8258.000000;0.817303
8257.000000;0.817183
8256.000000;0.817199
8255.000000;0.817266
8254.000000;0.817217
8253.000000;0.816973
8252.000000;0.816604
8251.000000;0.816265
8250.000000;0.816115
8249.000000;0.816276
8248.000000;0.816727
8247.000000;0.817234
8246.000000;0.817489
8245.000000;0.817384
8244.000000;0.817086
8243.000000;0.816835
8242.000000;0.816747
8241.000000;0.816810
8240.000000;0.816932
8239.000000;0.816975
8238.000000;0.816857
8237.000000;0.816675
8236.000000;0.816618
8235.000000;0.816707
8234.000000;0.816720
8233.000000;0.816447
8232.000000;0.815922
8231.000000;0.815352
8230.000000;0.814926
8229.000000;0.814767
8228.000000;0.814933
8227.000000;0.815334
8226.000000;0.815712
8225.000000;0.815859
8224.000000;0.815799
8223.000000;0.815688
8222.000000;0.815592
8221.000000;0.815487
8220.000000;0.815401
8219.000000;0.815401
8218.000000;0.815461
8217.000000;0.815485
8216.000000;0.815458
8215.000000;0.815435
8214.000000;0.815393
8213.000000;0.815203
8212.000000;0.814826
8211.000000;0.814393
8210.000000;0.814064
8209.000000;0.813890
8208.000000;0.813853
8207.000000;0.813926
8206.000000;0.814046
8205.000000;0.814137
8204.000000;0.814234
8203.000000;0.814485
8202.000000;0.814921
8201.000000;0.815286
8200.000000;0.815243
8199.000000;0.814713
8198.000000;0.813919
8197.000000;0.813137
8196.000000;0.812519
8195.000000;0.812137
8194.000000;0.812057
8193.000000;0.812279
8192.000000;0.812706
8191.000000;0.813215
8190.000000;0.813730
8189.000000;0.814197
8188.000000;0.814569
8187.000000;0.814849
8186.000000;0.815061
8185.000000;0.815151
8184.000000;0.814987
8183.000000;0.814556
8182.000000;0.814070
8181.000000;0.813770
8180.000000;0.813670
8179.000000;0.813605
8178.000000;0.813496
8177.000000;0.813415
8176.000000;0.813397
8175.000000;0.813343
8174.000000;0.813186
8173.000000;0.813030
8172.000000;0.813016
8171.000000;0.813102
8170.000000;0.813098
8169.000000;0.812912
8168.000000;0.812660
8167.000000;0.812519
8166.000000;0.812520
8165.000000;0.812522
8164.000000;0.812396
8163.000000;0.812203
8162.000000;0.812167
8161.000000;0.812446
8160.000000;0.812950
8159.000000;0.813419
8158.000000;0.813644
8157.000000;0.813556
8156.000000;0.813175
8155.000000;0.812593
8154.000000;0.812051
8153.000000;0.811844
8152.000000;0.812025
8151.000000;0.812305
8150.000000;0.812359
8149.000000;0.812188
8148.000000;0.812036
8147.000000;0.812013
8146.000000;0.811989
8145.000000;0.811875
8144.000000;0.811787
8143.000000;0.811828
8142.000000;0.811845
8141.000000;0.811599
8140.000000;0.811120
8139.000000;0.810732
8138.000000;0.810686
8137.000000;0.810897
8136.000000;0.811085
8135.000000;0.811109
8134.000000;0.811053
8133.000000;0.811046
8132.000000;0.811086
8131.000000;0.811072
8130.000000;0.810933
8129.000000;0.810692
8128.000000;0.810432
8127.000000;0.810243
8126.000000;0.810173
8125.000000;0.810202
8124.000000;0.810250
8123.000000;0.810241
8122.000000;0.810173
8121.000000;0.810112
8120.000000;0.810128
8119.000000;0.810240
8118.000000;0.810398
8117.000000;0.810505
8116.000000;0.810485
8115.000000;0.810371
8114.000000;0.810297
8113.000000;0.810352
8112.000000;0.810445
8111.000000;0.810401
8110.000000;0.810187
8109.000000;0.809961
8108.000000;0.809874
8107.000000;0.809881
8106.000000;0.809821
8105.000000;0.809621
8104.000000;0.809375
8103.000000;0.809227
8102.000000;0.809231
8101.000000;0.809330
8100.000000;0.809401
8099.000000;0.809336
8098.000000;0.809121
8097.000000;0.808881
8096.000000;0.808810
8095.000000;0.809023
8094.000000;0.809429
8093.000000;0.809765
8092.000000;0.809776
8091.000000;0.809431
8090.000000;0.808954
8089.000000;0.808614
8088.000000;0.808504
8087.000000;0.808524
8086.000000;0.808562
8085.000000;0.808596
8084.000000;0.808633
8083.000000;0.808638
8082.000000;0.808596
8081.000000;0.808564
8080.000000;0.808594
8079.000000;0.808651
8078.000000;0.808671
8077.000000;0.808683
8076.000000;0.808779
8075.000000;0.808987
8074.000000;0.809237
8073.000000;0.809450
8072.000000;0.809588
8071.000000;0.809601
8070.000000;0.809429
8069.000000;0.809099
8068.000000;0.808761
8067.000000;0.808566
8066.000000;0.808519
8065.000000;0.808505
8064.000000;0.808444
8063.000000;0.808359
8062.000000;0.808286
8061.000000;0.808196
8060.000000;0.808057
8059.000000;0.807925
8058.000000;0.807899
8057.000000;0.807964
8056.000000;0.807962
8055.000000;0.807789
8054.000000;0.807572
8053.000000;0.807541
8052.000000;0.807732
8051.000000;0.807905
8050.000000;0.807804
8049.000000;0.807446
8048.000000;0.807102
8047.000000;0.807042
8046.000000;0.807329
8045.000000;0.807815
8044.000000;0.808258
8043.000000;0.808476
8042.000000;0.808461
8041.000000;0.808350
8040.000000;0.808272
8039.000000;0.808239
8038.000000;0.808206
8037.000000;0.808185
8036.000000;0.808210
8035.000000;0.808217
8034.000000;0.808065
8033.000000;0.807702
8032.000000;0.807255
8031.000000;0.806906
8030.000000;0.806747
8029.000000;0.806770
8028.000000;0.806939
8027.000000;0.807194
8026.000000;0.807426
8025.000000;0.807514
8024.000000;0.807427
8023.000000;0.807241
8022.000000;0.807082
8021.000000;0.807042
8020.000000;0.807134
8019.000000;0.807254
8018.000000;0.807226
8017.000000;0.806978
8016.000000;0.806687
8015.000000;0.806648
8014.000000;0.806959
8013.000000;0.807410
8012.000000;0.807735
8011.000000;0.807891
8010.000000;0.807986
8009.000000;0.808030
8008.000000;0.807922
8007.000000;0.807675
8006.000000;0.807451
8005.000000;0.807318
8004.000000;0.807140
8003.000000;0.806811
8002.000000;0.806450
8001.000000;0.806235
8000.000000;0.806150
7999.000000;0.806077
7998.000000;0.806049
7997.000000;0.806214
7996.000000;0.806542
7995.000000;0.806793
7994.000000;0.806800
7993.000000;0.806643
7992.000000;0.806460
7991.000000;0.806256
7990.000000;0.806013
7989.000000;0.805867
7988.000000;0.806016
7987.000000;0.806480
7986.000000;0.807036
7985.000000;0.807383
7984.000000;0.807350
7983.000000;0.806973
7982.000000;0.806468
7981.000000;0.806071
7980.000000;0.805851
7979.000000;0.805687
7978.000000;0.805462
7977.000000;0.805235
7976.000000;0.805163
7975.000000;0.805303
7974.000000;0.805553
7973.000000;0.805780
7972.000000;0.805919
7971.000000;0.805946
7970.000000;0.805848
7969.000000;0.805649
7968.000000;0.805449
7967.000000;0.805389
7966.000000;0.805548
7965.000000;0.805862
7964.000000;0.806141
7963.000000;0.806213
7962.000000;0.806073
7961.000000;0.805884
7960.000000;0.805828
7959.000000;0.805964
7958.000000;0.806207
7957.000000;0.806406
7956.000000;0.806438
7955.000000;0.806301
7954.000000;0.806125
7953.000000;0.806063
7952.000000;0.806134
7951.000000;0.806238
7950.000000;0.806315
7949.000000;0.806409
7948.000000;0.806535
7947.000000;0.806593
7946.000000;0.806502
7945.000000;0.806350
7944.000000;0.806309
7943.000000;0.806428
7942.000000;0.806583
7941.000000;0.806626
7940.000000;0.806514
7939.000000;0.806305
7938.000000;0.806118
7937.000000;0.806084
7936.000000;0.806254
7935.000000;0.806535
7934.000000;0.806762
7933.000000;0.806857
7932.000000;0.806880
7931.000000;0.806937
7930.000000;0.807078
7929.000000;0.807264
7928.000000;0.807376
7927.000000;0.807256
7926.000000;0.806859
7925.000000;0.806391
7924.000000;0.806200
7923.000000;0.806451
7922.000000;0.806929
7921.000000;0.807238
7920.000000;0.807195
7919.000000;0.806971
7918.000000;0.806828
7917.000000;0.806820
7916.000000;0.806790
7915.000000;0.806645
7914.000000;0.806500
7913.000000;0.806532
7912.000000;0.806742
7911.000000;0.806949
7910.000000;0.807002
7909.000000;0.806926
7908.000000;0.806868
7907.000000;0.806951
7906.000000;0.807201
7905.000000;0.807530
7904.000000;0.807753
7903.000000;0.807698
7902.000000;0.807356
7901.000000;0.806934
7900.000000;0.806689
7899.000000;0.806715
7898.000000;0.806906
7897.000000;0.807088
7896.000000;0.807164
7895.000000;0.807149
7894.000000;0.807134
7893.000000;0.807204
7892.000000;0.807363
7891.000000;0.807519
7890.000000;0.807567
7889.000000;0.807499
7888.000000;0.807411
7887.000000;0.807407
7886.000000;0.807505
7885.000000;0.807637
7884.000000;0.807708
7883.000000;0.807674
7882.000000;0.807557
7881.000000;0.807422
7880.000000;0.807325
7879.000000;0.807267
7878.000000;0.807200
7877.000000;0.807070
7876.000000;0.806902
7875.000000;0.806811
7874.000000;0.806908
7873.000000;0.807154
7872.000000;0.807390
7871.000000;0.807527
7870.000000;0.807655
7869.000000;0.807888
7868.000000;0.808184
7867.000000;0.808388
7866.000000;0.808421
7865.000000;0.808314
7864.000000;0.808094
7863.000000;0.807803
7862.000000;0.807608
7861.000000;0.807709
7860.000000;0.808065
7859.000000;0.808374
7858.000000;0.808414
7857.000000;0.808300
7856.000000;0.808280
7855.000000;0.808393
7854.000000;0.808463
7853.000000;0.808378
7852.000000;0.808197
7851.000000;0.808015
7850.000000;0.807858
7849.000000;0.807744
7848.000000;0.807745
7847.000000;0.807915
7846.000000;0.808202
7845.000000;0.808494
7844.000000;0.808733
7843.000000;0.808962
7842.000000;0.809254
7841.000000;0.809582
7840.000000;0.809789
7839.000000;0.809735
7838.000000;0.809462
7837.000000;0.809163
7836.000000;0.808988
7835.000000;0.808946
7834.000000;0.809004
7833.000000;0.809161
7832.000000;0.809363
7831.000000;0.809465
7830.000000;0.809385
7829.000000;0.809237
7828.000000;0.809212
7827.000000;0.809376
7826.000000;0.809652
7825.000000;0.809938
7824.000000;0.810145
7823.000000;0.810192
7822.000000;0.810089
7821.000000;0.810000
7820.000000;0.810097
7819.000000;0.810332
7818.000000;0.810483
7817.000000;0.810417
7816.000000;0.810207
7815.000000;0.810006
7814.000000;0.809911
7813.000000;0.809973
7812.000000;0.810212
7811.000000;0.810558
7810.000000;0.810875
7809.000000;0.811088
7808.000000;0.811221
7807.000000;0.811305
7806.000000;0.811322
7805.000000;0.811281
7804.000000;0.811246
7803.000000;0.811253
7802.000000;0.811245
7801.000000;0.811172
7800.000000;0.811096
7799.000000;0.811142
7798.000000;0.811351
7797.000000;0.811626
7796.000000;0.811814
7795.000000;0.811818
7794.000000;0.811653
7793.000000;0.811426
7792.000000;0.811253
7791.000000;0.811182
7790.000000;0.811206
7789.000000;0.811299
7788.000000;0.811425
7787.000000;0.811530
7786.000000;0.811601
7785.000000;0.811699
7784.000000;0.811880
7783.000000;0.812092
7782.000000;0.812214
7781.000000;0.812218
7780.000000;0.812206
7779.000000;0.812264
7778.000000;0.812352
7777.000000;0.812373
7776.000000;0.812297
7775.000000;0.812182
7774.000000;0.812122
7773.000000;0.812198
7772.000000;0.812431
7771.000000;0.812747
7770.000000;0.813036
7769.000000;0.813262
7768.000000;0.813486
7767.000000;0.813741
7766.000000;0.813950
7765.000000;0.814004
7764.000000;0.813893
7763.000000;0.813700
7762.000000;0.813495
7761.000000;0.813305
7760.000000;0.813185
7759.000000;0.813239
7758.000000;0.813524
7757.000000;0.813945
7756.000000;0.814320
7755.000000;0.814555
7754.000000;0.814726
7753.000000;0.814947
7752.000000;0.815201
7751.000000;0.815374
7750.000000;0.815435
7749.000000;0.815477
7748.000000;0.815538
7747.000000;0.815505
7746.000000;0.815278
7745.000000;0.814978
7744.000000;0.814844
7743.000000;0.814965
7742.000000;0.815226
7741.000000;0.815500
7740.000000;0.815759
7739.000000;0.815992
7738.000000;0.816144
7737.000000;0.816198
7736.000000;0.816222
7735.000000;0.816271
7734.000000;0.816343
7733.000000;0.816446
7732.000000;0.816638
7731.000000;0.816902
7730.000000;0.817086
7729.000000;0.817068
7728.000000;0.816899
7727.000000;0.816715
7726.000000;0.816556
7725.000000;0.816391
7724.000000;0.816273
7723.000000;0.816348
7722.000000;0.816688
7721.000000;0.817190
7720.000000;0.817674
7719.000000;0.818021
7718.000000;0.818188
7717.000000;0.818182
7716.000000;0.818049
7715.000000;0.817895
7714.000000;0.817852
7713.000000;0.818005
7712.000000;0.818315
7711.000000;0.818634
7710.000000;0.818826
7709.000000;0.818899
7708.000000;0.818992
7707.000000;0.819192
7706.000000;0.819421
7705.000000;0.819529
7704.000000;0.819470
7703.000000;0.819356
7702.000000;0.819342
7701.000000;0.819512
7700.000000;0.819838
7699.000000;0.820212
7698.000000;0.820523
7697.000000;0.820760
7696.000000;0.820999
7695.000000;0.821258
7694.000000;0.821404
7693.000000;0.821295
7692.000000;0.820993
7691.000000;0.820718
7690.000000;0.820598
7689.000000;0.820562
7688.000000;0.820526
7687.000000;0.820565
7686.000000;0.820812
7685.000000;0.821253
7684.000000;0.821726
7683.000000;0.822099
7682.000000;0.822363
7681.000000;0.822555
7680.000000;0.822688
7679.000000;0.822791
7678.000000;0.822923
7677.000000;0.823099
7676.000000;0.823244
7675.000000;0.823292
7674.000000;0.823305
7673.000000;0.823420
7672.000000;0.823678
7671.000000;0.823973
7670.000000;0.824182
7669.000000;0.824295
7668.000000;0.824387
7667.000000;0.824500
7666.000000;0.824611
7665.000000;0.824695
7664.000000;0.824780
7663.000000;0.824928
7662.000000;0.825170
7661.000000;0.825463
7660.000000;0.825702
7659.000000;0.825795
7658.000000;0.825770
7657.000000;0.825775
7656.000000;0.825950
7655.000000;0.826287
7654.000000;0.826651
7653.000000;0.826947
7652.000000;0.827194
7651.000000;0.827428
7650.000000;0.827588
7649.000000;0.827568
7648.000000;0.827382
7647.000000;0.827216
7646.000000;0.827280
7645.000000;0.827622
7644.000000;0.828099
7643.000000;0.828524
7642.000000;0.828831
7641.000000;0.829089
7640.000000;0.829375
7639.000000;0.829664
7638.000000;0.829877
7637.000000;0.830001
7636.000000;0.830126
7635.000000;0.830324
7634.000000;0.830550
7633.000000;0.830695
7632.000000;0.830730
7631.000000;0.830732
7630.000000;0.830788
7629.000000;0.830915
7628.000000;0.831094
7627.000000;0.831336
7626.000000;0.831660
7625.000000;0.832035
7624.000000;0.832388
7623.000000;0.832667
7622.000000;0.832871
7621.000000;0.833022
7620.000000;0.833147
7619.000000;0.833295
7618.000000;0.833515
7617.000000;0.833805
7616.000000;0.834104
7615.000000;0.834348
7614.000000;0.834504
7613.000000;0.834557
7612.000000;0.834499
7611.000000;0.834389
7610.000000;0.834370
7609.000000;0.834561
7608.000000;0.834944
7607.000000;0.835390
7606.000000;0.835794
7605.000000;0.836151
7604.000000;0.836508
7603.000000;0.836893
7602.000000;0.837309
7601.000000;0.837735
7600.000000;0.838114
7599.000000;0.838380
7598.000000;0.838528
7597.000000;0.838621
7596.000000;0.838735
7595.000000;0.838896
7594.000000;0.839088
7593.000000;0.839290
7592.000000;0.839510
7591.000000;0.839788
7590.000000;0.840170
7589.000000;0.840611
7588.000000;0.840955
7587.000000;0.841088
7586.000000;0.841114
7585.000000;0.841282
7584.000000;0.841701
7583.000000;0.842205
7582.000000;0.842562
7581.000000;0.842748
7580.000000;0.842920
7579.000000;0.843180
7578.000000;0.843480
7577.000000;0.843739
7576.000000;0.843973
7575.000000;0.844257
7574.000000;0.844616
7573.000000;0.844978
7572.000000;0.845234
7571.000000;0.845354
7570.000000;0.845440
7569.000000;0.845649
7568.000000;0.846024
7567.000000;0.846464
7566.000000;0.846868
7565.000000;0.847264
7564.000000;0.847713
7563.000000;0.848145
7562.000000;0.848405
7561.000000;0.848468
7560.000000;0.848503
7559.000000;0.848690
7558.000000;0.849032
7557.000000;0.849399
7556.000000;0.849713
7555.000000;0.850028
7554.000000;0.850421
7553.000000;0.850875
7552.000000;0.851278
7551.000000;0.851549
7550.000000;0.851725
7549.000000;0.851923
7548.000000;0.852218
7547.000000;0.852618
7546.000000;0.853128
7545.000000;0.853761
7544.000000;0.854440
7543.000000;0.854986
7542.000000;0.855274
7541.000000;0.855380
7540.000000;0.855502
7539.000000;0.855746
7538.000000;0.856063
7537.000000;0.856362
7536.000000;0.856642
7535.000000;0.856994
7534.000000;0.857504
7533.000000;0.858130
7532.000000;0.858656
7531.000000;0.858844
7530.000000;0.858718
7529.000000;0.858617
7528.000000;0.858867
7527.000000;0.859425
7526.000000;0.859976
7525.000000;0.860356
7524.000000;0.860724
7523.000000;0.861291
7522.000000;0.862016
7521.000000;0.862678
7520.000000;0.863128
7519.000000;0.863387
7518.000000;0.863549
7517.000000;0.863695
7516.000000;0.863883
7515.000000;0.864123
7514.000000;0.864359
7513.000000;0.864528
7512.000000;0.864656
7511.000000;0.864865
7510.000000;0.865267
7509.000000;0.865859
7508.000000;0.866525
7507.000000;0.867132
7506.000000;0.867630
7505.000000;0.868051
7504.000000;0.868424
7503.000000;0.868728
7502.000000;0.868942
7501.000000;0.869110
7500.000000;0.869323
7499.000000;0.869648
7498.000000;0.870111
7497.000000;0.870700
7496.000000;0.871345
7495.000000;0.871914
7494.000000;0.872325
7493.000000;0.872640
7492.000000;0.872974
7491.000000;0.873352
7490.000000;0.873607
7489.000000;0.873838
7488.000000;0.874046
7487.000000;0.874314
7486.000000;0.874710
7485.000000;0.875272
7484.000000;0.875979
7483.000000;0.876696
7482.000000;0.877263
7481.000000;0.877662
7480.000000;0.878013
7479.000000;0.878386
7478.000000;0.878729
7477.000000;0.879018
7476.000000;0.879355
7475.000000;0.879830
7474.000000;0.880383
7473.000000;0.880895
7472.000000;0.881358
7471.000000;0.881851
7470.000000;0.882390
7469.000000;0.882892
7468.000000;0.883272
7467.000000;0.883528
7466.000000;0.883736
7465.000000;0.884009
7464.000000;0.884408
7463.000000;0.884881
7462.000000;0.885300
7461.000000;0.885629
7460.000000;0.885987
7459.000000;0.886511
7458.000000;0.887182
7457.000000;0.887834
7456.000000;0.888315
7455.000000;0.888602
7454.000000;0.888782
7453.000000;0.888973
7452.000000;0.889225
7451.000000;0.889501
7450.000000;0.889746
7449.000000;0.890001
7448.000000;0.890379
7447.000000;0.890927
7446.000000;0.891555
7445.000000;0.892141
7444.000000;0.892649
7443.000000;0.893099
7442.000000;0.893492
7441.000000;0.893790
7440.000000;0.893970
7439.000000;0.894049
7438.000000;0.894106
7437.000000;0.894289
7436.000000;0.894738
7435.000000;0.895442
7434.000000;0.896233
7433.000000;0.896935
7432.000000;0.897481
7431.000000;0.897874
7430.000000;0.898127
7429.000000;0.898297
7428.000000;0.898490
7427.000000;0.898779
7426.000000;0.899142
7425.000000;0.899531
7424.000000;0.899944
7423.000000;0.900368
7422.000000;0.900736
7421.000000;0.901010
7420.000000;0.901267
7419.000000;0.901592
7418.000000;0.901922
7417.000000;0.902102
7416.000000;0.902100
7415.000000;0.902101
7414.000000;0.902355
7413.000000;0.902954
7412.000000;0.903757
7411.000000;0.904517
7410.000000;0.905046
7409.000000;0.905274
7408.000000;0.905206
7407.000000;0.904918
7406.000000;0.904627
7405.000000;0.904634
7404.000000;0.905099
7403.000000;0.905869
7402.000000;0.906608
7401.000000;0.907073
7400.000000;0.907218
7399.000000;0.907132
7398.000000;0.907000
7397.000000;0.907027
7396.000000;0.907261
7395.000000;0.907562
7394.000000;0.907842
7393.000000;0.908207
7392.000000;0.908749
7391.000000;0.909315
7390.000000;0.909699
7389.000000;0.909964
7388.000000;0.910317
7387.000000;0.910724
7386.000000;0.910951
7385.000000;0.910876
7384.000000;0.910454
7383.000000;0.909513
7382.000000;0.908098
7381.000000;0.906961
7380.000000;0.907049
7379.000000;0.908198
7378.000000;0.908989
7377.000000;0.908367
7376.000000;0.906945
7375.000000;0.906356
7374.000000;0.907521
7373.000000;0.909903
7372.000000;0.912247
7371.000000;0.913553
7370.000000;0.913514
7369.000000;0.912668
7368.000000;0.912122
7367.000000;0.912632
7366.000000;0.913947
7365.000000;0.915283
7364.000000;0.916135
7363.000000;0.916433
7362.000000;0.916326
7361.000000;0.916234
7360.000000;0.916752
7359.000000;0.917834
7358.000000;0.918390
7357.000000;0.917449
7356.000000;0.915558
7355.000000;0.914417
7354.000000;0.915062
7353.000000;0.916949
7352.000000;0.918829
7351.000000;0.919823
7350.000000;0.919652
7349.000000;0.918629
7348.000000;0.917622
7347.000000;0.917344
7346.000000;0.917520
7345.000000;0.917313
7344.000000;0.916369
7343.000000;0.914748
7342.000000;0.912219
7341.000000;0.908798
7340.000000;0.906026
7339.000000;0.906275
7338.000000;0.910021
7337.000000;0.915053
7336.000000;0.919013
7335.000000;0.921575
7334.000000;0.923710
7333.000000;0.925934
7332.000000;0.927904
7331.000000;0.929014
7330.000000;0.928739
7329.000000;0.927037
7328.000000;0.925017
7327.000000;0.924403
7326.000000;0.925533
7325.000000;0.926807
7324.000000;0.926968
7323.000000;0.926777
7322.000000;0.927665
7321.000000;0.929659
7320.000000;0.931675
7319.000000;0.933312
7318.000000;0.935083
7317.000000;0.937172
7316.000000;0.939127
7315.000000;0.940696
7314.000000;0.941949
7313.000000;0.942669
7312.000000;0.942602
7311.000000;0.942179
7310.000000;0.941948
7309.000000;0.941465
7308.000000;0.939962
7307.000000;0.938103
7306.000000;0.937809
7305.000000;0.939879
7304.000000;0.942888
7303.000000;0.945066
7302.000000;0.946083
7301.000000;0.946583
7300.000000;0.947157
7299.000000;0.948313
7298.000000;0.950403
7297.000000;0.952779
7296.000000;0.953956
7295.000000;0.953360
7294.000000;0.952348
7293.000000;0.952744
7292.000000;0.954674
7291.000000;0.956829
7290.000000;0.958382
7289.000000;0.959562
7288.000000;0.960760
7287.000000;0.962084
7286.000000;0.963745
7285.000000;0.966084
7284.000000;0.969010
7283.000000;0.971945
7282.000000;0.974439
7281.000000;0.976507
7280.000000;0.978294
7279.000000;0.979833
7278.000000;0.981197
7277.000000;0.982510
7276.000000;0.983704
7275.000000;0.984599
7274.000000;0.985276
7273.000000;0.986150
7272.000000;0.987551
7271.000000;0.989344
7270.000000;0.991116
7269.000000;0.992618
7268.000000;0.993932
7267.000000;0.995295
7266.000000;0.996768
7265.000000;0.998082
7264.000000;0.998928
7263.000000;0.999463
7262.000000;1.000371
7261.000000;1.002228
7260.000000;1.004922
7259.000000;1.007856
7258.000000;1.010551
7257.000000;1.012784
7256.000000;1.014315
7255.000000;1.014974
7254.000000;1.015116
7253.000000;1.015673
7252.000000;1.017452
7251.000000;1.020421
7250.000000;1.023803
7249.000000;1.026809
7248.000000;1.029127
7247.000000;1.030723
7246.000000;1.031270
7245.000000;1.030167
7244.000000;1.027525
7243.000000;1.024988
7242.000000;1.024946
7241.000000;1.028331
7240.000000;1.033605
7239.000000;1.038552
7238.000000;1.042369
7237.000000;1.045460
7236.000000;1.047903
7235.000000;1.048932
7234.000000;1.048159
7233.000000;1.046870
7232.000000;1.047545
7231.000000;1.051657
7230.000000;1.058042
7229.000000;1.063990
7228.000000;1.067849
7227.000000;1.070138
7226.000000;1.072536
7225.000000;1.076227
7224.000000;1.081076
7223.000000;1.086093
7222.000000;1.090435
7221.000000;1.093988
7220.000000;1.097275
7219.000000;1.100964
7218.000000;1.105287
7217.000000;1.109871
7216.000000;1.114225
7215.000000;1.118246
7214.000000;1.122181
7213.000000;1.126244
7212.000000;1.130484
7211.000000;1.135005
7210.000000;1.139940
7209.000000;1.145008
7208.000000;1.149386
7207.000000;1.152401
7206.000000;1.154306
7205.000000;1.156267
7204.000000;1.159528
7203.000000;1.164514
7202.000000;1.170622
7201.000000;1.176804
7200.000000;1.182338
7199.000000;1.187197
7198.000000;1.191789
7197.000000;1.196439
7196.000000;1.201219
7195.000000;1.206228
7194.000000;1.211685
7193.000000;1.217553
7192.000000;1.223374
7191.000000;1.228748
7190.000000;1.233801
7189.000000;1.238907
7188.000000;1.244150
7187.000000;1.249375
7186.000000;1.254511
7185.000000;1.259374
7184.000000;1.263340
7183.000000;1.265885
7182.000000;1.267644
7181.000000;1.270326
7180.000000;1.275148
7179.000000;1.281719
7178.000000;1.288789
7177.000000;1.295522
7176.000000;1.301743
7175.000000;1.307623
7174.000000;1.313640
7173.000000;1.320320
7172.000000;1.327455
7171.000000;1.333898
7170.000000;1.338737
7169.000000;1.342463
7168.000000;1.346514
7167.000000;1.351840
7166.000000;1.358267
7165.000000;1.364983
7164.000000;1.371046
7163.000000;1.375709
7162.000000;1.379076
7161.000000;1.382463
7160.000000;1.387431
7159.000000;1.394201
7158.000000;1.401684
7157.000000;1.409110
7156.000000;1.416745
7155.000000;1.424868
7154.000000;1.432991
7153.000000;1.440575
7152.000000;1.447866
7151.000000;1.455349
7150.000000;1.462812
7149.000000;1.469579
7148.000000;1.475429
7147.000000;1.480791
7146.000000;1.486122
7145.000000;1.491539
7144.000000;1.496972
7143.000000;1.502162
7142.000000;1.506546
7141.000000;1.509795
7140.000000;1.512576
7139.000000;1.516306
7138.000000;1.521836
7137.000000;1.528671
7136.000000;1.535783
7135.000000;1.542739
7134.000000;1.549669
7133.000000;1.556612
7132.000000;1.563478
7131.000000;1.570413
7130.000000;1.577614
7129.000000;1.584777
7128.000000;1.591296
7127.000000;1.597240
7126.000000;1.603540
7125.000000;1.610816
7124.000000;1.618420
7123.000000;1.625045
7122.000000;1.630025
7121.000000;1.633637
7120.000000;1.636356
7119.000000;1.638593
7118.000000;1.641208
7117.000000;1.645428
7116.000000;1.651649
7115.000000;1.658805
7114.000000;1.665517
7113.000000;1.671404
7112.000000;1.676826
7111.000000;1.681926
7110.000000;1.686594
7109.000000;1.691089
7108.000000;1.695930
7107.000000;1.701162
7106.000000;1.706369
7105.000000;1.711487
7104.000000;1.716968
7103.000000;1.722962
7102.000000;1.728904
7101.000000;1.734121
7100.000000;1.738412
7099.000000;1.741856
7098.000000;1.744523
7097.000000;1.746838
7096.000000;1.749877
7095.000000;1.754620
7094.000000;1.760846
7093.000000;1.767186
7092.000000;1.772377
7091.000000;1.776291
7090.000000;1.779764
7089.000000;1.783705
7088.000000;1.788418
7087.000000;1.793536
7086.000000;1.798454
7085.000000;1.802836
7084.000000;1.806731
7083.000000;1.810320
7082.000000;1.813779
7081.000000;1.817448
7080.000000;1.821785
7079.000000;1.826786
7078.000000;1.831628
7077.000000;1.835345
7076.000000;1.837911
7075.000000;1.840246
7074.000000;1.843072
7073.000000;1.846121
7072.000000;1.848613
7071.000000;1.850253
7070.000000;1.851510
7069.000000;1.853005
7068.000000;1.854920
7067.000000;1.857074
7066.000000;1.859320
7065.000000;1.861826
7064.000000;1.865036
7063.000000;1.869320
7062.000000;1.874545
7061.000000;1.879941
7060.000000;1.884463
7059.000000;1.887439
7058.000000;1.888938
7057.000000;1.889569
7056.000000;1.890069
7055.000000;1.891013
7054.000000;1.892596
7053.000000;1.894551
7052.000000;1.896377
7051.000000;1.897846
7050.000000;1.899354
7049.000000;1.901601
7048.000000;1.904877
7047.000000;1.908692
7046.000000;1.912077
7045.000000;1.914293
7044.000000;1.915442
7043.000000;1.916487
7042.000000;1.918514
7041.000000;1.921749
7040.000000;1.925296
7039.000000;1.927991
7038.000000;1.929478
7037.000000;1.930303
7036.000000;1.931200
7035.000000;1.932668
7034.000000;1.934979
7033.000000;1.937913
7032.000000;1.940546
7031.000000;1.942047
7030.000000;1.942766
7029.000000;1.943706
7028.000000;1.944886
7027.000000;1.945197
7026.000000;1.944217
7025.000000;1.943209
7024.000000;1.943642
7023.000000;1.945557
7022.000000;1.948117
7021.000000;1.951000
7020.000000;1.954113
7019.000000;1.956451
7018.000000;1.956762
7017.000000;1.955466
7016.000000;1.954534
7015.000000;1.955199
7014.000000;1.956882
7013.000000;1.958627
7012.000000;1.960527
7011.000000;1.963050
7010.000000;1.965719
7009.000000;1.967369
7008.000000;1.967509
7007.000000;1.966890
7006.000000;1.966865
7005.000000;1.968494
7004.000000;1.971803
7003.000000;1.975392
7002.000000;1.977258
7001.000000;1.976670
7000.000000;1.975002
6999.000000;1.974183
6998.000000;1.974663
6997.000000;1.975398
6996.000000;1.975566
6995.000000;1.975566
6994.000000;1.976186
6993.000000;1.977400
6992.000000;1.978407
6991.000000;1.978621
6990.000000;1.978280
6989.000000;1.978101
6988.000000;1.978656
6987.000000;1.980160
6986.000000;1.982410
6985.000000;1.984593
6984.000000;1.985531
6983.000000;1.984645
6982.000000;1.982746
6981.000000;1.981514
6980.000000;1.981962
6979.000000;1.983598
6978.000000;1.985158
6977.000000;1.985858
6976.000000;1.985739
6975.000000;1.985213
6974.000000;1.984802
6973.000000;1.985093
6972.000000;1.986350
6971.000000;1.988162
6970.000000;1.989844
6969.000000;1.991118
6968.000000;1.992022
6967.000000;1.992327
6966.000000;1.991655
6965.000000;1.990212
6964.000000;1.988852
6963.000000;1.988217
6962.000000;1.988233
6961.000000;1.988550
6960.000000;1.989059
6959.000000;1.989771
6958.000000;1.990520
6957.000000;1.990989
6956.000000;1.990869
6955.000000;1.989940
6954.000000;1.988294
6953.000000;1.986530
6952.000000;1.985362
6951.000000;1.984862
6950.000000;1.984373
6949.000000;1.983327
6948.000000;1.981995
6947.000000;1.981246
6946.000000;1.981669
6945.000000;1.983005
6944.000000;1.984308
6943.000000;1.984672
6942.000000;1.983994
6941.000000;1.983041
6940.000000;1.982598
6939.000000;1.982670
6938.000000;1.982698
6937.000000;1.982363
6936.000000;1.981849
6935.000000;1.981358
6934.000000;1.980766
6933.000000;1.979897
6932.000000;1.978892
6931.000000;1.978163
6930.000000;1.978176
6929.000000;1.979182
6928.000000;1.980920
6927.000000;1.982599
6926.000000;1.983522
6925.000000;1.983763
6924.000000;1.983973
6923.000000;1.984477
6922.000000;1.984858
6921.000000;1.984445
6920.000000;1.983008
6919.000000;1.981008
6918.000000;1.979374
6917.000000;1.978869
6916.000000;1.979321
6915.000000;1.979639
6914.000000;1.979017
6913.000000;1.977906
6912.000000;1.977289
6911.000000;1.977245
6910.000000;1.976968
6909.000000;1.976131
6908.000000;1.975316
6907.000000;1.974891
6906.000000;1.974373
6905.000000;1.973425
6904.000000;1.972670
6903.000000;1.972837
6902.000000;1.973525
6901.000000;1.973510
6900.000000;1.972129
6899.000000;1.969904
6898.000000;1.967926
6897.000000;1.967009
6896.000000;1.967288
6895.000000;1.968215
6894.000000;1.968941
6893.000000;1.969029
6892.000000;1.968755
6891.000000;1.968603
6890.000000;1.968609
6889.000000;1.968393
6888.000000;1.967628
6887.000000;1.966239
6886.000000;1.964400
6885.000000;1.962648
6884.000000;1.961753
6883.000000;1.962086
6882.000000;1.963097
6881.000000;1.963722
6880.000000;1.963412
6879.000000;1.962655
6878.000000;1.962428
6877.000000;1.963169
6876.000000;1.964302
6875.000000;1.964768
6874.000000;1.964048
6873.000000;1.962588
6872.000000;1.961135
6871.000000;1.959921
6870.000000;1.958747
6869.000000;1.957663
6868.000000;1.957017
6867.000000;1.956824
6866.000000;1.956623
6865.000000;1.956168
6864.000000;1.955773
6863.000000;1.955685
6862.000000;1.955476
6861.000000;1.954449
6860.000000;1.952437
6859.000000;1.949930
6858.000000;1.947612
6857.000000;1.946031
6856.000000;1.945458
6855.000000;1.945682
6854.000000;1.946058
6853.000000;1.946000
6852.000000;1.945373
6851.000000;1.944316
6850.000000;1.942951
6849.000000;1.941436
6848.000000;1.940001
6847.000000;1.938726
6846.000000;1.937542
6845.000000;1.936600
6844.000000;1.936309
6843.000000;1.936696
6842.000000;1.937013
6841.000000;1.936364
6840.000000;1.934561
6839.000000;1.932028
6838.000000;1.929232
6837.000000;1.926624
6836.000000;1.924742
6835.000000;1.923679
6834.000000;1.922585
6833.000000;1.920355
6832.000000;1.916960
6831.000000;1.913580
6830.000000;1.911321
6829.000000;1.910242
6828.000000;1.909683
6827.000000;1.909025
6826.000000;1.907966
6825.000000;1.906519
6824.000000;1.905061
6823.000000;1.904118
6822.000000;1.903769
6821.000000;1.903434
6820.000000;1.902422
6819.000000;1.900567
6818.000000;1.898162
6817.000000;1.895538
6816.000000;1.893032
6815.000000;1.891146
6814.000000;1.890225
6813.000000;1.889848
6812.000000;1.888918
6811.000000;1.886698
6810.000000;1.883683
6809.000000;1.881122
6808.000000;1.879621
6807.000000;1.878464
6806.000000;1.876478
6805.000000;1.873362
6804.000000;1.869899
6803.000000;1.866891
6802.000000;1.864347
6801.000000;1.861906
6800.000000;1.859641
6799.000000;1.857982
6798.000000;1.856978
6797.000000;1.856081
6796.000000;1.854692
6795.000000;1.852629
6794.000000;1.849973
6793.000000;1.846813
6792.000000;1.843338
6791.000000;1.839981
6790.000000;1.837201
6789.000000;1.835185
6788.000000;1.833844
6787.000000;1.832974
6786.000000;1.832253
6785.000000;1.831218
6784.000000;1.829462
6783.000000;1.826897
6782.000000;1.823722
6781.000000;1.820222
6780.000000;1.816700
6779.000000;1.813503
6778.000000;1.810837
6777.000000;1.808574
6776.000000;1.806397
6775.000000;1.804221
6774.000000;1.802268
6773.000000;1.800629
6772.000000;1.798904
6771.000000;1.796515
6770.000000;1.793358
6769.000000;1.790021
6768.000000;1.787299
6767.000000;1.785523
6766.000000;1.784329
6765.000000;1.782977
6764.000000;1.780934
6763.000000;1.778200
6762.000000;1.775134
6761.000000;1.772055
6760.000000;1.769087
6759.000000;1.766328
6758.000000;1.763918
6757.000000;1.761828
6756.000000;1.759767
6755.000000;1.757477
6754.000000;1.755045
6753.000000;1.752706
6752.000000;1.750420
6751.000000;1.747916
6750.000000;1.745127
6749.000000;1.742313
6748.000000;1.739683
6747.000000;1.737120
6746.000000;1.734443
6745.000000;1.731754
6744.000000;1.729361
6743.000000;1.727437
6742.000000;1.725846
6741.000000;1.724223
6740.000000;1.722174
6739.000000;1.719513
6738.000000;1.716400
6737.000000;1.713150
6736.000000;1.709879
6735.000000;1.706484
6734.000000;1.703034
6733.000000;1.699964
6732.000000;1.697651
6731.000000;1.695948
6730.000000;1.694296
6729.000000;1.692241
6728.000000;1.689699
6727.000000;1.686864
6726.000000;1.684078
6725.000000;1.681714
6724.000000;1.679912
6723.000000;1.678390
6722.000000;1.676688
6721.000000;1.674619
6720.000000;1.672333
6719.000000;1.669959
6718.000000;1.667419
6717.000000;1.664630
6716.000000;1.661730
6715.000000;1.659005
6714.000000;1.656672
6713.000000;1.654746
6712.000000;1.652972
6711.000000;1.650922
6710.000000;1.648324
6709.000000;1.645340
6708.000000;1.642399
6707.000000;1.639742
6706.000000;1.637287
6705.000000;1.634912
6704.000000;1.632606
6703.000000;1.630382
6702.000000;1.628179
6701.000000;1.625975
6700.000000;1.623795
6699.000000;1.621570
6698.000000;1.619032
6697.000000;1.616289
6696.000000;1.613477
6695.000000;1.610958
6694.000000;1.608889
6693.000000;1.607041
6692.000000;1.605271
6691.000000;1.603483
6690.000000;1.601527
6689.000000;1.599217
6688.000000;1.596581
6687.000000;1.593904
6686.000000;1.591472
6685.000000;1.589325
6684.000000;1.587293
6683.000000;1.585154
6682.000000;1.582756
6681.000000;1.580091
6680.000000;1.577314
6679.000000;1.574658
6678.000000;1.572240
6677.000000;1.569937
6676.000000;1.567489
6675.000000;1.564766
6674.000000;1.561939
6673.000000;1.559360
6672.000000;1.557231
6671.000000;1.555383
6670.000000;1.553426
6669.000000;1.551170
6668.000000;1.548836
6667.000000;1.546809
6666.000000;1.545209
6665.000000;1.543755
6664.000000;1.542028
6663.000000;1.539828
6662.000000;1.537299
6661.000000;1.534727
6660.000000;1.532272
6659.000000;1.529863
6658.000000;1.527353
6657.000000;1.524712
6656.000000;1.522044
6655.000000;1.519466
6654.000000;1.517051
6653.000000;1.514886
6652.000000;1.513022
6651.000000;1.511340
6650.000000;1.509567
6649.000000;1.507555
6648.000000;1.505460
6647.000000;1.503533
6646.000000;1.501800
6645.000000;1.500080
6644.000000;1.498253
6643.000000;1.496349
6642.000000;1.494347
6641.000000;1.492105
6640.000000;1.489579
6639.000000;1.487015
6638.000000;1.484753
6637.000000;1.482887
6636.000000;1.481201
6635.000000;1.479450
6634.000000;1.477599
6633.000000;1.475776
6632.000000;1.474063
6631.000000;1.472378
6630.000000;1.470551
6629.000000;1.468491
6628.000000;1.466296
6627.000000;1.464176
6626.000000;1.462257
6625.000000;1.460437
6624.000000;1.458488
6623.000000;1.456296
6622.000000;1.453993
6621.000000;1.451803
6620.000000;1.449783
6619.000000;1.447760
6618.000000;1.445565
6617.000000;1.443287
6616.000000;1.441210
6615.000000;1.439484
6614.000000;1.437924
6613.000000;1.436203
6612.000000;1.434205
6611.000000;1.432084
6610.000000;1.430003
6609.000000;1.427946
6608.000000;1.425838
6607.000000;1.423744
6606.000000;1.421813
6605.000000;1.420081
6604.000000;1.418422
6603.000000;1.416694
6602.000000;1.414871
6601.000000;1.413029
6600.000000;1.411259
6599.000000;1.409601
6598.000000;1.407995
6597.000000;1.406314
6596.000000;1.404484
6595.000000;1.402559
6594.000000;1.400633
6593.000000;1.398708
6592.000000;1.396738
6591.000000;1.394774
6590.000000;1.392955
6589.000000;1.391341
6588.000000;1.389857
6587.000000;1.388425
6586.000000;1.387046
6585.000000;1.385706
6584.000000;1.384320
6583.000000;1.382817
6582.000000;1.381200
6581.000000;1.379464
6580.000000;1.377539
6579.000000;1.375422
6578.000000;1.373282
6577.000000;1.371324
6576.000000;1.369577
6575.000000;1.367895
6574.000000;1.366144
6573.000000;1.364321
6572.000000;1.362517
6571.000000;1.360847
6570.000000;1.359385
6569.000000;1.358075
6568.000000;1.356737
6567.000000;1.355232
6566.000000;1.353599
6565.000000;1.351951
6564.000000;1.350273
6563.000000;1.348455
6562.000000;1.346522
6561.000000;1.344695
6560.000000;1.343166
6559.000000;1.341880
6558.000000;1.340577
6557.000000;1.339019
6556.000000;1.337167
6555.000000;1.335204
6554.000000;1.333399
6553.000000;1.331889
6552.000000;1.330581
6551.000000;1.329272
6550.000000;1.327861
6549.000000;1.326383
6548.000000;1.324866
6547.000000;1.323263
6546.000000;1.321553
6545.000000;1.319823
6544.000000;1.318186
6543.000000;1.316669
6542.000000;1.315213
6541.000000;1.313741
6540.000000;1.312220
6539.000000;1.310693
6538.000000;1.309259
6537.000000;1.307962
6536.000000;1.306691
6535.000000;1.305251
6534.000000;1.303583
6533.000000;1.301857
6532.000000;1.300312
6531.000000;1.299041
6530.000000;1.297946
6529.000000;1.296841
6528.000000;1.295556
6527.000000;1.294022
6526.000000;1.292317
6525.000000;1.290615
6524.000000;1.289061
6523.000000;1.287672
6522.000000;1.286379
6521.000000;1.285110
6520.000000;1.283828
6519.000000;1.282508
6518.000000;1.281151
6517.000000;1.279783
6516.000000;1.278434
6515.000000;1.277105
6514.000000;1.275773
6513.000000;1.274415
6512.000000;1.273026
6511.000000;1.271638
6510.000000;1.270305
6509.000000;1.269045
6508.000000;1.267783
6507.000000;1.266414
6506.000000;1.264939
6505.000000;1.263467
6504.000000;1.262100
6503.000000;1.260835
6502.000000;1.259628
6501.000000;1.258465
6500.000000;1.257334
6499.000000;1.256170
6498.000000;1.254883
6497.000000;1.253456
6496.000000;1.251961
6495.000000;1.250511
6494.000000;1.249190
6493.000000;1.248003
6492.000000;1.246869
6491.000000;1.245687
6490.000000;1.244433
6489.000000;1.243161
6488.000000;1.241913
6487.000000;1.240672
6486.000000;1.239431
6485.000000;1.238230
6484.000000;1.237082
6483.000000;1.235921
6482.000000;1.234694
6481.000000;1.233477
6480.000000;1.232382
6479.000000;1.231383
6478.000000;1.230317
6477.000000;1.229084
6476.000000;1.227754
6475.000000;1.226451
6474.000000;1.225195
6473.000000;1.223933
6472.000000;1.222655
6471.000000;1.221409
6470.000000;1.220208
6469.000000;1.219004
6468.000000;1.217796
6467.000000;1.216669
6466.000000;1.215685
6465.000000;1.214765
6464.000000;1.213732
6463.000000;1.212485
6462.000000;1.211102
6461.000000;1.209772
6460.000000;1.208642
6459.000000;1.207739
6458.000000;1.206971
6457.000000;1.206188
6456.000000;1.205279
6455.000000;1.204240
6454.000000;1.203150
6453.000000;1.202066
6452.000000;1.200974
6451.000000;1.199837
6450.000000;1.198668
6449.000000;1.197518
6448.000000;1.196431
6447.000000;1.195419
6446.000000;1.194464
6445.000000;1.193506
6444.000000;1.192472
6443.000000;1.191360
6442.000000;1.190260
6441.000000;1.189258
6440.000000;1.188337
6439.000000;1.187428
6438.000000;1.186513
6437.000000;1.185621
6436.000000;1.184726
6435.000000;1.183744
6434.000000;1.182636
6433.000000;1.181473
6432.000000;1.180364
6431.000000;1.179362
6430.000000;1.178446
6429.000000;1.177555
6428.000000;1.176640
6427.000000;1.175703
6426.000000;1.174812
6425.000000;1.174040
6424.000000;1.173365
6423.000000;1.172652
6422.000000;1.171751
6421.000000;1.170619
6420.000000;1.169355
6419.000000;1.168125
6418.000000;1.167036
6417.000000;1.166059
6416.000000;1.165107
6415.000000;1.164163
6414.000000;1.163296
6413.000000;1.162533
6412.000000;1.161775
6411.000000;1.160899
6410.000000;1.159915
6409.000000;1.158915
6408.000000;1.157934
6407.000000;1.156933
6406.000000;1.155941
6405.000000;1.155081
6404.000000;1.154420
6403.000000;1.153848
6402.000000;1.153163
6401.000000;1.152246
6400.000000;1.151146
6399.000000;1.150023
6398.000000;1.149036
6397.000000;1.148234
6396.000000;1.147534
6395.000000;1.146825
6394.000000;1.146074
6393.000000;1.145313
6392.000000;1.144530
6391.000000;1.143676
6390.000000;1.142760
6389.000000;1.141869
6388.000000;1.141062
6387.000000;1.140315
6386.000000;1.139596
6385.000000;1.138924
6384.000000;1.138301
6383.000000;1.137660
6382.000000;1.136929
6381.000000;1.136116
6380.000000;1.135289
6379.000000;1.134486
6378.000000;1.133710
6377.000000;1.132959
6376.000000;1.132229
6375.000000;1.131484
6374.000000;1.130668
6373.000000;1.129763
6372.000000;1.128822
6371.000000;1.127936
6370.000000;1.127182
6369.000000;1.126550
6368.000000;1.125933
6367.000000;1.125217
6366.000000;1.124405
6365.000000;1.123603
6364.000000;1.122890
6363.000000;1.122228
6362.000000;1.121530
6361.000000;1.120786
6360.000000;1.120067
6359.000000;1.119422
6358.000000;1.118811
6357.000000;1.118132
6356.000000;1.117320
6355.000000;1.116425
6354.000000;1.115593
6353.000000;1.114924
6352.000000;1.114356
6351.000000;1.113732
6350.000000;1.112988
6349.000000;1.112222
6348.000000;1.111555
6347.000000;1.110989
6346.000000;1.110428
6345.000000;1.109798
6344.000000;1.109094
6343.000000;1.108338
6342.000000;1.107567
6341.000000;1.106829
6340.000000;1.106146
6339.000000;1.105482
6338.000000;1.104775
6337.000000;1.104012
6336.000000;1.103238
6335.000000;1.102508
6334.000000;1.101864
6333.000000;1.101333
6332.000000;1.100896
6331.000000;1.100467
6330.000000;1.099951
6329.000000;1.099338
6328.000000;1.098700
6327.000000;1.098080
6326.000000;1.097423
6325.000000;1.096664
6324.000000;1.095829
6323.000000;1.095028
6322.000000;1.094337
6321.000000;1.093738
6320.000000;1.093177
6319.000000;1.092627
6318.000000;1.092081
6317.000000;1.091516
6316.000000;1.090932
6315.000000;1.090386
6314.000000;1.089932
6313.000000;1.089515
6312.000000;1.088983
6311.000000;1.088247
6310.000000;1.087400
6309.000000;1.086623
6308.000000;1.086020
6307.000000;1.085567
6306.000000;1.085179
6305.000000;1.084772
6304.000000;1.084285
6303.000000;1.083709
6302.000000;1.083087
6301.000000;1.082467
6300.000000;1.081842
6299.000000;1.081185
6298.000000;1.080522
6297.000000;1.079919
6296.000000;1.079399
6295.000000;1.078915
6294.000000;1.078425
6293.000000;1.077925
6292.000000;1.077422
6291.000000;1.076913
6290.000000;1.076408
6289.000000;1.075939
6288.000000;1.075518
6287.000000;1.075119
6286.000000;1.074720
6285.000000;1.074315
6284.000000;1.073892
6283.000000;1.073423
6282.000000;1.072894
6281.000000;1.072308
6280.000000;1.071670
6279.000000;1.070992
6278.000000;1.070330
6277.000000;1.069764
6276.000000;1.069321
6275.000000;1.068937
6274.000000;1.068527
6273.000000;1.068055
6272.000000;1.067539
6271.000000;1.067006
6270.000000;1.066484
6269.000000;1.065989
6268.000000;1.065502
6267.000000;1.064986
6266.000000;1.064430
6265.000000;1.063878
6264.000000;1.063375
6263.000000;1.062918
6262.000000;1.062467
6261.000000;1.061997
6260.000000;1.061515
6259.000000;1.061039
6258.000000;1.060586
6257.000000;1.060163
6256.000000;1.059774
6255.000000;1.059413
6254.000000;1.059079
6253.000000;1.058759
6252.000000;1.058424
6251.000000;1.058047
6250.000000;1.057629
6249.000000;1.057212
6248.000000;1.056825
6247.000000;1.056440
6246.000000;1.055983
6245.000000;1.055402
6244.000000;1.054733
6243.000000;1.054088
6242.000000;1.053565
6241.000000;1.053159
6240.000000;1.052785
6239.000000;1.052384
6238.000000;1.051980
6237.000000;1.051613
6236.000000;1.051256
6235.000000;1.050856
6234.000000;1.050405
6233.000000;1.049946
6232.000000;1.049501
6231.000000;1.049049
6230.000000;1.048577
6229.000000;1.048111
6228.000000;1.047682
6227.000000;1.047302
6226.000000;1.046961
6225.000000;1.046626
6224.000000;1.046242
6223.000000;1.045780
6222.000000;1.045279
6221.000000;1.044822
6220.000000;1.044443
6219.000000;1.044097
6218.000000;1.043722
6217.000000;1.043299
6216.000000;1.042865
6215.000000;1.042469
6214.000000;1.042131
6213.000000;1.041820
6212.000000;1.041488
6211.000000;1.041147
6210.000000;1.040869
6209.000000;1.040681
6208.000000;1.040487
6207.000000;1.040180
6206.000000;1.039783
6205.000000;1.039414
6204.000000;1.039115
6203.000000;1.038792
6202.000000;1.038366
6201.000000;1.037886
6200.000000;1.037458
6199.000000;1.037107
6198.000000;1.036767
6197.000000;1.036379
6196.000000;1.035945
6195.000000;1.035504
6194.000000;1.035100
6193.000000;1.034762
6192.000000;1.034494
6191.000000;1.034262
6190.000000;1.033989
6189.000000;1.033587
6188.000000;1.033022
6187.000000;1.032360
6186.000000;1.031734
6185.000000;1.031248
6184.000000;1.030908
6183.000000;1.030662
6182.000000;1.030466
6181.000000;1.030281
6180.000000;1.030055
6179.000000;1.029767
6178.000000;1.029476
6177.000000;1.029252
6176.000000;1.029075
6175.000000;1.028845
6174.000000;1.028507
6173.000000;1.028103
6172.000000;1.027703
6171.000000;1.027327
6170.000000;1.026969
6169.000000;1.026642
6168.000000;1.026358
6167.000000;1.026100
6166.000000;1.025842
6165.000000;1.025578
6164.000000;1.025323
6163.000000;1.025084
6162.000000;1.024850
6161.000000;1.024582
6160.000000;1.024237
6159.000000;1.023827
6158.000000;1.023437
6157.000000;1.023144
6156.000000;1.022915
6155.000000;1.022644
6154.000000;1.022302
6153.000000;1.021989
6152.000000;1.021813
6151.000000;1.021749
6150.000000;1.021649
6149.000000;1.021390
6148.000000;1.020990
6147.000000;1.020590
6146.000000;1.020315
6145.000000;1.020154
6144.000000;1.019980
6143.000000;1.019693
6142.000000;1.019332
6141.000000;1.019012
6140.000000;1.018782
6139.000000;1.018606
6138.000000;1.018434
6137.000000;1.018236
6136.000000;1.017979
6135.000000;1.017635
6134.000000;1.017243
6133.000000;1.016888
6132.000000;1.016609
6131.000000;1.016363
6130.000000;1.016101
6129.000000;1.015822
6128.000000;1.015545
6127.000000;1.015275
6126.000000;1.015026
6125.000000;1.014827
6124.000000;1.014678
6123.000000;1.014532
6122.000000;1.014359
6121.000000;1.014164
6120.000000;1.013938
6119.000000;1.013641
6118.000000;1.013268
6117.000000;1.012889
6116.000000;1.012573
6115.000000;1.012314
6114.000000;1.012065
6113.000000;1.011822
6112.000000;1.011620
6111.000000;1.011461
6110.000000;1.011294
6109.000000;1.011075
6108.000000;1.010813
6107.000000;1.010563
6106.000000;1.010366
6105.000000;1.010212
6104.000000;1.010041
6103.000000;1.009807
6102.000000;1.009531
6101.000000;1.009269
6100.000000;1.009055
6099.000000;1.008883
6098.000000;1.008758
6097.000000;1.008688
6096.000000;1.008633
6095.000000;1.008508
6094.000000;1.008271
6093.000000;1.007968
6092.000000;1.007662
6091.000000;1.007349
6090.000000;1.006999
6089.000000;1.006635
6088.000000;1.006334
6087.000000;1.006138
6086.000000;1.006011
6085.000000;1.005880
6084.000000;1.005699
6083.000000;1.005470
6082.000000;1.005234
6081.000000;1.005041
6080.000000;1.004906
6079.000000;1.004796
6078.000000;1.004657
6077.000000;1.004462
6076.000000;1.004231
6075.000000;1.004017
6074.000000;1.003861
6073.000000;1.003760
6072.000000;1.003669
6071.000000;1.003532
6070.000000;1.003316
6069.000000;1.003040
6068.000000;1.002757
6067.000000;1.002534
6066.000000;1.002404
6065.000000;1.002337
6064.000000;1.002268
6063.000000;1.002162
6062.000000;1.002038
6061.000000;1.001909
6060.000000;1.001746
6059.000000;1.001518
6058.000000;1.001248
6057.000000;1.000996
6056.000000;1.000774
6055.000000;1.000556
6054.000000;1.000339
6053.000000;1.000172
6052.000000;1.000087
6051.000000;1.000048
6050.000000;0.999990
6049.000000;0.999871
6048.000000;0.999694
6047.000000;0.999484
6046.000000;0.999254
6045.000000;0.998994
6044.000000;0.998689
6043.000000;0.998366
6042.000000;0.998101
6041.000000;0.997966
6040.000000;0.997955
6039.000000;0.998000
6038.000000;0.998020
6037.000000;0.997962
6036.000000;0.997817
6035.000000;0.997640
6034.000000;0.997530
6033.000000;0.997528
6032.000000;0.997549
6031.000000;0.997458
6030.000000;0.997228
6029.000000;0.996964
6028.000000;0.996780
6027.000000;0.996682
6026.000000;0.996598
6025.000000;0.996474
6024.000000;0.996319
6023.000000;0.996183
6022.000000;0.996118
6021.000000;0.996119
6020.000000;0.996120
6019.000000;0.996045
6018.000000;0.995888
6017.000000;0.995721
6016.000000;0.995608
6015.000000;0.995550
6014.000000;0.995495
6013.000000;0.995402
6012.000000;0.995270
6011.000000;0.995145
6010.000000;0.995069
6009.000000;0.995040
6008.000000;0.995012
6007.000000;0.994960
6006.000000;0.994914
6005.000000;0.994892
6004.000000;0.994848
6003.000000;0.994717
6002.000000;0.994507
6001.000000;0.994297
6000.000000;0.994142
5999.000000;0.994035
5998.000000;0.993945
5997.000000;0.993866
5996.000000;0.993813
5995.000000;0.993814
5994.000000;0.993866
5993.000000;0.993911
5992.000000;0.993857
5991.000000;0.993680
5990.000000;0.993469
5989.000000;0.993326
5988.000000;0.993261
5987.000000;0.993223
5986.000000;0.993210
5985.000000;0.993253
5984.000000;0.993332
5983.000000;0.993376
5982.000000;0.993356
5981.000000;0.993305
5980.000000;0.993239
5979.000000;0.993138
5978.000000;0.993010
5977.000000;0.992897
5976.000000;0.992818
5975.000000;0.992756
5974.000000;0.992725
5973.000000;0.992781
5972.000000;0.992930
5971.000000;0.993098
5970.000000;0.993221
5969.000000;0.993306
5968.000000;0.993366
5967.000000;0.993369
5966.000000;0.993283
5965.000000;0.993144
5964.000000;0.993030
5963.000000;0.992991
5962.000000;0.993025
5961.000000;0.993089
5960.000000;0.993114
5959.000000;0.993053
5958.000000;0.992919
5957.000000;0.992780
5956.000000;0.992692
5955.000000;0.992675
5954.000000;0.992739
5953.000000;0.992897
5952.000000;0.993112
5951.000000;0.993298
5950.000000;0.993393
5949.000000;0.993408
5948.000000;0.993394
5947.000000;0.993388
5946.000000;0.993401
5945.000000;0.993418
5944.000000;0.993398
5943.000000;0.993312
5942.000000;0.993188
5941.000000;0.993090
5940.000000;0.993056
5939.000000;0.993067
5938.000000;0.993099
5937.000000;0.993146
5936.000000;0.993209
5935.000000;0.993291
5934.000000;0.993408
5933.000000;0.993570
5932.000000;0.993732
5931.000000;0.993831
5930.000000;0.993851
5929.000000;0.993836
5928.000000;0.993825
5927.000000;0.993826
5926.000000;0.993842
5925.000000;0.993877
5924.000000;0.993904
5923.000000;0.993890
5922.000000;0.993875
5921.000000;0.993954
5920.000000;0.994171
5919.000000;0.994472
5918.000000;0.994756
5917.000000;0.994944
5916.000000;0.994995
5915.000000;0.994920
5914.000000;0.994812
5913.000000;0.994792
5912.000000;0.994898
5911.000000;0.995066
5910.000000;0.995236
5909.000000;0.995428
5908.000000;0.995663
5907.000000;0.995892
5906.000000;0.996034
5905.000000;0.996063
5904.000000;0.996019
5903.000000;0.995965
5902.000000;0.995959
5901.000000;0.996037
5900.000000;0.996184
5899.000000;0.996364
5898.000000;0.996569
5897.000000;0.996814
5896.000000;0.997060
5895.000000;0.997212
5894.000000;0.997216
5893.000000;0.997125
5892.000000;0.997028
5891.000000;0.996960
5890.000000;0.996920
5889.000000;0.996924
5888.000000;0.997007
5887.000000;0.997169
5886.000000;0.997378
5885.000000;0.997594
5884.000000;0.997775
5883.000000;0.997900
5882.000000;0.997984
5881.000000;0.998072
5880.000000;0.998185
5879.000000;0.998310
5878.000000;0.998432
5877.000000;0.998553
5876.000000;0.998662
5875.000000;0.998730
5874.000000;0.998770
5873.000000;0.998844
5872.000000;0.999004
5871.000000;0.999242
5870.000000;0.999524
5869.000000;0.999825
5868.000000;1.000115
5867.000000;1.000356
5866.000000;1.000546
5865.000000;1.000724
5864.000000;1.000908
5863.000000;1.001059
5862.000000;1.001145
5861.000000;1.001199
5860.000000;1.001289
5859.000000;1.001448
5858.000000;1.001669
5857.000000;1.001941
5856.000000;1.002255
5855.000000;1.002593
5854.000000;1.002929
5853.000000;1.003239
5852.000000;1.003493
5851.000000;1.003660
5850.000000;1.003753
5849.000000;1.003828
5848.000000;1.003938
5847.000000;1.004091
5846.000000;1.004284
5845.000000;1.004514
5844.000000;1.004757
5843.000000;1.004968
5842.000000;1.005143
5841.000000;1.005360
5840.000000;1.005707
5839.000000;1.006183
5838.000000;1.006688
5837.000000;1.007098
5836.000000;1.007351
5835.000000;1.007494
5834.000000;1.007649
5833.000000;1.007919
5832.000000;1.008304
5831.000000;1.008703
5830.000000;1.009021
5829.000000;1.009230
5828.000000;1.009368
5827.000000;1.009498
5826.000000;1.009687
5825.000000;1.009981
5824.000000;1.010352
5823.000000;1.010719
5822.000000;1.011034
5821.000000;1.011319
5820.000000;1.011626
5819.000000;1.011973
5818.000000;1.012362
5817.000000;1.012792
5816.000000;1.013230
5815.000000;1.013615
5814.000000;1.013917
5813.000000;1.014192
5812.000000;1.014516
5811.000000;1.014890
5810.000000;1.015242
5809.000000;1.015525
5808.000000;1.015773
5807.000000;1.016068
5806.000000;1.016455
5805.000000;1.016911
5804.000000;1.017373
5803.000000;1.017795
5802.000000;1.018179
5801.000000;1.018545
5800.000000;1.018893
5799.000000;1.019210
5798.000000;1.019505
5797.000000;1.019815
5796.000000;1.020172
5795.000000;1.020574
5794.000000;1.021010
5793.000000;1.021486
5792.000000;1.022021
5791.000000;1.022612
5790.000000;1.023204
5789.000000;1.023700
5788.000000;1.024036
5787.000000;1.024262
5786.000000;1.024516
5785.000000;1.024899
5784.000000;1.025391
5783.000000;1.025911
5782.000000;1.026423
5781.000000;1.026936
5780.000000;1.027434
5779.000000;1.027890
5778.000000;1.028320
5777.000000;1.028774
5776.000000;1.029263
5775.000000;1.029746
5774.000000;1.030211
5773.000000;1.030688
5772.000000;1.031189
5771.000000;1.031678
5770.000000;1.032120
5769.000000;1.032521
5768.000000;1.032899
5767.000000;1.033275
5766.000000;1.033696
5765.000000;1.034221
5764.000000;1.034851
5763.000000;1.035514
5762.000000;1.036139
5761.000000;1.036710
5760.000000;1.037253
5759.000000;1.037807
5758.000000;1.038417
5757.000000;1.039102
5756.000000;1.039806
5755.000000;1.040424
5754.000000;1.040906
5753.000000;1.041307
5752.000000;1.041722
5751.000000;1.042212
5750.000000;1.042792
5749.000000;1.043448
5748.000000;1.044137
5747.000000;1.044820
5746.000000;1.045502
5745.000000;1.046217
5744.000000;1.046952
5743.000000;1.047652
5742.000000;1.048291
5741.000000;1.048912
5740.000000;1.049548
5739.000000;1.050174
5738.000000;1.050753
5737.000000;1.051297
5736.000000;1.051829
5735.000000;1.052344
5734.000000;1.052847
5733.000000;1.053400
5732.000000;1.054073
5731.000000;1.054871
5730.000000;1.055732
5729.000000;1.056583
5728.000000;1.057389
5727.000000;1.058151
5726.000000;1.058890
5725.000000;1.059608
5724.000000;1.060268
5723.000000;1.060819
5722.000000;1.061273
5721.000000;1.061719
5720.000000;1.062255
5719.000000;1.062914
5718.000000;1.063660
5717.000000;1.064436
5716.000000;1.065205
5715.000000;1.065968
5714.000000;1.066749
5713.000000;1.067549
5712.000000;1.068324
5711.000000;1.069047
5710.000000;1.069770
5709.000000;1.070573
5708.000000;1.071457
5707.000000;1.072342
5706.000000;1.073184
5705.000000;1.074025
5704.000000;1.074903
5703.000000;1.075777
5702.000000;1.076593
5701.000000;1.077364
5700.000000;1.078125
5699.000000;1.078868
5698.000000;1.079565
5697.000000;1.080248
5696.000000;1.081008
5695.000000;1.081869
5694.000000;1.082793
5693.000000;1.083646
5692.000000;1.084449
5691.000000;1.085250
5690.000000;1.086054
5689.000000;1.086868
5688.000000;1.087633
5687.000000;1.088334
5686.000000;1.089036
5685.000000;1.089847
5684.000000;1.090784
5683.000000;1.091738
5682.000000;1.092591
5681.000000;1.093342
5680.000000;1.094088
5679.000000;1.094897
5678.000000;1.095747
5677.000000;1.096591
5676.000000;1.097433
5675.000000;1.098306
5674.000000;1.099184
5673.000000;1.099983
5672.000000;1.100660
5671.000000;1.101299
5670.000000;1.102044
5669.000000;1.102953
5668.000000;1.103943
5667.000000;1.104893
5666.000000;1.105758
5665.000000;1.106569
5664.000000;1.107344
5663.000000;1.108055
5662.000000;1.108671
5661.000000;1.109210
5660.000000;1.109744
5659.000000;1.110358
5658.000000;1.111105
5657.000000;1.111970
5656.000000;1.112893
5655.000000;1.113838
5654.000000;1.114815
5653.000000;1.115824
5652.000000;1.116816
5651.000000;1.117725
5650.000000;1.118517
5649.000000;1.119183
5648.000000;1.119739
5647.000000;1.120252
5646.000000;1.120821
5645.000000;1.121492
5644.000000;1.122204
5643.000000;1.122870
5642.000000;1.123478
5641.000000;1.124084
5640.000000;1.124730
5639.000000;1.125420
5638.000000;1.126143
5637.000000;1.126869
5636.000000;1.127549
5635.000000;1.128162
5634.000000;1.128740
5633.000000;1.129312
5632.000000;1.129861
5631.000000;1.130394
5630.000000;1.130982
5629.000000;1.131674
5628.000000;1.132399
5627.000000;1.133041
5626.000000;1.133582
5625.000000;1.134084
5624.000000;1.134575
5623.000000;1.135041
5622.000000;1.135505
5621.000000;1.136023
5620.000000;1.136605
5619.000000;1.137210
5618.000000;1.137811
5617.000000;1.138387
5616.000000;1.138889
5615.000000;1.139291
5614.000000;1.139681
5613.000000;1.140176
5612.000000;1.140763
5611.000000;1.141304
5610.000000;1.141711
5609.000000;1.142026
5608.000000;1.142323
5607.000000;1.142632
5606.000000;1.142957
5605.000000;1.143301
5604.000000;1.143641
5603.000000;1.143953
5602.000000;1.144278
5601.000000;1.144672
5600.000000;1.145101
5599.000000;1.145457
5598.000000;1.145716
5597.000000;1.145972
5596.000000;1.146304
5595.000000;1.146676
5594.000000;1.147026
5593.000000;1.147346
5592.000000;1.147652
5591.000000;1.147939
5590.000000;1.148224
5589.000000;1.148549
5588.000000;1.148913
5587.000000;1.149244
5586.000000;1.149479
5585.000000;1.149622
5584.000000;1.149705
5583.000000;1.149737
5582.000000;1.149735
5581.000000;1.149742
5580.000000;1.149795
5579.000000;1.149908
5578.000000;1.150090
5577.000000;1.150328
5576.000000;1.150559
5575.000000;1.150728
5574.000000;1.150870
5573.000000;1.151065
5572.000000;1.151302
5571.000000;1.151493
5570.000000;1.151604
5569.000000;1.151686
5568.000000;1.151768
5567.000000;1.151828
5566.000000;1.151880
5565.000000;1.151986
5564.000000;1.152151
5563.000000;1.152307
5562.000000;1.152444
5561.000000;1.152624
5560.000000;1.152844
5559.000000;1.152998
5558.000000;1.153042
5557.000000;1.153066
5556.000000;1.153131
5555.000000;1.153157
5554.000000;1.153057
5553.000000;1.152886
5552.000000;1.152738
5551.000000;1.152602
5550.000000;1.152422
5549.000000;1.152232
5548.000000;1.152115
5547.000000;1.152091
5546.000000;1.152151
5545.000000;1.152315
5544.000000;1.152586
5543.000000;1.152874
5542.000000;1.153087
5541.000000;1.153229
5540.000000;1.153333
5539.000000;1.153347
5538.000000;1.153209
5537.000000;1.152968
5536.000000;1.152735
5535.000000;1.152557
5534.000000;1.152421
5533.000000;1.152336
5532.000000;1.152317
5531.000000;1.152346
5530.000000;1.152412
5529.000000;1.152575
5528.000000;1.152880
5527.000000;1.153262
5526.000000;1.153577
5525.000000;1.153704
5524.000000;1.153610
5523.000000;1.153355
5522.000000;1.153092
5521.000000;1.152982
5520.000000;1.153034
5519.000000;1.153079
5518.000000;1.152973
5517.000000;1.152781
5516.000000;1.152710
5515.000000;1.152878
5514.000000;1.153222
5513.000000;1.153574
5512.000000;1.153760
5511.000000;1.153681
5510.000000;1.153375
5509.000000;1.152999
5508.000000;1.152698
5507.000000;1.152510
5506.000000;1.152396
5505.000000;1.152320
5504.000000;1.152308
5503.000000;1.152452
5502.000000;1.152851
5501.000000;1.153496
5500.000000;1.154234
5499.000000;1.154907
5498.000000;1.155504
5497.000000;1.155977
5496.000000;1.155985
5495.000000;1.155124
5494.000000;1.153502
5493.000000;1.151846
5492.000000;1.150838
5491.000000;1.150438
5490.000000;1.150111
5489.000000;1.149618
5488.000000;1.149324
5487.000000;1.149765
5486.000000;1.151120
5485.000000;1.153062
5484.000000;1.155034
5483.000000;1.156619
5482.000000;1.157780
5481.000000;1.158798
5480.000000;1.159857
5479.000000;1.160616
5478.000000;1.160386
5477.000000;1.158839
5476.000000;1.156573
5475.000000;1.154873
5474.000000;1.154673
5473.000000;1.155720
5472.000000;1.157002
5471.000000;1.157843
5470.000000;1.158380
5469.000000;1.159140
5468.000000;1.160298
5467.000000;1.161493
5466.000000;1.162289
5465.000000;1.162470
5464.000000;1.162002
5463.000000;1.161043
5462.000000;1.160054
5461.000000;1.159617
5460.000000;1.159997
5459.000000;1.160968
5458.000000;1.162139
5457.000000;1.163325
5456.000000;1.164598
5455.000000;1.166187
5454.000000;1.168232
5453.000000;1.170402
5452.000000;1.171961
5451.000000;1.172498
5450.000000;1.172368
5449.000000;1.172112
5448.000000;1.171674
5447.000000;1.170722
5446.000000;1.169493
5445.000000;1.168644
5444.000000;1.168329
5443.000000;1.168092
5442.000000;1.167734
5441.000000;1.167826
5440.000000;1.169174
5439.000000;1.171826
5438.000000;1.174797
5437.000000;1.176891
5436.000000;1.177730
5435.000000;1.178156
5434.000000;1.179415
5433.000000;1.181536
5432.000000;1.183057
5431.000000;1.182736
5430.000000;1.181015
5429.000000;1.179700
5428.000000;1.180354
5427.000000;1.182968
5426.000000;1.186280
5425.000000;1.189220
5424.000000;1.191795
5423.000000;1.194784
5422.000000;1.198779
5421.000000;1.203548
5420.000000;1.208315
5419.000000;1.212421
5418.000000;1.215471
5417.000000;1.217115
5416.000000;1.217107
5415.000000;1.215692
5414.000000;1.213688
5413.000000;1.211847
5412.000000;1.210275
5411.000000;1.208931
5410.000000;1.208404
5409.000000;1.209618
5408.000000;1.212944
5407.000000;1.217992
5406.000000;1.224093
5405.000000;1.230611
5404.000000;1.236964
5403.000000;1.242766
5402.000000;1.247978
5401.000000;1.252639
5400.000000;1.256565
5399.000000;1.259653
5398.000000;1.262147
5397.000000;1.264266
5396.000000;1.265869
5395.000000;1.266847
5394.000000;1.267687
5393.000000;1.269233
5392.000000;1.271897
5391.000000;1.275437
5390.000000;1.279502
5389.000000;1.283946
5388.000000;1.288664
5387.000000;1.293563
5386.000000;1.298787
5385.000000;1.304553
5384.000000;1.310557
5383.000000;1.316121
5382.000000;1.321166
5381.000000;1.326217
5380.000000;1.331501
5379.000000;1.336638
5378.000000;1.341237
5377.000000;1.345462
5376.000000;1.349825
5375.000000;1.354591
5374.000000;1.359781
5373.000000;1.365550
5372.000000;1.372157
5371.000000;1.379789
5370.000000;1.388529
5369.000000;1.398268
5368.000000;1.408507
5367.000000;1.418406
5366.000000;1.427331
5365.000000;1.435368
5364.000000;1.443103
5363.000000;1.450991
5362.000000;1.459211
5361.000000;1.467857
5360.000000;1.476997
5359.000000;1.486597
5358.000000;1.496477
5357.000000;1.506258
5356.000000;1.515400
5355.000000;1.523602
5354.000000;1.531363
5353.000000;1.539866
5352.000000;1.549827
5351.000000;1.560807
5350.000000;1.572101
5349.000000;1.583657
5348.000000;1.595703
5347.000000;1.607990
5346.000000;1.620025
5345.000000;1.632017
5344.000000;1.645005
5343.000000;1.659492
5342.000000;1.674578
5341.000000;1.689072
5340.000000;1.702752
5339.000000;1.716568
5338.000000;1.732002
5337.000000;1.749783
5336.000000;1.769039
5335.000000;1.788196
5334.000000;1.806686
5333.000000;1.825442
5332.000000;1.845677
5331.000000;1.867377
5330.000000;1.889324
5329.000000;1.910485
5328.000000;1.930970
5327.000000;1.951629
5326.000000;1.972975
5325.000000;1.994737
5324.000000;2.016518
5323.000000;2.038451
5322.000000;2.061109
5321.000000;2.084975
5320.000000;2.109972
5319.000000;2.135478
5318.000000;2.160756
5317.000000;2.185274
5316.000000;2.208690
5315.000000;2.231020
5314.000000;2.252842
5313.000000;2.274981
5312.000000;2.297811
5311.000000;2.320984
5310.000000;2.343732
5309.000000;2.365175
5308.000000;2.384748
5307.000000;2.402930
5306.000000;2.421113
5305.000000;2.439989
5304.000000;2.458700
5303.000000;2.476370
5302.000000;2.493666
5301.000000;2.511575
5300.000000;2.529256
5299.000000;2.544796
5298.000000;2.557847
5297.000000;2.569781
5296.000000;2.581386
5295.000000;2.592133
5294.000000;2.601640
5293.000000;2.610363
5292.000000;2.618724
5291.000000;2.626711
5290.000000;2.634262
5289.000000;2.641105
5288.000000;2.646553
5287.000000;2.650612
5286.000000;2.654814
5285.000000;2.660580
5284.000000;2.666990
5283.000000;2.671450
5282.000000;2.672672
5281.000000;2.671857
5280.000000;2.671113
5279.000000;2.671817
5278.000000;2.674126
5277.000000;2.677077
5276.000000;2.679382
5275.000000;2.680763
5274.000000;2.682049
5273.000000;2.683639
5272.000000;2.684912
5271.000000;2.685789
5270.000000;2.687641
5269.000000;2.691464
5268.000000;2.695950
5267.000000;2.698719
5266.000000;2.698813
5265.000000;2.696645
5264.000000;2.692558
5263.000000;2.687230
5262.000000;2.682589
5261.000000;2.680562
5260.000000;2.681221
5259.000000;2.682928
5258.000000;2.684019
5257.000000;2.683659
5256.000000;2.681658
5255.000000;2.678752
5254.000000;2.676686
5253.000000;2.676689
5252.000000;2.678024
5251.000000;2.678807
5250.000000;2.677899
5249.000000;2.675520
5248.000000;2.672523
5247.000000;2.669742
5246.000000;2.667560
5245.000000;2.665668
5244.000000;2.663736
5243.000000;2.662526
5242.000000;2.663625
5241.000000;2.667563
5240.000000;2.672929
5239.000000;2.677968
5238.000000;2.682446
5237.000000;2.687069
5236.000000;2.691674
5235.000000;2.695022
5234.000000;2.695984
5233.000000;2.694255
5232.000000;2.690640
5231.000000;2.687289
5230.000000;2.686317
5229.000000;2.687229
5228.000000;2.686829
5227.000000;2.682959
5226.000000;2.677549
5225.000000;2.674349
5224.000000;2.674405
5223.000000;2.675673
5222.000000;2.676520
5221.000000;2.677345
5220.000000;2.678825
5219.000000;2.680592
5218.000000;2.682126
5217.000000;2.683653
5216.000000;2.685475
5215.000000;2.687231
5214.000000;2.688315
5213.000000;2.688503
5212.000000;2.688055
5211.000000;2.687620
5210.000000;2.687840
5209.000000;2.688565
5208.000000;2.688879
5207.000000;2.688555
5206.000000;2.688842
5205.000000;2.690584
5204.000000;2.692170
5203.000000;2.691211
5202.000000;2.688017
5201.000000;2.685618
5200.000000;2.686346
5199.000000;2.689621
5198.000000;2.693076
5197.000000;2.694693
5196.000000;2.693634
5195.000000;2.690330
5194.000000;2.686434
5193.000000;2.683973
5192.000000;2.683743
5191.000000;2.684681
5190.000000;2.685161
5189.000000;2.684618
5188.000000;2.683603
5187.000000;2.682638
5186.000000;2.681688
5185.000000;2.680763
5184.000000;2.680494
5183.000000;2.681698
5182.000000;2.684346
5181.000000;2.687211
5180.000000;2.688832
5179.000000;2.688798
5178.000000;2.687850
5177.000000;2.686781
5176.000000;2.685755
5175.000000;2.684851
5174.000000;2.684619
5173.000000;2.685644
5172.000000;2.687889
5171.000000;2.690670
5170.000000;2.692871
5169.000000;2.693099
5168.000000;2.690576
5167.000000;2.686485
5166.000000;2.683612
5165.000000;2.683854
5164.000000;2.686483
5163.000000;2.689384
5162.000000;2.691554
5161.000000;2.693331
5160.000000;2.694530
5159.000000;2.693974
5158.000000;2.691227
5157.000000;2.687550
5156.000000;2.684583
5155.000000;2.682893
5154.000000;2.682223
5153.000000;2.682358
5152.000000;2.683180
5151.000000;2.684385
5150.000000;2.685776
5149.000000;2.687529
5148.000000;2.689631
5147.000000;2.691255
5146.000000;2.691157
5145.000000;2.688899
5144.000000;2.685567
5143.000000;2.683176
5142.000000;2.683224
5141.000000;2.685552
5140.000000;2.688519
5139.000000;2.690530
5138.000000;2.691441
5137.000000;2.692284
5136.000000;2.693834
5135.000000;2.695719
5134.000000;2.696753
5133.000000;2.695910
5132.000000;2.693186
5131.000000;2.689882
5130.000000;2.687722
5129.000000;2.687323
5128.000000;2.687894
5127.000000;2.688589
5126.000000;2.689537
5125.000000;2.690992
5124.000000;2.692185
5123.000000;2.692293
5122.000000;2.692170
5121.000000;2.693406
5120.000000;2.695401
5119.000000;2.695182
5118.000000;2.691222
5117.000000;2.685979
5116.000000;2.683060
5115.000000;2.682982
5114.000000;2.683195
5113.000000;2.681852
5112.000000;2.679973
5111.000000;2.679533
5110.000000;2.681022
5109.000000;2.683504
5108.000000;2.685877
5107.000000;2.687433
5106.000000;2.687961
5105.000000;2.688116
5104.000000;2.689147
5103.000000;2.691299
5102.000000;2.692947
5101.000000;2.692430
5100.000000;2.690453
5099.000000;2.689332
5098.000000;2.689814
5097.000000;2.689921
5096.000000;2.687532
5095.000000;2.683210
5094.000000;2.679406
5093.000000;2.677510
5092.000000;2.676899
5091.000000;2.676661
5090.000000;2.677003
5089.000000;2.678459
5088.000000;2.680471
5087.000000;2.681617
5086.000000;2.681115
5085.000000;2.679529
5084.000000;2.677999
5083.000000;2.677291
5082.000000;2.677592
5081.000000;2.678677
5080.000000;2.679941
5079.000000;2.680489
5078.000000;2.679599
5077.000000;2.677454
5076.000000;2.675359
5075.000000;2.674932
5074.000000;2.676834
5073.000000;2.680144
5072.000000;2.682958
5071.000000;2.683942
5070.000000;2.683341
5069.000000;2.682200
5068.000000;2.680902
5067.000000;2.679069
5066.000000;2.676984
5065.000000;2.676407
5064.000000;2.678965
5063.000000;2.683679
5062.000000;2.686882
5061.000000;2.685507
5060.000000;2.680387
5059.000000;2.675331
5058.000000;2.672996
5057.000000;2.672482
5056.000000;2.670971
5055.000000;2.667197
5054.000000;2.662813
5053.000000;2.660472
5052.000000;2.661348
5051.000000;2.664628
5050.000000;2.668758
5049.000000;2.672735
5048.000000;2.676344
5047.000000;2.679588
5046.000000;2.682163
5045.000000;2.683354
5044.000000;2.682403
5043.000000;2.679267
5042.000000;2.675092
5041.000000;2.671613
5040.000000;2.669713
5039.000000;2.668659
5038.000000;2.667036
5037.000000;2.664217
5036.000000;2.660699
5035.000000;2.657396
5034.000000;2.655194
5033.000000;2.654906
5032.000000;2.656576
5031.000000;2.658527
5030.000000;2.658200
5029.000000;2.654908
5028.000000;2.651002
5027.000000;2.649388
5026.000000;2.650567
5025.000000;2.652844
5024.000000;2.654769
5023.000000;2.656037
5022.000000;2.656140
5021.000000;2.654175
5020.000000;2.650770
5019.000000;2.648327
5018.000000;2.647968
5017.000000;2.647678
5016.000000;2.645085
5015.000000;2.641065
5014.000000;2.638536
5013.000000;2.638114
5012.000000;2.637106
5011.000000;2.633344
5010.000000;2.628270
5009.000000;2.624855
5008.000000;2.623695
5007.000000;2.622786
5006.000000;2.620986
5005.000000;2.620101
5004.000000;2.622629
5003.000000;2.628140
5002.000000;2.632713
5001.000000;2.632424
5000.000000;2.627249
4999.000000;2.620766
4998.000000;2.616396
4997.000000;2.614679
4996.000000;2.614101
4995.000000;2.613634
4994.000000;2.613362
4993.000000;2.613279
4992.000000;2.612331
4991.000000;2.609405
4990.000000;2.604979
4989.000000;2.601136
4988.000000;2.599581
4987.000000;2.599919
4986.000000;2.600101
4985.000000;2.598552
4984.000000;2.595624
4983.000000;2.592757
4982.000000;2.590518
4981.000000;2.588060
4980.000000;2.584620
4979.000000;2.580960
4978.000000;2.578618
4977.000000;2.577923
4976.000000;2.577588
4975.000000;2.576259
4974.000000;2.573787
4973.000000;2.570788
4972.000000;2.567643
4971.000000;2.564475
4970.000000;2.561580
4969.000000;2.559166
4968.000000;2.556709
4967.000000;2.553215
4966.000000;2.548436
4965.000000;2.543428
4964.000000;2.539552
4963.000000;2.537151
4962.000000;2.535557
4961.000000;2.534195
4960.000000;2.533134
4959.000000;2.532375
4958.000000;2.531136
4957.000000;2.528292
4956.000000;2.523423
4955.000000;2.517177
4954.000000;2.510795
4953.000000;2.505561
4952.000000;2.502478
4951.000000;2.501755
4950.000000;2.502317
4949.000000;2.502278
4948.000000;2.500340
4947.000000;2.496717
4946.000000;2.492512
4945.000000;2.488454
4944.000000;2.484552
4943.000000;2.480713
4942.000000;2.477211
4941.000000;2.474443
4940.000000;2.472452
4939.000000;2.470683
4938.000000;2.468235
4937.000000;2.464469
4936.000000;2.459387
4935.000000;2.453497
4934.000000;2.447565
4933.000000;2.442542
4932.000000;2.439425
4931.000000;2.438605
4930.000000;2.439095
4929.000000;2.438946
4928.000000;2.436875
4927.000000;2.433185
4926.000000;2.428949
4925.000000;2.424868
4924.000000;2.421270
4923.000000;2.418479
4922.000000;2.416414
4921.000000;2.414110
4920.000000;2.410381
4919.000000;2.405006
4918.000000;2.398870
4917.000000;2.393085
4916.000000;2.388445
4915.000000;2.385433
4914.000000;2.383873
4913.000000;2.382421
4912.000000;2.379146
4911.000000;2.373305
4910.000000;2.366310
4909.000000;2.360429
4908.000000;2.356642
4907.000000;2.353974
4906.000000;2.350819
4905.000000;2.346686
4904.000000;2.342574
4903.000000;2.339681
4902.000000;2.337958
4901.000000;2.336104
4900.000000;2.332947
4899.000000;2.328577
4898.000000;2.323939
4897.000000;2.319615
4896.000000;2.315471
4895.000000;2.311378
4894.000000;2.307704
4893.000000;2.304817
4892.000000;2.302386
4891.000000;2.299549
4890.000000;2.295752
4889.000000;2.291194
4888.000000;2.286428
4887.000000;2.281741
4886.000000;2.277105
4885.000000;2.272602
4884.000000;2.268598
4883.000000;2.265360
4882.000000;2.262582
4881.000000;2.259504
4880.000000;2.255588
4879.000000;2.251035
4878.000000;2.246630
4877.000000;2.243104
4876.000000;2.240542
4875.000000;2.238219
4874.000000;2.235009
4873.000000;2.230261
4872.000000;2.224403
4871.000000;2.218569
4870.000000;2.213568
4869.000000;2.209386
4868.000000;2.205686
4867.000000;2.202421
4866.000000;2.199652
4865.000000;2.197061
4864.000000;2.194105
4863.000000;2.190684
4862.000000;2.187311
4861.000000;2.184472
4860.000000;2.182015
4859.000000;2.179297
4858.000000;2.175748
4857.000000;2.171230
4856.000000;2.165956
4855.000000;2.160300
4854.000000;2.154723
4853.000000;2.149768
4852.000000;2.145838
4851.000000;2.142792
4850.000000;2.139864
4849.000000;2.136229
4848.000000;2.131722
4847.000000;2.126916
4846.000000;2.122497
4845.000000;2.118666
4844.000000;2.115166
4843.000000;2.111721
4842.000000;2.108306
4841.000000;2.105051
4840.000000;2.102035
4839.000000;2.099139
4838.000000;2.096057
4837.000000;2.092495
4836.000000;2.088393
4835.000000;2.083880
4834.000000;2.079081
4833.000000;2.074214
4832.000000;2.069848
4831.000000;2.066690
4830.000000;2.064837
4829.000000;2.063380
4828.000000;2.061070
4827.000000;2.057402
4826.000000;2.052900
4825.000000;2.048446
4824.000000;2.044552
4823.000000;2.041217
4822.000000;2.038164
4821.000000;2.035048
4820.000000;2.031583
4819.000000;2.027581
4818.000000;2.023031
4817.000000;2.018226
4816.000000;2.013755
4815.000000;2.010114
4814.000000;2.007147
4813.000000;2.004053
4812.000000;2.000154
4811.000000;1.995599
4810.000000;1.991134
4809.000000;1.987302
4808.000000;1.984092
4807.000000;1.981196
4806.000000;1.978287
4805.000000;1.975086
4804.000000;1.971522
4803.000000;1.967885
4802.000000;1.964569
4801.000000;1.961541
4800.000000;1.958342
4799.000000;1.954699
4798.000000;1.950890
4797.000000;1.947358
4796.000000;1.944147
4795.000000;1.940917
4794.000000;1.937403
4793.000000;1.933632
4792.000000;1.929780
4791.000000;1.926005
4790.000000;1.922410
4789.000000;1.919014
4788.000000;1.915731
4787.000000;1.912486
4786.000000;1.909334
4785.000000;1.906352
4784.000000;1.903388
4783.000000;1.900075
4782.000000;1.896197
4781.000000;1.892006
4780.000000;1.888073
4779.000000;1.884829
4778.000000;1.882240
4777.000000;1.879881
4776.000000;1.877264
4775.000000;1.874141
4774.000000;1.870598
4773.000000;1.866935
4772.000000;1.863439
4771.000000;1.860203
4770.000000;1.857118
4769.000000;1.853997
4768.000000;1.850705
4767.000000;1.847205
4766.000000;1.843574
4765.000000;1.840043
4764.000000;1.836941
4763.000000;1.834474
4762.000000;1.832500
4761.000000;1.830543
4760.000000;1.828086
4759.000000;1.824938
4758.000000;1.821363
4757.000000;1.817884
4756.000000;1.814882
4755.000000;1.812313
4754.000000;1.809818
4753.000000;1.807127
4752.000000;1.804286
4751.000000;1.801429
4750.000000;1.798459
4749.000000;1.795153
4748.000000;1.791551
4747.000000;1.788060
4746.000000;1.785073
4745.000000;1.782590
4744.000000;1.780254
4743.000000;1.777691
4742.000000;1.774776
4741.000000;1.771658
4740.000000;1.768597
4739.000000;1.765754
4738.000000;1.763102
4737.000000;1.760523
4736.000000;1.757955
4735.000000;1.755379
4734.000000;1.752726
4733.000000;1.749914
4732.000000;1.746984
4731.000000;1.744073
4730.000000;1.741242
4729.000000;1.738455
4728.000000;1.735720
4727.000000;1.733135
4726.000000;1.730743
4725.000000;1.728489
4724.000000;1.726346
4723.000000;1.724314
4722.000000;1.722273
4721.000000;1.720007
4720.000000;1.717475
4719.000000;1.714899
4718.000000;1.712451
4717.000000;1.710007
4716.000000;1.707369
4715.000000;1.704589
4714.000000;1.701917
4713.000000;1.699511
4712.000000;1.697351
4711.000000;1.695362
4710.000000;1.693450
4709.000000;1.691453
4708.000000;1.689234
4707.000000;1.686790
4706.000000;1.684183
4705.000000;1.681404
4704.000000;1.678484
4703.000000;1.675671
4702.000000;1.673295
4701.000000;1.671430
4700.000000;1.669821
4699.000000;1.668164
4698.000000;1.666326
4697.000000;1.664288
4696.000000;1.662049
4695.000000;1.659680
4694.000000;1.657351
4693.000000;1.655205
4692.000000;1.653240
4691.000000;1.651358
4690.000000;1.649504
4689.000000;1.647699
4688.000000;1.645983
4687.000000;1.644327
4686.000000;1.642594
4685.000000;1.640618
4684.000000;1.638391
4683.000000;1.636120
4682.000000;1.634024
4681.000000;1.632104
4680.000000;1.630217
4679.000000;1.628332
4678.000000;1.626540
4677.000000;1.624796
4676.000000;1.622847
4675.000000;1.620556
4674.000000;1.618187
4673.000000;1.616182
4672.000000;1.614672
4671.000000;1.613345
4670.000000;1.611825
4669.000000;1.610072
4668.000000;1.608319
4667.000000;1.606701
4666.000000;1.605074
4665.000000;1.603242
4664.000000;1.601244
4663.000000;1.599333
4662.000000;1.597687
4661.000000;1.596247
4660.000000;1.594839
4659.000000;1.593379
4658.000000;1.591903
4657.000000;1.590435
4656.000000;1.588915
4655.000000;1.587253
4654.000000;1.585406
4653.000000;1.583423
4652.000000;1.581458
4651.000000;1.579695
4650.000000;1.578210
4649.000000;1.576896
4648.000000;1.575568
4647.000000;1.574131
4646.000000;1.572603
4645.000000;1.571037
4644.000000;1.569478
4643.000000;1.567985
4642.000000;1.566601
4641.000000;1.565284
4640.000000;1.563931
4639.000000;1.562499
4638.000000;1.561059
4637.000000;1.559684
4636.000000;1.558356
4635.000000;1.557014
4634.000000;1.555656
4633.000000;1.554341
4632.000000;1.553102
4631.000000;1.551892
4630.000000;1.550644
4629.000000;1.549340
4628.000000;1.548017
4627.000000;1.546712
4626.000000;1.545435
4625.000000;1.544198
4624.000000;1.543003
4623.000000;1.541800
4622.000000;1.540501
4621.000000;1.539114
4620.000000;1.537799
4619.000000;1.536704
4618.000000;1.535754
4617.000000;1.534726
4616.000000;1.533535
4615.000000;1.532318
4614.000000;1.531177
4613.000000;1.529984
4612.000000;1.528574
4611.000000;1.527040
4610.000000;1.525664
4609.000000;1.524569
4608.000000;1.523603
4607.000000;1.522583
4606.000000;1.521522
4605.000000;1.520542
4604.000000;1.519657
4603.000000;1.518739
4602.000000;1.517678
4601.000000;1.516511
4600.000000;1.515384
4599.000000;1.514428
4598.000000;1.513640
4597.000000;1.512897
4596.000000;1.512072
4595.000000;1.511148
4594.000000;1.510185
4593.000000;1.509221
4592.000000;1.508241
4591.000000;1.507233
4590.000000;1.506236
4589.000000;1.505283
4588.000000;1.504345
4587.000000;1.503343
4586.000000;1.502230
4585.000000;1.501075
4584.000000;1.500048
4583.000000;1.499301
4582.000000;1.498813
4581.000000;1.498390
4580.000000;1.497833
4579.000000;1.497083
4578.000000;1.496175
4577.000000;1.495113
4576.000000;1.493888
4575.000000;1.492602
4574.000000;1.491470
4573.000000;1.490656
4572.000000;1.490125
4571.000000;1.489669
4570.000000;1.489032
4569.000000;1.488063
4568.000000;1.486845
4567.000000;1.485713
4566.000000;1.485046
4565.000000;1.484923
4564.000000;1.484987
4563.000000;1.484701
4562.000000;1.483806
4561.000000;1.482513
4560.000000;1.481259
4559.000000;1.480302
4558.000000;1.479567
4557.000000;1.478840
4556.000000;1.478044
4555.000000;1.477283
4554.000000;1.476664
4553.000000;1.476170
4552.000000;1.475700
4551.000000;1.475155
4550.000000;1.474446
4549.000000;1.473539
4548.000000;1.472559
4547.000000;1.471776
4546.000000;1.471371
4545.000000;1.471212
4544.000000;1.470958
4543.000000;1.470371
4542.000000;1.469492
4541.000000;1.468531
4540.000000;1.467697
4539.000000;1.467119
4538.000000;1.466819
4537.000000;1.466689
4536.000000;1.466556
4535.000000;1.466327
4534.000000;1.466024
4533.000000;1.465682
4532.000000;1.465277
4531.000000;1.464800
4530.000000;1.464336
4529.000000;1.464009
4528.000000;1.463830
4527.000000;1.463636
4526.000000;1.463214
4525.000000;1.462519
4524.000000;1.461780
4523.000000;1.461332
4522.000000;1.461270
4521.000000;1.461314
4520.000000;1.461088
4519.000000;1.460543
4518.000000;1.460007
4517.000000;1.459829
4516.000000;1.460051
4515.000000;1.460430
4514.000000;1.460666
4513.000000;1.460583
4512.000000;1.460223
4511.000000;1.459835
4510.000000;1.459696
4509.000000;1.459849
4508.000000;1.460042
4507.000000;1.459990
4506.000000;1.459655
4505.000000;1.459224
4504.000000;1.458882
4503.000000;1.458678
4502.000000;1.458588
4501.000000;1.458626
4500.000000;1.458860
4499.000000;1.459341
4498.000000;1.459979
4497.000000;1.460516
4496.000000;1.460694
4495.000000;1.460492
4494.000000;1.460134
4493.000000;1.459884
4492.000000;1.459898
4491.000000;1.460253
4490.000000;1.460935
4489.000000;1.461713
4488.000000;1.462174
4487.000000;1.462075
4486.000000;1.461637
4485.000000;1.461355
4484.000000;1.461561
4483.000000;1.462218
4482.000000;1.463069
4481.000000;1.463833
4480.000000;1.464349
4479.000000;1.464698
4478.000000;1.465164
4477.000000;1.465914
4476.000000;1.466682
4475.000000;1.466942
4474.000000;1.466472
4473.000000;1.465645
4472.000000;1.465086
4471.000000;1.465121
4470.000000;1.465603
4469.000000;1.466161
4468.000000;1.466576
4467.000000;1.466960
4466.000000;1.467608
4465.000000;1.468624
4464.000000;1.469742
4463.000000;1.470600
4462.000000;1.471136
4461.000000;1.471585
4460.000000;1.472065
4459.000000;1.472409
4458.000000;1.472475
4457.000000;1.472440
4456.000000;1.472612
4455.000000;1.473072
4454.000000;1.473692
4453.000000;1.474424
4452.000000;1.475353
4451.000000;1.476471
4450.000000;1.477581
4449.000000;1.478490
4448.000000;1.479187
4447.000000;1.479760
4446.000000;1.480268
4445.000000;1.480751
4444.000000;1.481284
4443.000000;1.481941
4442.000000;1.482700
4441.000000;1.483482
4440.000000;1.484257
4439.000000;1.485087
4438.000000;1.486054
4437.000000;1.487162
4436.000000;1.488311
4435.000000;1.489364
4434.000000;1.490266
4433.000000;1.491099
4432.000000;1.491978
4431.000000;1.492888
4430.000000;1.493660
4429.000000;1.494173
4428.000000;1.494573
4427.000000;1.495214
4426.000000;1.496336
4425.000000;1.497830
4424.000000;1.499343
4423.000000;1.500637
4422.000000;1.501794
4421.000000;1.503077
4420.000000;1.504656
4419.000000;1.506450
4418.000000;1.508170
4417.000000;1.509487
4416.000000;1.510243
4415.000000;1.510600
4414.000000;1.510961
4413.000000;1.511687
4412.000000;1.512880
4411.000000;1.514420
4410.000000;1.516118
4409.000000;1.517777
4408.000000;1.519235
4407.000000;1.520472
4406.000000;1.521618
4405.000000;1.522734
4404.000000;1.523669
4403.000000;1.524324
4402.000000;1.524994
4401.000000;1.526186
4400.000000;1.528000
4399.000000;1.529885
4398.000000;1.531199
4397.000000;1.531885
4396.000000;1.532463
4395.000000;1.533383
4394.000000;1.534517
4393.000000;1.535319
4392.000000;1.535468
4391.000000;1.535355
4390.000000;1.535880
4389.000000;1.537639
4388.000000;1.540295
4387.000000;1.542864
4386.000000;1.544610
4385.000000;1.545530
4384.000000;1.546045
4383.000000;1.546539
4382.000000;1.547284
4381.000000;1.548441
4380.000000;1.549834
4379.000000;1.550968
4378.000000;1.551557
4377.000000;1.551900
4376.000000;1.552487
4375.000000;1.553410
4374.000000;1.554466
4373.000000;1.555645
4372.000000;1.557106
4371.000000;1.558725
4370.000000;1.560161
4369.000000;1.561473
4368.000000;1.563235
4367.000000;1.565748
4366.000000;1.568441
4365.000000;1.570289
4364.000000;1.570754
4363.000000;1.570200
4362.000000;1.569577
4361.000000;1.569824
4360.000000;1.571311
4359.000000;1.573589
4358.000000;1.575795
4357.000000;1.577496
4356.000000;1.579001
4355.000000;1.580724
4354.000000;1.582517
4353.000000;1.583917
4352.000000;1.584827
4351.000000;1.585569
4350.000000;1.586387
4349.000000;1.587282
4348.000000;1.588321
4347.000000;1.589682
4346.000000;1.591319
4345.000000;1.592914
4344.000000;1.594263
4343.000000;1.595460
4342.000000;1.596578
4341.000000;1.597508
4340.000000;1.598314
4339.000000;1.599500
4338.000000;1.601552
4337.000000;1.604238
4336.000000;1.606623
4335.000000;1.607844
4334.000000;1.607840
4333.000000;1.607389
4332.000000;1.607491
4331.000000;1.608674
4330.000000;1.610722
4329.000000;1.612966
4328.000000;1.614847
4327.000000;1.616160
4326.000000;1.616867
4325.000000;1.616970
4324.000000;1.616731
4323.000000;1.616755
4322.000000;1.617594
4321.000000;1.619361
4320.000000;1.621896
4319.000000;1.625034
4318.000000;1.628336
4317.000000;1.630802
4316.000000;1.631523
4315.000000;1.630736
4314.000000;1.629694
4313.000000;1.629337
4312.000000;1.629613
4311.000000;1.630234
4310.000000;1.631420
4309.000000;1.633375
4308.000000;1.635485
4307.000000;1.636760
4306.000000;1.637069
4305.000000;1.637378
4304.000000;1.638650
4303.000000;1.640884
4302.000000;1.643193
4301.000000;1.644413
4300.000000;1.643777
4299.000000;1.641647
4298.000000;1.639742
4297.000000;1.640055
4296.000000;1.643034
4295.000000;1.646965
4294.000000;1.649540
4293.000000;1.650087
4292.000000;1.649963
4291.000000;1.650809
4290.000000;1.652758
4289.000000;1.654418
4288.000000;1.654548
4287.000000;1.653586
4286.000000;1.653217
4285.000000;1.654377
4284.000000;1.656102
4283.000000;1.656604
4282.000000;1.655260
4281.000000;1.653038
4280.000000;1.651165
4279.000000;1.650167
4278.000000;1.650224
4277.000000;1.651428
4276.000000;1.653108
4275.000000;1.653604
4274.000000;1.651745
4273.000000;1.648499
4272.000000;1.646443
4271.000000;1.647398
4270.000000;1.650828
4269.000000;1.654392
4268.000000;1.655822
4267.000000;1.654607
4266.000000;1.652262
4265.000000;1.650816
4264.000000;1.650764
4263.000000;1.650550
4262.000000;1.648390
4261.000000;1.644504
4260.000000;1.640989
4259.000000;1.639534
4258.000000;1.639928
4257.000000;1.640865
4256.000000;1.641366
4255.000000;1.640990
4254.000000;1.639383
4253.000000;1.636548
4252.000000;1.633319
4251.000000;1.630713
4250.000000;1.628653
4249.000000;1.625792
4248.000000;1.620800
4247.000000;1.613643
4246.000000;1.605487
4245.000000;1.597916
4244.000000;1.592700
4243.000000;1.591535
4242.000000;1.594816
4241.000000;1.599985
4240.000000;1.602139
4239.000000;1.597585
4238.000000;1.587011
4237.000000;1.574659
4236.000000;1.564448
4235.000000;1.557531
4234.000000;1.553100
4233.000000;1.549998
4232.000000;1.547166
4231.000000;1.543283
4230.000000;1.536918
4229.000000;1.527659
4228.000000;1.516924
4227.000000;1.507048
4226.000000;1.498862
4225.000000;1.490346
4224.000000;1.478689
4223.000000;1.463740
4222.000000;1.448404
4221.000000;1.435586
4220.000000;1.425414
4219.000000;1.415481
4218.000000;1.403336
4217.000000;1.388600
4216.000000;1.372597
4215.000000;1.356309
4214.000000;1.339269
4213.000000;1.320327
4212.000000;1.298855
4211.000000;1.274396
4210.000000;1.245674
4209.000000;1.211753
4208.000000;1.174040
4207.000000;1.135143
4206.000000;1.095849
4205.000000;1.055182
4204.000000;1.013282
4203.000000;0.970980
4202.000000;0.924572
4201.000000;0.866148
4200.000000;0.796987
4199.000000;0.738593
4198.000000;0.718552
4197.000000;0.746441
4196.000000;0.809183
4195.000000;0.882672
4194.000000;0.950589
4193.000000;1.011854
4192.000000;1.071074
4191.000000;1.130566
4190.000000;1.191198
4189.000000;1.253503
4188.000000;1.315470
4187.000000;1.371773
4186.000000;1.416719
4185.000000;1.447708
4184.000000;1.467676
4183.000000;1.485928
4182.000000;1.513573
4181.000000;1.554205
4180.000000;1.598027
4179.000000;1.628298
4178.000000;1.638493
4177.000000;1.638871
4176.000000;1.643511
4175.000000;1.659404
4174.000000;1.687141
4173.000000;1.724038
4172.000000;1.764513
4171.000000;1.801510
4170.000000;1.830971
4169.000000;1.853664
4168.000000;1.872626
4167.000000;1.891000
4166.000000;1.911332
4165.000000;1.935022
4164.000000;1.959087
4163.000000;1.976620
4162.000000;1.986416
4161.000000;1.994317
4160.000000;2.005604
4159.000000;2.023260
4158.000000;2.048787
4157.000000;2.079589
4156.000000;2.105461
4155.000000;2.115001
4154.000000;2.111031
4153.000000;2.109136
4152.000000;2.117098
4151.000000;2.125736
4150.000000;2.122855
4149.000000;2.111655
4148.000000;2.107190
4147.000000;2.119717
4146.000000;2.147450
4145.000000;2.179478
4144.000000;2.202575
4143.000000;2.211183
4142.000000;2.213193
4141.000000;2.220472
4140.000000;2.237113
4139.000000;2.257823
4138.000000;2.272264
4137.000000;2.272430
4136.000000;2.261343
4135.000000;2.252779
4134.000000;2.261015
4133.000000;2.291457
4132.000000;2.335891
4131.000000;2.375927
4130.000000;2.398578
4129.000000;2.407849
4128.000000;2.413918
4127.000000;2.419696
4126.000000;2.424908
4125.000000;2.433170
4124.000000;2.445065
4123.000000;2.450227
4122.000000;2.439062
4121.000000;2.420575
4120.000000;2.414116
4119.000000;2.427789
4118.000000;2.451939
4117.000000;2.469433
4116.000000;2.471898
4115.000000;2.465444
4114.000000;2.462365
4113.000000;2.471652
4112.000000;2.494196
4111.000000;2.523188
4110.000000;2.547394
4109.000000;2.559079
4108.000000;2.569146
4107.000000;2.597909
4106.000000;2.647496
4105.000000;2.695215
4104.000000;2.709238
4103.000000;2.678236
4102.000000;2.624439
4101.000000;2.580329
4100.000000;2.563945
4099.000000;2.575744
4098.000000;2.607861
4097.000000;2.650021
4096.000000;2.684926
4095.000000;2.695060
4094.000000;2.685223
4093.000000;2.676911
4092.000000;2.684144
4091.000000;2.702009
4090.000000;2.713795
4089.000000;2.713883
4088.000000;2.708147
4087.000000;2.697093
4086.000000;2.679550
4085.000000;2.661735
4084.000000;2.651930
4083.000000;2.649756
4082.000000;2.644740
4081.000000;2.629846
4080.000000;2.618877
4079.000000;2.636179
4078.000000;2.689630
4077.000000;2.759877
4076.000000;2.811774
4075.000000;2.830125
4074.000000;2.831075
4073.000000;2.827198
4072.000000;2.816775
4071.000000;2.802416
4070.000000;2.795073
4069.000000;2.800613
4068.000000;2.812601
4067.000000;2.822180
4066.000000;2.831228
4065.000000;2.846577
4064.000000;2.869783
4063.000000;2.897914
4062.000000;2.924757
4061.000000;2.934796
4060.000000;2.908179
4059.000000;2.850292
4058.000000;2.794406
4057.000000;2.768265
4056.000000;2.776100
4055.000000;2.801578
4054.000000;2.822003
4053.000000;2.822725
4052.000000;2.804305
4051.000000;2.784352
4050.000000;2.785268
4049.000000;2.815563
4048.000000;2.856317
4047.000000;2.876270
4046.000000;2.881229
4045.000000;2.895809
4044.000000;2.913152
4043.000000;2.913836
4042.000000;2.900653
4041.000000;2.896653
4040.000000;2.920315
4039.000000;2.960066
4038.000000;2.981107
4037.000000;2.969557
4036.000000;2.946986
4035.000000;2.932353
4034.000000;2.926040
4033.000000;2.929938
4032.000000;2.951244
4031.000000;2.981521
4030.000000;2.994672
4029.000000;2.981208
4028.000000;2.968194
4027.000000;2.985311
4026.000000;3.030075
4025.000000;3.055848
4024.000000;3.015815
4023.000000;2.950508
4022.000000;2.931959
4021.000000;2.989165
4020.000000;3.087906
4019.000000;3.125965
4018.000000;3.088208
4017.000000;3.045784
4016.000000;3.019666
4015.000000;2.998400
4014.000000;2.968709
4013.000000;2.940662
4012.000000;2.931374
4011.000000;2.940018
4010.000000;2.961794
4009.000000;3.002702
4008.000000;3.062683
4007.000000;3.118817
4006.000000;3.148520
4005.000000;3.159645
4004.000000;3.163020
4003.000000;3.140869
4002.000000;3.080844
4001.000000;3.021563
4000.000000;3.002414
3999.000000;3.022153
3998.000000;3.057481
3997.000000;3.096888
3996.000000;3.139981
3995.000000;3.155044
3994.000000;3.108262
3993.000000;3.037457
3992.000000;2.996890
3991.000000;3.010204
3990.000000;3.074500
3989.000000;3.141946
3988.000000;3.153320
3987.000000;3.138521
3986.000000;3.146125
3985.000000;3.167780
3984.000000;3.161874
3983.000000;3.118570
3982.000000;3.081579
3981.000000;3.090894
3980.000000;3.153926
3979.000000;3.250500
3978.000000;3.342187
3977.000000;3.365579
3976.000000;3.290395
3975.000000;3.196683
3974.000000;3.159768
3973.000000;3.209002
3972.000000;3.315784
3971.000000;3.335169
3970.000000;3.193860
3969.000000;3.054324
3968.000000;3.007107
3967.000000;3.049915
3966.000000;3.140953
3965.000000;3.203337
3964.000000;3.227871
3963.000000;3.274302
3962.000000;3.320499
3961.000000;3.292294
3960.000000;3.225916
3959.000000;3.193329
3958.000000;3.181732
3957.000000;3.175683
3956.000000;3.217119
3955.000000;3.340023
3954.000000;3.542253
3953.000000;3.766696
3952.000000;3.819920
3951.000000;3.694063
3950.000000;3.655889
3949.000000;3.718947
3948.000000;3.741517
3947.000000;3.676679
3946.000000;3.680500
3945.000000;3.635885
3944.000000;3.415965
3943.000000;3.258783
3942.000000;3.195493
3941.000000;3.191542
3940.000000;3.237204
3939.000000;3.354679
3938.000000;3.540965
3937.000000;3.659997
3936.000000;3.681854
3935.000000;3.815190
3934.000000;4.359037
3933.000000;4.180530
3932.000000;3.696925
3931.000000;3.366428
3930.000000;3.117809
3929.000000;2.995480
3928.000000;3.008466
3927.000000;3.136395
3926.000000;3.274520
3925.000000;3.290243
3924.000000;3.265680
3923.000000;3.298130
3922.000000;3.427593
3921.000000;3.569507
3920.000000;3.548226
3919.000000;3.524593
3918.000000;3.561085
3917.000000;3.646468
3916.000000;3.801268
3915.000000;3.908347
3914.000000;3.773307
3913.000000;3.534834
3912.000000;3.412382
3911.000000;3.459324
3910.000000;3.751765
3909.000000;4.205715
3908.000000;3.923079
3907.000000;3.800871
3906.000000;3.856553
3905.000000;3.822551
3904.000000;3.636208
3903.000000;3.479513
3902.000000;3.445785
3901.000000;3.530896
3900.000000;3.780430
3899.000000;4.281798
3898.000000;4.243779
3897.000000;3.848292
3896.000000;3.666059
3895.000000;3.648049
3894.000000;3.783815
3893.000000;3.983911
3892.000000;3.967551
3891.000000;3.840556
3890.000000;3.870841
3889.000000;4.016235
3888.000000;3.912443
3887.000000;3.733410
3886.000000;3.696363
3885.000000;3.720266
3884.000000;3.743514
3883.000000;3.733200
3882.000000;3.854038
3881.000000;3.985245
3880.000000;3.801282
3879.000000;3.717986
3878.000000;3.758408
3877.000000;3.885572
3876.000000;4.073945
3875.000000;4.090876
3874.000000;3.828247
3873.000000;3.663448
3872.000000;3.648266
3871.000000;3.800082
3870.000000;4.077944
3869.000000;4.183915
3868.000000;3.996562
3867.000000;3.759789
3866.000000;3.680040
3865.000000;3.783709
3864.000000;3.946651
3863.000000;4.046863
3862.000000;4.080158
3861.000000;4.058907
3860.000000;4.012885
3859.000000;3.923447
3858.000000;3.827100
3857.000000;3.826631
3856.000000;3.983956
3855.000000;4.210938
3854.000000;4.145067
3853.000000;3.955994
3852.000000;3.860752
3851.000000;3.854009
3850.000000;3.889884
3849.000000;3.919467
3848.000000;3.917217
3847.000000;3.896694
3846.000000;3.866031
3845.000000;3.698340
3844.000000;3.536754
3843.000000;3.512585
3842.000000;3.539363
3841.000000;3.563864
3840.000000;3.662617
3839.000000;3.899841
3838.000000;4.257151
3837.000000;4.595470
3836.000000;4.866874
3835.000000;4.811544
3834.000000;4.817024
3833.000000;5.107389
3832.000000;4.736228
3831.000000;4.593588
3830.000000;5.328219
3829.000000;4.905763
3828.000000;4.569606
3827.000000;4.628538
3826.000000;4.103778
3825.000000;3.837595
3824.000000;3.789892
3823.000000;3.757094
3822.000000;3.734982
3821.000000;3.820246
3820.000000;3.965047
3819.000000;4.068490
3818.000000;4.139036
3817.000000;4.243164
3816.000000;4.410730
3815.000000;4.539359
3814.000000;4.441573
3813.000000;4.191136
3812.000000;4.056650
3811.000000;4.032310
3810.000000;3.987855
3809.000000;3.844794
3808.000000;3.727326
3807.000000;3.764328
3806.000000;4.019365
3805.000000;4.585030
3804.000000;4.851115
3803.000000;4.545656
3802.000000;4.388832
3801.000000;4.320243
3800.000000;4.335503
3799.000000;4.217422
3798.000000;4.030014
3797.000000;3.976835
3796.000000;4.009268
3795.000000;3.980874
3794.000000;3.857443
3793.000000;3.757083
3792.000000;3.768941
3791.000000;3.909044
3790.000000;4.000113
3789.000000;3.807731
3788.000000;3.689121
3787.000000;3.707634
3786.000000;3.721836
3785.000000;3.687774
3784.000000;3.642900
3783.000000;3.604757
3782.000000;3.586615
3781.000000;3.592926
3780.000000;3.613586
3779.000000;3.658675
3778.000000;3.722760
3777.000000;3.771322
3776.000000;3.772710
3775.000000;3.750941
3774.000000;3.730838
3773.000000;3.699377
3772.000000;3.631734
3771.000000;3.621768
3770.000000;3.720239
3769.000000;3.740657
3768.000000;3.671600
3767.000000;3.667470
3766.000000;3.713385
3765.000000;3.767072
3764.000000;3.813871
3763.000000;3.866146
3762.000000;3.871123
3761.000000;4.122139
3760.000000;4.439958
3759.000000;4.032789
3758.000000;4.030386
3757.000000;4.260292
3756.000000;4.486532
3755.000000;4.426823
3754.000000;4.141413
3753.000000;3.975521
3752.000000;3.932366
3751.000000;3.959717
3750.000000;4.068678
3749.000000;4.253237
3748.000000;4.383353
3747.000000;4.449422
3746.000000;4.428041
3745.000000;4.374076
3744.000000;4.397765
3743.000000;4.553276
3742.000000;4.436713
3741.000000;4.152280
3740.000000;4.221623
3739.000000;4.552619
3738.000000;4.454358
3737.000000;4.182538
3736.000000;3.995401
3735.000000;3.927673
3734.000000;4.068168
3733.000000;4.515617
3732.000000;4.250266
3731.000000;3.969693
3730.000000;3.955956
3729.000000;3.991321
3728.000000;4.059256
3727.000000;4.125034
3726.000000;4.058520
3725.000000;4.082980
3724.000000;4.205549
3723.000000;3.573349
3722.000000;3.315991
3721.000000;3.340930
3720.000000;3.499124
3719.000000;3.740342
3718.000000;4.019431
3717.000000;4.389298
3716.000000;3.999540
3715.000000;3.862522
3714.000000;4.146930
3713.000000;4.779337
3712.000000;5.079211
3711.000000;4.403555
3710.000000;4.078538
3709.000000;3.990843
3708.000000;4.186318
3707.000000;4.483942
3706.000000;4.114785
3705.000000;3.823479
3704.000000;3.694181
3703.000000;3.688333
3702.000000;3.666663
3701.000000;3.619441
3700.000000;3.595877
3699.000000;3.585636
3698.000000;3.718537
3697.000000;3.957460
3696.000000;4.090088
3695.000000;3.952670
3694.000000;3.603990
3693.000000;3.419217
3692.000000;3.411214
3691.000000;3.477441
3690.000000;3.603898
3689.000000;3.809316
3688.000000;4.116368
3687.000000;4.542324
3686.000000;4.334538
3685.000000;4.007378
3684.000000;3.890491
3683.000000;3.916438
3682.000000;4.139525
3681.000000;4.609100
3680.000000;4.090114
3679.000000;3.693118
3678.000000;3.523636
3677.000000;3.492857
3676.000000;3.598452
3675.000000;3.795692
3674.000000;3.955985
3673.000000;3.962234
3672.000000;3.998871
3671.000000;4.160751
3670.000000;4.344192
3669.000000;4.398226
3668.000000;4.353933
3667.000000;4.396857
3666.000000;4.541687
3665.000000;4.191378
3664.000000;3.978842
3663.000000;3.818372
3662.000000;3.820060
3661.000000;4.262376
3660.000000;3.622860
3659.000000;3.266678
3658.000000;3.226291
3657.000000;3.356843
3656.000000;3.750458
3655.000000;4.399870
3654.000000;3.970555
3653.000000;3.775184
3652.000000;3.863723
3651.000000;4.096981
3650.000000;4.408055
3649.000000;4.425862
3648.000000;4.229753
3647.000000;4.105707
3646.000000;4.127590
3645.000000;4.260695
3644.000000;4.548255
3643.000000;4.528921
3642.000000;4.238030
3641.000000;4.095101
3640.000000;3.954799
3639.000000;3.974364
3638.000000;3.979656
3637.000000;4.059900
3636.000000;4.650772
3635.000000;4.240606
3634.000000;4.008402
3633.000000;4.051815
3632.000000;4.275314
3631.000000;4.463512
3630.000000;4.098388
3629.000000;3.967465
3628.000000;3.860561
3627.000000;3.761930
3626.000000;3.692439
3625.000000;3.612148
3624.000000;3.552441
3623.000000;3.494545
3622.000000;3.436930
3621.000000;3.430980
3620.000000;3.471028
3619.000000;3.508132
3618.000000;3.522008
3617.000000;3.499123
3616.000000;3.476547
3615.000000;3.480579
3614.000000;3.491683
3613.000000;3.502741
3612.000000;3.523028
3611.000000;3.555523
3610.000000;3.628991
3609.000000;3.748445
3608.000000;3.757623
3607.000000;3.662654
3606.000000;3.623349
3605.000000;3.605841
3604.000000;3.587730
3603.000000;3.691848
3602.000000;3.809131
3601.000000;3.712816
3600.000000;3.673123
3599.000000;3.724750
3598.000000;3.745989
3597.000000;3.732948
3596.000000;3.771324
3595.000000;3.849424
3594.000000;3.797101
3593.000000;3.604288
3592.000000;3.434843
3591.000000;3.366191
3590.000000;3.379349
3589.000000;3.401451
3588.000000;3.377663
3587.000000;3.299140
3586.000000;3.180125
3585.000000;3.076368
3584.000000;3.068601
3583.000000;3.197667
3582.000000;3.425956
3581.000000;3.669912
3580.000000;3.816710
3579.000000;3.673698
3578.000000;3.501721
3577.000000;3.465099
3576.000000;3.550311
3575.000000;3.627794
3574.000000;3.568392
3573.000000;3.510630
3572.000000;3.499200
3571.000000;3.512141
3570.000000;3.544635
3569.000000;3.560828
3568.000000;3.537234
3567.000000;3.517559
3566.000000;3.598229
3565.000000;3.640440
3564.000000;3.452713
3563.000000;3.385098
3562.000000;3.453991
3561.000000;3.471246
3560.000000;3.382649
3559.000000;3.266346
3558.000000;3.202408
3557.000000;3.231712
3556.000000;3.375253
3555.000000;3.519547
3554.000000;3.465806
3553.000000;3.343590
3552.000000;3.242704
3551.000000;3.213867
3550.000000;3.317174
3549.000000;3.613246
3548.000000;3.746935
3547.000000;3.430564
3546.000000;3.212874
3545.000000;3.072621
3544.000000;3.026945
3543.000000;3.112488
3542.000000;3.324396
3541.000000;3.539323
3540.000000;3.559537
3539.000000;3.497173
3538.000000;3.464290
3537.000000;3.439192
3536.000000;3.362171
3535.000000;3.242209
3534.000000;3.145235
3533.000000;3.114921
3532.000000;3.112896
3531.000000;3.086552
3530.000000;3.084183
3529.000000;3.153727
3528.000000;3.301435
3527.000000;3.460339
3526.000000;3.457229
3525.000000;3.377419
3524.000000;3.360987
3523.000000;3.377244
3522.000000;3.294913
3521.000000;3.169805
3520.000000;3.114845
3519.000000;3.125015
3518.000000;3.165313
3517.000000;3.216777
3516.000000;3.297128
3515.000000;3.415179
3514.000000;3.442605
3513.000000;3.341074
3512.000000;3.267892
3511.000000;3.277250
3510.000000;3.389998
3509.000000;3.573559
3508.000000;3.710255
3507.000000;3.698754
3506.000000;3.524613
3505.000000;3.419666
3504.000000;3.396771
3503.000000;3.404726
3502.000000;3.397250
3501.000000;3.362672
3500.000000;3.357166
3499.000000;3.530901
3498.000000;4.038175
3497.000000;3.750750
3496.000000;3.604529
3495.000000;3.586425
3494.000000;3.448395
3493.000000;3.419582
3492.000000;3.622408
3491.000000;4.170538
3490.000000;4.034425
3489.000000;3.665038
3488.000000;3.470195
3487.000000;3.360765
3486.000000;3.300070
3485.000000;3.262319
3484.000000;3.279064
3483.000000;3.346899
3482.000000;3.401896
3481.000000;3.425928
3480.000000;3.440758
3479.000000;3.460177
3478.000000;3.469105
3477.000000;3.612360
3476.000000;3.977908
3475.000000;3.685507
3474.000000;3.547849
3473.000000;3.460445
3472.000000;3.253636
3471.000000;3.150365
3470.000000;3.139004
3469.000000;3.162663
3468.000000;3.178572
3467.000000;3.159767
3466.000000;3.097175
3465.000000;3.031808
3464.000000;3.018281
3463.000000;3.086950
3462.000000;3.240034
3461.000000;3.506880
3460.000000;3.963891
3459.000000;3.832217
3458.000000;3.565887
3457.000000;3.743706
3456.000000;4.124719
3455.000000;3.962847
3454.000000;4.113966
3453.000000;3.752906
3452.000000;3.417933
3451.000000;3.346648
3450.000000;3.409211
3449.000000;3.608941
3448.000000;3.769154
3447.000000;3.654774
3446.000000;3.451971
3445.000000;3.358823
3444.000000;3.412323
3443.000000;3.542689
3442.000000;3.646036
3441.000000;3.678243
3440.000000;3.630982
3439.000000;3.680506
3438.000000;3.954178
3437.000000;3.797309
3436.000000;3.508997
3435.000000;3.591155
3434.000000;3.851602
3433.000000;3.471665
3432.000000;3.269085
3431.000000;3.449365
3430.000000;3.575114
3429.000000;3.258434
3428.000000;3.109224
3427.000000;3.079806
3426.000000;3.102712
3425.000000;3.142584
3424.000000;3.191038
3423.000000;3.280172
3422.000000;3.403322
3421.000000;3.470594
3420.000000;3.543624
3419.000000;3.884357
3418.000000;3.932330
3417.000000;3.595402
3416.000000;3.656713
3415.000000;4.030676
3414.000000;3.799206
3413.000000;3.566910
3412.000000;3.485705
3411.000000;3.453157
3410.000000;3.739257
3409.000000;4.168876
3408.000000;3.494455
3407.000000;3.398799
3406.000000;3.589130
3405.000000;3.925626
3404.000000;3.713040
3403.000000;3.669634
3402.000000;3.668028
3401.000000;3.477757
3400.000000;3.426723
3399.000000;3.527640
3398.000000;3.468134
3397.000000;3.340474
3396.000000;3.374604
3395.000000;3.549254
3394.000000;3.783027
3393.000000;3.794483
3392.000000;3.493361
3391.000000;3.248998
3390.000000;3.120174
3389.000000;3.104211
3388.000000;3.212172
3387.000000;3.438105
3386.000000;3.669583
3385.000000;3.747575
3384.000000;3.647152
3383.000000;3.576445
3382.000000;3.676177
3381.000000;3.773207
3380.000000;3.639004
3379.000000;3.489729
3378.000000;3.379155
3377.000000;3.309051
3376.000000;3.287233
3375.000000;3.321880
3374.000000;3.329753
3373.000000;3.211740
3372.000000;3.091901
3371.000000;3.029583
3370.000000;3.000130
3369.000000;2.980131
3368.000000;2.962494
3367.000000;2.960945
3366.000000;2.983363
3365.000000;3.039707
3364.000000;3.165572
3363.000000;3.411759
3362.000000;3.764385
3361.000000;3.575210
3360.000000;3.263683
3359.000000;3.138877
3358.000000;3.162129
3357.000000;3.264329
3356.000000;3.285885
3355.000000;3.174991
3354.000000;3.075525
3353.000000;3.056868
3352.000000;3.103068
3351.000000;3.154631
3350.000000;3.186251
3349.000000;3.238195
3348.000000;3.358650
3347.000000;3.633393
3346.000000;3.581152
3345.000000;3.367418
3344.000000;3.358286
3343.000000;3.441168
3342.000000;3.559237
3341.000000;3.662583
3340.000000;3.508725
3339.000000;3.386560
3338.000000;3.426886
3337.000000;3.681036
3336.000000;4.097627
3335.000000;3.547742
3334.000000;3.352746
3333.000000;3.317619
3332.000000;3.408429
3331.000000;3.580179
3330.000000;3.672990
3329.000000;3.565795
3328.000000;3.323717
3327.000000;3.151549
3326.000000;3.092354
3325.000000;3.110246
3324.000000;3.161778
3323.000000;3.261680
3322.000000;3.501200
3321.000000;3.823387
3320.000000;4.411853
3319.000000;3.734563
3318.000000;3.288478
3317.000000;3.108525
3316.000000;3.010186
3315.000000;2.964004
3314.000000;2.958922
3313.000000;3.015841
3312.000000;3.175309
3311.000000;3.531475
3310.000000;3.652988
3309.000000;3.521824
3308.000000;3.533213
3307.000000;3.381305
3306.000000;3.251165
3305.000000;3.226711
3304.000000;3.310180
3303.000000;3.435560
3302.000000;3.691771
3301.000000;3.990175
3300.000000;3.329291
3299.000000;3.090139
3298.000000;3.022780
3297.000000;3.046767
3296.000000;3.138424
3295.000000;3.312507
3294.000000;3.538725
3293.000000;3.685127
3292.000000;3.711729
3291.000000;3.599983
3290.000000;3.438476
3289.000000;3.361054
3288.000000;3.382930
3287.000000;3.471863
3286.000000;3.658501
3285.000000;3.597853
3284.000000;3.346345
3283.000000;3.259613
3282.000000;3.291893
3281.000000;3.345831
3280.000000;3.380086
3279.000000;3.426018
3278.000000;3.585273
3277.000000;3.860550
3276.000000;3.399219
3275.000000;3.109936
3274.000000;3.006457
3273.000000;3.026833
3272.000000;3.147795
3271.000000;3.356852
3270.000000;3.424689
3269.000000;3.330609
3268.000000;3.383055
3267.000000;3.734914
3266.000000;4.240431
3265.000000;3.757706
3264.000000;3.423898
3263.000000;3.250576
3262.000000;3.227986
3261.000000;3.405186
3260.000000;3.758167
3259.000000;3.253078
3258.000000;3.028437
3257.000000;2.991572
3256.000000;3.086123
3255.000000;3.357166
3254.000000;3.574014
3253.000000;3.230798
3252.000000;3.079749
3251.000000;3.050585
3250.000000;3.133535
3249.000000;3.388901
3248.000000;3.928725
3247.000000;3.721805
3246.000000;3.573410
3245.000000;3.667768
3244.000000;3.657620
3243.000000;3.528978
3242.000000;3.502324
3241.000000;3.682477
3240.000000;3.676560
3239.000000;3.531736
3238.000000;3.572291
3237.000000;3.666554
3236.000000;3.654167
3235.000000;3.510107
3234.000000;3.373640
3233.000000;3.331477
3232.000000;3.418083
3231.000000;3.653785
3230.000000;3.468062
3229.000000;3.238379
3228.000000;3.148721
3227.000000;3.176017
3226.000000;3.395093
3225.000000;4.161901
3224.000000;3.381796
3223.000000;3.183200
3222.000000;3.165377
3221.000000;3.260353
3220.000000;3.385639
3219.000000;3.566576
3218.000000;4.039964
3217.000000;3.873621
3216.000000;3.454282
3215.000000;3.261796
3214.000000;3.102961
3213.000000;3.060174
3212.000000;3.125471
3211.000000;3.281596
3210.000000;3.483501
3209.000000;3.750027
3208.000000;4.190029
3207.000000;3.771680
3206.000000;3.556230
3205.000000;3.467742
3204.000000;3.318401
3203.000000;3.136255
3202.000000;2.992940
3201.000000;2.936458
3200.000000;2.981249
3199.000000;3.120105
3198.000000;3.318893
3197.000000;3.441602
3196.000000;3.420630
3195.000000;3.432310
3194.000000;3.777016
3193.000000;3.999768
3192.000000;3.449737
3191.000000;3.484449
3190.000000;3.602955
3189.000000;3.817742
3188.000000;3.766471
3187.000000;3.520415
3186.000000;3.395170
3185.000000;3.328057
3184.000000;3.333858
3183.000000;3.430571
3182.000000;3.786774
3181.000000;3.858559
3180.000000;3.571344
3179.000000;3.509419
3178.000000;3.459205
3177.000000;3.277769
3176.000000;3.130556
3175.000000;3.090879
3174.000000;3.127186
3173.000000;3.107311
3172.000000;3.036254
3171.000000;3.051464
3170.000000;3.160736
3169.000000;3.223992
3168.000000;3.212650
3167.000000;3.273900
3166.000000;3.434792
3165.000000;3.685483
3164.000000;3.665874
3163.000000;4.075875
3162.000000;4.062508
3161.000000;3.479437
3160.000000;3.492496
3159.000000;3.625796
3158.000000;3.744095
3157.000000;3.626826
3156.000000;3.464842
3155.000000;3.383415
3154.000000;3.429345
3153.000000;3.581297
3152.000000;3.729404
3151.000000;3.941887
3150.000000;3.919794
3149.000000;4.162264
3148.000000;3.615329
3147.000000;3.380377
3146.000000;3.441745
3145.000000;3.610911
3144.000000;3.406621
3143.000000;3.319437
3142.000000;3.393350
3141.000000;3.634558
3140.000000;3.747629
3139.000000;3.465929
3138.000000;3.286133
3137.000000;3.168720
3136.000000;3.098353
3135.000000;3.089109
3134.000000;3.163446
3133.000000;3.251701
3132.000000;3.247178
3131.000000;3.265502
3130.000000;3.392571
3129.000000;3.753629
3128.000000;4.044370
3127.000000;3.507757
3126.000000;3.259889
3125.000000;3.175135
3124.000000;3.188335
3123.000000;3.266874
3122.000000;3.365450
3121.000000;3.445827
3120.000000;3.461478
3119.000000;3.361497
3118.000000;3.221813
3117.000000;3.119091
3116.000000;3.061946
3115.000000;3.036953
3114.000000;3.017661
3113.000000;2.980418
3112.000000;2.939003
3111.000000;2.944053
3110.000000;3.036128
3109.000000;3.197243
3108.000000;3.325398
3107.000000;3.396052
3106.000000;3.764719
3105.000000;3.656867
3104.000000;3.250404
3103.000000;3.110210
3102.000000;3.090212
3101.000000;3.186956
3100.000000;3.331922
3099.000000;3.264106
3098.000000;3.107106
3097.000000;3.039267
3096.000000;3.071206
3095.000000;3.171731
3094.000000;3.257950
3093.000000;3.274045
3092.000000;3.243628
3091.000000;3.168205
3090.000000;3.086322
3089.000000;3.086861
3088.000000;3.205396
3087.000000;3.340789
3086.000000;3.350965
3085.000000;3.381491
3084.000000;3.496491
3083.000000;3.536516
3082.000000;3.401654
3081.000000;3.369649
3080.000000;3.462898
3079.000000;3.446800
3078.000000;3.337300
3077.000000;3.313354
3076.000000;3.408219
3075.000000;3.918670
3074.000000;3.577445
3073.000000;3.334866
3072.000000;3.439198
3071.000000;3.977985
3070.000000;3.537963
3069.000000;3.355993
3068.000000;3.434699
3067.000000;3.588257
3066.000000;3.516322
3065.000000;3.446820
3064.000000;3.533969
3063.000000;3.648038
3062.000000;3.478336
3061.000000;3.361923
3060.000000;3.481980
3059.000000;3.691346
3058.000000;3.461025
3057.000000;3.310192
3056.000000;3.244332
3055.000000;3.207487
3054.000000;3.199137
3053.000000;3.221230
3052.000000;3.297952
3051.000000;3.401691
3050.000000;3.617844
3049.000000;3.814390
3048.000000;3.400254
3047.000000;3.193175
3046.000000;3.177103
3045.000000;3.263687
3044.000000;3.344316
3043.000000;3.214766
3042.000000;3.083211
3041.000000;3.056746
3040.000000;3.070578
3039.000000;3.034796
3038.000000;3.007338
3037.000000;3.045752
3036.000000;3.146888
3035.000000;3.295838
3034.000000;3.465929
3033.000000;3.633368
3032.000000;3.834845
3031.000000;3.756905
3030.000000;3.429727
3029.000000;3.269027
3028.000000;3.265131
3027.000000;3.417429
3026.000000;3.746153
3025.000000;3.727539
3024.000000;3.545383
3023.000000;3.578674
3022.000000;3.614094
3021.000000;3.495649
3020.000000;3.419078
3019.000000;4.157822
3018.000000;3.478426
3017.000000;3.077208
3016.000000;2.967413
3015.000000;2.960727
3014.000000;3.010396
3013.000000;3.069725
3012.000000;3.135426
3011.000000;3.214321
3010.000000;3.285256
3009.000000;3.284866
3008.000000;3.204689
3007.000000;3.141357
3006.000000;3.157035
3005.000000;3.270435
3004.000000;3.344708
3003.000000;3.216839
3002.000000;3.100649
3001.000000;3.073244
3000.000000;3.129377
2999.000000;3.265052
2998.000000;3.495441
2997.000000;3.851471
2996.000000;3.853960
2995.000000;3.653408
2994.000000;3.618768
2993.000000;3.851449
2992.000000;4.174254
2991.000000;3.718954
2990.000000;3.512699
2989.000000;3.430972
2988.000000;3.388065
2987.000000;3.387028
2986.000000;3.393833
2985.000000;3.426981
2984.000000;3.601998
2983.000000;3.685146
2982.000000;3.565374
2981.000000;3.522038
2980.000000;3.430971
2979.000000;3.480848
2978.000000;3.803895
2977.000000;3.946096
2976.000000;3.659108
2975.000000;3.894406
2974.000000;3.928586
2973.000000;3.446135
2972.000000;3.274169
2971.000000;3.290190
2970.000000;3.440432
2969.000000;3.295645
2968.000000;3.103436
2967.000000;3.070802
2966.000000;3.133213
2965.000000;3.269051
2964.000000;3.433571
2963.000000;3.682218
2962.000000;4.031613
2961.000000;3.397245
2960.000000;3.141083
2959.000000;3.103437
2958.000000;3.215045
2957.000000;3.402794
2956.000000;3.422152
2955.000000;3.407081
2954.000000;3.471141
2953.000000;3.411404
2952.000000;3.273354
2951.000000;3.187904
2950.000000;3.134143
2949.000000;3.118029
2948.000000;3.204693
2947.000000;3.600524
2946.000000;3.539529
2945.000000;3.206727
2944.000000;3.234897
2943.000000;3.342218
2942.000000;3.293242
2941.000000;3.216797
2940.000000;3.262285
2939.000000;3.353109
2938.000000;3.407881
2937.000000;3.423449
2936.000000;3.362010
2935.000000;3.309835
2934.000000;3.405072
2933.000000;3.794509
2932.000000;3.769687
2931.000000;3.486417
2930.000000;3.395658
2929.000000;3.307005
2928.000000;3.283593
2927.000000;3.365702
2926.000000;3.488052
2925.000000;3.551435
2924.000000;3.486401
2923.000000;3.358471
2922.000000;3.284587
2921.000000;3.259145
2920.000000;3.243939
2919.000000;3.347655
2918.000000;3.470732
2917.000000;3.255566
2916.000000;3.091035
2915.000000;3.074554
2914.000000;3.134616
2913.000000;3.154877
2912.000000;3.087461
2911.000000;3.072719
2910.000000;3.190404
2909.000000;3.385643
2908.000000;3.410246
2907.000000;3.424290
2906.000000;3.546960
2905.000000;3.628156
2904.000000;3.689449
2903.000000;3.858952
2902.000000;3.770682
2901.000000;3.869535
2900.000000;4.076439
2899.000000;3.369152
2898.000000;3.124594
2897.000000;3.054952
2896.000000;3.085795
2895.000000;3.188569
2894.000000;3.333590
2893.000000;3.523101
2892.000000;3.638004
2891.000000;3.670422
2890.000000;3.733148
2889.000000;3.593588
2888.000000;3.325322
2887.000000;3.171527
2886.000000;3.147052
2885.000000;3.196038
2884.000000;3.197686
2883.000000;3.124126
2882.000000;3.043464
2881.000000;2.972755
2880.000000;2.902854
2879.000000;2.840558
2878.000000;2.810984
2877.000000;2.823984
2876.000000;2.872437
2875.000000;2.952814
2874.000000;3.062334
2873.000000;3.194481
2872.000000;3.340601
2871.000000;3.647321
2870.000000;4.184980
2869.000000;3.839316
2868.000000;3.672092
2867.000000;3.632407
2866.000000;3.582890
2865.000000;3.494804
2864.000000;3.446973
2863.000000;3.533481
2862.000000;3.781950
2861.000000;4.266551
2860.000000;3.601002
2859.000000;3.214051
2858.000000;3.101425
2857.000000;3.159450
2856.000000;3.398565
2855.000000;3.681962
2854.000000;3.710108
2853.000000;3.675805
2852.000000;3.671008
2851.000000;3.661505
2850.000000;3.690866
2849.000000;3.763232
2848.000000;3.639681
2847.000000;3.451450
2846.000000;3.286339
2845.000000;3.109713
2844.000000;2.984390
2843.000000;2.951000
2842.000000;3.016083
2841.000000;3.213509
2840.000000;3.500253
2839.000000;3.359645
2838.000000;3.158571
2837.000000;3.180907
2836.000000;3.383809
2835.000000;3.564554
2834.000000;3.553198
2833.000000;3.547729
2832.000000;3.421828
2831.000000;3.285460
2830.000000;3.216392
2829.000000;3.148496
2828.000000;3.064406
2827.000000;3.034039
2826.000000;3.094405
2825.000000;3.307732
2824.000000;3.783389
2823.000000;3.690694
2822.000000;3.812450
2821.000000;4.080153
2820.000000;3.460026
2819.000000;3.314980
2818.000000;3.220849
2817.000000;3.138109
2816.000000;3.149274
2815.000000;3.242285
2814.000000;3.510721
2813.000000;4.010262
2812.000000;3.729777
2811.000000;3.494684
2810.000000;3.523646
2809.000000;3.552303
2808.000000;3.610094
2807.000000;3.663866
2806.000000;3.576771
2805.000000;3.398422
2804.000000;3.299907
2803.000000;3.280683
2802.000000;3.447578
2801.000000;3.769010
2800.000000;3.333453
2799.000000;3.090683
2798.000000;3.037180
2797.000000;3.048673
2796.000000;3.098123
2795.000000;3.166335
2794.000000;3.235280
2793.000000;3.297448
2792.000000;3.451948
2791.000000;3.712332
2790.000000;3.715099
2789.000000;3.456975
2788.000000;3.322787
2787.000000;3.308708
2786.000000;3.328486
2785.000000;3.302476
2784.000000;3.244048
2783.000000;3.162340
2782.000000;3.079975
2781.000000;3.071195
2780.000000;3.175626
2779.000000;3.373008
2778.000000;3.491837
2777.000000;3.413417
2776.000000;3.275038
2775.000000;3.181216
2774.000000;3.171565
2773.000000;3.298070
2772.000000;3.542529
2771.000000;3.499090
2770.000000;3.348709
2769.000000;3.370342
2768.000000;3.434420
2767.000000;3.359669
2766.000000;3.289649
2765.000000;3.304689
2764.000000;3.342980
2763.000000;3.312677
2762.000000;3.234898
2761.000000;3.215576
2760.000000;3.281547
2759.000000;3.399538
2758.000000;3.358873
2757.000000;3.220903
2756.000000;3.134294
2755.000000;3.088728
2754.000000;3.081152
2753.000000;3.218416
2752.000000;3.499131
2751.000000;3.284548
2750.000000;3.086035
2749.000000;3.089946
2748.000000;3.203680
2747.000000;3.383497
2746.000000;3.500752
2745.000000;3.490338
2744.000000;3.363755
2743.000000;3.278530
2742.000000;3.353550
2741.000000;3.533264
2740.000000;3.401409
2739.000000;3.196473
2738.000000;3.103311
2737.000000;3.040068
2736.000000;2.994734
2735.000000;2.985591
2734.000000;3.034108
2733.000000;3.160513
2732.000000;3.265062
2731.000000;3.223743
2730.000000;3.195460
2729.000000;3.237902
2728.000000;3.268847
2727.000000;3.271321
2726.000000;3.284022
2725.000000;3.368305
2724.000000;3.481405
2723.000000;3.656334
2722.000000;3.993665
2721.000000;3.717519
2720.000000;3.447618
2719.000000;3.330232
2718.000000;3.263257
2717.000000;3.246653
2716.000000;3.250283
2715.000000;3.275871
2714.000000;3.317451
2713.000000;3.370266
2712.000000;3.415507
2711.000000;3.404970
2710.000000;3.345910
2709.000000;3.343560
2708.000000;3.441847
2707.000000;3.703656
2706.000000;4.137728
2705.000000;3.808279
2704.000000;3.535553
2703.000000;3.508895
2702.000000;3.508789
2701.000000;3.389400
2700.000000;3.210828
2699.000000;3.098211
2698.000000;3.077468
2697.000000;3.137179
2696.000000;3.275080
2695.000000;3.482274
2694.000000;3.663217
2693.000000;3.730268
2692.000000;3.800152
2691.000000;4.103744
2690.000000;4.381276
2689.000000;3.971586
2688.000000;3.790117
2687.000000;3.573208
2686.000000;3.301651
2685.000000;3.109681
2684.000000;3.022800
2683.000000;3.050413
2682.000000;3.213305
2681.000000;3.328304
2680.000000;3.182898
2679.000000;3.094704
2678.000000;3.118366
2677.000000;3.233460
2676.000000;3.536200
2675.000000;3.812751
2674.000000;3.572151
2673.000000;3.497844
2672.000000;3.535343
2671.000000;3.539393
2670.000000;3.545296
2669.000000;3.681443
2668.000000;4.225828
2667.000000;4.173431
2666.000000;3.947080
2665.000000;3.847809
2664.000000;3.598502
2663.000000;3.409976
2662.000000;3.332652
2661.000000;3.353944
2660.000000;3.623282
2659.000000;4.178401
2658.000000;3.684654
2657.000000;3.471733
2656.000000;3.431896
2655.000000;3.511382
2654.000000;3.747337
2653.000000;3.945355
2652.000000;3.853914
2651.000000;3.583130
2650.000000;3.436969
2649.000000;3.385329
2648.000000;3.382638
2647.000000;3.401915
2646.000000;3.416787
2645.000000;3.374732
2644.000000;3.323514
2643.000000;3.337149
2642.000000;3.442389
2641.000000;3.613307
2640.000000;3.471012
2639.000000;3.337977
2638.000000;3.346730
2637.000000;3.618133
2636.000000;4.339048
2635.000000;3.617477
2634.000000;3.407529
2633.000000;3.351525
2632.000000;3.324305
2631.000000;3.359577
2630.000000;3.351775
2629.000000;3.256139
2628.000000;3.103819
2627.000000;3.038413
2626.000000;3.110798
2625.000000;3.383673
2624.000000;3.947655
2623.000000;3.983772
2622.000000;3.544481
2621.000000;3.281727
2620.000000;3.181734
2619.000000;3.186106
2618.000000;3.254499
2617.000000;3.320453
2616.000000;3.493536
2615.000000;3.830146
2614.000000;3.432634
2613.000000;3.202116
2612.000000;3.271731
2611.000000;3.517731
2610.000000;3.487615
2609.000000;3.385845
2608.000000;3.494731
2607.000000;3.636873
2606.000000;3.856293
2605.000000;3.668725
2604.000000;3.333807
2603.000000;3.207465
2602.000000;3.187332
2601.000000;3.209868
2600.000000;3.213970
2599.000000;3.216268
2598.000000;3.241629
2597.000000;3.206351
2596.000000;3.135618
2595.000000;3.087683
2594.000000;3.059220
2593.000000;3.061137
2592.000000;3.123595
2591.000000;3.265639
2590.000000;3.565298
2589.000000;3.801218
2588.000000;3.503857
2587.000000;3.337952
2586.000000;3.293896
2585.000000;3.315103
2584.000000;3.365317
2583.000000;3.334801
2582.000000;3.288731
2581.000000;3.406136
2580.000000;3.568849
2579.000000;3.410686
2578.000000;3.315728
2577.000000;3.444651
2576.000000;3.503252
2575.000000;3.276499
2574.000000;3.169927
2573.000000;3.229863
2572.000000;3.666591
2571.000000;3.905402
2570.000000;3.386093
2569.000000;3.298025
2568.000000;3.236068
2567.000000;3.164850
2566.000000;3.114902
2565.000000;3.102460
2564.000000;3.142937
2563.000000;3.204805
2562.000000;3.304210
2561.000000;3.439441
2560.000000;3.437518
2559.000000;3.273376
2558.000000;3.171777
2557.000000;3.149165
2556.000000;3.175129
2555.000000;3.230401
2554.000000;3.296073
2553.000000;3.361021
2552.000000;3.402593
2551.000000;3.378956
2550.000000;3.293885
2549.000000;3.219165
2548.000000;3.211923
2547.000000;3.265195
2546.000000;3.313916
2545.000000;3.216998
2544.000000;3.081719
2543.000000;3.052187
2542.000000;3.160584
2541.000000;3.504323
2540.000000;3.740826
2539.000000;3.507084
2538.000000;3.521955
2537.000000;3.672715
2536.000000;3.832039
2535.000000;3.956447
2534.000000;3.731868
2533.000000;3.512239
2532.000000;3.414306
2531.000000;3.364181
2530.000000;3.302122
2529.000000;3.218707
2528.000000;3.157465
2527.000000;3.158995
2526.000000;3.251654
2525.000000;3.457740
2524.000000;3.936713
2523.000000;3.998817
2522.000000;3.489351
2521.000000;3.325296
2520.000000;3.271963
2519.000000;3.257836
2518.000000;3.235955
2517.000000;3.216822
2516.000000;3.270808
2515.000000;3.445504
2514.000000;3.774602
2513.000000;3.936382
2512.000000;3.662162
2511.000000;3.482353
2510.000000;3.466348
2509.000000;3.449223
2508.000000;3.405744
2507.000000;3.420316
2506.000000;3.400994
2505.000000;3.334887
2504.000000;3.296899
2503.000000;3.266351
2502.000000;3.218883
2501.000000;3.189404
2500.000000;3.226657
2499.000000;3.328981
2498.000000;3.392392
2497.000000;3.296528
2496.000000;3.168150
2495.000000;3.155601
2494.000000;3.324630
2493.000000;3.775867
2492.000000;3.923261
2491.000000;3.485950
2490.000000;3.302569
2489.000000;3.287377
2488.000000;3.393041
2487.000000;3.467453
2486.000000;3.460556
2485.000000;3.475891
2484.000000;3.497062
2483.000000;3.673242
2482.000000;3.877944
2481.000000;3.463205
2480.000000;3.240450
2479.000000;3.206772
2478.000000;3.319594
2477.000000;3.560221
2476.000000;3.416360
2475.000000;3.203409
2474.000000;3.143892
2473.000000;3.185882
2472.000000;3.288543
2471.000000;3.474358
2470.000000;3.797223
2469.000000;3.755248
2468.000000;3.539452
2467.000000;3.443555
2466.000000;3.422840
2465.000000;3.479508
2464.000000;3.496327
2463.000000;3.470808
2462.000000;3.435101
2461.000000;3.346177
2460.000000;3.300662
2459.000000;3.384849
2458.000000;3.618208
2457.000000;4.024781
2456.000000;3.974176
2455.000000;3.596364
2454.000000;3.460635
2453.000000;3.581870
2452.000000;4.109157
2451.000000;4.344704
2450.000000;3.862489
2449.000000;3.537427
2448.000000;3.424539
2447.000000;3.603707
2446.000000;3.603507
2445.000000;3.208910
2444.000000;3.016469
2443.000000;2.940132
2442.000000;2.941334
2441.000000;3.015937
2440.000000;3.131720
2439.000000;3.247019
2438.000000;3.331039
2437.000000;3.412265
2436.000000;3.463558
2435.000000;3.412507
2434.000000;3.290424
2433.000000;3.214893
2432.000000;3.210033
2431.000000;3.320603
2430.000000;3.661498
2429.000000;3.676431
2428.000000;3.462256
2427.000000;3.540212
2426.000000;4.026360
2425.000000;3.809756
2424.000000;3.438049
2423.000000;3.366946
2422.000000;3.525248
2421.000000;3.775517
2420.000000;3.614184
2419.000000;3.597171
2418.000000;3.691840
2417.000000;3.648256
2416.000000;3.570976
2415.000000;3.619637
2414.000000;3.783226
2413.000000;3.762487
2412.000000;3.734836
2411.000000;3.893278
2410.000000;3.987824
2409.000000;3.797757
2408.000000;3.611189
2407.000000;3.526770
2406.000000;3.491428
2405.000000;3.465217
2404.000000;3.452587
2403.000000;3.455361
2402.000000;3.437334
2401.000000;3.392758
2400.000000;3.383745
2399.000000;3.508577
2398.000000;3.724373
2397.000000;3.633745
2396.000000;3.494924
2395.000000;3.407316
2394.000000;3.354696
2393.000000;3.373456
2392.000000;3.450432
2391.000000;3.614630
2390.000000;3.768849
2389.000000;3.596055
2388.000000;3.480324
2387.000000;3.542851
2386.000000;3.702827
2385.000000;3.723664
2384.000000;3.658369
2383.000000;3.866776
2382.000000;4.194926
2381.000000;3.856194
2380.000000;3.712670
2379.000000;3.776260
2378.000000;3.946255
2377.000000;3.924189
2376.000000;3.633797
2375.000000;3.420713
2374.000000;3.310934
2373.000000;3.301836
2372.000000;3.418334
2371.000000;3.747099
2370.000000;3.868916
2369.000000;3.587090
2368.000000;3.465782
2367.000000;3.458701
2366.000000;3.629240
2365.000000;3.981758
2364.000000;3.809795
2363.000000;3.716386
2362.000000;3.708291
2361.000000;3.658115
2360.000000;3.587978
2359.000000;3.450318
2358.000000;3.308153
2357.000000;3.220464
2356.000000;3.225998
2355.000000;3.386915
2354.000000;3.674874
2353.000000;3.709165
2352.000000;3.424329
2351.000000;3.248890
2350.000000;3.230459
2349.000000;3.289686
2348.000000;3.379693
2347.000000;3.477780
2346.000000;3.506781
2345.000000;3.455182
2344.000000;3.395401
2343.000000;3.377994
2342.000000;3.426071
2341.000000;3.431188
2340.000000;3.296739
2339.000000;3.280316
2338.000000;3.463856
2337.000000;3.729753
2336.000000;4.075189
2335.000000;4.005787
2334.000000;3.582814
2333.000000;3.551642
2332.000000;3.466712
2331.000000;3.359832
2330.000000;3.354730
2329.000000;3.610023
2328.000000;3.920992
2327.000000;3.373704
2326.000000;3.114321
2325.000000;3.052081
2324.000000;3.100716
2323.000000;3.234689
2322.000000;3.413768
2321.000000;3.650517
2320.000000;4.016489
2319.000000;3.894682
2318.000000;3.642651
2317.000000;3.530308
2316.000000;3.508103
2315.000000;3.592330
2314.000000;3.830253
2313.000000;4.166803
2312.000000;4.205316
2311.000000;4.064767
2310.000000;3.883039
2309.000000;3.761658
2308.000000;3.710467
2307.000000;3.695196
2306.000000;3.696209
2305.000000;3.691455
2304.000000;3.664744
2303.000000;3.601037
2302.000000;3.519392
2301.000000;3.445251
2300.000000;3.391707
2299.000000;3.354926
2298.000000;3.346715
2297.000000;3.379141
2296.000000;3.451934
2295.000000;3.549233
2294.000000;3.656068
2293.000000;3.745207
2292.000000;3.779526
2291.000000;3.748949
2290.000000;3.767809
2289.000000;4.011181
2288.000000;3.811612
2287.000000;3.558209
2286.000000;3.588203
2285.000000;3.854516
2284.000000;3.808266
2283.000000;3.683622
2282.000000;3.788591
2281.000000;3.990718
2280.000000;3.983354
2279.000000;3.880443
2278.000000;3.790619
2277.000000;3.751574
2276.000000;3.814840
2275.000000;3.817115
2274.000000;3.753322
2273.000000;3.718856
2272.000000;3.780629
2271.000000;4.139739
2270.000000;3.686859
2269.000000;3.370449
2268.000000;3.302896
2267.000000;3.308118
2266.000000;3.296564
2265.000000;3.243283
2264.000000;3.235042
2263.000000;3.327217
2262.000000;3.590664
2261.000000;3.825576
2260.000000;3.775699
2259.000000;4.319518
2258.000000;3.705517
2257.000000;3.440853
2256.000000;3.420395
2255.000000;3.523154
2254.000000;3.668066
2253.000000;3.771108
2252.000000;3.752175
2251.000000;3.649504
2250.000000;3.599669
2249.000000;3.806758
2248.000000;3.880642
2247.000000;3.514401
2246.000000;3.364938
2245.000000;3.295931
2244.000000;3.245588
2243.000000;3.201047
2242.000000;3.163879
2241.000000;3.132988
2240.000000;3.116946
2239.000000;3.122252
2238.000000;3.130770
2237.000000;3.119962
2236.000000;3.115864
2235.000000;3.164105
2234.000000;3.286526
2233.000000;3.475482
2232.000000;3.667318
2231.000000;3.719669
2230.000000;3.611526
2229.000000;3.468571
2228.000000;3.373537
2227.000000;3.346015
2226.000000;3.358720
2225.000000;3.336096
2224.000000;3.259863
2223.000000;3.200436
2222.000000;3.190593
2221.000000;3.231008
2220.000000;3.321223
2219.000000;3.454782
2218.000000;3.581135
2217.000000;3.599686
2216.000000;3.520430
2215.000000;3.471448
2214.000000;3.502063
2213.000000;3.613721
2212.000000;3.702613
2211.000000;3.470608
2210.000000;3.269677
2209.000000;3.215184
2208.000000;3.277937
2207.000000;3.359590
2206.000000;3.340758
2205.000000;3.311927
2204.000000;3.319729
2203.000000;3.323565
2202.000000;3.278202
2201.000000;3.204474
2200.000000;3.158951
2199.000000;3.190196
2198.000000;3.344390
2197.000000;3.686747
2196.000000;3.853390
2195.000000;3.691645
2194.000000;3.661374
2193.000000;3.562339
2192.000000;3.454009
2191.000000;3.368660
2190.000000;3.326580
2189.000000;3.314001
2188.000000;3.320822
2187.000000;3.356059
2186.000000;3.428188
2185.000000;3.521691
2184.000000;3.575898
2183.000000;3.524548
2182.000000;3.439795
2181.000000;3.419635
2180.000000;3.460226
2179.000000;3.430332
2178.000000;3.289179
2177.000000;3.179217
2176.000000;3.162826
2175.000000;3.230173
2174.000000;3.285937
2173.000000;3.269828
2172.000000;3.285149
2171.000000;3.382608
2170.000000;3.497978
2169.000000;3.488836
2168.000000;3.421888
2167.000000;3.384541
2166.000000;3.386748
2165.000000;3.425597
2164.000000;3.479520
2163.000000;3.536564
2162.000000;3.532442
2161.000000;3.459813
2160.000000;3.404767
2159.000000;3.383942
2158.000000;3.411333
2157.000000;3.492802
2156.000000;3.576599
2155.000000;3.657672
2154.000000;3.778600
2153.000000;3.799967
2152.000000;3.755467
2151.000000;3.898354
2150.000000;4.290448
2149.000000;3.854773
2148.000000;3.615060
2147.000000;3.480438
2146.000000;3.403236
2145.000000;3.341383
2144.000000;3.321192
2143.000000;3.392911
2142.000000;3.431534
2141.000000;3.337795
2140.000000;3.314928
2139.000000;3.428141
2138.000000;3.679041
2137.000000;4.179074
2136.000000;4.546827
2135.000000;3.990584
2134.000000;3.688518
2133.000000;3.572915
2132.000000;3.621411
2131.000000;3.782697
2130.000000;3.812609
2129.000000;3.779237
2128.000000;3.826818
2127.000000;3.671739
2126.000000;3.551766
2125.000000;3.626755
2124.000000;3.934159
2123.000000;4.156005
2122.000000;4.047356
2121.000000;4.218310
2120.000000;4.170152
2119.000000;3.966746
2118.000000;3.961816
2117.000000;3.691952
2116.000000;3.396217
2115.000000;3.263160
2114.000000;3.238513
2113.000000;3.282586
2112.000000;3.341435
2111.000000;3.388101
2110.000000;3.431705
2109.000000;3.451601
2108.000000;3.434555
2107.000000;3.451504
2106.000000;3.590237
2105.000000;3.960897
2104.000000;4.605475
2103.000000;4.348504
2102.000000;3.745001
2101.000000;3.457350
2100.000000;3.333616
2099.000000;3.349300
2098.000000;3.479923
2097.000000;3.652140
2096.000000;3.911491
2095.000000;3.654991
2094.000000;3.384267
2093.000000;3.274651
2092.000000;3.231279
2091.000000;3.234654
2090.000000;3.279912
2089.000000;3.329650
2088.000000;3.324436
2087.000000;3.276404
2086.000000;3.243994
2085.000000;3.261062
2084.000000;3.291537
2083.000000;3.309133
2082.000000;3.375665
2081.000000;3.671664
2080.000000;4.056694
2079.000000;3.758123
2078.000000;3.762876
2077.000000;4.516119
2076.000000;3.991556
2075.000000;3.810832
2074.000000;3.834038
2073.000000;3.799106
2072.000000;3.724101
2071.000000;3.662503
2070.000000;3.612102
2069.000000;3.512194
2068.000000;3.382459
2067.000000;3.283540
2066.000000;3.245555
2065.000000;3.266469
2064.000000;3.338565
2063.000000;3.481381
2062.000000;3.743712
2061.000000;4.007661
2060.000000;3.944814
2059.000000;3.763427
2058.000000;3.650241
2057.000000;3.665813
2056.000000;3.788869
2055.000000;3.874123
2054.000000;4.142172
2053.000000;3.821582
2052.000000;3.438334
2051.000000;3.258568
2050.000000;3.161533
2049.000000;3.107416
2048.000000;3.067623
2047.000000;3.035264
2046.000000;3.026574
2045.000000;3.065371
2044.000000;3.161364
2043.000000;3.294830
2042.000000;3.422392
2041.000000;3.543161
2040.000000;3.742329
2039.000000;3.875375
2038.000000;3.708350
2037.000000;3.632442
2036.000000;3.689287
2035.000000;3.745174
2034.000000;3.479863
2033.000000;3.254308
2032.000000;3.161341
2031.000000;3.166153
2030.000000;3.262334
2029.000000;3.407752
2028.000000;3.423772
2027.000000;3.337658
2026.000000;3.256700
2025.000000;3.178870
2024.000000;3.119642
2023.000000;3.085236
2022.000000;3.089041
2021.000000;3.134342
2020.000000;3.198895
2019.000000;3.267899
2018.000000;3.348664
2017.000000;3.421651
2016.000000;3.457049
2015.000000;3.498298
2014.000000;3.560306
2013.000000;3.528327
2012.000000;3.379534
2011.000000;3.248115
2010.000000;3.182397
2009.000000;3.170073
2008.000000;3.177083
2007.000000;3.186454
2006.000000;3.210979
2005.000000;3.247561
2004.000000;3.277899
2003.000000;3.320620
2002.000000;3.405935
2001.000000;3.524932
2000.000000;3.589931
1999.000000;3.525450
1998.000000;3.419936
1997.000000;3.345853
1996.000000;3.314643
1995.000000;3.327694
1994.000000;3.371506
1993.000000;3.360705
1992.000000;3.287318
1991.000000;3.266281
1990.000000;3.340396
1989.000000;3.517463
1988.000000;3.710382
1987.000000;3.639134
1986.000000;3.567048
1985.000000;3.718586
1984.000000;4.185642
1983.000000;3.917199
1982.000000;3.587544
1981.000000;3.426374
1980.000000;3.302502
1979.000000;3.214331
1978.000000;3.148993
1977.000000;3.104651
1976.000000;3.098067
1975.000000;3.158264
1974.000000;3.294101
1973.000000;3.472947
1972.000000;3.434911
1971.000000;3.240908
1970.000000;3.135410
1969.000000;3.133165
1968.000000;3.210054
1967.000000;3.309713
1966.000000;3.305518
1965.000000;3.208098
1964.000000;3.121094
1963.000000;3.058223
1962.000000;3.010544
1961.000000;2.985540
1960.000000;2.995302
1959.000000;3.039498
1958.000000;3.106942
1957.000000;3.185706
1956.000000;3.243008
1955.000000;3.251615
1954.000000;3.262458
1953.000000;3.317268
1952.000000;3.393556
1951.000000;3.449663
1950.000000;3.528828
1949.000000;3.548012
1948.000000;3.352905
1947.000000;3.181336
1946.000000;3.105027
1945.000000;3.087541
1944.000000;3.103070
1943.000000;3.136088
1942.000000;3.186816
1941.000000;3.261707
1940.000000;3.369023
1939.000000;3.509267
1938.000000;3.658735
1937.000000;3.750445
1936.000000;3.754185
1935.000000;3.643483
1934.000000;3.405492
1933.000000;3.247571
1932.000000;3.210827
1931.000000;3.274778
1930.000000;3.419504
1929.000000;3.631109
1928.000000;3.879610
1927.000000;3.914335
1926.000000;3.699169
1925.000000;3.510035
1924.000000;3.426101
1923.000000;3.471772
1922.000000;3.708242
1921.000000;4.291414
1920.000000;4.073501
1919.000000;3.957670
1918.000000;4.014316
1917.000000;3.910777
1916.000000;3.922072
1915.000000;3.687087
1914.000000;3.494702
1913.000000;3.450173
1912.000000;3.499407
1911.000000;3.617748
1910.000000;3.777808
1909.000000;3.969327
1908.000000;4.088210
1907.000000;4.049126
1906.000000;4.069153
1905.000000;3.951252
1904.000000;3.837252
1903.000000;3.869469
1902.000000;4.014109
1901.000000;4.217470
1900.000000;4.122437
1899.000000;3.992607
1898.000000;4.132841
1897.000000;4.242890
1896.000000;3.894234
1895.000000;3.710593
1894.000000;3.728062
1893.000000;3.822222
1892.000000;3.801910
1891.000000;3.771075
1890.000000;3.850770
1889.000000;4.043312
1888.000000;4.551834
1887.000000;4.019346
1886.000000;3.674138
1885.000000;3.493280
1884.000000;3.349342
1883.000000;3.247053
1882.000000;3.198729
1881.000000;3.219252
1880.000000;3.307342
1879.000000;3.466431
1878.000000;3.649586
1877.000000;3.585211
1876.000000;3.423744
1875.000000;3.390595
1874.000000;3.485439
1873.000000;3.691123
1872.000000;3.950246
1871.000000;4.094967
1870.000000;4.153845
1869.000000;4.232253
1868.000000;4.017993
1867.000000;3.853061
1866.000000;3.812381
1865.000000;3.783146
1864.000000;3.766736
1863.000000;3.960721
1862.000000;4.102421
1861.000000;3.605572
1860.000000;3.365843
1859.000000;3.284868
1858.000000;3.274277
1857.000000;3.290862
1856.000000;3.271637
1855.000000;3.210184
1854.000000;3.155263
1853.000000;3.151534
1852.000000;3.211419
1851.000000;3.325178
1850.000000;3.480065
1849.000000;3.668763
1848.000000;3.797207
1847.000000;3.666347
1846.000000;3.456199
1845.000000;3.320288
1844.000000;3.270626
1843.000000;3.279980
1842.000000;3.324975
1841.000000;3.410413
1840.000000;3.579289
1839.000000;4.107711
1838.000000;4.100739
1837.000000;3.621087
1836.000000;3.445691
1835.000000;3.393892
1834.000000;3.458297
1833.000000;3.588454
1832.000000;3.676725
1831.000000;3.635993
1830.000000;3.540664
1829.000000;3.508761
1828.000000;3.560015
1827.000000;3.684660
1826.000000;3.769104
1825.000000;3.754596
1824.000000;3.861518
1823.000000;3.787792
1822.000000;3.469156
1821.000000;3.278217
1820.000000;3.174799
1819.000000;3.119622
1818.000000;3.088164
1817.000000;3.066013
1816.000000;3.048343
1815.000000;3.034255
1814.000000;3.035241
1813.000000;3.059535
1812.000000;3.109672
1811.000000;3.167377
1810.000000;3.224749
1809.000000;3.274276
1808.000000;3.354893
1807.000000;3.473558
1806.000000;3.698830
1805.000000;4.438561
1804.000000;3.816608
1803.000000;3.466483
1802.000000;3.351403
1801.000000;3.289991
1800.000000;3.228891
1799.000000;3.129066
1798.000000;3.032563
1797.000000;2.973836
1796.000000;2.965342
1795.000000;2.995663
1794.000000;3.056853
1793.000000;3.149117
1792.000000;3.258191
1791.000000;3.363210
1790.000000;3.437688
1789.000000;3.475662
1788.000000;3.465604
1787.000000;3.406472
1786.000000;3.355234
1785.000000;3.393180
1784.000000;3.734487
1783.000000;3.960734
1782.000000;3.527936
1781.000000;3.399143
1780.000000;3.406265
1779.000000;3.437182
1778.000000;3.486069
1777.000000;3.528918
1776.000000;3.467021
1775.000000;3.314011
1774.000000;3.172974
1773.000000;3.064869
1772.000000;3.006797
1771.000000;3.012626
1770.000000;3.074760
1769.000000;3.167169
1768.000000;3.252107
1767.000000;3.296150
1766.000000;3.282348
1765.000000;3.228981
1764.000000;3.180899
1763.000000;3.164339
1762.000000;3.173319
1761.000000;3.178175
1760.000000;3.166981
1759.000000;3.162388
1758.000000;3.192564
1757.000000;3.277721
1756.000000;3.425592
1755.000000;3.553951
1754.000000;3.517664
1753.000000;3.423392
1752.000000;3.354198
1751.000000;3.297145
1750.000000;3.273877
1749.000000;3.308473
1748.000000;3.391460
1747.000000;3.481589
1746.000000;3.555390
1745.000000;3.619781
1744.000000;3.816923
1743.000000;4.053269
1742.000000;3.759828
1741.000000;3.525625
1740.000000;3.373832
1739.000000;3.275957
1738.000000;3.241284
1737.000000;3.243777
1736.000000;3.258271
1735.000000;3.254183
1734.000000;3.235650
1733.000000;3.218799
1732.000000;3.203034
1731.000000;3.193613
1730.000000;3.195001
1729.000000;3.191086
1728.000000;3.181449
1727.000000;3.187709
1726.000000;3.226281
1725.000000;3.289092
1724.000000;3.347876
1723.000000;3.380923
1722.000000;3.400686
1721.000000;3.416570
1720.000000;3.407127
1719.000000;3.374329
1718.000000;3.348851
1717.000000;3.348880
1716.000000;3.377495
1715.000000;3.444184
1714.000000;3.540863
1713.000000;3.637137
1712.000000;3.752995
1711.000000;3.929662
1710.000000;3.991804
1709.000000;3.740604
1708.000000;3.505099
1707.000000;3.371600
1706.000000;3.303350
1705.000000;3.272312
1704.000000;3.268325
1703.000000;3.300776
1702.000000;3.396152
1701.000000;3.544424
1700.000000;3.595654
1699.000000;3.548312
1698.000000;3.512057
1697.000000;3.472044
1696.000000;3.485792
1695.000000;3.475278
1694.000000;3.299496
1693.000000;3.143544
1692.000000;3.087428
1691.000000;3.101445
1690.000000;3.159415
1689.000000;3.244191
1688.000000;3.329973
1687.000000;3.368630
1686.000000;3.340623
1685.000000;3.279736
1684.000000;3.215707
1683.000000;3.165885
1682.000000;3.145675
1681.000000;3.174050
1680.000000;3.262687
1679.000000;3.357136
1678.000000;3.386359
1677.000000;3.434810
1676.000000;3.616723
1675.000000;3.920760
1674.000000;3.970675
1673.000000;3.663295
1672.000000;3.433240
1671.000000;3.322447
1670.000000;3.289654
1669.000000;3.306992
1668.000000;3.354825
1667.000000;3.418363
1666.000000;3.481844
1665.000000;3.525616
1664.000000;3.567528
1663.000000;3.652798
1662.000000;3.742706
1661.000000;3.688711
1660.000000;3.488368
1659.000000;3.306747
1658.000000;3.219593
1657.000000;3.215079
1656.000000;3.246808
1655.000000;3.264570
1654.000000;3.256035
1653.000000;3.264387
1652.000000;3.293244
1651.000000;3.263626
1650.000000;3.210871
1649.000000;3.214329
1648.000000;3.245029
1647.000000;3.252220
1646.000000;3.230462
1645.000000;3.197982
1644.000000;3.183233
1643.000000;3.240979
1642.000000;3.417294
1641.000000;3.813041
1640.000000;4.152653
1639.000000;3.832797
1638.000000;3.787246
1637.000000;3.853205
1636.000000;3.800920
1635.000000;3.675333
1634.000000;3.558464
1633.000000;3.469996
1632.000000;3.405202
1631.000000;3.342560
1630.000000;3.261697
1629.000000;3.203796
1628.000000;3.195373
1627.000000;3.223941
1626.000000;3.252030
1625.000000;3.267672
1624.000000;3.293423
1623.000000;3.326900
1622.000000;3.344503
1621.000000;3.368748
1620.000000;3.453785
1619.000000;3.628268
1618.000000;3.942430
1617.000000;4.236110
1616.000000;3.948507
1615.000000;3.730620
1614.000000;3.691313
1613.000000;3.834715
1612.000000;3.865181
1611.000000;3.568818
1610.000000;3.354331
1609.000000;3.219590
1608.000000;3.133138
1607.000000;3.079446
1606.000000;3.048268
1605.000000;3.038929
1604.000000;3.046385
1603.000000;3.065381
1602.000000;3.084013
1601.000000;3.091649
1600.000000;3.090220
1599.000000;3.098325
1598.000000;3.141624
1597.000000;3.238922
1596.000000;3.396110
1595.000000;3.573709
1594.000000;3.666898
1593.000000;3.629285
1592.000000;3.508327
1591.000000;3.414508
1590.000000;3.401529
1589.000000;3.434926
1588.000000;3.410030
1587.000000;3.300984
1586.000000;3.214677
1585.000000;3.184643
1584.000000;3.173632
1583.000000;3.140557
1582.000000;3.091072
1581.000000;3.062114
1580.000000;3.072200
1579.000000;3.111707
1578.000000;3.144745
1577.000000;3.138557
1576.000000;3.107132
1575.000000;3.086494
1574.000000;3.084332
1573.000000;3.082752
1572.000000;3.069646
1571.000000;3.057357
1570.000000;3.076030
1569.000000;3.138173
1568.000000;3.211330
1567.000000;3.250094
1566.000000;3.250968
1565.000000;3.235608
1564.000000;3.223258
1563.000000;3.227167
1562.000000;3.247177
1561.000000;3.266187
1560.000000;3.274171
1559.000000;3.283073
1558.000000;3.321500
1557.000000;3.379400
1556.000000;3.517537
1555.000000;3.914647
1554.000000;3.843237
1553.000000;3.433194
1552.000000;3.255206
1551.000000;3.144693
1550.000000;3.063528
1549.000000;3.000613
1548.000000;2.961087
1547.000000;2.957696
1546.000000;2.973454
1545.000000;2.975359
1544.000000;2.963462
1543.000000;2.975100
1542.000000;3.025732
1541.000000;3.115750
1540.000000;3.228692
1539.000000;3.296651
1538.000000;3.259596
1537.000000;3.197556
1536.000000;3.180816
1535.000000;3.183932
1534.000000;3.182034
1533.000000;3.191622
1532.000000;3.220085
1531.000000;3.259920
1530.000000;3.300754
1529.000000;3.363744
1528.000000;3.470397
1527.000000;3.557588
1526.000000;3.606124
1525.000000;3.710778
1524.000000;3.856656
1523.000000;3.911371
1522.000000;3.819972
1521.000000;3.596690
1520.000000;3.378957
1519.000000;3.255545
1518.000000;3.230552
1517.000000;3.291800
1516.000000;3.429889
1515.000000;3.672799
1514.000000;4.091536
1513.000000;4.264396
1512.000000;3.909970
1511.000000;3.683810
1510.000000;3.588133
1509.000000;3.553618
1508.000000;3.530418
1507.000000;3.458082
1506.000000;3.322257
1505.000000;3.196630
1504.000000;3.120774
1503.000000;3.108289
1502.000000;3.133699
1501.000000;3.145563
1500.000000;3.128421
1499.000000;3.105296
1498.000000;3.102491
1497.000000;3.128251
1496.000000;3.173569
1495.000000;3.198806
1494.000000;3.178457
1493.000000;3.154659
1492.000000;3.160317
1491.000000;3.191916
1490.000000;3.225993
1489.000000;3.229965
1488.000000;3.208007
1487.000000;3.191489
1486.000000;3.193976
1485.000000;3.213645
1484.000000;3.251659
1483.000000;3.309106
1482.000000;3.371478
1481.000000;3.420733
1480.000000;3.446861
1479.000000;3.443526
1478.000000;3.395823
1477.000000;3.292099
1476.000000;3.178053
1475.000000;3.095771
1474.000000;3.052514
1473.000000;3.053995
1472.000000;3.104784
1471.000000;3.188850
1470.000000;3.271690
1469.000000;3.324524
1468.000000;3.340601
1467.000000;3.332615
1466.000000;3.322016
1465.000000;3.328962
1464.000000;3.360630
1463.000000;3.402601
1462.000000;3.455983
1461.000000;3.561662
1460.000000;3.780118
1459.000000;4.104928
1458.000000;4.271950
1457.000000;4.048234
1456.000000;3.691212
1455.000000;3.429207
1454.000000;3.267080
1453.000000;3.179806
1452.000000;3.146656
1451.000000;3.155017
1450.000000;3.191895
1449.000000;3.205217
1448.000000;3.180417
1447.000000;3.182730
1446.000000;3.255386
1445.000000;3.405562
1444.000000;3.610495
1443.000000;3.782087
1442.000000;3.830891
1441.000000;3.835742
1440.000000;3.835394
1439.000000;3.724675
1438.000000;3.631653
1437.000000;3.613471
1436.000000;3.742508
1435.000000;4.060774
1434.000000;3.830306
1433.000000;3.621637
1432.000000;3.629369
1431.000000;3.599703
1430.000000;3.474357
1429.000000;3.364637
1428.000000;3.293065
1427.000000;3.232252
1426.000000;3.190775
1425.000000;3.182172
1424.000000;3.209207
1423.000000;3.265196
1422.000000;3.325168
1421.000000;3.359260
1420.000000;3.364932
1419.000000;3.375166
1418.000000;3.405905
1417.000000;3.404332
1416.000000;3.327431
1415.000000;3.225752
1414.000000;3.157686
1413.000000;3.135358
1412.000000;3.149402
1411.000000;3.193464
1410.000000;3.286875
1409.000000;3.434303
1408.000000;3.451789
1407.000000;3.327014
1406.000000;3.256119
1405.000000;3.257225
1404.000000;3.309929
1403.000000;3.400903
1402.000000;3.512747
1401.000000;3.578100
1400.000000;3.529137
1399.000000;3.424949
1398.000000;3.325617
1397.000000;3.261458
1396.000000;3.250620
1395.000000;3.288864
1394.000000;3.329622
1393.000000;3.306076
1392.000000;3.237690
1391.000000;3.194527
1390.000000;3.204431
1389.000000;3.260892
1388.000000;3.351575
1387.000000;3.469852
1386.000000;3.582852
1385.000000;3.638401
1384.000000;3.652897
1383.000000;3.673521
1382.000000;3.686513
1381.000000;3.604389
1380.000000;3.471076
1379.000000;3.403142
1378.000000;3.419121
1377.000000;3.483621
1376.000000;3.558930
1375.000000;3.644270
1374.000000;3.722560
1373.000000;3.686133
1372.000000;3.537268
1371.000000;3.398165
1370.000000;3.360529
1369.000000;3.462566
1368.000000;3.873411
1367.000000;4.238771
1366.000000;3.701866
1365.000000;3.721531
1364.000000;3.954249
1363.000000;4.005622
1362.000000;3.889529
1361.000000;3.628363
1360.000000;3.362977
1359.000000;3.238299
1358.000000;3.219525
1357.000000;3.238686
1356.000000;3.224849
1355.000000;3.158909
1354.000000;3.083996
1353.000000;3.032104
1352.000000;3.020596
1351.000000;3.057330
1350.000000;3.139440
1349.000000;3.244573
1348.000000;3.328477
1347.000000;3.342467
1346.000000;3.292059
1345.000000;3.232191
1344.000000;3.203055
1343.000000;3.210105
1342.000000;3.224054
1341.000000;3.198825
1340.000000;3.119640
1339.000000;3.018601
1338.000000;2.934275
1337.000000;2.882231
1336.000000;2.862521
1335.000000;2.872354
1334.000000;2.920080
1333.000000;3.018135
1332.000000;3.179640
1331.000000;3.405836
1330.000000;3.660371
1329.000000;4.082884
1328.000000;3.945110
1327.000000;3.490061
1326.000000;3.256631
1325.000000;3.130721
1324.000000;3.087988
1323.000000;3.100641
1322.000000;3.137907
1321.000000;3.187604
1320.000000;3.262755
1319.000000;3.380112
1318.000000;3.504401
1317.000000;3.538842
1316.000000;3.499564
1315.000000;3.479581
1314.000000;3.484209
1313.000000;3.463688
1312.000000;3.430488
1311.000000;3.444682
1310.000000;3.539205
1309.000000;3.646532
1308.000000;3.555214
1307.000000;3.362844
1306.000000;3.224388
1305.000000;3.143378
1304.000000;3.099827
1303.000000;3.073585
1302.000000;3.054126
1301.000000;3.047428
1300.000000;3.066588
1299.000000;3.108281
1298.000000;3.156142
1297.000000;3.216933
1296.000000;3.323614
1295.000000;3.513964
1294.000000;3.753831
1293.000000;3.822931
1292.000000;3.959690
1291.000000;4.148797
1290.000000;3.803295
1289.000000;3.652664
1288.000000;3.634514
1287.000000;3.644735
1286.000000;3.641167
1285.000000;3.594703
1284.000000;3.447793
1283.000000;3.255998
1282.000000;3.143096
1281.000000;3.152227
1280.000000;3.281994
1279.000000;3.744424
1278.000000;4.068152
1277.000000;3.499146
1276.000000;3.295094
1275.000000;3.151994
1274.000000;3.070335
1273.000000;3.051521
1272.000000;3.089524
1271.000000;3.148948
1270.000000;3.181038
1269.000000;3.195095
1268.000000;3.252921
1267.000000;3.401466
1266.000000;3.726821
1265.000000;4.556759
1264.000000;3.898526
1263.000000;3.773283
1262.000000;3.856648
1261.000000;4.054262
1260.000000;3.805112
1259.000000;3.444099
1258.000000;3.292719
1257.000000;3.242418
1256.000000;3.221872
1255.000000;3.196091
1254.000000;3.179334
1253.000000;3.161207
1252.000000;3.122270
1251.000000;3.067269
1250.000000;3.008675
1249.000000;2.964426
1248.000000;2.955931
1247.000000;3.000441
1246.000000;3.104079
1245.000000;3.251844
1244.000000;3.331896
1243.000000;3.237447
1242.000000;3.112311
1241.000000;3.035745
1240.000000;3.000244
1239.000000;2.984043
1238.000000;2.972291
1237.000000;2.961009
1236.000000;2.942144
1235.000000;2.910676
1234.000000;2.879951
1233.000000;2.868525
1232.000000;2.885455
1231.000000;2.931107
1230.000000;2.986747
1229.000000;3.000694
1228.000000;2.955649
1227.000000;2.902540
1226.000000;2.877674
1225.000000;2.885258
1224.000000;2.912326
1223.000000;2.939386
1222.000000;2.949653
1221.000000;2.941988
1220.000000;2.934911
1219.000000;2.943296
1218.000000;2.962179
1217.000000;2.979992
1216.000000;2.998565
1215.000000;3.028282
1214.000000;3.067439
1213.000000;3.103450
1212.000000;3.126433
1211.000000;3.109947
1210.000000;3.034557
1209.000000;2.945462
1208.000000;2.889960
1207.000000;2.877875
1206.000000;2.899237
1205.000000;2.940412
1204.000000;2.991490
1203.000000;3.044132
1202.000000;3.092377
1201.000000;3.137503
1200.000000;3.173679
