Criado como novo conjunto de dados;"1909daniel.spp","-4276424.5 Secs"
cm-1;Abs
10000.000000;1.451941
9999.000000;1.452833
9998.000000;1.453727
9997.000000;1.454623
9996.000000;1.455523
9995.000000;1.456418
9994.000000;1.457328
9993.000000;1.458217
9992.000000;1.459146
9991.000000;1.460008
9990.000000;1.461021
9989.000000;1.461246
9988.000000;1.459661
9987.000000;1.456848
9986.000000;1.453624
9985.000000;1.450386
9984.000000;1.447350
9983.000000;1.445292
9982.000000;1.445104
9981.000000;1.446740
9980.000000;1.449048
9979.000000;1.450770
9978.000000;1.451364
9977.000000;1.450765
9976.000000;1.448935
9975.000000;1.446209
9974.000000;1.443769
9973.000000;1.442959
9972.000000;1.443810
9971.000000;1.444748
9970.000000;1.444268
9969.000000;1.442686
9968.000000;1.441640
9967.000000;1.442045
9966.000000;1.443189
9965.000000;1.443840
9964.000000;1.443576
9963.000000;1.442721
9962.000000;1.441578
9961.000000;1.440243
9960.000000;1.438862
9959.000000;1.437493
9958.000000;1.435888
9957.000000;1.433900
9956.000000;1.432054
9955.000000;1.431227
9954.000000;1.431635
9953.000000;1.432486
9952.000000;1.432799
9951.000000;1.432339
9950.000000;1.431522
9949.000000;1.430624
9948.000000;1.429445
9947.000000;1.427789
9946.000000;1.426009
9945.000000;1.424773
9944.000000;1.424351
9943.000000;1.424338
9942.000000;1.424152
9941.000000;1.423564
9940.000000;1.422585
9939.000000;1.421182
9938.000000;1.419489
9937.000000;1.418155
9936.000000;1.417965
9935.000000;1.418998
9934.000000;1.420423
9933.000000;1.421159
9932.000000;1.420568
9931.000000;1.418650
9930.000000;1.416062
9929.000000;1.413997
9928.000000;1.413453
9927.000000;1.414264
9926.000000;1.415110
9925.000000;1.414795
9924.000000;1.413340
9923.000000;1.411631
9922.000000;1.410364
9921.000000;1.409661
9920.000000;1.409360
9919.000000;1.409179
9918.000000;1.408786
9917.000000;1.408106
9916.000000;1.407454
9915.000000;1.407088
9914.000000;1.406824
9913.000000;1.406365
9912.000000;1.405741
9911.000000;1.405106
9910.000000;1.404274
9909.000000;1.402950
9908.000000;1.401370
9907.000000;1.400304
9906.000000;1.400322
9905.000000;1.401233
9904.000000;1.402164
9903.000000;1.401968
9902.000000;1.399889
9901.000000;1.396328
9900.000000;1.392927
9899.000000;1.391415
9898.000000;1.392162
9897.000000;1.393998
9896.000000;1.395379
9895.000000;1.395514
9894.000000;1.394457
9893.000000;1.392637
9892.000000;1.390554
9891.000000;1.388547
9890.000000;1.386633
9889.000000;1.384727
9888.000000;1.383098
9887.000000;1.382275
9886.000000;1.382335
9885.000000;1.382653
9884.000000;1.382684
9883.000000;1.382660
9882.000000;1.383113
9881.000000;1.383917
9880.000000;1.384208
9879.000000;1.383264
9878.000000;1.381220
9877.000000;1.378836
9876.000000;1.376821
9875.000000;1.375506
9874.000000;1.374946
9873.000000;1.375043
9872.000000;1.375524
9871.000000;1.375877
9870.000000;1.375458
9869.000000;1.373929
9868.000000;1.371688
9867.000000;1.369713
9866.000000;1.368789
9865.000000;1.368870
9864.000000;1.369219
9863.000000;1.369127
9862.000000;1.368430
9861.000000;1.367411
9860.000000;1.366420
9859.000000;1.365683
9858.000000;1.365290
9857.000000;1.365180
9856.000000;1.365105
9855.000000;1.364759
9854.000000;1.364003
9853.000000;1.362954
9852.000000;1.361800
9851.000000;1.360583
9850.000000;1.359330
9849.000000;1.358328
9848.000000;1.357971
9847.000000;1.358164
9846.000000;1.358101
9845.000000;1.357004
9844.000000;1.355084
9843.000000;1.353392
9842.000000;1.352628
9841.000000;1.352458
9840.000000;1.352160
9839.000000;1.351564
9838.000000;1.351002
9837.000000;1.350575
9836.000000;1.349921
9835.000000;1.348722
9834.000000;1.347029
9833.000000;1.344994
9832.000000;1.342683
9831.000000;1.340383
9830.000000;1.338797
9829.000000;1.338496
9828.000000;1.339215
9827.000000;1.340011
9826.000000;1.340212
9825.000000;1.339980
9824.000000;1.339818
9823.000000;1.339779
9822.000000;1.339436
9821.000000;1.338569
9820.000000;1.337575
9819.000000;1.337019
9818.000000;1.336939
9817.000000;1.336834
9816.000000;1.336286
9815.000000;1.335393
9814.000000;1.334516
9813.000000;1.333807
9812.000000;1.333101
9811.000000;1.332173
9810.000000;1.330969
9809.000000;1.329645
9808.000000;1.328432
9807.000000;1.327390
9806.000000;1.326229
9805.000000;1.324563
9804.000000;1.322529
9803.000000;1.321049
9802.000000;1.321128
9801.000000;1.322832
9800.000000;1.325090
9799.000000;1.326501
9798.000000;1.326271
9797.000000;1.324528
9796.000000;1.322045
9795.000000;1.319762
9794.000000;1.318303
9793.000000;1.317711
9792.000000;1.317628
9791.000000;1.317703
9790.000000;1.317685
9789.000000;1.317222
9788.000000;1.315944
9787.000000;1.313899
9786.000000;1.311630
9785.000000;1.309701
9784.000000;1.308378
9783.000000;1.307842
9782.000000;1.308283
9781.000000;1.309460
9780.000000;1.310487
9779.000000;1.310569
9778.000000;1.309865
9777.000000;1.309157
9776.000000;1.308684
9775.000000;1.307823
9774.000000;1.306118
9773.000000;1.304194
9772.000000;1.303228
9771.000000;1.303682
9770.000000;1.304848
9769.000000;1.305582
9768.000000;1.305234
9767.000000;1.303857
9766.000000;1.301811
9765.000000;1.299469
9764.000000;1.297322
9763.000000;1.295997
9762.000000;1.295863
9761.000000;1.296602
9760.000000;1.297373
9759.000000;1.297490
9758.000000;1.296808
9757.000000;1.295515
9756.000000;1.293873
9755.000000;1.292265
9754.000000;1.291139
9753.000000;1.290639
9752.000000;1.290459
9751.000000;1.290267
9750.000000;1.290045
9749.000000;1.289805
9748.000000;1.289306
9747.000000;1.288365
9746.000000;1.287169
9745.000000;1.285989
9744.000000;1.284867
9743.000000;1.283914
9742.000000;1.283510
9741.000000;1.283642
9740.000000;1.283444
9739.000000;1.282183
9738.000000;1.280526
9737.000000;1.279895
9736.000000;1.280562
9735.000000;1.281290
9734.000000;1.280982
9733.000000;1.279817
9732.000000;1.278415
9731.000000;1.276872
9730.000000;1.275240
9729.000000;1.274078
9728.000000;1.273646
9727.000000;1.273064
9726.000000;1.271264
9725.000000;1.268623
9724.000000;1.266836
9723.000000;1.267121
9722.000000;1.269030
9721.000000;1.270908
9720.000000;1.271126
9719.000000;1.269145
9718.000000;1.265979
9717.000000;1.263548
9716.000000;1.263083
9715.000000;1.264103
9714.000000;1.265132
9713.000000;1.265261
9712.000000;1.264619
9711.000000;1.263567
9710.000000;1.262173
9709.000000;1.260541
9708.000000;1.258983
9707.000000;1.257645
9706.000000;1.256434
9705.000000;1.255477
9704.000000;1.255166
9703.000000;1.255510
9702.000000;1.255860
9701.000000;1.255610
9700.000000;1.254833
9699.000000;1.253961
9698.000000;1.253119
9697.000000;1.252155
9696.000000;1.251125
9695.000000;1.250341
9694.000000;1.249915
9693.000000;1.249547
9692.000000;1.248911
9691.000000;1.248082
9690.000000;1.247388
9689.000000;1.246828
9688.000000;1.245866
9687.000000;1.244020
9686.000000;1.241666
9685.000000;1.239915
9684.000000;1.239510
9683.000000;1.240090
9682.000000;1.240717
9681.000000;1.240862
9680.000000;1.240626
9679.000000;1.240239
9678.000000;1.239769
9677.000000;1.239290
9676.000000;1.238940
9675.000000;1.238709
9674.000000;1.238440
9673.000000;1.238044
9672.000000;1.237474
9671.000000;1.236507
9670.000000;1.234929
9669.000000;1.233070
9668.000000;1.231830
9667.000000;1.231933
9666.000000;1.233142
9665.000000;1.234258
9664.000000;1.233910
9663.000000;1.231615
9662.000000;1.228318
9661.000000;1.225754
9660.000000;1.224932
9659.000000;1.225277
9658.000000;1.225458
9657.000000;1.224927
9656.000000;1.224225
9655.000000;1.223842
9654.000000;1.223442
9653.000000;1.222508
9652.000000;1.221262
9651.000000;1.220419
9650.000000;1.220195
9649.000000;1.220025
9648.000000;1.219275
9647.000000;1.217990
9646.000000;1.216780
9645.000000;1.216054
9644.000000;1.215547
9643.000000;1.214673
9642.000000;1.213334
9641.000000;1.212131
9640.000000;1.211654
9639.000000;1.211799
9638.000000;1.212035
9637.000000;1.212078
9636.000000;1.211881
9635.000000;1.211182
9634.000000;1.209717
9633.000000;1.207878
9632.000000;1.206464
9631.000000;1.205591
9630.000000;1.204520
9629.000000;1.202847
9628.000000;1.201278
9627.000000;1.200727
9626.000000;1.201080
9625.000000;1.201395
9624.000000;1.201059
9623.000000;1.200184
9622.000000;1.199053
9621.000000;1.197843
9620.000000;1.196907
9619.000000;1.196716
9618.000000;1.197281
9617.000000;1.197973
9616.000000;1.198092
9615.000000;1.197432
9614.000000;1.196242
9613.000000;1.194875
9612.000000;1.193651
9611.000000;1.192819
9610.000000;1.192425
9609.000000;1.192219
9608.000000;1.191853
9607.000000;1.191193
9606.000000;1.190453
9605.000000;1.189975
9604.000000;1.189827
9603.000000;1.189658
9602.000000;1.189066
9601.000000;1.188087
9600.000000;1.187158
9599.000000;1.186553
9598.000000;1.186067
9597.000000;1.185372
9596.000000;1.184487
9595.000000;1.183653
9594.000000;1.182928
9593.000000;1.182184
9592.000000;1.181451
9591.000000;1.180942
9590.000000;1.180706
9589.000000;1.180542
9588.000000;1.180293
9587.000000;1.180020
9586.000000;1.179759
9585.000000;1.179285
9584.000000;1.178297
9583.000000;1.176807
9582.000000;1.175258
9581.000000;1.174241
9580.000000;1.174070
9579.000000;1.174502
9578.000000;1.174824
9577.000000;1.174422
9576.000000;1.173370
9575.000000;1.172344
9574.000000;1.171915
9573.000000;1.171998
9572.000000;1.172009
9571.000000;1.171491
9570.000000;1.170443
9569.000000;1.169156
9568.000000;1.167916
9567.000000;1.166915
9566.000000;1.166258
9565.000000;1.165892
9564.000000;1.165623
9563.000000;1.165321
9562.000000;1.165081
9561.000000;1.165054
9560.000000;1.165090
9559.000000;1.164745
9558.000000;1.163698
9557.000000;1.162043
9556.000000;1.160081
9555.000000;1.158006
9554.000000;1.155961
9553.000000;1.154282
9552.000000;1.153349
9551.000000;1.153150
9550.000000;1.153199
9549.000000;1.153014
9548.000000;1.152559
9547.000000;1.152106
9546.000000;1.151818
9545.000000;1.151625
9544.000000;1.151382
9543.000000;1.150953
9542.000000;1.150183
9541.000000;1.148979
9540.000000;1.147448
9539.000000;1.145877
9538.000000;1.144550
9537.000000;1.143664
9536.000000;1.143403
9535.000000;1.143906
9534.000000;1.144986
9533.000000;1.145968
9532.000000;1.146108
9531.000000;1.145295
9530.000000;1.144180
9529.000000;1.143449
9528.000000;1.143018
9527.000000;1.142165
9526.000000;1.140476
9525.000000;1.138441
9524.000000;1.136966
9523.000000;1.136449
9522.000000;1.136519
9521.000000;1.136544
9520.000000;1.136223
9519.000000;1.135732
9518.000000;1.135485
9517.000000;1.135700
9516.000000;1.136046
9515.000000;1.135799
9514.000000;1.134585
9513.000000;1.132910
9512.000000;1.131684
9511.000000;1.131221
9510.000000;1.131000
9509.000000;1.130458
9508.000000;1.129650
9507.000000;1.128930
9506.000000;1.128314
9505.000000;1.127553
9504.000000;1.126595
9503.000000;1.125569
9502.000000;1.124459
9501.000000;1.123278
9500.000000;1.122510
9499.000000;1.122842
9498.000000;1.124239
9497.000000;1.125640
9496.000000;1.125887
9495.000000;1.124792
9494.000000;1.123084
9493.000000;1.121537
9492.000000;1.120471
9491.000000;1.119864
9490.000000;1.119498
9489.000000;1.118973
9488.000000;1.117962
9487.000000;1.116625
9486.000000;1.115540
9485.000000;1.115086
9484.000000;1.115041
9483.000000;1.114845
9482.000000;1.114113
9481.000000;1.112842
9480.000000;1.111330
9479.000000;1.110083
9478.000000;1.109571
9477.000000;1.109780
9476.000000;1.110071
9475.000000;1.109824
9474.000000;1.109161
9473.000000;1.108755
9472.000000;1.108908
9471.000000;1.109170
9470.000000;1.108992
9469.000000;1.108400
9468.000000;1.107702
9467.000000;1.106837
9466.000000;1.105490
9465.000000;1.103807
9464.000000;1.102484
9463.000000;1.101988
9462.000000;1.102000
9461.000000;1.101897
9460.000000;1.101552
9459.000000;1.101352
9458.000000;1.101495
9457.000000;1.101665
9456.000000;1.101503
9455.000000;1.101051
9454.000000;1.100446
9453.000000;1.099449
9452.000000;1.097704
9451.000000;1.095457
9450.000000;1.093580
9449.000000;1.092699
9448.000000;1.092598
9447.000000;1.092712
9446.000000;1.092892
9445.000000;1.093319
9444.000000;1.093838
9443.000000;1.093916
9442.000000;1.093320
9441.000000;1.092416
9440.000000;1.091634
9439.000000;1.090964
9438.000000;1.090219
9437.000000;1.089509
9436.000000;1.089099
9435.000000;1.088954
9434.000000;1.088694
9433.000000;1.088019
9432.000000;1.086997
9431.000000;1.085935
9430.000000;1.085072
9429.000000;1.084388
9428.000000;1.083652
9427.000000;1.082746
9426.000000;1.081962
9425.000000;1.081804
9424.000000;1.082341
9423.000000;1.082895
9422.000000;1.082580
9421.000000;1.081187
9420.000000;1.079403
9419.000000;1.078139
9418.000000;1.077692
9417.000000;1.077546
9416.000000;1.076936
9415.000000;1.075640
9414.000000;1.074201
9413.000000;1.073303
9412.000000;1.073027
9411.000000;1.072880
9410.000000;1.072535
9409.000000;1.072243
9408.000000;1.072350
9407.000000;1.072682
9406.000000;1.072709
9405.000000;1.072148
9404.000000;1.071151
9403.000000;1.070060
9402.000000;1.069244
9401.000000;1.068995
9400.000000;1.069188
9399.000000;1.069118
9398.000000;1.068088
9397.000000;1.066195
9396.000000;1.064191
9395.000000;1.062582
9394.000000;1.061314
9393.000000;1.060409
9392.000000;1.060360
9391.000000;1.061485
9390.000000;1.063172
9389.000000;1.064247
9388.000000;1.064089
9387.000000;1.063123
9386.000000;1.062191
9385.000000;1.061744
9384.000000;1.061668
9383.000000;1.061635
9382.000000;1.061407
9381.000000;1.060919
9380.000000;1.060231
9379.000000;1.059461
9378.000000;1.058722
9377.000000;1.058066
9376.000000;1.057492
9375.000000;1.056992
9374.000000;1.056568
9373.000000;1.056213
9372.000000;1.055931
9371.000000;1.055729
9370.000000;1.055560
9369.000000;1.055283
9368.000000;1.054718
9367.000000;1.053785
9366.000000;1.052572
9365.000000;1.051266
9364.000000;1.050052
9363.000000;1.049113
9362.000000;1.048583
9361.000000;1.048337
9360.000000;1.047921
9359.000000;1.046965
9358.000000;1.045718
9357.000000;1.044928
9356.000000;1.045074
9355.000000;1.045834
9354.000000;1.046432
9353.000000;1.046343
9352.000000;1.045560
9351.000000;1.044327
9350.000000;1.042915
9349.000000;1.041632
9348.000000;1.040819
9347.000000;1.040677
9346.000000;1.041068
9345.000000;1.041499
9344.000000;1.041336
9343.000000;1.040237
9342.000000;1.038502
9341.000000;1.036926
9340.000000;1.036169
9339.000000;1.036283
9338.000000;1.036847
9337.000000;1.037440
9336.000000;1.037875
9335.000000;1.038076
9334.000000;1.037887
9333.000000;1.037114
9332.000000;1.035763
9331.000000;1.034271
9330.000000;1.033377
9329.000000;1.033499
9328.000000;1.034204
9327.000000;1.034504
9326.000000;1.033830
9325.000000;1.032547
9324.000000;1.031438
9323.000000;1.030945
9322.000000;1.030998
9321.000000;1.031265
9320.000000;1.031255
9319.000000;1.030478
9318.000000;1.028900
9317.000000;1.027156
9316.000000;1.026003
9315.000000;1.025595
9314.000000;1.025498
9313.000000;1.025271
9312.000000;1.024819
9311.000000;1.024294
9310.000000;1.023928
9309.000000;1.023840
9308.000000;1.023788
9307.000000;1.023247
9306.000000;1.022056
9305.000000;1.020837
9304.000000;1.020374
9303.000000;1.020682
9302.000000;1.021099
9301.000000;1.021179
9300.000000;1.021026
9299.000000;1.020753
9298.000000;1.020153
9297.000000;1.019144
9296.000000;1.018127
9295.000000;1.017656
9294.000000;1.017995
9293.000000;1.019039
9292.000000;1.020287
9291.000000;1.020817
9290.000000;1.019810
9289.000000;1.017449
9288.000000;1.014990
9287.000000;1.013640
9286.000000;1.013542
9285.000000;1.013985
9284.000000;1.014302
9283.000000;1.014261
9282.000000;1.013843
9281.000000;1.013092
9280.000000;1.012173
9279.000000;1.011317
9278.000000;1.010687
9277.000000;1.010416
9276.000000;1.010644
9275.000000;1.011268
9274.000000;1.011778
9273.000000;1.011611
9272.000000;1.010708
9271.000000;1.009554
9270.000000;1.008690
9269.000000;1.008324
9268.000000;1.008320
9267.000000;1.008323
9266.000000;1.007937
9265.000000;1.006987
9264.000000;1.005665
9263.000000;1.004295
9262.000000;1.003010
9261.000000;1.001813
9260.000000;1.000888
9259.000000;1.000553
9258.000000;1.000809
9257.000000;1.001132
9256.000000;1.000934
9255.000000;1.000166
9254.000000;0.999333
9253.000000;0.998972
9252.000000;0.999243
9251.000000;0.999977
9250.000000;1.000901
9249.000000;1.001705
9248.000000;1.002064
9247.000000;1.001807
9246.000000;1.001066
9245.000000;1.000116
9244.000000;0.999084
9243.000000;0.997939
9242.000000;0.996745
9241.000000;0.995714
9240.000000;0.994946
9239.000000;0.994353
9238.000000;0.993938
9237.000000;0.993912
9236.000000;0.994329
9235.000000;0.994839
9234.000000;0.995047
9233.000000;0.994971
9232.000000;0.994849
9231.000000;0.994640
9230.000000;0.994078
9229.000000;0.993209
9228.000000;0.992435
9227.000000;0.991968
9226.000000;0.991547
9225.000000;0.990836
9224.000000;0.989810
9223.000000;0.988649
9222.000000;0.987553
9221.000000;0.986812
9220.000000;0.986748
9219.000000;0.987346
9218.000000;0.988127
9217.000000;0.988566
9216.000000;0.988508
9215.000000;0.988040
9214.000000;0.987217
9213.000000;0.986133
9212.000000;0.985030
9211.000000;0.984082
9210.000000;0.983236
9209.000000;0.982518
9208.000000;0.982245
9207.000000;0.982606
9206.000000;0.983158
9205.000000;0.983197
9204.000000;0.982629
9203.000000;0.982085
9202.000000;0.982053
9201.000000;0.982287
9200.000000;0.982272
9199.000000;0.981956
9198.000000;0.981707
9197.000000;0.981697
9196.000000;0.981631
9195.000000;0.981115
9194.000000;0.980087
9193.000000;0.978862
9192.000000;0.977896
9191.000000;0.977523
9190.000000;0.977769
9189.000000;0.978325
9188.000000;0.978742
9187.000000;0.978743
9186.000000;0.978342
9185.000000;0.977679
9184.000000;0.976838
9183.000000;0.975896
9182.000000;0.975036
9181.000000;0.974433
9180.000000;0.974016
9179.000000;0.973499
9178.000000;0.972733
9177.000000;0.971904
9176.000000;0.971291
9175.000000;0.970948
9174.000000;0.970774
9173.000000;0.970814
9172.000000;0.971253
9171.000000;0.972031
9170.000000;0.972614
9169.000000;0.972314
9168.000000;0.970876
9167.000000;0.968788
9166.000000;0.967026
9165.000000;0.966397
9164.000000;0.966923
9163.000000;0.967777
9162.000000;0.967937
9161.000000;0.967003
9160.000000;0.965428
9159.000000;0.963999
9158.000000;0.963177
9157.000000;0.962904
9156.000000;0.962900
9155.000000;0.963026
9154.000000;0.963364
9153.000000;0.963958
9152.000000;0.964548
9151.000000;0.964716
9150.000000;0.964323
9149.000000;0.963627
9148.000000;0.962904
9147.000000;0.962199
9146.000000;0.961616
9145.000000;0.961555
9144.000000;0.962265
9143.000000;0.963246
9142.000000;0.963562
9141.000000;0.962848
9140.000000;0.961648
9139.000000;0.960633
9138.000000;0.959916
9137.000000;0.959314
9136.000000;0.958868
9135.000000;0.958692
9134.000000;0.958549
9133.000000;0.958042
9132.000000;0.957186
9131.000000;0.956484
9130.000000;0.956363
9129.000000;0.956759
9128.000000;0.957251
9127.000000;0.957398
9126.000000;0.956977
9125.000000;0.956154
9124.000000;0.955455
9123.000000;0.955314
9122.000000;0.955542
9121.000000;0.955448
9120.000000;0.954644
9119.000000;0.953554
9118.000000;0.952978
9117.000000;0.953207
9116.000000;0.953788
9115.000000;0.954128
9114.000000;0.954103
9113.000000;0.953980
9112.000000;0.953885
9111.000000;0.953581
9110.000000;0.952809
9109.000000;0.951723
9108.000000;0.950861
9107.000000;0.950695
9106.000000;0.951219
9105.000000;0.951930
9104.000000;0.952181
9103.000000;0.951643
9102.000000;0.950529
9101.000000;0.949346
9100.000000;0.948413
9099.000000;0.947653
9098.000000;0.946913
9097.000000;0.946339
9096.000000;0.946255
9095.000000;0.946697
9094.000000;0.947271
9093.000000;0.947514
9092.000000;0.947262
9091.000000;0.946627
9090.000000;0.945840
9089.000000;0.945203
9088.000000;0.944988
9087.000000;0.945158
9086.000000;0.945282
9085.000000;0.944907
9084.000000;0.944032
9083.000000;0.943108
9082.000000;0.942618
9081.000000;0.942740
9080.000000;0.943250
9079.000000;0.943607
9078.000000;0.943237
9077.000000;0.942010
9076.000000;0.940485
9075.000000;0.939475
9074.000000;0.939313
9073.000000;0.939685
9072.000000;0.940146
9071.000000;0.940574
9070.000000;0.940987
9069.000000;0.941172
9068.000000;0.940797
9067.000000;0.939867
9066.000000;0.938796
9065.000000;0.937958
9064.000000;0.937351
9063.000000;0.936781
9062.000000;0.936236
9061.000000;0.935902
9060.000000;0.935855
9059.000000;0.935928
9058.000000;0.935959
9057.000000;0.936022
9056.000000;0.936251
9055.000000;0.936523
9054.000000;0.936476
9053.000000;0.935889
9052.000000;0.934971
9051.000000;0.934218
9050.000000;0.934002
9049.000000;0.934325
9048.000000;0.934891
9047.000000;0.935374
9046.000000;0.935574
9045.000000;0.935402
9044.000000;0.934831
9043.000000;0.933981
9042.000000;0.933189
9041.000000;0.932818
9040.000000;0.932870
9039.000000;0.932842
9038.000000;0.932153
9037.000000;0.930783
9036.000000;0.929439
9035.000000;0.929001
9034.000000;0.929767
9033.000000;0.931222
9032.000000;0.932462
9031.000000;0.932843
9030.000000;0.932338
9029.000000;0.931418
9028.000000;0.930634
9027.000000;0.930242
9026.000000;0.930122
9025.000000;0.930003
9024.000000;0.929768
9023.000000;0.929527
9022.000000;0.929404
9021.000000;0.929318
9020.000000;0.929037
9019.000000;0.928451
9018.000000;0.927712
9017.000000;0.927080
9016.000000;0.926675
9015.000000;0.926426
9014.000000;0.926189
9013.000000;0.925895
9012.000000;0.925610
9011.000000;0.925494
9010.000000;0.925635
9009.000000;0.925858
9008.000000;0.925813
9007.000000;0.925389
9006.000000;0.924940
9005.000000;0.924903
9004.000000;0.925235
9003.000000;0.925431
9002.000000;0.925148
9001.000000;0.924590
9000.000000;0.924185
8999.000000;0.924109
8998.000000;0.924237
8997.000000;0.924349
8996.000000;0.924215
8995.000000;0.923669
8994.000000;0.922843
8993.000000;0.922157
8992.000000;0.921818
8991.000000;0.921460
8990.000000;0.920574
8989.000000;0.919253
8988.000000;0.918170
8987.000000;0.917830
8986.000000;0.918145
8985.000000;0.918762
8984.000000;0.919450
8983.000000;0.920046
8982.000000;0.920333
8981.000000;0.920264
8980.000000;0.920119
8979.000000;0.920206
8978.000000;0.920472
8977.000000;0.920611
8976.000000;0.920488
8975.000000;0.920250
8974.000000;0.920039
8973.000000;0.919748
8972.000000;0.919115
8971.000000;0.918036
8970.000000;0.916777
8969.000000;0.915885
8968.000000;0.915756
8967.000000;0.916215
8966.000000;0.916594
8965.000000;0.916379
8964.000000;0.915739
8963.000000;0.915296
8962.000000;0.915423
8961.000000;0.915906
8960.000000;0.916267
8959.000000;0.916272
8958.000000;0.916030
8957.000000;0.915709
8956.000000;0.915279
8955.000000;0.914613
8954.000000;0.913786
8953.000000;0.913128
8952.000000;0.912896
8951.000000;0.912961
8950.000000;0.913003
8949.000000;0.912989
8948.000000;0.913268
8947.000000;0.914075
8946.000000;0.915092
8945.000000;0.915661
8944.000000;0.915392
8943.000000;0.914457
8942.000000;0.913376
8941.000000;0.912658
8940.000000;0.912518
8939.000000;0.912755
8938.000000;0.912907
8937.000000;0.912697
8936.000000;0.912322
8935.000000;0.912171
8934.000000;0.912268
8933.000000;0.912185
8932.000000;0.911546
8931.000000;0.910451
8930.000000;0.909327
8929.000000;0.908508
8928.000000;0.908044
8927.000000;0.907814
8926.000000;0.907737
8925.000000;0.907903
8924.000000;0.908502
8923.000000;0.909497
8922.000000;0.910416
8921.000000;0.910694
8920.000000;0.910321
8919.000000;0.909917
8918.000000;0.909986
8917.000000;0.910315
8916.000000;0.910317
8915.000000;0.909817
8914.000000;0.909229
8913.000000;0.909003
8912.000000;0.909199
8911.000000;0.909564
8910.000000;0.909756
8909.000000;0.909501
8908.000000;0.908852
8907.000000;0.908382
8906.000000;0.908750
8905.000000;0.909855
8904.000000;0.910689
8903.000000;0.910316
8902.000000;0.908854
8901.000000;0.907241
8900.000000;0.906188
8899.000000;0.905654
8898.000000;0.905256
8897.000000;0.904802
8896.000000;0.904364
8895.000000;0.904087
8894.000000;0.904077
8893.000000;0.904347
8892.000000;0.904742
8891.000000;0.905040
8890.000000;0.905136
8889.000000;0.905030
8888.000000;0.904621
8887.000000;0.903736
8886.000000;0.902484
8885.000000;0.901401
8884.000000;0.901023
8883.000000;0.901340
8882.000000;0.901783
8881.000000;0.901778
8880.000000;0.901265
8879.000000;0.900729
8878.000000;0.900770
8877.000000;0.901551
8876.000000;0.902586
8875.000000;0.903107
8874.000000;0.902742
8873.000000;0.901806
8872.000000;0.900911
8871.000000;0.900418
8870.000000;0.900358
8869.000000;0.900718
8868.000000;0.901517
8867.000000;0.902561
8866.000000;0.903387
8865.000000;0.903589
8864.000000;0.903152
8863.000000;0.902379
8862.000000;0.901591
8861.000000;0.901007
8860.000000;0.900777
8859.000000;0.900926
8858.000000;0.901258
8857.000000;0.901475
8856.000000;0.901464
8855.000000;0.901348
8854.000000;0.901196
8853.000000;0.900838
8852.000000;0.900108
8851.000000;0.899180
8850.000000;0.898485
8849.000000;0.898271
8848.000000;0.898402
8847.000000;0.898618
8846.000000;0.898856
8845.000000;0.899210
8844.000000;0.899679
8843.000000;0.900088
8842.000000;0.900240
8841.000000;0.900092
8840.000000;0.899810
8839.000000;0.899660
8838.000000;0.899807
8837.000000;0.900136
8836.000000;0.900290
8835.000000;0.899969
8834.000000;0.899210
8833.000000;0.898400
8832.000000;0.898011
8831.000000;0.898294
8830.000000;0.899136
8829.000000;0.900150
8828.000000;0.900964
8827.000000;0.901470
8826.000000;0.901764
8825.000000;0.901897
8824.000000;0.901812
8823.000000;0.901513
8822.000000;0.901132
8821.000000;0.900769
8820.000000;0.900396
8819.000000;0.899995
8818.000000;0.899663
8817.000000;0.899475
8816.000000;0.899350
8815.000000;0.899142
8814.000000;0.898766
8813.000000;0.898197
8812.000000;0.897531
8811.000000;0.897136
8810.000000;0.897473
8809.000000;0.898551
8808.000000;0.899733
8807.000000;0.900352
8806.000000;0.900406
8805.000000;0.900370
8804.000000;0.900500
8803.000000;0.900660
8802.000000;0.900719
8801.000000;0.900724
8800.000000;0.900641
8799.000000;0.900332
8798.000000;0.899887
8797.000000;0.899636
8796.000000;0.899706
8795.000000;0.899868
8794.000000;0.899956
8793.000000;0.900141
8792.000000;0.900577
8791.000000;0.901059
8790.000000;0.901302
8789.000000;0.901364
8788.000000;0.901517
8787.000000;0.901824
8786.000000;0.902104
8785.000000;0.902230
8784.000000;0.902210
8783.000000;0.902029
8782.000000;0.901649
8781.000000;0.901201
8780.000000;0.900969
8779.000000;0.901104
8778.000000;0.901457
8777.000000;0.901730
8776.000000;0.901727
8775.000000;0.901478
8774.000000;0.901187
8773.000000;0.901092
8772.000000;0.901309
8771.000000;0.901767
8770.000000;0.902282
8769.000000;0.902703
8768.000000;0.902996
8767.000000;0.903237
8766.000000;0.903510
8765.000000;0.903780
8764.000000;0.903888
8763.000000;0.903736
8762.000000;0.903424
8761.000000;0.903153
8760.000000;0.903035
8759.000000;0.903125
8758.000000;0.903526
8757.000000;0.904269
8756.000000;0.905091
8755.000000;0.905574
8754.000000;0.905596
8753.000000;0.905486
8752.000000;0.905639
8751.000000;0.906089
8750.000000;0.906520
8749.000000;0.906573
8748.000000;0.906134
8747.000000;0.905474
8746.000000;0.905123
8745.000000;0.905413
8744.000000;0.906084
8743.000000;0.906540
8742.000000;0.906509
8741.000000;0.906260
8740.000000;0.906081
8739.000000;0.905883
8738.000000;0.905504
8737.000000;0.905149
8736.000000;0.905217
8735.000000;0.905778
8734.000000;0.906481
8733.000000;0.906928
8732.000000;0.906979
8731.000000;0.906731
8730.000000;0.906357
8729.000000;0.905982
8728.000000;0.905630
8727.000000;0.905334
8726.000000;0.905305
8725.000000;0.905817
8724.000000;0.906789
8723.000000;0.907688
8722.000000;0.908047
8721.000000;0.908011
8720.000000;0.908111
8719.000000;0.908549
8718.000000;0.908968
8717.000000;0.908947
8716.000000;0.908504
8715.000000;0.908023
8714.000000;0.907828
8713.000000;0.907962
8712.000000;0.908322
8711.000000;0.908819
8710.000000;0.909350
8709.000000;0.909698
8708.000000;0.909656
8707.000000;0.909326
8706.000000;0.909128
8705.000000;0.909359
8704.000000;0.909832
8703.000000;0.910153
8702.000000;0.910250
8701.000000;0.910360
8700.000000;0.910503
8699.000000;0.910344
8698.000000;0.909702
8697.000000;0.908889
8696.000000;0.908346
8695.000000;0.908199
8694.000000;0.908374
8693.000000;0.908899
8692.000000;0.909779
8691.000000;0.910709
8690.000000;0.911213
8689.000000;0.911062
8688.000000;0.910414
8687.000000;0.909644
8686.000000;0.909191
8685.000000;0.909370
8684.000000;0.910063
8683.000000;0.910697
8682.000000;0.910791
8681.000000;0.910462
8680.000000;0.910187
8679.000000;0.910163
8678.000000;0.910206
8677.000000;0.910222
8676.000000;0.910399
8675.000000;0.910881
8674.000000;0.911541
8673.000000;0.912209
8672.000000;0.912876
8671.000000;0.913515
8670.000000;0.913848
8669.000000;0.913542
8668.000000;0.912599
8667.000000;0.911486
8666.000000;0.910819
8665.000000;0.910901
8664.000000;0.911487
8663.000000;0.912002
8662.000000;0.912061
8661.000000;0.911780
8660.000000;0.911578
8659.000000;0.911746
8658.000000;0.912239
8657.000000;0.912778
8656.000000;0.913036
8655.000000;0.912819
8654.000000;0.912227
8653.000000;0.911604
8652.000000;0.911201
8651.000000;0.910913
8650.000000;0.910490
8649.000000;0.909941
8648.000000;0.909561
8647.000000;0.909554
8646.000000;0.909791
8645.000000;0.909999
8644.000000;0.910069
8643.000000;0.910146
8642.000000;0.910452
8641.000000;0.911023
8640.000000;0.911530
8639.000000;0.911434
8638.000000;0.910504
8637.000000;0.909191
8636.000000;0.908343
8635.000000;0.908432
8634.000000;0.909143
8633.000000;0.909744
8632.000000;0.909793
8631.000000;0.909429
8630.000000;0.909075
8629.000000;0.908982
8628.000000;0.909075
8627.000000;0.909149
8626.000000;0.909088
8625.000000;0.908851
8624.000000;0.908369
8623.000000;0.907627
8622.000000;0.906868
8621.000000;0.906535
8620.000000;0.906899
8619.000000;0.907795
8618.000000;0.908772
8617.000000;0.909442
8616.000000;0.909644
8615.000000;0.909438
8614.000000;0.909052
8613.000000;0.908743
8612.000000;0.908573
8611.000000;0.908402
8610.000000;0.908160
8609.000000;0.908006
8608.000000;0.908067
8607.000000;0.908138
8606.000000;0.907851
8605.000000;0.907148
8604.000000;0.906407
8603.000000;0.906102
8602.000000;0.906411
8601.000000;0.907084
8600.000000;0.907592
8599.000000;0.907484
8598.000000;0.906795
8597.000000;0.906098
8596.000000;0.906013
8595.000000;0.906634
8594.000000;0.907513
8593.000000;0.908123
8592.000000;0.908262
8591.000000;0.908038
8590.000000;0.907665
8589.000000;0.907294
8588.000000;0.906923
8587.000000;0.906408
8586.000000;0.905684
8585.000000;0.904987
8584.000000;0.904736
8583.000000;0.905106
8582.000000;0.905777
8581.000000;0.906157
8580.000000;0.905891
8579.000000;0.905163
8578.000000;0.904512
8577.000000;0.904335
8576.000000;0.904521
8575.000000;0.904598
8574.000000;0.904232
8573.000000;0.903549
8572.000000;0.902953
8571.000000;0.902708
8570.000000;0.902753
8569.000000;0.902861
8568.000000;0.902888
8567.000000;0.902890
8566.000000;0.903041
8565.000000;0.903416
8564.000000;0.903858
8563.000000;0.904103
8562.000000;0.904035
8561.000000;0.903717
8560.000000;0.903220
8559.000000;0.902600
8558.000000;0.902071
8557.000000;0.901967
8556.000000;0.902381
8555.000000;0.902971
8554.000000;0.903272
8553.000000;0.903099
8552.000000;0.902572
8551.000000;0.901921
8550.000000;0.901399
8549.000000;0.901211
8548.000000;0.901323
8547.000000;0.901442
8546.000000;0.901337
8545.000000;0.901100
8544.000000;0.900923
8543.000000;0.900788
8542.000000;0.900578
8541.000000;0.900367
8540.000000;0.900326
8539.000000;0.900425
8538.000000;0.900486
8537.000000;0.900496
8536.000000;0.900596
8535.000000;0.900752
8534.000000;0.900720
8533.000000;0.900382
8532.000000;0.899920
8531.000000;0.899611
8530.000000;0.899566
8529.000000;0.899721
8528.000000;0.899906
8527.000000;0.899915
8526.000000;0.899659
8525.000000;0.899300
8524.000000;0.899120
8523.000000;0.899215
8522.000000;0.899433
8521.000000;0.899598
8520.000000;0.899655
8519.000000;0.899577
8518.000000;0.899305
8517.000000;0.898871
8516.000000;0.898460
8515.000000;0.898271
8514.000000;0.898340
8513.000000;0.898496
8512.000000;0.898493
8511.000000;0.898217
8510.000000;0.897848
8509.000000;0.897689
8508.000000;0.897780
8507.000000;0.897803
8506.000000;0.897502
8505.000000;0.897057
8504.000000;0.896834
8503.000000;0.896874
8502.000000;0.896888
8501.000000;0.896694
8500.000000;0.896390
8499.000000;0.896108
8498.000000;0.895880
8497.000000;0.895755
8496.000000;0.895799
8495.000000;0.895932
8494.000000;0.895984
8493.000000;0.895942
8492.000000;0.895938
8491.000000;0.895971
8490.000000;0.895914
8489.000000;0.895862
8488.000000;0.896137
8487.000000;0.896762
8486.000000;0.897186
8485.000000;0.896793
8484.000000;0.895589
8483.000000;0.894200
8482.000000;0.893308
8481.000000;0.893188
8480.000000;0.893673
8479.000000;0.894328
8478.000000;0.894713
8477.000000;0.894648
8476.000000;0.894297
8475.000000;0.893965
8474.000000;0.893870
8473.000000;0.894063
8472.000000;0.894440
8471.000000;0.894752
8470.000000;0.894778
8469.000000;0.894564
8468.000000;0.894408
8467.000000;0.894528
8466.000000;0.894832
8465.000000;0.895060
8464.000000;0.895010
8463.000000;0.894584
8462.000000;0.893784
8461.000000;0.892817
8460.000000;0.892070
8459.000000;0.891807
8458.000000;0.891928
8457.000000;0.892140
8456.000000;0.892296
8455.000000;0.892443
8454.000000;0.892601
8453.000000;0.892668
8452.000000;0.892533
8451.000000;0.892194
8450.000000;0.891750
8449.000000;0.891357
8448.000000;0.891176
8447.000000;0.891284
8446.000000;0.891592
8445.000000;0.891903
8444.000000;0.892025
8443.000000;0.891857
8442.000000;0.891435
8441.000000;0.890928
8440.000000;0.890547
8439.000000;0.890401
8438.000000;0.890467
8437.000000;0.890710
8436.000000;0.891098
8435.000000;0.891495
8434.000000;0.891680
8433.000000;0.891587
8432.000000;0.891420
8431.000000;0.891380
8430.000000;0.891369
8429.000000;0.891121
8428.000000;0.890609
8427.000000;0.890140
8426.000000;0.889998
8425.000000;0.890119
8424.000000;0.890180
8423.000000;0.889980
8422.000000;0.889660
8421.000000;0.889565
8420.000000;0.889882
8419.000000;0.890400
8418.000000;0.890660
8417.000000;0.890397
8416.000000;0.889799
8415.000000;0.889284
8414.000000;0.889046
8413.000000;0.888923
8412.000000;0.888684
8411.000000;0.888332
8410.000000;0.888055
8409.000000;0.887998
8408.000000;0.888139
8407.000000;0.888368
8406.000000;0.888595
8405.000000;0.888794
8404.000000;0.888992
8403.000000;0.889222
8402.000000;0.889433
8401.000000;0.889483
8400.000000;0.889285
8399.000000;0.888984
8398.000000;0.888895
8397.000000;0.889191
8396.000000;0.889678
8395.000000;0.889958
8394.000000;0.889791
8393.000000;0.889266
8392.000000;0.888630
8391.000000;0.888090
8390.000000;0.887757
8389.000000;0.887673
8388.000000;0.887779
8387.000000;0.887926
8386.000000;0.887975
8385.000000;0.887872
8384.000000;0.887611
8383.000000;0.887257
8382.000000;0.887022
8381.000000;0.887152
8380.000000;0.887605
8379.000000;0.887968
8378.000000;0.887855
8377.000000;0.887349
8376.000000;0.886887
8375.000000;0.886744
8374.000000;0.886833
8373.000000;0.886984
8372.000000;0.887159
8371.000000;0.887311
8370.000000;0.887251
8369.000000;0.886838
8368.000000;0.886213
8367.000000;0.885678
8366.000000;0.885380
8365.000000;0.885239
8364.000000;0.885126
8363.000000;0.885035
8362.000000;0.885062
8361.000000;0.885278
8360.000000;0.885619
8359.000000;0.885885
8358.000000;0.885900
8357.000000;0.885704
8356.000000;0.885518
8355.000000;0.885451
8354.000000;0.885351
8353.000000;0.885021
8352.000000;0.884511
8351.000000;0.884077
8350.000000;0.883853
8349.000000;0.883687
8348.000000;0.883351
8347.000000;0.882854
8346.000000;0.882513
8345.000000;0.882707
8344.000000;0.883504
8343.000000;0.884493
8342.000000;0.885058
8341.000000;0.884908
8340.000000;0.884328
8339.000000;0.883826
8338.000000;0.883595
8337.000000;0.883423
8336.000000;0.883100
8335.000000;0.882734
8334.000000;0.882574
8333.000000;0.882650
8332.000000;0.882734
8331.000000;0.882609
8330.000000;0.882285
8329.000000;0.881941
8328.000000;0.881749
8327.000000;0.881757
8326.000000;0.881878
8325.000000;0.881966
8324.000000;0.881954
8323.000000;0.881906
8322.000000;0.881913
8321.000000;0.881954
8320.000000;0.881905
8319.000000;0.881693
8318.000000;0.881364
8317.000000;0.880988
8316.000000;0.880598
8315.000000;0.880273
8314.000000;0.880192
8313.000000;0.880461
8312.000000;0.880894
8311.000000;0.881074
8310.000000;0.880754
8309.000000;0.880124
8308.000000;0.879628
8307.000000;0.879518
8306.000000;0.879654
8305.000000;0.879745
8304.000000;0.879699
8303.000000;0.879652
8302.000000;0.879708
8301.000000;0.879765
8300.000000;0.879659
8299.000000;0.879396
8298.000000;0.879137
8297.000000;0.878978
8296.000000;0.878854
8295.000000;0.878690
8294.000000;0.878537
8293.000000;0.878503
8292.000000;0.878595
8291.000000;0.878724
8290.000000;0.878817
8289.000000;0.878863
8288.000000;0.878868
8287.000000;0.878836
8286.000000;0.878773
8285.000000;0.878651
8284.000000;0.878407
8283.000000;0.878033
8282.000000;0.877652
8281.000000;0.877425
8280.000000;0.877403
8279.000000;0.877528
8278.000000;0.877730
8277.000000;0.877933
8276.000000;0.877996
8275.000000;0.877799
8274.000000;0.877413
8273.000000;0.877059
8272.000000;0.876864
8271.000000;0.876747
8270.000000;0.876594
8269.000000;0.876409
8268.000000;0.876246
8267.000000;0.876086
8266.000000;0.875887
8265.000000;0.875681
8264.000000;0.875537
8263.000000;0.875474
8262.000000;0.875490
8261.000000;0.875606
8260.000000;0.875803
8259.000000;0.875960
8258.000000;0.875980
8257.000000;0.875925
8256.000000;0.875941
8255.000000;0.876054
8254.000000;0.876134
8253.000000;0.876051
8252.000000;0.875787
8251.000000;0.875417
8250.000000;0.875057
8249.000000;0.874838
8248.000000;0.874808
8247.000000;0.874849
8246.000000;0.874751
8245.000000;0.874434
8244.000000;0.874056
8243.000000;0.873870
8242.000000;0.874008
8241.000000;0.874407
8240.000000;0.874911
8239.000000;0.875383
8238.000000;0.875733
8237.000000;0.875872
8236.000000;0.875685
8235.000000;0.875109
8234.000000;0.874257
8233.000000;0.873421
8232.000000;0.872891
8231.000000;0.872771
8230.000000;0.872977
8229.000000;0.873366
8228.000000;0.873794
8227.000000;0.874096
8226.000000;0.874139
8225.000000;0.873943
8224.000000;0.873690
8223.000000;0.873529
8222.000000;0.873403
8221.000000;0.873113
8220.000000;0.872575
8219.000000;0.871957
8218.000000;0.871565
8217.000000;0.871593
8216.000000;0.871954
8215.000000;0.872330
8214.000000;0.872376
8213.000000;0.871959
8212.000000;0.871216
8211.000000;0.870409
8210.000000;0.869738
8209.000000;0.869300
8208.000000;0.869182
8207.000000;0.869455
8206.000000;0.870022
8205.000000;0.870551
8204.000000;0.870684
8203.000000;0.870357
8202.000000;0.869846
8201.000000;0.869491
8200.000000;0.869423
8199.000000;0.869560
8198.000000;0.869758
8197.000000;0.869913
8196.000000;0.869982
8195.000000;0.869993
8194.000000;0.870026
8193.000000;0.870122
8192.000000;0.870230
8191.000000;0.870272
8190.000000;0.870214
8189.000000;0.870045
8188.000000;0.869778
8187.000000;0.869527
8186.000000;0.869492
8185.000000;0.869733
8184.000000;0.870018
8183.000000;0.870022
8182.000000;0.869673
8181.000000;0.869187
8180.000000;0.868774
8179.000000;0.868465
8178.000000;0.868257
8177.000000;0.868245
8176.000000;0.868483
8175.000000;0.868831
8174.000000;0.869060
8173.000000;0.869098
8172.000000;0.869087
8171.000000;0.869183
8170.000000;0.869371
8169.000000;0.869479
8168.000000;0.869350
8167.000000;0.869021
8166.000000;0.868701
8165.000000;0.868566
8164.000000;0.868586
8163.000000;0.868593
8162.000000;0.868486
8161.000000;0.868315
8160.000000;0.868172
8159.000000;0.868087
8158.000000;0.868054
8157.000000;0.868087
8156.000000;0.868185
8155.000000;0.868251
8154.000000;0.868105
8153.000000;0.867623
8152.000000;0.866918
8151.000000;0.866356
8150.000000;0.866300
8149.000000;0.866766
8148.000000;0.867366
8147.000000;0.867696
8146.000000;0.867680
8145.000000;0.867472
8144.000000;0.867135
8143.000000;0.866617
8142.000000;0.866000
8141.000000;0.865530
8140.000000;0.865345
8139.000000;0.865348
8138.000000;0.865407
8137.000000;0.865485
8136.000000;0.865526
8135.000000;0.865395
8134.000000;0.865073
8133.000000;0.864772
8132.000000;0.864707
8131.000000;0.864839
8130.000000;0.864970
8129.000000;0.864996
8128.000000;0.864972
8127.000000;0.864976
8126.000000;0.865022
8125.000000;0.865060
8124.000000;0.864971
8123.000000;0.864629
8122.000000;0.864092
8121.000000;0.863667
8120.000000;0.863653
8119.000000;0.864028
8118.000000;0.864449
8117.000000;0.864567
8116.000000;0.864293
8115.000000;0.863817
8114.000000;0.863440
8113.000000;0.863366
8112.000000;0.863573
8111.000000;0.863854
8110.000000;0.864003
8109.000000;0.863966
8108.000000;0.863813
8107.000000;0.863635
8106.000000;0.863487
8105.000000;0.863383
8104.000000;0.863286
8103.000000;0.863174
8102.000000;0.863098
8101.000000;0.863119
8100.000000;0.863173
8099.000000;0.863114
8098.000000;0.862917
8097.000000;0.862728
8096.000000;0.862653
8095.000000;0.862624
8094.000000;0.862550
8093.000000;0.862466
8092.000000;0.862403
8091.000000;0.862249
8090.000000;0.861893
8089.000000;0.861447
8088.000000;0.861166
8087.000000;0.861148
8086.000000;0.861263
8085.000000;0.861358
8084.000000;0.861407
8083.000000;0.861458
8082.000000;0.861539
8081.000000;0.861644
8080.000000;0.861738
8079.000000;0.861766
8078.000000;0.861693
8077.000000;0.861533
8076.000000;0.861299
8075.000000;0.860976
8074.000000;0.860596
8073.000000;0.860285
8072.000000;0.860154
8071.000000;0.860172
8070.000000;0.860222
8069.000000;0.860251
8068.000000;0.860283
8067.000000;0.860320
8066.000000;0.860313
8065.000000;0.860236
8064.000000;0.860112
8063.000000;0.859966
8062.000000;0.859819
8061.000000;0.859727
8060.000000;0.859763
8059.000000;0.859951
8058.000000;0.860246
8057.000000;0.860565
8056.000000;0.860804
8055.000000;0.860865
8054.000000;0.860722
8053.000000;0.860425
8052.000000;0.860024
8051.000000;0.859528
8050.000000;0.859004
8049.000000;0.858615
8048.000000;0.858480
8047.000000;0.858546
8046.000000;0.858681
8045.000000;0.858843
8044.000000;0.859064
8043.000000;0.859303
8042.000000;0.859441
8041.000000;0.859419
8040.000000;0.859275
8039.000000;0.859055
8038.000000;0.858771
8037.000000;0.858468
8036.000000;0.858240
8035.000000;0.858144
8034.000000;0.858163
8033.000000;0.858258
8032.000000;0.858405
8031.000000;0.858552
8030.000000;0.858608
8029.000000;0.858501
8028.000000;0.858242
8027.000000;0.857936
8026.000000;0.857720
8025.000000;0.857673
8024.000000;0.857737
8023.000000;0.857755
8022.000000;0.857658
8021.000000;0.857567
8020.000000;0.857675
8019.000000;0.858006
8018.000000;0.858366
8017.000000;0.858529
8016.000000;0.858426
8015.000000;0.858159
8014.000000;0.857889
8013.000000;0.857732
8012.000000;0.857709
8011.000000;0.857751
8010.000000;0.857735
8009.000000;0.857581
8008.000000;0.857368
8007.000000;0.857326
8006.000000;0.857609
8005.000000;0.858034
8004.000000;0.858154
8003.000000;0.857707
8002.000000;0.856955
8001.000000;0.856432
8000.000000;0.856397
7999.000000;0.856657
7998.000000;0.856906
7997.000000;0.857022
7996.000000;0.857005
7995.000000;0.856841
7994.000000;0.856572
7993.000000;0.856332
7992.000000;0.856189
7991.000000;0.856047
7990.000000;0.855840
7989.000000;0.855697
7988.000000;0.855771
7987.000000;0.855989
7986.000000;0.856129
7985.000000;0.856081
7984.000000;0.855890
7983.000000;0.855627
7982.000000;0.855364
7981.000000;0.855219
7980.000000;0.855259
7979.000000;0.855384
7978.000000;0.855439
7977.000000;0.855401
7976.000000;0.855317
7975.000000;0.855135
7974.000000;0.854792
7973.000000;0.854414
7972.000000;0.854234
7971.000000;0.854276
7970.000000;0.854342
7969.000000;0.854332
7968.000000;0.854376
7967.000000;0.854591
7966.000000;0.854893
7965.000000;0.855171
7964.000000;0.855470
7963.000000;0.855850
7962.000000;0.856169
7961.000000;0.856176
7960.000000;0.855783
7959.000000;0.855143
7958.000000;0.854505
7957.000000;0.854060
7956.000000;0.853914
7955.000000;0.854060
7954.000000;0.854363
7953.000000;0.854621
7952.000000;0.854705
7951.000000;0.854656
7950.000000;0.854631
7949.000000;0.854756
7948.000000;0.854983
7947.000000;0.855102
7946.000000;0.854933
7945.000000;0.854518
7944.000000;0.854096
7943.000000;0.853886
7942.000000;0.853932
7941.000000;0.854130
7940.000000;0.854345
7939.000000;0.854487
7938.000000;0.854539
7937.000000;0.854577
7936.000000;0.854716
7935.000000;0.854982
7934.000000;0.855226
7933.000000;0.855196
7932.000000;0.854765
7931.000000;0.854087
7930.000000;0.853515
7929.000000;0.853316
7928.000000;0.853450
7927.000000;0.853654
7926.000000;0.853740
7925.000000;0.853774
7924.000000;0.853941
7923.000000;0.854295
7922.000000;0.854696
7921.000000;0.854946
7920.000000;0.854947
7919.000000;0.854731
7918.000000;0.854399
7917.000000;0.854049
7916.000000;0.853731
7915.000000;0.853498
7914.000000;0.853436
7913.000000;0.853574
7912.000000;0.853783
7911.000000;0.853876
7910.000000;0.853847
7909.000000;0.853905
7908.000000;0.854186
7907.000000;0.854530
7906.000000;0.854665
7905.000000;0.854530
7904.000000;0.854303
7903.000000;0.854130
7902.000000;0.853985
7901.000000;0.853789
7900.000000;0.853551
7899.000000;0.853346
7898.000000;0.853212
7897.000000;0.853103
7896.000000;0.852937
7895.000000;0.852704
7894.000000;0.852544
7893.000000;0.852659
7892.000000;0.853067
7891.000000;0.853520
7890.000000;0.853741
7889.000000;0.853704
7888.000000;0.853592
7887.000000;0.853543
7886.000000;0.853562
7885.000000;0.853614
7884.000000;0.853678
7883.000000;0.853702
7882.000000;0.853650
7881.000000;0.853591
7880.000000;0.853627
7879.000000;0.853706
7878.000000;0.853648
7877.000000;0.853386
7876.000000;0.853080
7875.000000;0.852920
7874.000000;0.852921
7873.000000;0.852980
7872.000000;0.853033
7871.000000;0.853099
7870.000000;0.853194
7869.000000;0.853274
7868.000000;0.853258
7867.000000;0.853099
7866.000000;0.852853
7865.000000;0.852677
7864.000000;0.852693
7863.000000;0.852847
7862.000000;0.852973
7861.000000;0.852996
7860.000000;0.853004
7859.000000;0.853100
7858.000000;0.853252
7857.000000;0.853345
7856.000000;0.853318
7855.000000;0.853205
7854.000000;0.853076
7853.000000;0.852967
7852.000000;0.852871
7851.000000;0.852755
7850.000000;0.852606
7849.000000;0.852473
7848.000000;0.852444
7847.000000;0.852587
7846.000000;0.852889
7845.000000;0.853241
7844.000000;0.853474
7843.000000;0.853480
7842.000000;0.853309
7841.000000;0.853130
7840.000000;0.853049
7839.000000;0.853028
7838.000000;0.852986
7837.000000;0.852926
7836.000000;0.852897
7835.000000;0.852919
7834.000000;0.853035
7833.000000;0.853320
7832.000000;0.853729
7831.000000;0.853991
7830.000000;0.853841
7829.000000;0.853346
7828.000000;0.852851
7827.000000;0.852623
7826.000000;0.852658
7825.000000;0.852839
7824.000000;0.853094
7823.000000;0.853349
7822.000000;0.853509
7821.000000;0.853572
7820.000000;0.853638
7819.000000;0.853741
7818.000000;0.853771
7817.000000;0.853660
7816.000000;0.853532
7815.000000;0.853544
7814.000000;0.853680
7813.000000;0.853801
7812.000000;0.853849
7811.000000;0.853867
7810.000000;0.853863
7809.000000;0.853777
7808.000000;0.853590
7807.000000;0.853387
7806.000000;0.853282
7805.000000;0.853338
7804.000000;0.853536
7803.000000;0.853768
7802.000000;0.853901
7801.000000;0.853904
7800.000000;0.853895
7799.000000;0.854008
7798.000000;0.854221
7797.000000;0.854396
7796.000000;0.854468
7795.000000;0.854495
7794.000000;0.854514
7793.000000;0.854455
7792.000000;0.854273
7791.000000;0.854084
7790.000000;0.854079
7789.000000;0.854292
7788.000000;0.854557
7787.000000;0.854714
7786.000000;0.854783
7785.000000;0.854876
7784.000000;0.855003
7783.000000;0.855047
7782.000000;0.854924
7781.000000;0.854703
7780.000000;0.854535
7779.000000;0.854541
7778.000000;0.854759
7777.000000;0.855119
7776.000000;0.855424
7775.000000;0.855460
7774.000000;0.855219
7773.000000;0.854953
7772.000000;0.854929
7771.000000;0.855167
7770.000000;0.855481
7769.000000;0.855715
7768.000000;0.855820
7767.000000;0.855762
7766.000000;0.855519
7765.000000;0.855212
7764.000000;0.855087
7763.000000;0.855271
7762.000000;0.855613
7761.000000;0.855847
7760.000000;0.855870
7759.000000;0.855807
7758.000000;0.855841
7757.000000;0.856026
7756.000000;0.856256
7755.000000;0.856375
7754.000000;0.856327
7753.000000;0.856202
7752.000000;0.856140
7751.000000;0.856195
7750.000000;0.856317
7749.000000;0.856432
7748.000000;0.856488
7747.000000;0.856461
7746.000000;0.856373
7745.000000;0.856331
7744.000000;0.856432
7743.000000;0.856619
7742.000000;0.856696
7741.000000;0.856552
7740.000000;0.856292
7739.000000;0.856127
7738.000000;0.856173
7737.000000;0.856393
7736.000000;0.856686
7735.000000;0.856963
7734.000000;0.857159
7733.000000;0.857256
7732.000000;0.857305
7731.000000;0.857407
7730.000000;0.857621
7729.000000;0.857884
7728.000000;0.858024
7727.000000;0.857911
7726.000000;0.857604
7725.000000;0.857325
7724.000000;0.857245
7723.000000;0.857354
7722.000000;0.857569
7721.000000;0.857885
7720.000000;0.858318
7719.000000;0.858755
7718.000000;0.859003
7717.000000;0.858995
7716.000000;0.858835
7715.000000;0.858659
7714.000000;0.858552
7713.000000;0.858614
7712.000000;0.858919
7711.000000;0.859361
7710.000000;0.859675
7709.000000;0.859728
7708.000000;0.859659
7707.000000;0.859654
7706.000000;0.859705
7705.000000;0.859688
7704.000000;0.859585
7703.000000;0.859480
7702.000000;0.859414
7701.000000;0.859382
7700.000000;0.859437
7699.000000;0.859655
7698.000000;0.860006
7697.000000;0.860365
7696.000000;0.860648
7695.000000;0.860833
7694.000000;0.860877
7693.000000;0.860745
7692.000000;0.860519
7691.000000;0.860358
7690.000000;0.860306
7689.000000;0.860250
7688.000000;0.860122
7687.000000;0.860037
7686.000000;0.860185
7685.000000;0.860628
7684.000000;0.861227
7683.000000;0.861755
7682.000000;0.862047
7681.000000;0.862097
7680.000000;0.862038
7679.000000;0.861995
7678.000000;0.861953
7677.000000;0.861833
7676.000000;0.861671
7675.000000;0.861627
7674.000000;0.861778
7673.000000;0.862009
7672.000000;0.862150
7671.000000;0.862165
7670.000000;0.862148
7669.000000;0.862180
7668.000000;0.862283
7667.000000;0.862475
7666.000000;0.862776
7665.000000;0.863149
7664.000000;0.863504
7663.000000;0.863764
7662.000000;0.863901
7661.000000;0.863919
7660.000000;0.863830
7659.000000;0.863667
7658.000000;0.863485
7657.000000;0.863342
7656.000000;0.863295
7655.000000;0.863402
7654.000000;0.863704
7653.000000;0.864191
7652.000000;0.864787
7651.000000;0.865352
7650.000000;0.865727
7649.000000;0.865845
7648.000000;0.865831
7647.000000;0.865908
7646.000000;0.866151
7645.000000;0.866389
7644.000000;0.866407
7643.000000;0.866220
7642.000000;0.866057
7641.000000;0.866096
7640.000000;0.866338
7639.000000;0.866708
7638.000000;0.867154
7637.000000;0.867599
7636.000000;0.867918
7635.000000;0.868069
7634.000000;0.868183
7633.000000;0.868419
7632.000000;0.868767
7631.000000;0.869054
7630.000000;0.869152
7629.000000;0.869096
7628.000000;0.869018
7627.000000;0.869012
7626.000000;0.869073
7625.000000;0.869138
7624.000000;0.869167
7623.000000;0.869201
7622.000000;0.869313
7621.000000;0.869507
7620.000000;0.869691
7619.000000;0.869783
7618.000000;0.869810
7617.000000;0.869864
7616.000000;0.870007
7615.000000;0.870256
7614.000000;0.870614
7613.000000;0.871038
7612.000000;0.871423
7611.000000;0.871694
7610.000000;0.871910
7609.000000;0.872191
7608.000000;0.872554
7607.000000;0.872892
7606.000000;0.873116
7605.000000;0.873249
7604.000000;0.873367
7603.000000;0.873520
7602.000000;0.873722
7601.000000;0.873952
7600.000000;0.874173
7599.000000;0.874376
7598.000000;0.874623
7597.000000;0.874965
7596.000000;0.875318
7595.000000;0.875520
7594.000000;0.875516
7593.000000;0.875419
7592.000000;0.875391
7591.000000;0.875539
7590.000000;0.875924
7589.000000;0.876540
7588.000000;0.877234
7587.000000;0.877751
7586.000000;0.877969
7585.000000;0.878014
7584.000000;0.878093
7583.000000;0.878275
7582.000000;0.878512
7581.000000;0.878775
7580.000000;0.879075
7579.000000;0.879377
7578.000000;0.879614
7577.000000;0.879763
7576.000000;0.879855
7575.000000;0.879928
7574.000000;0.880035
7573.000000;0.880243
7572.000000;0.880558
7571.000000;0.880890
7570.000000;0.881159
7569.000000;0.881398
7568.000000;0.881675
7567.000000;0.881940
7566.000000;0.882053
7565.000000;0.881989
7564.000000;0.881909
7563.000000;0.882003
7562.000000;0.882310
7561.000000;0.882715
7560.000000;0.883100
7559.000000;0.883473
7558.000000;0.883934
7557.000000;0.884514
7556.000000;0.885062
7555.000000;0.885343
7554.000000;0.885276
7553.000000;0.885021
7552.000000;0.884836
7551.000000;0.884900
7550.000000;0.885266
7549.000000;0.885885
7548.000000;0.886605
7547.000000;0.887250
7546.000000;0.887782
7545.000000;0.888314
7544.000000;0.888906
7543.000000;0.889419
7542.000000;0.889664
7541.000000;0.889636
7540.000000;0.889509
7539.000000;0.889444
7538.000000;0.889509
7537.000000;0.889719
7536.000000;0.890053
7535.000000;0.890443
7534.000000;0.890870
7533.000000;0.891415
7532.000000;0.892123
7531.000000;0.892851
7530.000000;0.893390
7529.000000;0.893706
7528.000000;0.893934
7527.000000;0.894140
7526.000000;0.894257
7525.000000;0.894260
7524.000000;0.894255
7523.000000;0.894348
7522.000000;0.894549
7521.000000;0.894869
7520.000000;0.895370
7519.000000;0.896041
7518.000000;0.896728
7517.000000;0.897283
7516.000000;0.897732
7515.000000;0.898191
7514.000000;0.898698
7513.000000;0.899190
7512.000000;0.899611
7511.000000;0.899955
7510.000000;0.900225
7509.000000;0.900421
7508.000000;0.900571
7507.000000;0.900730
7506.000000;0.900936
7505.000000;0.901191
7504.000000;0.901473
7503.000000;0.901770
7502.000000;0.902102
7501.000000;0.902505
7500.000000;0.902963
7499.000000;0.903359
7498.000000;0.903561
7497.000000;0.903578
7496.000000;0.903586
7495.000000;0.903785
7494.000000;0.904237
7493.000000;0.904858
7492.000000;0.905489
7491.000000;0.906003
7490.000000;0.906277
7489.000000;0.906550
7488.000000;0.906885
7487.000000;0.907334
7486.000000;0.907843
7485.000000;0.908293
7484.000000;0.908590
7483.000000;0.908720
7482.000000;0.908790
7481.000000;0.908972
7480.000000;0.909369
7479.000000;0.909912
7478.000000;0.910460
7477.000000;0.910955
7476.000000;0.911435
7475.000000;0.911902
7474.000000;0.912294
7473.000000;0.912586
7472.000000;0.912851
7471.000000;0.913183
7470.000000;0.913613
7469.000000;0.914114
7468.000000;0.914635
7467.000000;0.915125
7466.000000;0.915561
7465.000000;0.915968
7464.000000;0.916360
7463.000000;0.916672
7462.000000;0.916824
7461.000000;0.916855
7460.000000;0.916924
7459.000000;0.917159
7458.000000;0.917565
7457.000000;0.918074
7456.000000;0.918620
7455.000000;0.919140
7454.000000;0.919583
7453.000000;0.919955
7452.000000;0.920305
7451.000000;0.920671
7450.000000;0.921073
7449.000000;0.921524
7448.000000;0.921997
7447.000000;0.922400
7446.000000;0.922680
7445.000000;0.922939
7444.000000;0.923330
7443.000000;0.923822
7442.000000;0.924201
7441.000000;0.924341
7440.000000;0.924374
7439.000000;0.924522
7438.000000;0.924871
7437.000000;0.925345
7436.000000;0.925840
7435.000000;0.926296
7434.000000;0.926688
7433.000000;0.927034
7432.000000;0.927367
7431.000000;0.927685
7430.000000;0.927950
7429.000000;0.928145
7428.000000;0.928310
7427.000000;0.928499
7426.000000;0.928768
7425.000000;0.929172
7424.000000;0.929689
7423.000000;0.930128
7422.000000;0.930247
7421.000000;0.930048
7420.000000;0.929873
7419.000000;0.930104
7418.000000;0.930779
7417.000000;0.931571
7416.000000;0.932120
7415.000000;0.932339
7414.000000;0.932420
7413.000000;0.932598
7412.000000;0.932952
7411.000000;0.933413
7410.000000;0.933902
7409.000000;0.934361
7408.000000;0.934656
7407.000000;0.934627
7406.000000;0.934338
7405.000000;0.934141
7404.000000;0.934335
7403.000000;0.934828
7402.000000;0.935285
7401.000000;0.935527
7400.000000;0.935652
7399.000000;0.935820
7398.000000;0.936102
7397.000000;0.936488
7396.000000;0.936869
7395.000000;0.937088
7394.000000;0.937151
7393.000000;0.937257
7392.000000;0.937488
7391.000000;0.937663
7390.000000;0.937679
7389.000000;0.937800
7388.000000;0.938293
7387.000000;0.938907
7386.000000;0.939109
7385.000000;0.938765
7384.000000;0.938148
7383.000000;0.937369
7382.000000;0.936375
7381.000000;0.935547
7380.000000;0.935605
7379.000000;0.936512
7378.000000;0.937112
7377.000000;0.936462
7376.000000;0.935099
7375.000000;0.934514
7374.000000;0.935513
7373.000000;0.937515
7372.000000;0.939374
7371.000000;0.940379
7370.000000;0.940492
7369.000000;0.940194
7368.000000;0.940161
7367.000000;0.940708
7366.000000;0.941566
7365.000000;0.942379
7364.000000;0.943105
7363.000000;0.943753
7362.000000;0.944131
7361.000000;0.944199
7360.000000;0.944324
7359.000000;0.944679
7358.000000;0.944682
7357.000000;0.943768
7356.000000;0.942479
7355.000000;0.942080
7354.000000;0.943041
7353.000000;0.944542
7352.000000;0.945552
7351.000000;0.945704
7350.000000;0.945167
7349.000000;0.944348
7348.000000;0.943815
7347.000000;0.943809
7346.000000;0.943792
7345.000000;0.943080
7344.000000;0.941768
7343.000000;0.940291
7342.000000;0.938395
7341.000000;0.935695
7340.000000;0.933252
7339.000000;0.933214
7338.000000;0.936212
7337.000000;0.940390
7336.000000;0.943680
7335.000000;0.945882
7334.000000;0.947995
7333.000000;0.950429
7332.000000;0.952613
7331.000000;0.953780
7330.000000;0.953482
7329.000000;0.951903
7328.000000;0.950249
7327.000000;0.950056
7326.000000;0.951368
7325.000000;0.952543
7324.000000;0.952570
7323.000000;0.952467
7322.000000;0.953634
7321.000000;0.955789
7320.000000;0.957518
7319.000000;0.958366
7318.000000;0.959227
7317.000000;0.960866
7316.000000;0.963058
7315.000000;0.965202
7314.000000;0.966861
7313.000000;0.967692
7312.000000;0.967683
7311.000000;0.967471
7310.000000;0.967519
7309.000000;0.967186
7308.000000;0.965684
7307.000000;0.963793
7306.000000;0.963439
7305.000000;0.965299
7304.000000;0.967904
7303.000000;0.969640
7302.000000;0.970455
7301.000000;0.971180
7300.000000;0.972237
7299.000000;0.973592
7298.000000;0.975185
7297.000000;0.976582
7296.000000;0.976962
7295.000000;0.976250
7294.000000;0.975753
7293.000000;0.976860
7292.000000;0.979271
7291.000000;0.981450
7290.000000;0.982614
7289.000000;0.983327
7288.000000;0.984417
7287.000000;0.986078
7286.000000;0.988075
7285.000000;0.990226
7284.000000;0.992471
7283.000000;0.994766
7282.000000;0.997069
7281.000000;0.999307
7280.000000;1.001318
7279.000000;1.002956
7278.000000;1.004326
7277.000000;1.005674
7276.000000;1.007047
7275.000000;1.008317
7274.000000;1.009474
7273.000000;1.010702
7272.000000;1.012161
7271.000000;1.013813
7270.000000;1.015444
7269.000000;1.016862
7268.000000;1.018058
7267.000000;1.019254
7266.000000;1.020649
7265.000000;1.022083
7264.000000;1.023148
7263.000000;1.023792
7262.000000;1.024611
7261.000000;1.026239
7260.000000;1.028587
7259.000000;1.031007
7258.000000;1.033086
7257.000000;1.034907
7256.000000;1.036563
7255.000000;1.037864
7254.000000;1.038756
7253.000000;1.039727
7252.000000;1.041450
7251.000000;1.044070
7250.000000;1.047062
7249.000000;1.049792
7248.000000;1.051967
7247.000000;1.053515
7246.000000;1.054111
7245.000000;1.053215
7244.000000;1.051001
7243.000000;1.049034
7242.000000;1.049364
7241.000000;1.052534
7240.000000;1.057004
7239.000000;1.060967
7238.000000;1.064073
7237.000000;1.066903
7236.000000;1.069421
7235.000000;1.070646
7234.000000;1.070011
7233.000000;1.068680
7232.000000;1.069073
7231.000000;1.072724
7230.000000;1.078642
7229.000000;1.084255
7228.000000;1.087916
7227.000000;1.090191
7226.000000;1.092829
7225.000000;1.096808
7224.000000;1.101572
7223.000000;1.106040
7222.000000;1.109869
7221.000000;1.113567
7220.000000;1.117700
7219.000000;1.122295
7218.000000;1.126913
7217.000000;1.131137
7216.000000;1.134995
7215.000000;1.138908
7214.000000;1.143220
7213.000000;1.147804
7212.000000;1.152215
7211.000000;1.156308
7210.000000;1.160464
7209.000000;1.164970
7208.000000;1.169394
7207.000000;1.172986
7206.000000;1.175660
7205.000000;1.178250
7204.000000;1.181724
7203.000000;1.186311
7202.000000;1.191470
7201.000000;1.196560
7200.000000;1.201333
7199.000000;1.205920
7198.000000;1.210558
7197.000000;1.215377
7196.000000;1.220396
7195.000000;1.225689
7194.000000;1.231444
7193.000000;1.237655
7192.000000;1.243908
7191.000000;1.249736
7190.000000;1.255127
7189.000000;1.260411
7188.000000;1.265688
7187.000000;1.270707
7186.000000;1.275292
7185.000000;1.279467
7184.000000;1.283105
7183.000000;1.286019
7182.000000;1.288698
7181.000000;1.292369
7180.000000;1.297751
7179.000000;1.304108
7178.000000;1.310160
7177.000000;1.315525
7176.000000;1.320787
7175.000000;1.326514
7174.000000;1.332775
7173.000000;1.339444
7172.000000;1.346332
7171.000000;1.352971
7170.000000;1.358856
7169.000000;1.364021
7168.000000;1.369019
7167.000000;1.374304
7166.000000;1.379914
7165.000000;1.385622
7164.000000;1.390939
7163.000000;1.395225
7162.000000;1.398456
7161.000000;1.401790
7160.000000;1.406691
7159.000000;1.413338
7158.000000;1.420589
7157.000000;1.427610
7156.000000;1.434732
7155.000000;1.442476
7154.000000;1.450538
7153.000000;1.458245
7152.000000;1.465530
7151.000000;1.472806
7150.000000;1.480142
7149.000000;1.487108
7148.000000;1.493300
7147.000000;1.498733
7146.000000;1.503823
7145.000000;1.509111
7144.000000;1.514853
7143.000000;1.520681
7142.000000;1.525833
7141.000000;1.530029
7140.000000;1.533979
7139.000000;1.538691
7138.000000;1.544343
7137.000000;1.550224
7136.000000;1.555817
7135.000000;1.561470
7134.000000;1.567823
7133.000000;1.574901
7132.000000;1.582062
7131.000000;1.588722
7130.000000;1.594892
7129.000000;1.601038
7128.000000;1.607546
7127.000000;1.614408
7126.000000;1.621324
7125.000000;1.627942
7124.000000;1.634094
7123.000000;1.639886
7122.000000;1.645446
7121.000000;1.650507
7120.000000;1.654404
7119.000000;1.656893
7118.000000;1.659045
7117.000000;1.662765
7116.000000;1.668910
7115.000000;1.676229
7114.000000;1.682804
7113.000000;1.688101
7112.000000;1.692955
7111.000000;1.697940
7110.000000;1.702723
7109.000000;1.707124
7108.000000;1.711825
7107.000000;1.717431
7106.000000;1.723507
7105.000000;1.729199
7104.000000;1.734403
7103.000000;1.739670
7102.000000;1.745253
7101.000000;1.750805
7100.000000;1.755856
7099.000000;1.760152
7098.000000;1.763545
7097.000000;1.766004
7096.000000;1.767986
7095.000000;1.770413
7094.000000;1.774011
7093.000000;1.778774
7092.000000;1.784071
7091.000000;1.789111
7090.000000;1.793347
7089.000000;1.796767
7088.000000;1.799988
7087.000000;1.803958
7086.000000;1.809309
7085.000000;1.815799
7084.000000;1.822321
7083.000000;1.827621
7082.000000;1.831307
7081.000000;1.834214
7080.000000;1.837571
7079.000000;1.841738
7078.000000;1.845915
7077.000000;1.849199
7076.000000;1.851637
7075.000000;1.853922
7074.000000;1.856321
7073.000000;1.858464
7072.000000;1.860130
7071.000000;1.861614
7070.000000;1.863123
7069.000000;1.864328
7068.000000;1.864976
7067.000000;1.865782
7066.000000;1.868170
7065.000000;1.872923
7064.000000;1.879261
7063.000000;1.885357
7062.000000;1.889829
7061.000000;1.892790
7060.000000;1.895501
7059.000000;1.899035
7058.000000;1.903172
7057.000000;1.906551
7056.000000;1.908076
7055.000000;1.908253
7054.000000;1.908883
7053.000000;1.911251
7052.000000;1.914811
7051.000000;1.917910
7050.000000;1.919615
7049.000000;1.920411
7048.000000;1.921282
7047.000000;1.922778
7046.000000;1.924982
7045.000000;1.927679
7044.000000;1.930221
7043.000000;1.931836
7042.000000;1.932568
7041.000000;1.933510
7040.000000;1.935589
7039.000000;1.938424
7038.000000;1.940891
7037.000000;1.942538
7036.000000;1.943847
7035.000000;1.945293
7034.000000;1.946873
7033.000000;1.948533
7032.000000;1.950397
7031.000000;1.952362
7030.000000;1.953966
7029.000000;1.954941
7028.000000;1.955645
7027.000000;1.956621
7026.000000;1.957904
7025.000000;1.958922
7024.000000;1.959115
7023.000000;1.958827
7022.000000;1.959368
7021.000000;1.961752
7020.000000;1.965351
7019.000000;1.968159
7018.000000;1.968716
7017.000000;1.967554
7016.000000;1.966478
7015.000000;1.966865
7014.000000;1.968954
7013.000000;1.972108
7012.000000;1.975018
7011.000000;1.976160
7010.000000;1.975072
7009.000000;1.973187
7008.000000;1.972691
7007.000000;1.974508
7006.000000;1.977751
7005.000000;1.980932
7004.000000;1.983161
7003.000000;1.984267
7002.000000;1.984479
7001.000000;1.984307
7000.000000;1.984284
6999.000000;1.984587
6998.000000;1.985114
6997.000000;1.985847
6996.000000;1.986698
6995.000000;1.987209
6994.000000;1.987060
6993.000000;1.986793
6992.000000;1.987323
6991.000000;1.988647
6990.000000;1.989707
6989.000000;1.989801
6988.000000;1.989559
6987.000000;1.990095
6986.000000;1.991582
6985.000000;1.992992
6984.000000;1.993075
6983.000000;1.991536
6982.000000;1.989509
6981.000000;1.988845
6980.000000;1.990520
6979.000000;1.993568
6978.000000;1.995828
6977.000000;1.995900
6976.000000;1.994222
6975.000000;1.992369
6974.000000;1.991664
6973.000000;1.992372
6972.000000;1.993676
6971.000000;1.994389
6970.000000;1.994144
6969.000000;1.993903
6968.000000;1.994885
6967.000000;1.997030
6966.000000;1.998960
6965.000000;1.999489
6964.000000;1.998650
6963.000000;1.997124
6962.000000;1.995342
6961.000000;1.993506
6960.000000;1.992043
6959.000000;1.991544
6958.000000;1.992372
6957.000000;1.994414
6956.000000;1.997017
6955.000000;1.999122
6954.000000;1.999849
6953.000000;1.999217
6952.000000;1.998050
6951.000000;1.997051
6950.000000;1.996175
6949.000000;1.995026
6948.000000;1.993682
6947.000000;1.992922
6946.000000;1.993564
6945.000000;1.995540
6944.000000;1.997671
6943.000000;1.998598
6942.000000;1.998057
6941.000000;1.997007
6940.000000;1.996403
6939.000000;1.996258
6938.000000;1.996038
6937.000000;1.995425
6936.000000;1.994308
6935.000000;1.992538
6934.000000;1.990265
6933.000000;1.988212
6932.000000;1.987098
6931.000000;1.986918
6930.000000;1.987197
6929.000000;1.987722
6928.000000;1.988414
6927.000000;1.988711
6926.000000;1.987964
6925.000000;1.986505
6924.000000;1.985564
6923.000000;1.985940
6922.000000;1.987242
6921.000000;1.988487
6920.000000;1.988913
6919.000000;1.988200
6918.000000;1.986599
6917.000000;1.984984
6916.000000;1.984213
6915.000000;1.984325
6914.000000;1.984780
6913.000000;1.985334
6912.000000;1.986031
6911.000000;1.986453
6910.000000;1.985899
6909.000000;1.984515
6908.000000;1.983360
6907.000000;1.983016
6906.000000;1.982853
6905.000000;1.982049
6904.000000;1.980694
6903.000000;1.979436
6902.000000;1.978560
6901.000000;1.977918
6900.000000;1.977421
6899.000000;1.977166
6898.000000;1.977252
6897.000000;1.977726
6896.000000;1.978495
6895.000000;1.979143
6894.000000;1.979074
6893.000000;1.978078
6892.000000;1.976587
6891.000000;1.975262
6890.000000;1.974541
6889.000000;1.974518
6888.000000;1.974843
6887.000000;1.974714
6886.000000;1.973507
6885.000000;1.971578
6884.000000;1.969983
6883.000000;1.969252
6882.000000;1.968980
6881.000000;1.968725
6880.000000;1.968614
6879.000000;1.968827
6878.000000;1.968994
6877.000000;1.968528
6876.000000;1.967248
6875.000000;1.965445
6874.000000;1.963596
6873.000000;1.962282
6872.000000;1.961935
6871.000000;1.962266
6870.000000;1.962234
6869.000000;1.961094
6868.000000;1.959339
6867.000000;1.958205
6866.000000;1.958413
6865.000000;1.959673
6864.000000;1.961184
6863.000000;1.962132
6862.000000;1.961827
6861.000000;1.959939
6860.000000;1.956893
6859.000000;1.953885
6858.000000;1.952135
6857.000000;1.951859
6856.000000;1.952021
6855.000000;1.951274
6854.000000;1.949203
6853.000000;1.946563
6852.000000;1.944413
6851.000000;1.943249
6850.000000;1.942916
6849.000000;1.942999
6848.000000;1.943018
6847.000000;1.942528
6846.000000;1.941394
6845.000000;1.939935
6844.000000;1.938572
6843.000000;1.937478
6842.000000;1.936761
6841.000000;1.936712
6840.000000;1.937377
6839.000000;1.938106
6838.000000;1.938094
6837.000000;1.937324
6836.000000;1.936411
6835.000000;1.935498
6834.000000;1.933878
6833.000000;1.930980
6832.000000;1.927273
6831.000000;1.923850
6830.000000;1.921351
6829.000000;1.919550
6828.000000;1.917781
6827.000000;1.915518
6826.000000;1.912681
6825.000000;1.909678
6824.000000;1.907208
6823.000000;1.905841
6822.000000;1.905586
6821.000000;1.905780
6820.000000;1.905487
6819.000000;1.904237
6818.000000;1.902436
6817.000000;1.900899
6816.000000;1.899956
6815.000000;1.899202
6814.000000;1.898080
6813.000000;1.896343
6812.000000;1.893886
6811.000000;1.890698
6810.000000;1.887291
6809.000000;1.884644
6808.000000;1.883151
6807.000000;1.881890
6806.000000;1.879485
6805.000000;1.875612
6804.000000;1.871246
6803.000000;1.867600
6802.000000;1.865249
6801.000000;1.863993
6800.000000;1.863019
6799.000000;1.861345
6798.000000;1.858770
6797.000000;1.856314
6796.000000;1.855129
6795.000000;1.855010
6794.000000;1.854537
6793.000000;1.852691
6792.000000;1.849754
6791.000000;1.846554
6790.000000;1.843559
6789.000000;1.840916
6788.000000;1.838696
6787.000000;1.836642
6786.000000;1.834157
6785.000000;1.830984
6784.000000;1.827640
6783.000000;1.824829
6782.000000;1.822643
6781.000000;1.820609
6780.000000;1.818343
6779.000000;1.815913
6778.000000;1.813678
6777.000000;1.811944
6776.000000;1.810677
6775.000000;1.809452
6774.000000;1.807766
6773.000000;1.805474
6772.000000;1.802817
6771.000000;1.800089
6770.000000;1.797425
6769.000000;1.794873
6768.000000;1.792432
6767.000000;1.790034
6766.000000;1.787694
6765.000000;1.785590
6764.000000;1.783764
6763.000000;1.781845
6762.000000;1.779395
6761.000000;1.776480
6760.000000;1.773541
6759.000000;1.770777
6758.000000;1.768029
6757.000000;1.765278
6756.000000;1.762778
6755.000000;1.760597
6754.000000;1.758432
6753.000000;1.756023
6752.000000;1.753422
6751.000000;1.750758
6750.000000;1.748075
6749.000000;1.745563
6748.000000;1.743524
6747.000000;1.741859
6746.000000;1.739891
6745.000000;1.737012
6744.000000;1.733342
6743.000000;1.729553
6742.000000;1.726219
6741.000000;1.723491
6740.000000;1.721188
6739.000000;1.718975
6738.000000;1.716577
6737.000000;1.714032
6736.000000;1.711661
6735.000000;1.709658
6734.000000;1.707799
6733.000000;1.705631
6732.000000;1.702878
6731.000000;1.699663
6730.000000;1.696453
6729.000000;1.693782
6728.000000;1.691829
6727.000000;1.690231
6726.000000;1.688459
6725.000000;1.686354
6724.000000;1.684098
6723.000000;1.681720
6722.000000;1.678999
6721.000000;1.675893
6720.000000;1.672723
6719.000000;1.669811
6718.000000;1.667184
6717.000000;1.664737
6716.000000;1.662389
6715.000000;1.660011
6714.000000;1.657509
6713.000000;1.655125
6712.000000;1.653290
6711.000000;1.651962
6710.000000;1.650432
6709.000000;1.648071
6708.000000;1.645041
6707.000000;1.642015
6706.000000;1.639426
6705.000000;1.637307
6704.000000;1.635485
6703.000000;1.633695
6702.000000;1.631587
6701.000000;1.628981
6700.000000;1.626076
6699.000000;1.623266
6698.000000;1.620607
6697.000000;1.618157
6696.000000;1.615776
6695.000000;1.613521
6694.000000;1.611295
6693.000000;1.608732
6692.000000;1.605841
6691.000000;1.602967
6690.000000;1.600420
6689.000000;1.598202
6688.000000;1.596179
6687.000000;1.594252
6686.000000;1.592292
6685.000000;1.590185
6684.000000;1.588008
6683.000000;1.585971
6682.000000;1.584033
6681.000000;1.581777
6680.000000;1.578872
6679.000000;1.575542
6678.000000;1.572395
6677.000000;1.569831
6676.000000;1.567772
6675.000000;1.565938
6674.000000;1.564200
6673.000000;1.562571
6672.000000;1.560954
6671.000000;1.559093
6670.000000;1.556817
6669.000000;1.554272
6668.000000;1.551792
6667.000000;1.549551
6666.000000;1.547406
6665.000000;1.545115
6664.000000;1.542637
6663.000000;1.540151
6662.000000;1.537854
6661.000000;1.535820
6660.000000;1.534002
6659.000000;1.532232
6658.000000;1.530253
6657.000000;1.527887
6656.000000;1.525264
6655.000000;1.522769
6654.000000;1.520658
6653.000000;1.518754
6652.000000;1.516626
6651.000000;1.514090
6650.000000;1.511447
6649.000000;1.509160
6648.000000;1.507356
6647.000000;1.505711
6646.000000;1.503817
6645.000000;1.501589
6644.000000;1.499292
6643.000000;1.497204
6642.000000;1.495325
6641.000000;1.493424
6640.000000;1.491305
6639.000000;1.489002
6638.000000;1.486731
6637.000000;1.484690
6636.000000;1.482911
6635.000000;1.481242
6634.000000;1.479456
6633.000000;1.477388
6632.000000;1.475024
6631.000000;1.472523
6630.000000;1.470134
6629.000000;1.468027
6628.000000;1.466153
6627.000000;1.464277
6626.000000;1.462188
6625.000000;1.459879
6624.000000;1.457535
6623.000000;1.455359
6622.000000;1.453402
6621.000000;1.451566
6620.000000;1.449723
6619.000000;1.447837
6618.000000;1.445942
6617.000000;1.444027
6616.000000;1.441984
6615.000000;1.439711
6614.000000;1.437270
6613.000000;1.434876
6612.000000;1.432718
6611.000000;1.430829
6610.000000;1.429146
6609.000000;1.427612
6608.000000;1.426180
6607.000000;1.424749
6606.000000;1.423168
6605.000000;1.421339
6604.000000;1.419298
6603.000000;1.417213
6602.000000;1.415261
6601.000000;1.413469
6600.000000;1.411677
6599.000000;1.409698
6598.000000;1.407539
6597.000000;1.405398
6596.000000;1.403443
6595.000000;1.401660
6594.000000;1.399964
6593.000000;1.398325
6592.000000;1.396716
6591.000000;1.395018
6590.000000;1.393147
6589.000000;1.391236
6588.000000;1.389548
6587.000000;1.388150
6586.000000;1.386809
6585.000000;1.385267
6584.000000;1.383535
6583.000000;1.381808
6582.000000;1.380152
6581.000000;1.378384
6580.000000;1.376313
6579.000000;1.374011
6578.000000;1.371776
6577.000000;1.369843
6576.000000;1.368201
6575.000000;1.366669
6574.000000;1.365100
6573.000000;1.363454
6572.000000;1.361753
6571.000000;1.360023
6570.000000;1.358284
6569.000000;1.356520
6568.000000;1.354689
6567.000000;1.352791
6566.000000;1.350930
6565.000000;1.349248
6564.000000;1.347788
6563.000000;1.346485
6562.000000;1.345262
6561.000000;1.344039
6560.000000;1.342660
6559.000000;1.340949
6558.000000;1.338933
6557.000000;1.336924
6556.000000;1.335259
6555.000000;1.333973
6554.000000;1.332783
6553.000000;1.331392
6552.000000;1.329749
6551.000000;1.328019
6550.000000;1.326351
6549.000000;1.324735
6548.000000;1.323065
6547.000000;1.321305
6546.000000;1.319552
6545.000000;1.317908
6544.000000;1.316335
6543.000000;1.314695
6542.000000;1.312936
6541.000000;1.311167
6540.000000;1.309536
6539.000000;1.308097
6538.000000;1.306822
6537.000000;1.305651
6536.000000;1.304483
6535.000000;1.303189
6534.000000;1.301711
6533.000000;1.300124
6532.000000;1.298541
6531.000000;1.296997
6530.000000;1.295464
6529.000000;1.293962
6528.000000;1.292579
6527.000000;1.291360
6526.000000;1.290225
6525.000000;1.288991
6524.000000;1.287512
6523.000000;1.285806
6522.000000;1.284049
6521.000000;1.282406
6520.000000;1.280877
6519.000000;1.279368
6518.000000;1.277874
6517.000000;1.276497
6516.000000;1.275262
6515.000000;1.274025
6514.000000;1.272645
6513.000000;1.271135
6512.000000;1.269585
6511.000000;1.268006
6510.000000;1.266366
6509.000000;1.264742
6508.000000;1.263308
6507.000000;1.262144
6506.000000;1.261137
6505.000000;1.260092
6504.000000;1.258907
6503.000000;1.257619
6502.000000;1.256314
6501.000000;1.255028
6500.000000;1.253741
6499.000000;1.252453
6498.000000;1.251221
6497.000000;1.250074
6496.000000;1.248928
6495.000000;1.247674
6494.000000;1.246337
6493.000000;1.245061
6492.000000;1.243907
6491.000000;1.242744
6490.000000;1.241411
6489.000000;1.239921
6488.000000;1.238433
6487.000000;1.237060
6486.000000;1.235789
6485.000000;1.234538
6484.000000;1.233251
6483.000000;1.231923
6482.000000;1.230607
6481.000000;1.229353
6480.000000;1.228131
6479.000000;1.226847
6478.000000;1.225464
6477.000000;1.224072
6476.000000;1.222794
6475.000000;1.221670
6474.000000;1.220657
6473.000000;1.219705
6472.000000;1.218758
6471.000000;1.217754
6470.000000;1.216667
6469.000000;1.215534
6468.000000;1.214379
6467.000000;1.213165
6466.000000;1.211875
6465.000000;1.210596
6464.000000;1.209440
6463.000000;1.208404
6462.000000;1.207364
6461.000000;1.206205
6460.000000;1.204892
6459.000000;1.203481
6458.000000;1.202113
6457.000000;1.200966
6456.000000;1.200097
6455.000000;1.199351
6454.000000;1.198481
6453.000000;1.197395
6452.000000;1.196214
6451.000000;1.195094
6450.000000;1.194074
6449.000000;1.193095
6448.000000;1.192102
6447.000000;1.191067
6446.000000;1.189961
6445.000000;1.188764
6444.000000;1.187491
6443.000000;1.186220
6442.000000;1.185061
6441.000000;1.184072
6440.000000;1.183196
6439.000000;1.182292
6438.000000;1.181255
6437.000000;1.180108
6436.000000;1.178940
6435.000000;1.177807
6434.000000;1.176702
6433.000000;1.175604
6432.000000;1.174514
6431.000000;1.173462
6430.000000;1.172497
6429.000000;1.171641
6428.000000;1.170836
6427.000000;1.169983
6426.000000;1.169059
6425.000000;1.168134
6424.000000;1.167255
6423.000000;1.166353
6422.000000;1.165350
6421.000000;1.164280
6420.000000;1.163228
6419.000000;1.162190
6418.000000;1.161087
6417.000000;1.159934
6416.000000;1.158879
6415.000000;1.158054
6414.000000;1.157431
6413.000000;1.156841
6412.000000;1.156105
6411.000000;1.155117
6410.000000;1.153889
6409.000000;1.152550
6408.000000;1.151296
6407.000000;1.150282
6406.000000;1.149522
6405.000000;1.148874
6404.000000;1.148147
6403.000000;1.147248
6402.000000;1.146250
6401.000000;1.145284
6400.000000;1.144392
6399.000000;1.143514
6398.000000;1.142627
6397.000000;1.141788
6396.000000;1.141029
6395.000000;1.140272
6394.000000;1.139424
6393.000000;1.138503
6392.000000;1.137597
6391.000000;1.136739
6390.000000;1.135900
6389.000000;1.135086
6388.000000;1.134338
6387.000000;1.133643
6386.000000;1.132905
6385.000000;1.132041
6384.000000;1.131058
6383.000000;1.130042
6382.000000;1.129097
6381.000000;1.128287
6380.000000;1.127585
6379.000000;1.126874
6378.000000;1.126049
6377.000000;1.125120
6376.000000;1.124184
6375.000000;1.123308
6374.000000;1.122488
6373.000000;1.121690
6372.000000;1.120891
6371.000000;1.120075
6370.000000;1.119239
6369.000000;1.118424
6368.000000;1.117671
6367.000000;1.116972
6366.000000;1.116288
6365.000000;1.115624
6364.000000;1.115011
6363.000000;1.114429
6362.000000;1.113794
6361.000000;1.113062
6360.000000;1.112262
6359.000000;1.111435
6358.000000;1.110581
6357.000000;1.109719
6356.000000;1.108921
6355.000000;1.108242
6354.000000;1.107626
6353.000000;1.106958
6352.000000;1.106183
6351.000000;1.105346
6350.000000;1.104528
6349.000000;1.103787
6348.000000;1.103140
6347.000000;1.102557
6346.000000;1.101947
6345.000000;1.101206
6344.000000;1.100305
6343.000000;1.099331
6342.000000;1.098410
6341.000000;1.097602
6340.000000;1.096882
6339.000000;1.096194
6338.000000;1.095501
6337.000000;1.094779
6336.000000;1.094039
6335.000000;1.093338
6334.000000;1.092752
6333.000000;1.092290
6332.000000;1.091858
6331.000000;1.091354
6330.000000;1.090762
6329.000000;1.090135
6328.000000;1.089518
6327.000000;1.088915
6326.000000;1.088317
6325.000000;1.087710
6324.000000;1.087039
6323.000000;1.086260
6322.000000;1.085418
6321.000000;1.084633
6320.000000;1.083992
6319.000000;1.083477
6318.000000;1.083021
6317.000000;1.082559
6316.000000;1.082038
6315.000000;1.081410
6314.000000;1.080691
6313.000000;1.079974
6312.000000;1.079344
6311.000000;1.078798
6310.000000;1.078267
6309.000000;1.077706
6308.000000;1.077108
6307.000000;1.076476
6306.000000;1.075807
6305.000000;1.075118
6304.000000;1.074460
6303.000000;1.073891
6302.000000;1.073429
6301.000000;1.073005
6300.000000;1.072480
6299.000000;1.071760
6298.000000;1.070912
6297.000000;1.070130
6296.000000;1.069555
6295.000000;1.069138
6294.000000;1.068700
6293.000000;1.068091
6292.000000;1.067291
6291.000000;1.066408
6290.000000;1.065616
6289.000000;1.065061
6288.000000;1.064756
6287.000000;1.064560
6286.000000;1.064288
6285.000000;1.063837
6284.000000;1.063222
6283.000000;1.062530
6282.000000;1.061864
6281.000000;1.061285
6280.000000;1.060779
6279.000000;1.060283
6278.000000;1.059770
6277.000000;1.059276
6276.000000;1.058823
6275.000000;1.058361
6274.000000;1.057824
6273.000000;1.057222
6272.000000;1.056645
6271.000000;1.056166
6270.000000;1.055774
6269.000000;1.055386
6268.000000;1.054912
6267.000000;1.054342
6266.000000;1.053759
6265.000000;1.053252
6264.000000;1.052796
6263.000000;1.052273
6262.000000;1.051609
6261.000000;1.050869
6260.000000;1.050186
6259.000000;1.049641
6258.000000;1.049239
6257.000000;1.048943
6256.000000;1.048688
6255.000000;1.048381
6254.000000;1.047953
6253.000000;1.047411
6252.000000;1.046816
6251.000000;1.046230
6250.000000;1.045702
6249.000000;1.045252
6248.000000;1.044827
6247.000000;1.044323
6246.000000;1.043690
6245.000000;1.043004
6244.000000;1.042399
6243.000000;1.041935
6242.000000;1.041563
6241.000000;1.041196
6240.000000;1.040761
6239.000000;1.040223
6238.000000;1.039624
6237.000000;1.039073
6236.000000;1.038647
6235.000000;1.038310
6234.000000;1.037962
6233.000000;1.037570
6232.000000;1.037184
6231.000000;1.036842
6230.000000;1.036511
6229.000000;1.036135
6228.000000;1.035691
6227.000000;1.035188
6226.000000;1.034644
6225.000000;1.034086
6224.000000;1.033547
6223.000000;1.033046
6222.000000;1.032587
6221.000000;1.032169
6220.000000;1.031792
6219.000000;1.031440
6218.000000;1.031085
6217.000000;1.030724
6216.000000;1.030386
6215.000000;1.030091
6214.000000;1.029806
6213.000000;1.029465
6212.000000;1.029036
6211.000000;1.028559
6210.000000;1.028124
6209.000000;1.027788
6208.000000;1.027530
6207.000000;1.027288
6206.000000;1.027028
6205.000000;1.026747
6204.000000;1.026415
6203.000000;1.025974
6202.000000;1.025404
6201.000000;1.024773
6200.000000;1.024179
6199.000000;1.023670
6198.000000;1.023242
6197.000000;1.022873
6196.000000;1.022525
6195.000000;1.022149
6194.000000;1.021722
6193.000000;1.021283
6192.000000;1.020888
6191.000000;1.020526
6190.000000;1.020142
6189.000000;1.019709
6188.000000;1.019261
6187.000000;1.018842
6186.000000;1.018452
6185.000000;1.018075
6184.000000;1.017710
6183.000000;1.017371
6182.000000;1.017056
6181.000000;1.016747
6180.000000;1.016423
6179.000000;1.016078
6178.000000;1.015719
6177.000000;1.015357
6176.000000;1.014995
6175.000000;1.014634
6174.000000;1.014268
6173.000000;1.013889
6172.000000;1.013488
6171.000000;1.013079
6170.000000;1.012708
6169.000000;1.012410
6168.000000;1.012166
6167.000000;1.011923
6166.000000;1.011664
6165.000000;1.011420
6164.000000;1.011205
6163.000000;1.010976
6162.000000;1.010677
6161.000000;1.010306
6160.000000;1.009907
6159.000000;1.009521
6158.000000;1.009161
6157.000000;1.008816
6156.000000;1.008468
6155.000000;1.008108
6154.000000;1.007758
6153.000000;1.007454
6152.000000;1.007193
6151.000000;1.006927
6150.000000;1.006605
6149.000000;1.006237
6148.000000;1.005875
6147.000000;1.005567
6146.000000;1.005322
6145.000000;1.005112
6144.000000;1.004890
6143.000000;1.004628
6142.000000;1.004347
6141.000000;1.004086
6140.000000;1.003839
6139.000000;1.003551
6138.000000;1.003210
6137.000000;1.002885
6136.000000;1.002637
6135.000000;1.002425
6134.000000;1.002139
6133.000000;1.001721
6132.000000;1.001229
6131.000000;1.000766
6130.000000;1.000393
6129.000000;1.000104
6128.000000;0.999864
6127.000000;0.999652
6126.000000;0.999473
6125.000000;0.999332
6124.000000;0.999192
6123.000000;0.998986
6122.000000;0.998677
6121.000000;0.998294
6120.000000;0.997907
6119.000000;0.997564
6118.000000;0.997263
6117.000000;0.996974
6116.000000;0.996666
6115.000000;0.996326
6114.000000;0.995968
6113.000000;0.995634
6112.000000;0.995356
6111.000000;0.995135
6110.000000;0.994940
6109.000000;0.994727
6108.000000;0.994470
6107.000000;0.994180
6106.000000;0.993905
6105.000000;0.993682
6104.000000;0.993496
6103.000000;0.993292
6102.000000;0.993039
6101.000000;0.992751
6100.000000;0.992456
6099.000000;0.992183
6098.000000;0.991956
6097.000000;0.991774
6096.000000;0.991582
6095.000000;0.991320
6094.000000;0.991006
6093.000000;0.990737
6092.000000;0.990561
6091.000000;0.990414
6090.000000;0.990195
6089.000000;0.989888
6088.000000;0.989557
6087.000000;0.989266
6086.000000;0.989034
6085.000000;0.988854
6084.000000;0.988700
6083.000000;0.988535
6082.000000;0.988339
6081.000000;0.988140
6080.000000;0.987984
6079.000000;0.987864
6078.000000;0.987713
6077.000000;0.987467
6076.000000;0.987138
6075.000000;0.986808
6074.000000;0.986567
6073.000000;0.986431
6072.000000;0.986317
6071.000000;0.986113
6070.000000;0.985789
6069.000000;0.985426
6068.000000;0.985118
6067.000000;0.984879
6066.000000;0.984661
6065.000000;0.984436
6064.000000;0.984233
6063.000000;0.984084
6062.000000;0.983991
6061.000000;0.983931
6060.000000;0.983868
6059.000000;0.983764
6058.000000;0.983596
6057.000000;0.983377
6056.000000;0.983150
6055.000000;0.982949
6054.000000;0.982771
6053.000000;0.982587
6052.000000;0.982373
6051.000000;0.982124
6050.000000;0.981844
6049.000000;0.981541
6048.000000;0.981229
6047.000000;0.980938
6046.000000;0.980697
6045.000000;0.980508
6044.000000;0.980328
6043.000000;0.980122
6042.000000;0.979908
6041.000000;0.979744
6040.000000;0.979652
6039.000000;0.979589
6038.000000;0.979492
6037.000000;0.979337
6036.000000;0.979146
6035.000000;0.978966
6034.000000;0.978832
6033.000000;0.978729
6032.000000;0.978596
6031.000000;0.978388
6030.000000;0.978136
6029.000000;0.977908
6028.000000;0.977739
6027.000000;0.977604
6026.000000;0.977479
6025.000000;0.977376
6024.000000;0.977297
6023.000000;0.977218
6022.000000;0.977133
6021.000000;0.977072
6020.000000;0.977056
6019.000000;0.977047
6018.000000;0.976981
6017.000000;0.976827
6016.000000;0.976607
6015.000000;0.976376
6014.000000;0.976195
6013.000000;0.976092
6012.000000;0.976032
6011.000000;0.975946
6010.000000;0.975820
6009.000000;0.975705
6008.000000;0.975646
6007.000000;0.975604
6006.000000;0.975501
6005.000000;0.975305
6004.000000;0.975052
6003.000000;0.974806
6002.000000;0.974619
6001.000000;0.974507
6000.000000;0.974444
5999.000000;0.974376
5998.000000;0.974273
5997.000000;0.974153
5996.000000;0.974049
5995.000000;0.973965
5994.000000;0.973889
5993.000000;0.973817
5992.000000;0.973739
5991.000000;0.973626
5990.000000;0.973470
5989.000000;0.973305
5988.000000;0.973179
5987.000000;0.973104
5986.000000;0.973070
5985.000000;0.973084
5984.000000;0.973149
5983.000000;0.973222
5982.000000;0.973231
5981.000000;0.973138
5980.000000;0.972977
5979.000000;0.972806
5978.000000;0.972656
5977.000000;0.972532
5976.000000;0.972429
5975.000000;0.972345
5974.000000;0.972281
5973.000000;0.972235
5972.000000;0.972206
5971.000000;0.972190
5970.000000;0.972185
5969.000000;0.972201
5968.000000;0.972251
5967.000000;0.972321
5966.000000;0.972359
5965.000000;0.972311
5964.000000;0.972181
5963.000000;0.972038
5962.000000;0.971944
5961.000000;0.971875
5960.000000;0.971743
5959.000000;0.971510
5958.000000;0.971269
5957.000000;0.971159
5956.000000;0.971232
5955.000000;0.971412
5954.000000;0.971588
5953.000000;0.971696
5952.000000;0.971729
5951.000000;0.971701
5950.000000;0.971635
5949.000000;0.971567
5948.000000;0.971529
5947.000000;0.971533
5946.000000;0.971565
5945.000000;0.971596
5944.000000;0.971591
5943.000000;0.971533
5942.000000;0.971438
5941.000000;0.971338
5940.000000;0.971267
5939.000000;0.971247
5938.000000;0.971290
5937.000000;0.971381
5936.000000;0.971476
5935.000000;0.971533
5934.000000;0.971549
5933.000000;0.971559
5932.000000;0.971589
5931.000000;0.971638
5930.000000;0.971680
5929.000000;0.971689
5928.000000;0.971656
5927.000000;0.971609
5926.000000;0.971591
5925.000000;0.971606
5924.000000;0.971606
5923.000000;0.971565
5922.000000;0.971533
5921.000000;0.971587
5920.000000;0.971740
5919.000000;0.971945
5918.000000;0.972149
5917.000000;0.972316
5916.000000;0.972405
5915.000000;0.972394
5914.000000;0.972316
5913.000000;0.972235
5912.000000;0.972174
5911.000000;0.972122
5910.000000;0.972108
5909.000000;0.972193
5908.000000;0.972382
5907.000000;0.972590
5906.000000;0.972724
5905.000000;0.972769
5904.000000;0.972773
5903.000000;0.972788
5902.000000;0.972825
5901.000000;0.972863
5900.000000;0.972882
5899.000000;0.972906
5898.000000;0.972999
5897.000000;0.973178
5896.000000;0.973347
5895.000000;0.973398
5894.000000;0.973355
5893.000000;0.973360
5892.000000;0.973486
5891.000000;0.973637
5890.000000;0.973687
5889.000000;0.973640
5888.000000;0.973614
5887.000000;0.973684
5886.000000;0.973825
5885.000000;0.973965
5884.000000;0.974064
5883.000000;0.974128
5882.000000;0.974190
5881.000000;0.974284
5880.000000;0.974403
5879.000000;0.974501
5878.000000;0.974548
5877.000000;0.974573
5876.000000;0.974620
5875.000000;0.974698
5874.000000;0.974777
5873.000000;0.974850
5872.000000;0.974960
5871.000000;0.975161
5870.000000;0.975460
5869.000000;0.975792
5868.000000;0.976070
5867.000000;0.976263
5866.000000;0.976420
5865.000000;0.976609
5864.000000;0.976834
5863.000000;0.977034
5862.000000;0.977155
5861.000000;0.977193
5860.000000;0.977183
5859.000000;0.977176
5858.000000;0.977234
5857.000000;0.977400
5856.000000;0.977656
5855.000000;0.977937
5854.000000;0.978194
5853.000000;0.978418
5852.000000;0.978614
5851.000000;0.978791
5850.000000;0.978988
5849.000000;0.979242
5848.000000;0.979521
5847.000000;0.979729
5846.000000;0.979812
5845.000000;0.979823
5844.000000;0.979862
5843.000000;0.979983
5842.000000;0.980189
5841.000000;0.980467
5840.000000;0.980790
5839.000000;0.981107
5838.000000;0.981373
5837.000000;0.981607
5836.000000;0.981874
5835.000000;0.982214
5834.000000;0.982587
5833.000000;0.982915
5832.000000;0.983150
5831.000000;0.983320
5830.000000;0.983497
5829.000000;0.983720
5828.000000;0.983974
5827.000000;0.984234
5826.000000;0.984516
5825.000000;0.984837
5824.000000;0.985162
5823.000000;0.985442
5822.000000;0.985689
5821.000000;0.985961
5820.000000;0.986268
5819.000000;0.986559
5818.000000;0.986805
5817.000000;0.987052
5816.000000;0.987352
5815.000000;0.987697
5814.000000;0.988043
5813.000000;0.988363
5812.000000;0.988649
5811.000000;0.988887
5810.000000;0.989079
5809.000000;0.989277
5808.000000;0.989556
5807.000000;0.989938
5806.000000;0.990373
5805.000000;0.990776
5804.000000;0.991106
5803.000000;0.991389
5802.000000;0.991684
5801.000000;0.992006
5800.000000;0.992304
5799.000000;0.992526
5798.000000;0.992706
5797.000000;0.992943
5796.000000;0.993303
5795.000000;0.993758
5794.000000;0.994235
5793.000000;0.994683
5792.000000;0.995112
5791.000000;0.995567
5790.000000;0.996086
5789.000000;0.996651
5788.000000;0.997176
5787.000000;0.997589
5786.000000;0.997907
5785.000000;0.998216
5784.000000;0.998566
5783.000000;0.998935
5782.000000;0.999280
5781.000000;0.999592
5780.000000;0.999884
5779.000000;1.000178
5778.000000;1.000523
5777.000000;1.000987
5776.000000;1.001586
5775.000000;1.002248
5774.000000;1.002868
5773.000000;1.003401
5772.000000;1.003882
5771.000000;1.004377
5770.000000;1.004906
5769.000000;1.005412
5768.000000;1.005819
5767.000000;1.006133
5766.000000;1.006462
5765.000000;1.006898
5764.000000;1.007420
5763.000000;1.007942
5762.000000;1.008440
5761.000000;1.008962
5760.000000;1.009517
5759.000000;1.010044
5758.000000;1.010500
5757.000000;1.010917
5756.000000;1.011354
5755.000000;1.011831
5754.000000;1.012352
5753.000000;1.012921
5752.000000;1.013536
5751.000000;1.014177
5750.000000;1.014843
5749.000000;1.015550
5748.000000;1.016284
5747.000000;1.016985
5746.000000;1.017613
5745.000000;1.018199
5744.000000;1.018808
5743.000000;1.019467
5742.000000;1.020146
5741.000000;1.020770
5740.000000;1.021278
5739.000000;1.021688
5738.000000;1.022119
5737.000000;1.022690
5736.000000;1.023398
5735.000000;1.024133
5734.000000;1.024812
5733.000000;1.025455
5732.000000;1.026122
5731.000000;1.026822
5730.000000;1.027523
5729.000000;1.028188
5728.000000;1.028794
5727.000000;1.029332
5726.000000;1.029831
5725.000000;1.030340
5724.000000;1.030881
5723.000000;1.031439
5722.000000;1.031998
5721.000000;1.032571
5720.000000;1.033179
5719.000000;1.033844
5718.000000;1.034602
5717.000000;1.035464
5716.000000;1.036363
5715.000000;1.037188
5714.000000;1.037894
5713.000000;1.038514
5712.000000;1.039085
5711.000000;1.039619
5710.000000;1.040171
5709.000000;1.040846
5708.000000;1.041701
5707.000000;1.042692
5706.000000;1.043748
5705.000000;1.044834
5704.000000;1.045903
5703.000000;1.046856
5702.000000;1.047624
5701.000000;1.048247
5700.000000;1.048823
5699.000000;1.049410
5698.000000;1.050033
5697.000000;1.050714
5696.000000;1.051473
5695.000000;1.052278
5694.000000;1.053103
5693.000000;1.053877
5692.000000;1.054631
5691.000000;1.055354
5690.000000;1.056022
5689.000000;1.056728
5688.000000;1.057524
5687.000000;1.058379
5686.000000;1.059204
5685.000000;1.059971
5684.000000;1.060707
5683.000000;1.061440
5682.000000;1.062187
5681.000000;1.062995
5680.000000;1.063899
5679.000000;1.064854
5678.000000;1.065746
5677.000000;1.066512
5676.000000;1.067192
5675.000000;1.067872
5674.000000;1.068604
5673.000000;1.069391
5672.000000;1.070216
5671.000000;1.071056
5670.000000;1.071883
5669.000000;1.072669
5668.000000;1.073412
5667.000000;1.074147
5666.000000;1.074919
5665.000000;1.075743
5664.000000;1.076571
5663.000000;1.077324
5662.000000;1.077960
5661.000000;1.078506
5660.000000;1.079041
5659.000000;1.079646
5658.000000;1.080353
5657.000000;1.081125
5656.000000;1.081890
5655.000000;1.082617
5654.000000;1.083354
5653.000000;1.084174
5652.000000;1.085080
5651.000000;1.085992
5650.000000;1.086812
5649.000000;1.087492
5648.000000;1.088046
5647.000000;1.088554
5646.000000;1.089135
5645.000000;1.089876
5644.000000;1.090751
5643.000000;1.091635
5642.000000;1.092413
5641.000000;1.093062
5640.000000;1.093631
5639.000000;1.094180
5638.000000;1.094740
5637.000000;1.095321
5636.000000;1.095920
5635.000000;1.096540
5634.000000;1.097174
5633.000000;1.097781
5632.000000;1.098298
5631.000000;1.098721
5630.000000;1.099138
5629.000000;1.099649
5628.000000;1.100244
5627.000000;1.100831
5626.000000;1.101370
5625.000000;1.101914
5624.000000;1.102517
5623.000000;1.103148
5622.000000;1.103731
5621.000000;1.104229
5620.000000;1.104662
5619.000000;1.105076
5618.000000;1.105501
5617.000000;1.105929
5616.000000;1.106339
5615.000000;1.106747
5614.000000;1.107214
5613.000000;1.107764
5612.000000;1.108333
5611.000000;1.108837
5610.000000;1.109258
5609.000000;1.109611
5608.000000;1.109886
5607.000000;1.110087
5606.000000;1.110305
5605.000000;1.110641
5604.000000;1.111059
5603.000000;1.111439
5602.000000;1.111741
5601.000000;1.112047
5600.000000;1.112393
5599.000000;1.112704
5598.000000;1.112927
5597.000000;1.113137
5596.000000;1.113453
5595.000000;1.113895
5594.000000;1.114385
5593.000000;1.114840
5592.000000;1.115204
5591.000000;1.115459
5590.000000;1.115629
5589.000000;1.115763
5588.000000;1.115877
5587.000000;1.115967
5586.000000;1.116071
5585.000000;1.116231
5584.000000;1.116395
5583.000000;1.116451
5582.000000;1.116409
5581.000000;1.116450
5580.000000;1.116712
5579.000000;1.117105
5578.000000;1.117405
5577.000000;1.117505
5576.000000;1.117492
5575.000000;1.117514
5574.000000;1.117652
5573.000000;1.117875
5572.000000;1.118072
5571.000000;1.118142
5570.000000;1.118105
5569.000000;1.118089
5568.000000;1.118182
5567.000000;1.118339
5566.000000;1.118466
5565.000000;1.118535
5564.000000;1.118578
5563.000000;1.118633
5562.000000;1.118741
5561.000000;1.118943
5560.000000;1.119208
5559.000000;1.119424
5558.000000;1.119508
5557.000000;1.119496
5556.000000;1.119446
5555.000000;1.119330
5554.000000;1.119097
5553.000000;1.118792
5552.000000;1.118511
5551.000000;1.118276
5550.000000;1.118048
5549.000000;1.117839
5548.000000;1.117717
5547.000000;1.117716
5546.000000;1.117827
5545.000000;1.118044
5544.000000;1.118345
5543.000000;1.118647
5542.000000;1.118864
5541.000000;1.119005
5540.000000;1.119131
5539.000000;1.119230
5538.000000;1.119210
5537.000000;1.119011
5536.000000;1.118673
5535.000000;1.118283
5534.000000;1.117941
5533.000000;1.117739
5532.000000;1.117700
5531.000000;1.117742
5530.000000;1.117769
5529.000000;1.117782
5528.000000;1.117856
5527.000000;1.118023
5526.000000;1.118235
5525.000000;1.118417
5524.000000;1.118494
5523.000000;1.118422
5522.000000;1.118216
5521.000000;1.117977
5520.000000;1.117791
5519.000000;1.117637
5518.000000;1.117460
5517.000000;1.117274
5516.000000;1.117157
5515.000000;1.117166
5514.000000;1.117306
5513.000000;1.117569
5512.000000;1.117899
5511.000000;1.118134
5510.000000;1.118111
5509.000000;1.117842
5508.000000;1.117518
5507.000000;1.117300
5506.000000;1.117160
5505.000000;1.116970
5504.000000;1.116716
5503.000000;1.116558
5502.000000;1.116657
5501.000000;1.117017
5500.000000;1.117534
5499.000000;1.118152
5498.000000;1.118883
5497.000000;1.119580
5496.000000;1.119816
5495.000000;1.119215
5494.000000;1.117879
5493.000000;1.116350
5492.000000;1.115103
5491.000000;1.114166
5490.000000;1.113351
5489.000000;1.112648
5488.000000;1.112265
5487.000000;1.112439
5486.000000;1.113341
5485.000000;1.114978
5484.000000;1.117045
5483.000000;1.119012
5482.000000;1.120537
5481.000000;1.121739
5480.000000;1.122896
5479.000000;1.123843
5478.000000;1.124007
5477.000000;1.123051
5476.000000;1.121332
5475.000000;1.119719
5474.000000;1.118885
5473.000000;1.118858
5472.000000;1.119291
5471.000000;1.119920
5470.000000;1.120661
5469.000000;1.121532
5468.000000;1.122528
5467.000000;1.123530
5466.000000;1.124357
5465.000000;1.124804
5464.000000;1.124680
5463.000000;1.124019
5462.000000;1.123229
5461.000000;1.122867
5460.000000;1.123167
5459.000000;1.123907
5458.000000;1.124799
5457.000000;1.125822
5456.000000;1.127062
5455.000000;1.128530
5454.000000;1.130193
5453.000000;1.131918
5452.000000;1.133367
5451.000000;1.134222
5450.000000;1.134490
5449.000000;1.134360
5448.000000;1.133826
5447.000000;1.132834
5446.000000;1.131722
5445.000000;1.130932
5444.000000;1.130377
5443.000000;1.129699
5442.000000;1.129064
5441.000000;1.129142
5440.000000;1.130338
5439.000000;1.132346
5438.000000;1.134551
5437.000000;1.136552
5436.000000;1.138145
5435.000000;1.139362
5434.000000;1.140634
5433.000000;1.142198
5432.000000;1.143550
5431.000000;1.143989
5430.000000;1.143469
5429.000000;1.142781
5428.000000;1.142932
5427.000000;1.144348
5426.000000;1.146753
5425.000000;1.149645
5424.000000;1.152702
5423.000000;1.155955
5422.000000;1.159672
5421.000000;1.163935
5420.000000;1.168425
5419.000000;1.172637
5418.000000;1.176069
5417.000000;1.178264
5416.000000;1.178978
5415.000000;1.178387
5414.000000;1.177064
5413.000000;1.175524
5412.000000;1.173914
5411.000000;1.172424
5410.000000;1.171693
5409.000000;1.172341
5408.000000;1.174434
5407.000000;1.177784
5406.000000;1.182436
5405.000000;1.188319
5404.000000;1.194764
5403.000000;1.200917
5402.000000;1.206470
5401.000000;1.211546
5400.000000;1.216033
5399.000000;1.219680
5398.000000;1.222562
5397.000000;1.224928
5396.000000;1.226816
5395.000000;1.228163
5394.000000;1.229301
5393.000000;1.230884
5392.000000;1.233251
5391.000000;1.236336
5390.000000;1.240109
5389.000000;1.244608
5388.000000;1.249578
5387.000000;1.254590
5386.000000;1.259609
5385.000000;1.264998
5384.000000;1.270759
5383.000000;1.276336
5382.000000;1.281490
5381.000000;1.286556
5380.000000;1.291709
5379.000000;1.296712
5378.000000;1.301405
5377.000000;1.306030
5376.000000;1.310913
5375.000000;1.316047
5374.000000;1.321333
5373.000000;1.326995
5372.000000;1.333324
5371.000000;1.340427
5370.000000;1.348430
5369.000000;1.357571
5368.000000;1.367747
5367.000000;1.378177
5366.000000;1.387889
5365.000000;1.396518
5364.000000;1.404437
5363.000000;1.412217
5362.000000;1.420283
5361.000000;1.428881
5360.000000;1.438078
5359.000000;1.447735
5358.000000;1.457558
5357.000000;1.467223
5356.000000;1.476472
5355.000000;1.485238
5354.000000;1.493817
5353.000000;1.502752
5352.000000;1.512305
5351.000000;1.522303
5350.000000;1.532768
5349.000000;1.544094
5348.000000;1.556356
5347.000000;1.568992
5346.000000;1.581490
5345.000000;1.594107
5344.000000;1.607592
5343.000000;1.622042
5342.000000;1.636585
5341.000000;1.650631
5340.000000;1.664568
5339.000000;1.679212
5338.000000;1.695186
5337.000000;1.712625
5336.000000;1.731119
5335.000000;1.750098
5334.000000;1.769319
5333.000000;1.788983
5332.000000;1.809478
5331.000000;1.830859
5330.000000;1.852665
5329.000000;1.874281
5328.000000;1.895503
5327.000000;1.916796
5326.000000;1.938802
5325.000000;1.961580
5324.000000;1.984715
5323.000000;2.008057
5322.000000;2.031992
5321.000000;2.056967
5320.000000;2.082839
5319.000000;2.108861
5318.000000;2.134264
5317.000000;2.158734
5316.000000;2.182467
5315.000000;2.206094
5314.000000;2.230269
5313.000000;2.254873
5312.000000;2.278899
5311.000000;2.301579
5310.000000;2.323393
5309.000000;2.345254
5308.000000;2.367106
5307.000000;2.388185
5306.000000;2.408340
5305.000000;2.428038
5304.000000;2.447458
5303.000000;2.466619
5302.000000;2.485835
5301.000000;2.504862
5300.000000;2.522073
5299.000000;2.535942
5298.000000;2.547220
5297.000000;2.558326
5296.000000;2.570796
5295.000000;2.584269
5294.000000;2.597322
5293.000000;2.608552
5292.000000;2.617417
5291.000000;2.624693
5290.000000;2.631626
5289.000000;2.638049
5288.000000;2.642629
5287.000000;2.645560
5286.000000;2.649083
5285.000000;2.654457
5284.000000;2.660079
5283.000000;2.663805
5282.000000;2.665704
5281.000000;2.667122
5280.000000;2.668704
5279.000000;2.670761
5278.000000;2.673936
5277.000000;2.677963
5276.000000;2.681231
5275.000000;2.683217
5274.000000;2.685957
5273.000000;2.691250
5272.000000;2.697497
5271.000000;2.700922
5270.000000;2.699377
5269.000000;2.693718
5268.000000;2.686236
5267.000000;2.679440
5266.000000;2.675675
5265.000000;2.676020
5264.000000;2.679164
5263.000000;2.682065
5262.000000;2.682341
5261.000000;2.679996
5260.000000;2.677078
5259.000000;2.675697
5258.000000;2.676040
5257.000000;2.676570
5256.000000;2.676408
5255.000000;2.677104
5254.000000;2.680804
5253.000000;2.686530
5252.000000;2.690382
5251.000000;2.689978
5250.000000;2.686657
5249.000000;2.683166
5248.000000;2.680998
5247.000000;2.680286
5246.000000;2.680454
5245.000000;2.680166
5244.000000;2.678169
5243.000000;2.675132
5242.000000;2.673326
5241.000000;2.673688
5240.000000;2.675087
5239.000000;2.676962
5238.000000;2.680501
5237.000000;2.686205
5236.000000;2.692037
5235.000000;2.695295
5234.000000;2.695319
5233.000000;2.693202
5232.000000;2.690047
5231.000000;2.686905
5230.000000;2.685003
5229.000000;2.684423
5228.000000;2.683609
5227.000000;2.681427
5226.000000;2.678815
5225.000000;2.677434
5224.000000;2.677745
5223.000000;2.679317
5222.000000;2.681864
5221.000000;2.684738
5220.000000;2.686616
5219.000000;2.686991
5218.000000;2.686980
5217.000000;2.687780
5216.000000;2.689342
5215.000000;2.691066
5214.000000;2.692454
5213.000000;2.692364
5212.000000;2.689327
5211.000000;2.683801
5210.000000;2.678625
5209.000000;2.676205
5208.000000;2.676469
5207.000000;2.678208
5206.000000;2.680922
5205.000000;2.684082
5204.000000;2.686177
5203.000000;2.686438
5202.000000;2.686436
5201.000000;2.688241
5200.000000;2.691524
5199.000000;2.693938
5198.000000;2.694170
5197.000000;2.693329
5196.000000;2.693426
5195.000000;2.695398
5194.000000;2.698484
5193.000000;2.700587
5192.000000;2.699435
5191.000000;2.694438
5190.000000;2.687310
5189.000000;2.680607
5188.000000;2.676078
5187.000000;2.674153
5186.000000;2.674171
5185.000000;2.675000
5184.000000;2.676131
5183.000000;2.678350
5182.000000;2.682573
5181.000000;2.687919
5180.000000;2.692026
5179.000000;2.693453
5178.000000;2.692568
5177.000000;2.690343
5176.000000;2.687965
5175.000000;2.687431
5174.000000;2.690430
5173.000000;2.695979
5172.000000;2.700509
5171.000000;2.701170
5170.000000;2.698165
5169.000000;2.693409
5168.000000;2.688573
5167.000000;2.685106
5166.000000;2.684190
5165.000000;2.685332
5164.000000;2.686110
5163.000000;2.684546
5162.000000;2.681132
5161.000000;2.677796
5160.000000;2.675988
5159.000000;2.676338
5158.000000;2.678638
5157.000000;2.681266
5156.000000;2.682075
5155.000000;2.680800
5154.000000;2.679197
5153.000000;2.678297
5152.000000;2.677467
5151.000000;2.676777
5150.000000;2.677962
5149.000000;2.681723
5148.000000;2.686001
5147.000000;2.688480
5146.000000;2.689289
5145.000000;2.689617
5144.000000;2.689234
5143.000000;2.687309
5142.000000;2.684537
5141.000000;2.682516
5140.000000;2.681767
5139.000000;2.681870
5138.000000;2.682639
5137.000000;2.683673
5136.000000;2.683638
5135.000000;2.681730
5134.000000;2.679250
5133.000000;2.678110
5132.000000;2.678227
5131.000000;2.677795
5130.000000;2.675857
5129.000000;2.673327
5128.000000;2.671838
5127.000000;2.672722
5126.000000;2.676402
5125.000000;2.681473
5124.000000;2.684888
5123.000000;2.684532
5122.000000;2.681435
5121.000000;2.678182
5120.000000;2.676019
5119.000000;2.674841
5118.000000;2.674764
5117.000000;2.675875
5116.000000;2.677157
5115.000000;2.677511
5114.000000;2.677471
5113.000000;2.678394
5112.000000;2.680195
5111.000000;2.681398
5110.000000;2.681506
5109.000000;2.681683
5108.000000;2.682759
5107.000000;2.684023
5106.000000;2.684457
5105.000000;2.683913
5104.000000;2.682517
5103.000000;2.680153
5102.000000;2.677072
5101.000000;2.674145
5100.000000;2.672261
5099.000000;2.671871
5098.000000;2.673106
5097.000000;2.675851
5096.000000;2.679653
5095.000000;2.683916
5094.000000;2.688134
5093.000000;2.691360
5092.000000;2.691919
5091.000000;2.688955
5090.000000;2.684103
5089.000000;2.680286
5088.000000;2.678716
5087.000000;2.678127
5086.000000;2.677019
5085.000000;2.675511
5084.000000;2.674471
5083.000000;2.673875
5082.000000;2.673060
5081.000000;2.672197
5080.000000;2.672570
5079.000000;2.675079
5078.000000;2.678788
5077.000000;2.681216
5076.000000;2.680343
5075.000000;2.676487
5074.000000;2.671909
5073.000000;2.668540
5072.000000;2.666627
5071.000000;2.665506
5070.000000;2.664915
5069.000000;2.665184
5068.000000;2.666527
5067.000000;2.668422
5066.000000;2.669810
5065.000000;2.670049
5064.000000;2.669343
5063.000000;2.668069
5062.000000;2.666243
5061.000000;2.663853
5060.000000;2.661414
5059.000000;2.659902
5058.000000;2.659830
5057.000000;2.660461
5056.000000;2.660446
5055.000000;2.659155
5054.000000;2.656981
5053.000000;2.654777
5052.000000;2.653823
5051.000000;2.655785
5050.000000;2.661143
5049.000000;2.667541
5048.000000;2.671152
5047.000000;2.670486
5046.000000;2.667751
5045.000000;2.665926
5044.000000;2.665852
5043.000000;2.666515
5042.000000;2.666728
5041.000000;2.665839
5040.000000;2.663964
5039.000000;2.662355
5038.000000;2.662483
5037.000000;2.664095
5036.000000;2.665210
5035.000000;2.664730
5034.000000;2.663659
5033.000000;2.662633
5032.000000;2.660260
5031.000000;2.655527
5030.000000;2.650024
5029.000000;2.646359
5028.000000;2.645350
5027.000000;2.645494
5026.000000;2.645006
5025.000000;2.643530
5024.000000;2.641776
5023.000000;2.640476
5022.000000;2.639763
5021.000000;2.638948
5020.000000;2.637266
5019.000000;2.635409
5018.000000;2.635325
5017.000000;2.637395
5016.000000;2.638817
5015.000000;2.636629
5014.000000;2.631874
5013.000000;2.628486
5012.000000;2.628227
5011.000000;2.628938
5010.000000;2.627917
5009.000000;2.625302
5008.000000;2.623297
5007.000000;2.623037
5006.000000;2.623289
5005.000000;2.622013
5004.000000;2.618511
5003.000000;2.614072
5002.000000;2.610692
5001.000000;2.608954
5000.000000;2.607391
4999.000000;2.604444
4998.000000;2.600793
4997.000000;2.598755
4996.000000;2.599669
4995.000000;2.602710
4994.000000;2.605719
4993.000000;2.606752
4992.000000;2.604612
4991.000000;2.599174
4990.000000;2.591896
4989.000000;2.585465
4988.000000;2.582327
4987.000000;2.583355
4986.000000;2.587417
4985.000000;2.591667
4984.000000;2.592777
4983.000000;2.589250
4982.000000;2.582871
4981.000000;2.577106
4980.000000;2.573991
4979.000000;2.572999
4978.000000;2.572384
4977.000000;2.570700
4976.000000;2.567249
4975.000000;2.562350
4974.000000;2.557551
4973.000000;2.554502
4972.000000;2.553135
4971.000000;2.551708
4970.000000;2.549072
4969.000000;2.546112
4968.000000;2.544324
4967.000000;2.543833
4966.000000;2.543332
4965.000000;2.541330
4964.000000;2.536976
4963.000000;2.530452
4962.000000;2.523084
4961.000000;2.516493
4960.000000;2.511233
4959.000000;2.506896
4958.000000;2.503775
4957.000000;2.503224
4956.000000;2.505483
4955.000000;2.507883
4954.000000;2.506611
4953.000000;2.500545
4952.000000;2.492383
4951.000000;2.485781
4950.000000;2.482385
4949.000000;2.481428
4948.000000;2.480957
4947.000000;2.479055
4946.000000;2.474730
4945.000000;2.468602
4944.000000;2.462690
4943.000000;2.459112
4942.000000;2.458650
4941.000000;2.460141
4940.000000;2.461159
4939.000000;2.459654
4938.000000;2.455262
4937.000000;2.449114
4936.000000;2.442561
4935.000000;2.436255
4934.000000;2.430299
4933.000000;2.424803
4932.000000;2.420009
4931.000000;2.416055
4930.000000;2.412878
4929.000000;2.410275
4928.000000;2.407833
4927.000000;2.404934
4926.000000;2.401154
4925.000000;2.396682
4924.000000;2.392173
4923.000000;2.388126
4922.000000;2.384479
4921.000000;2.380817
4920.000000;2.376941
4919.000000;2.373240
4918.000000;2.370380
4917.000000;2.368355
4916.000000;2.365984
4915.000000;2.361788
4914.000000;2.355629
4913.000000;2.349115
4912.000000;2.344089
4911.000000;2.341051
4910.000000;2.339247
4909.000000;2.337759
4908.000000;2.335912
4907.000000;2.332926
4906.000000;2.328173
4905.000000;2.322118
4904.000000;2.316355
4903.000000;2.312186
4902.000000;2.309370
4901.000000;2.306483
4900.000000;2.302424
4899.000000;2.297390
4898.000000;2.292432
4897.000000;2.288221
4896.000000;2.284270
4895.000000;2.279452
4894.000000;2.273498
4893.000000;2.267659
4892.000000;2.263354
4891.000000;2.260262
4890.000000;2.256522
4889.000000;2.251128
4888.000000;2.245432
4887.000000;2.241628
4886.000000;2.240260
4885.000000;2.239838
4884.000000;2.238559
4883.000000;2.235739
4882.000000;2.231667
4881.000000;2.226854
4880.000000;2.221752
4879.000000;2.216675
4878.000000;2.211661
4877.000000;2.206664
4876.000000;2.201970
4875.000000;2.198045
4874.000000;2.194913
4873.000000;2.192010
4872.000000;2.188749
4871.000000;2.184926
4870.000000;2.180523
4869.000000;2.175569
4868.000000;2.170334
4867.000000;2.165267
4866.000000;2.160562
4865.000000;2.156089
4864.000000;2.151891
4863.000000;2.148290
4862.000000;2.145303
4861.000000;2.142416
4860.000000;2.139247
4859.000000;2.135969
4858.000000;2.132673
4857.000000;2.128770
4856.000000;2.123706
4855.000000;2.118041
4854.000000;2.113088
4853.000000;2.109501
4852.000000;2.106750
4851.000000;2.103948
4850.000000;2.100693
4849.000000;2.096991
4848.000000;2.092892
4847.000000;2.088497
4846.000000;2.084047
4845.000000;2.079753
4844.000000;2.075697
4843.000000;2.071935
4842.000000;2.068446
4841.000000;2.064905
4840.000000;2.060822
4839.000000;2.056072
4838.000000;2.051078
4837.000000;2.046397
4836.000000;2.042324
4835.000000;2.038882
4834.000000;2.035843
4833.000000;2.032675
4832.000000;2.028857
4831.000000;2.024491
4830.000000;2.020272
4829.000000;2.016597
4828.000000;2.012979
4827.000000;2.008696
4826.000000;2.003800
4825.000000;1.999089
4824.000000;1.995173
4823.000000;1.991953
4822.000000;1.988989
4821.000000;1.986003
4820.000000;1.982904
4819.000000;1.979651
4818.000000;1.976270
4817.000000;1.972832
4816.000000;1.969275
4815.000000;1.965370
4814.000000;1.961032
4813.000000;1.956599
4812.000000;1.952606
4811.000000;1.949277
4810.000000;1.946317
4809.000000;1.943231
4808.000000;1.939777
4807.000000;1.936053
4806.000000;1.932175
4805.000000;1.928072
4804.000000;1.923712
4803.000000;1.919407
4802.000000;1.915628
4801.000000;1.912500
4800.000000;1.909671
4799.000000;1.906742
4798.000000;1.903622
4797.000000;1.900330
4796.000000;1.896692
4795.000000;1.892574
4794.000000;1.888304
4793.000000;1.884488
4792.000000;1.881365
4791.000000;1.878535
4790.000000;1.875411
4789.000000;1.871743
4788.000000;1.867632
4787.000000;1.863288
4786.000000;1.858959
4785.000000;1.854963
4784.000000;1.851532
4783.000000;1.848583
4782.000000;1.845786
4781.000000;1.842886
4780.000000;1.839895
4779.000000;1.836938
4778.000000;1.833968
4777.000000;1.830725
4776.000000;1.827020
4775.000000;1.823024
4774.000000;1.819194
4773.000000;1.815870
4772.000000;1.812986
4771.000000;1.810246
4770.000000;1.807491
4769.000000;1.804746
4768.000000;1.801934
4767.000000;1.798807
4766.000000;1.795287
4765.000000;1.791711
4764.000000;1.788514
4763.000000;1.785699
4762.000000;1.782797
4761.000000;1.779387
4760.000000;1.775537
4759.000000;1.771694
4758.000000;1.768249
4757.000000;1.765258
4756.000000;1.762510
4755.000000;1.759768
4754.000000;1.756932
4753.000000;1.754001
4752.000000;1.750951
4751.000000;1.747713
4750.000000;1.744291
4749.000000;1.740829
4748.000000;1.737514
4747.000000;1.734443
4746.000000;1.731625
4745.000000;1.729039
4744.000000;1.726602
4743.000000;1.724147
4742.000000;1.721519
4741.000000;1.718714
4740.000000;1.715840
4739.000000;1.712973
4738.000000;1.710135
4737.000000;1.707384
4736.000000;1.704790
4735.000000;1.702297
4734.000000;1.699735
4733.000000;1.697009
4732.000000;1.694189
4731.000000;1.691379
4730.000000;1.688627
4729.000000;1.685969
4728.000000;1.683435
4727.000000;1.680942
4726.000000;1.678311
4725.000000;1.675512
4724.000000;1.672770
4723.000000;1.670292
4722.000000;1.667986
4721.000000;1.665572
4720.000000;1.662930
4719.000000;1.660162
4718.000000;1.657383
4717.000000;1.654610
4716.000000;1.651865
4715.000000;1.649216
4714.000000;1.646680
4713.000000;1.644205
4712.000000;1.641793
4711.000000;1.639515
4710.000000;1.637355
4709.000000;1.635159
4708.000000;1.632831
4707.000000;1.630466
4706.000000;1.628215
4705.000000;1.626074
4704.000000;1.623909
4703.000000;1.621632
4702.000000;1.619284
4701.000000;1.616959
4700.000000;1.614729
4699.000000;1.612615
4698.000000;1.610546
4697.000000;1.608373
4696.000000;1.606014
4695.000000;1.603600
4694.000000;1.601404
4693.000000;1.599564
4692.000000;1.597906
4691.000000;1.596096
4690.000000;1.593964
4689.000000;1.591644
4688.000000;1.589401
4687.000000;1.587354
4686.000000;1.585438
4685.000000;1.583593
4684.000000;1.581870
4683.000000;1.580296
4682.000000;1.578711
4681.000000;1.576886
4680.000000;1.574797
4679.000000;1.572658
4678.000000;1.570641
4677.000000;1.568681
4676.000000;1.566642
4675.000000;1.564569
4674.000000;1.562649
4673.000000;1.560951
4672.000000;1.559346
4671.000000;1.557690
4670.000000;1.555986
4669.000000;1.554308
4668.000000;1.552630
4667.000000;1.550804
4666.000000;1.548699
4665.000000;1.546344
4664.000000;1.543967
4663.000000;1.541878
4662.000000;1.540265
4661.000000;1.539055
4660.000000;1.537968
4659.000000;1.536722
4658.000000;1.535209
4657.000000;1.533480
4656.000000;1.531640
4655.000000;1.529794
4654.000000;1.528044
4653.000000;1.526474
4652.000000;1.525098
4651.000000;1.523840
4650.000000;1.522550
4649.000000;1.521061
4648.000000;1.519283
4647.000000;1.517306
4646.000000;1.515372
4645.000000;1.513684
4644.000000;1.512214
4643.000000;1.510743
4642.000000;1.509114
4641.000000;1.507400
4640.000000;1.505806
4639.000000;1.504424
4638.000000;1.503134
4637.000000;1.501747
4636.000000;1.500219
4635.000000;1.498704
4634.000000;1.497396
4633.000000;1.496325
4632.000000;1.495320
4631.000000;1.494162
4630.000000;1.492777
4629.000000;1.491256
4628.000000;1.489734
4627.000000;1.488261
4626.000000;1.486808
4625.000000;1.485336
4624.000000;1.483849
4623.000000;1.482421
4622.000000;1.481176
4621.000000;1.480194
4620.000000;1.479406
4619.000000;1.478608
4618.000000;1.477610
4617.000000;1.476375
4616.000000;1.475017
4615.000000;1.473675
4614.000000;1.472430
4613.000000;1.471286
4612.000000;1.470193
4611.000000;1.469081
4610.000000;1.467916
4609.000000;1.466714
4608.000000;1.465498
4607.000000;1.464275
4606.000000;1.463077
4605.000000;1.461969
4604.000000;1.460974
4603.000000;1.460019
4602.000000;1.459027
4601.000000;1.458020
4600.000000;1.457072
4599.000000;1.456167
4598.000000;1.455210
4597.000000;1.454158
4596.000000;1.453072
4595.000000;1.452015
4594.000000;1.450988
4593.000000;1.449981
4592.000000;1.449003
4591.000000;1.448010
4590.000000;1.446900
4589.000000;1.445629
4588.000000;1.444307
4587.000000;1.443125
4586.000000;1.442215
4585.000000;1.441602
4584.000000;1.441202
4583.000000;1.440842
4582.000000;1.440324
4581.000000;1.439565
4580.000000;1.438662
4579.000000;1.437754
4578.000000;1.436865
4577.000000;1.435913
4576.000000;1.434861
4575.000000;1.433783
4574.000000;1.432793
4573.000000;1.431955
4572.000000;1.431245
4571.000000;1.430543
4570.000000;1.429667
4569.000000;1.428523
4568.000000;1.427264
4567.000000;1.426248
4566.000000;1.425729
4565.000000;1.425586
4564.000000;1.425404
4563.000000;1.424855
4562.000000;1.423969
4561.000000;1.423021
4560.000000;1.422204
4559.000000;1.421492
4558.000000;1.420793
4557.000000;1.420099
4556.000000;1.419434
4555.000000;1.418763
4554.000000;1.418042
4553.000000;1.417305
4552.000000;1.416596
4551.000000;1.415838
4550.000000;1.414904
4549.000000;1.413828
4548.000000;1.412845
4547.000000;1.412164
4546.000000;1.411774
4545.000000;1.411498
4544.000000;1.411174
4543.000000;1.410773
4542.000000;1.410389
4541.000000;1.410134
4540.000000;1.409965
4539.000000;1.409647
4538.000000;1.409006
4537.000000;1.408208
4536.000000;1.407618
4535.000000;1.407327
4534.000000;1.406999
4533.000000;1.406291
4532.000000;1.405284
4531.000000;1.404340
4530.000000;1.403674
4529.000000;1.403235
4528.000000;1.402927
4527.000000;1.402713
4526.000000;1.402507
4525.000000;1.402187
4524.000000;1.401775
4523.000000;1.401464
4522.000000;1.401365
4521.000000;1.401331
4520.000000;1.401101
4519.000000;1.400579
4518.000000;1.399934
4517.000000;1.399462
4516.000000;1.399382
4515.000000;1.399682
4514.000000;1.400114
4513.000000;1.400375
4512.000000;1.400354
4511.000000;1.400165
4510.000000;1.399945
4509.000000;1.399696
4508.000000;1.399329
4507.000000;1.398826
4506.000000;1.398282
4505.000000;1.397850
4504.000000;1.397674
4503.000000;1.397831
4502.000000;1.398272
4501.000000;1.398795
4500.000000;1.399137
4499.000000;1.399138
4498.000000;1.398847
4497.000000;1.398465
4496.000000;1.398174
4495.000000;1.398032
4494.000000;1.398040
4493.000000;1.398265
4492.000000;1.398795
4491.000000;1.399554
4490.000000;1.400251
4489.000000;1.400610
4488.000000;1.400628
4487.000000;1.400529
4486.000000;1.400496
4485.000000;1.400519
4484.000000;1.400504
4483.000000;1.400447
4482.000000;1.400466
4481.000000;1.400693
4480.000000;1.401137
4479.000000;1.401640
4478.000000;1.402003
4477.000000;1.402192
4476.000000;1.402375
4475.000000;1.402685
4474.000000;1.403010
4473.000000;1.403174
4472.000000;1.403283
4471.000000;1.403695
4470.000000;1.404580
4469.000000;1.405655
4468.000000;1.406474
4467.000000;1.406915
4466.000000;1.407212
4465.000000;1.407595
4464.000000;1.408087
4463.000000;1.408652
4462.000000;1.409329
4461.000000;1.410096
4460.000000;1.410733
4459.000000;1.411039
4458.000000;1.411156
4457.000000;1.411497
4456.000000;1.412292
4455.000000;1.413341
4454.000000;1.414312
4453.000000;1.415151
4452.000000;1.416026
4451.000000;1.416957
4450.000000;1.417718
4449.000000;1.418177
4448.000000;1.418530
4447.000000;1.419085
4446.000000;1.419947
4445.000000;1.421033
4444.000000;1.422278
4443.000000;1.423649
4442.000000;1.425011
4441.000000;1.426139
4440.000000;1.426879
4439.000000;1.427228
4438.000000;1.427306
4437.000000;1.427355
4436.000000;1.427743
4435.000000;1.428758
4434.000000;1.430308
4433.000000;1.431884
4432.000000;1.432909
4431.000000;1.433184
4430.000000;1.433052
4429.000000;1.433176
4428.000000;1.434070
4427.000000;1.435687
4426.000000;1.437446
4425.000000;1.438791
4424.000000;1.439732
4423.000000;1.440728
4422.000000;1.442066
4421.000000;1.443546
4420.000000;1.444806
4419.000000;1.445761
4418.000000;1.446629
4417.000000;1.447688
4416.000000;1.449085
4415.000000;1.450769
4414.000000;1.452479
4413.000000;1.453917
4412.000000;1.455052
4411.000000;1.456181
4410.000000;1.457573
4409.000000;1.459129
4408.000000;1.460463
4407.000000;1.461274
4406.000000;1.461566
4405.000000;1.461658
4404.000000;1.462057
4403.000000;1.463181
4402.000000;1.464971
4401.000000;1.466812
4400.000000;1.468041
4399.000000;1.468583
4398.000000;1.468970
4397.000000;1.469810
4396.000000;1.471339
4395.000000;1.473355
4394.000000;1.475345
4393.000000;1.476750
4392.000000;1.477414
4391.000000;1.477813
4390.000000;1.478620
4389.000000;1.480003
4388.000000;1.481579
4387.000000;1.483042
4386.000000;1.484511
4385.000000;1.486126
4384.000000;1.487672
4383.000000;1.488873
4382.000000;1.489803
4381.000000;1.490695
4380.000000;1.491507
4379.000000;1.492022
4378.000000;1.492284
4377.000000;1.492621
4376.000000;1.493332
4375.000000;1.494582
4374.000000;1.496486
4373.000000;1.498890
4372.000000;1.501124
4371.000000;1.502407
4370.000000;1.502686
4369.000000;1.502751
4368.000000;1.503411
4367.000000;1.504790
4366.000000;1.506535
4365.000000;1.508346
4364.000000;1.510081
4363.000000;1.511599
4362.000000;1.512811
4361.000000;1.513761
4360.000000;1.514516
4359.000000;1.515104
4358.000000;1.515725
4357.000000;1.516754
4356.000000;1.518328
4355.000000;1.520086
4354.000000;1.521624
4353.000000;1.523011
4352.000000;1.524531
4351.000000;1.526072
4350.000000;1.527233
4349.000000;1.528064
4348.000000;1.529247
4347.000000;1.531374
4346.000000;1.534301
4345.000000;1.537343
4344.000000;1.539842
4343.000000;1.541437
4342.000000;1.542078
4341.000000;1.542110
4340.000000;1.542277
4339.000000;1.543273
4338.000000;1.545205
4337.000000;1.547538
4336.000000;1.549605
4335.000000;1.551111
4334.000000;1.552134
4333.000000;1.552833
4332.000000;1.553366
4331.000000;1.553981
4330.000000;1.554907
4329.000000;1.556107
4328.000000;1.557329
4327.000000;1.558582
4326.000000;1.560299
4325.000000;1.562721
4324.000000;1.565263
4323.000000;1.566974
4322.000000;1.567639
4321.000000;1.567944
4320.000000;1.568487
4319.000000;1.569199
4318.000000;1.569970
4317.000000;1.571232
4316.000000;1.573329
4315.000000;1.575655
4314.000000;1.577111
4313.000000;1.577408
4312.000000;1.577371
4311.000000;1.578007
4310.000000;1.579737
4309.000000;1.582378
4308.000000;1.585190
4307.000000;1.586927
4306.000000;1.586639
4305.000000;1.584794
4304.000000;1.583031
4303.000000;1.582570
4302.000000;1.583365
4301.000000;1.584946
4300.000000;1.587293
4299.000000;1.590260
4298.000000;1.592776
4297.000000;1.593684
4296.000000;1.593285
4295.000000;1.593169
4294.000000;1.594381
4293.000000;1.596423
4292.000000;1.598126
4291.000000;1.598851
4290.000000;1.598509
4289.000000;1.597127
4288.000000;1.595074
4287.000000;1.593409
4286.000000;1.593299
4285.000000;1.594921
4284.000000;1.597249
4283.000000;1.599050
4282.000000;1.599856
4281.000000;1.599940
4280.000000;1.599783
4279.000000;1.599896
4278.000000;1.600823
4277.000000;1.602632
4276.000000;1.604423
4275.000000;1.604958
4274.000000;1.603955
4273.000000;1.602489
4272.000000;1.601913
4271.000000;1.602475
4270.000000;1.603237
4269.000000;1.603246
4268.000000;1.602502
4267.000000;1.601638
4266.000000;1.600804
4265.000000;1.599259
4264.000000;1.596404
4263.000000;1.592984
4262.000000;1.590660
4261.000000;1.590153
4260.000000;1.590340
4259.000000;1.589875
4258.000000;1.589286
4257.000000;1.590124
4256.000000;1.591801
4255.000000;1.590910
4254.000000;1.585169
4253.000000;1.577074
4252.000000;1.571746
4251.000000;1.571431
4250.000000;1.573366
4249.000000;1.573287
4248.000000;1.570230
4247.000000;1.566731
4246.000000;1.564750
4245.000000;1.563038
4244.000000;1.559028
4243.000000;1.552581
4242.000000;1.546777
4241.000000;1.544345
4240.000000;1.544743
4239.000000;1.545288
4238.000000;1.544491
4237.000000;1.543262
4236.000000;1.542471
4235.000000;1.540501
4234.000000;1.534774
4233.000000;1.525054
4232.000000;1.513815
4231.000000;1.504090
4230.000000;1.497487
4229.000000;1.492964
4228.000000;1.487038
4227.000000;1.477042
4226.000000;1.465025
4225.000000;1.456182
4224.000000;1.452134
4223.000000;1.447252
4222.000000;1.433953
4221.000000;1.411831
4220.000000;1.388635
4219.000000;1.372219
4218.000000;1.364110
4217.000000;1.359542
4216.000000;1.350986
4215.000000;1.332821
4214.000000;1.305643
4213.000000;1.275640
4212.000000;1.248604
4211.000000;1.225552
4210.000000;1.204168
4209.000000;1.183131
4208.000000;1.162577
4207.000000;1.139855
4206.000000;1.108656
4205.000000;1.065006
4204.000000;1.011665
4203.000000;0.954131
4202.000000;0.894228
4201.000000;0.831191
4200.000000;0.769640
4199.000000;0.723266
4198.000000;0.706612
4197.000000;0.725138
4196.000000;0.773847
4195.000000;0.838891
4194.000000;0.906681
4193.000000;0.973181
4192.000000;1.041510
4191.000000;1.112259
4190.000000;1.179434
4189.000000;1.236816
4188.000000;1.284339
4187.000000;1.324731
4186.000000;1.357368
4185.000000;1.381332
4184.000000;1.402270
4183.000000;1.429020
4182.000000;1.465712
4181.000000;1.509468
4180.000000;1.551850
4179.000000;1.583761
4178.000000;1.602144
4177.000000;1.612484
4176.000000;1.623896
4175.000000;1.641131
4174.000000;1.662757
4173.000000;1.687077
4172.000000;1.716368
4171.000000;1.752953
4170.000000;1.792326
4169.000000;1.823091
4168.000000;1.838319
4167.000000;1.844947
4166.000000;1.856037
4165.000000;1.878566
4164.000000;1.910136
4163.000000;1.942586
4162.000000;1.968042
4161.000000;1.984137
4160.000000;1.995955
4159.000000;2.010265
4158.000000;2.027649
4157.000000;2.043681
4156.000000;2.054633
4155.000000;2.059734
4154.000000;2.061647
4153.000000;2.067573
4152.000000;2.086086
4151.000000;2.118486
4150.000000;2.153024
4149.000000;2.171944
4148.000000;2.171562
4147.000000;2.169073
4146.000000;2.181157
4145.000000;2.206845
4144.000000;2.232906
4143.000000;2.251241
4142.000000;2.265549
4141.000000;2.276254
4140.000000;2.275544
4139.000000;2.266089
4138.000000;2.263086
4137.000000;2.274449
4136.000000;2.294094
4135.000000;2.313516
4134.000000;2.334816
4133.000000;2.365382
4132.000000;2.396946
4131.000000;2.405511
4130.000000;2.387799
4129.000000;2.368770
4128.000000;2.368416
4127.000000;2.386208
4126.000000;2.407741
4125.000000;2.419493
4124.000000;2.419541
4123.000000;2.416908
4122.000000;2.418428
4121.000000;2.422835
4120.000000;2.429433
4119.000000;2.444531
4118.000000;2.473201
4117.000000;2.510366
4116.000000;2.545330
4115.000000;2.562889
4114.000000;2.565806
4113.000000;2.571869
4112.000000;2.578876
4111.000000;2.583896
4110.000000;2.591185
4109.000000;2.598627
4108.000000;2.596903
4107.000000;2.574359
4106.000000;2.532998
4105.000000;2.492296
4104.000000;2.471043
4103.000000;2.475460
4102.000000;2.501711
4101.000000;2.540403
4100.000000;2.578359
4099.000000;2.604727
4098.000000;2.622517
4097.000000;2.646381
4096.000000;2.679235
4095.000000;2.695549
4094.000000;2.676833
4093.000000;2.645774
4092.000000;2.636079
4091.000000;2.670069
4090.000000;2.751092
4089.000000;2.855336
4088.000000;2.920881
4087.000000;2.884725
4086.000000;2.775410
4085.000000;2.667220
4084.000000;2.602444
4083.000000;2.588943
4082.000000;2.616377
4081.000000;2.664995
4080.000000;2.709260
4079.000000;2.725821
4078.000000;2.711340
4077.000000;2.686221
4076.000000;2.675546
4075.000000;2.695064
4074.000000;2.743212
4073.000000;2.792373
4072.000000;2.799633
4071.000000;2.752994
4070.000000;2.692670
4069.000000;2.660259
4068.000000;2.664502
4067.000000;2.689392
4066.000000;2.712353
4065.000000;2.725832
4064.000000;2.740680
4063.000000;2.761851
4062.000000;2.775476
4061.000000;2.771333
4060.000000;2.767047
4059.000000;2.784715
4058.000000;2.821269
4057.000000;2.855523
4056.000000;2.881778
4055.000000;2.910535
4054.000000;2.941155
4053.000000;2.960864
4052.000000;2.953064
4051.000000;2.920758
4050.000000;2.889736
4049.000000;2.883346
4048.000000;2.907825
4047.000000;2.942250
4046.000000;2.959003
4045.000000;2.964671
4044.000000;2.990576
4043.000000;3.053635
4042.000000;3.147091
4041.000000;3.247027
4040.000000;3.303613
4039.000000;3.269619
4038.000000;3.167331
4037.000000;3.055464
4036.000000;2.972530
4035.000000;2.931139
4034.000000;2.938648
4033.000000;3.005834
4032.000000;3.129509
4031.000000;3.233919
4030.000000;3.208163
4029.000000;3.123381
4028.000000;3.078692
4027.000000;3.108312
4026.000000;3.204314
4025.000000;3.298375
4024.000000;3.300820
4023.000000;3.238917
4022.000000;3.189316
4021.000000;3.156913
4020.000000;3.111150
4019.000000;3.060803
4018.000000;3.041243
4017.000000;3.063482
4016.000000;3.102327
4015.000000;3.114184
4014.000000;3.082889
4013.000000;3.025212
4012.000000;2.959986
4011.000000;2.901516
4010.000000;2.866873
4009.000000;2.875132
4008.000000;2.932849
4007.000000;3.019236
4006.000000;3.107489
4005.000000;3.194646
4004.000000;3.212948
4003.000000;3.108014
4002.000000;2.990687
4001.000000;2.922146
4000.000000;2.902308
3999.000000;2.917417
3998.000000;2.951552
3997.000000;2.968528
3996.000000;2.930956
3995.000000;2.878148
3994.000000;2.868343
3993.000000;2.925483
3992.000000;3.048023
3991.000000;3.193650
3990.000000;3.295721
3989.000000;3.294752
3988.000000;3.209504
3987.000000;3.120837
3986.000000;3.066279
3985.000000;3.077322
3984.000000;3.154885
3983.000000;3.226437
3982.000000;3.259713
3981.000000;3.321995
3980.000000;3.443561
3979.000000;3.563944
3978.000000;3.591764
3977.000000;3.773606
3976.000000;3.758190
3975.000000;3.318099
3974.000000;3.122937
3973.000000;3.059130
3972.000000;3.093399
3971.000000;3.235385
3970.000000;3.438079
3969.000000;3.395336
3968.000000;3.247770
3967.000000;3.217896
3966.000000;3.209261
3965.000000;3.177772
3964.000000;3.192387
3963.000000;3.277091
3962.000000;3.391094
3961.000000;3.506937
3960.000000;3.471292
3959.000000;3.335392
3958.000000;3.244609
3957.000000;3.212813
3956.000000;3.246146
3955.000000;3.321969
3954.000000;3.378307
3953.000000;3.356142
3952.000000;3.268156
3951.000000;3.173357
3950.000000;3.109846
3949.000000;3.091800
3948.000000;3.112571
3947.000000;3.143910
3946.000000;3.137873
3945.000000;3.093964
3944.000000;3.046332
3943.000000;3.034085
3942.000000;3.099981
3941.000000;3.276556
3940.000000;3.761401
3939.000000;4.148604
3938.000000;3.803167
3937.000000;4.015019
3936.000000;3.841776
3935.000000;3.518546
3934.000000;3.444286
3933.000000;3.472365
3932.000000;3.651041
3931.000000;4.198227
3930.000000;3.974209
3929.000000;3.608103
3928.000000;3.470942
3927.000000;3.428496
3926.000000;3.454403
3925.000000;3.521350
3924.000000;3.617530
3923.000000;3.636900
3922.000000;3.564042
3921.000000;3.511330
3920.000000;3.471177
3919.000000;3.424371
3918.000000;3.403202
3917.000000;3.445358
3916.000000;3.553646
3915.000000;3.719587
3914.000000;4.124348
3913.000000;4.503435
3912.000000;4.276212
3911.000000;4.126176
3910.000000;3.764812
3909.000000;3.568202
3908.000000;3.628168
3907.000000;3.947320
3906.000000;3.802735
3905.000000;3.573020
3904.000000;3.515761
3903.000000;3.499673
3902.000000;3.537083
3901.000000;3.681923
3900.000000;4.031343
3899.000000;3.872785
3898.000000;3.572523
3897.000000;3.487294
3896.000000;3.499105
3895.000000;3.547313
3894.000000;3.617086
3893.000000;3.701925
3892.000000;3.617347
3891.000000;3.461269
3890.000000;3.409690
3889.000000;3.420460
3888.000000;3.417827
3887.000000;3.394414
3886.000000;3.401394
3885.000000;3.551243
3884.000000;3.914106
3883.000000;3.833977
3882.000000;3.629990
3881.000000;3.594866
3880.000000;3.619015
3879.000000;3.706257
3878.000000;3.797393
3877.000000;3.748761
3876.000000;3.566339
3875.000000;3.365575
3874.000000;3.280176
3873.000000;3.357361
3872.000000;3.674739
3871.000000;4.363927
3870.000000;4.026833
3869.000000;3.830213
3868.000000;3.898570
3867.000000;4.141849
3866.000000;4.512929
3865.000000;4.371763
3864.000000;4.080638
3863.000000;3.943543
3862.000000;3.894745
3861.000000;3.823587
3860.000000;3.739402
3859.000000;3.714695
3858.000000;3.898753
3857.000000;4.008866
3856.000000;3.728203
3855.000000;3.565042
3854.000000;3.487192
3853.000000;3.489175
3852.000000;3.567101
3851.000000;3.624824
3850.000000;3.542093
3849.000000;3.418711
3848.000000;3.341377
3847.000000;3.523088
3846.000000;3.929669
3845.000000;3.520601
3844.000000;3.358273
3843.000000;3.400599
3842.000000;3.497358
3841.000000;3.540526
3840.000000;3.512562
3839.000000;3.538526
3838.000000;3.631904
3837.000000;3.960028
3836.000000;4.461476
3835.000000;4.079358
3834.000000;3.953890
3833.000000;4.457804
3832.000000;4.248920
3831.000000;3.751028
3830.000000;3.628263
3829.000000;3.601531
3828.000000;3.643027
3827.000000;3.779942
3826.000000;4.181793
3825.000000;4.260014
3824.000000;3.898831
3823.000000;3.766049
3822.000000;3.707514
3821.000000;3.694354
3820.000000;3.688665
3819.000000;3.749948
3818.000000;3.803832
3817.000000;3.704413
3816.000000;3.594231
3815.000000;3.613960
3814.000000;3.931041
3813.000000;3.965573
3812.000000;3.505932
3811.000000;3.296781
3810.000000;3.218332
3809.000000;3.256468
3808.000000;3.352209
3807.000000;3.393812
3806.000000;3.366796
3805.000000;3.339256
3804.000000;3.364710
3803.000000;3.412094
3802.000000;3.488413
3801.000000;3.637660
3800.000000;3.901824
3799.000000;4.283804
3798.000000;4.821439
3797.000000;4.503732
3796.000000;3.946111
3795.000000;3.722520
3794.000000;3.698116
3793.000000;3.786041
3792.000000;3.864203
3791.000000;3.660596
3790.000000;3.454327
3789.000000;3.418940
3788.000000;3.543814
3787.000000;3.936978
3786.000000;3.879428
3785.000000;3.439840
3784.000000;3.321445
3783.000000;3.339007
3782.000000;3.445268
3781.000000;3.518310
3780.000000;3.506172
3779.000000;3.503467
3778.000000;3.622768
3777.000000;4.317757
3776.000000;4.151827
3775.000000;3.663564
3774.000000;3.612044
3773.000000;3.719494
3772.000000;3.748024
3771.000000;3.561541
3770.000000;3.462376
3769.000000;3.439085
3768.000000;3.463533
3767.000000;3.528277
3766.000000;3.524972
3765.000000;3.471194
3764.000000;3.479805
3763.000000;3.660874
3762.000000;3.739390
3761.000000;3.453479
3760.000000;3.299514
3759.000000;3.288146
3758.000000;3.352542
3757.000000;3.425485
3756.000000;3.442324
3755.000000;3.405439
3754.000000;3.350632
3753.000000;3.346002
3752.000000;3.417292
3751.000000;3.505862
3750.000000;3.543295
3749.000000;3.580458
3748.000000;3.626891
3747.000000;3.648203
3746.000000;3.679273
3745.000000;3.746601
3744.000000;3.875541
3743.000000;3.843490
3742.000000;3.601811
3741.000000;3.438124
3740.000000;3.377299
3739.000000;3.472556
3738.000000;3.839423
3737.000000;4.539375
3736.000000;4.152585
3735.000000;3.760780
3734.000000;3.657985
3733.000000;3.736091
3732.000000;3.923937
3731.000000;4.367058
3730.000000;4.372308
3729.000000;3.743993
3728.000000;3.469188
3727.000000;3.321889
3726.000000;3.299745
3725.000000;3.402480
3724.000000;3.560570
3723.000000;3.670706
3722.000000;3.642341
3721.000000;3.580444
3720.000000;3.547923
3719.000000;3.583454
3718.000000;3.628959
3717.000000;3.585183
3716.000000;3.513400
3715.000000;3.576118
3714.000000;3.740377
3713.000000;3.607194
3712.000000;3.615093
3711.000000;4.067067
3710.000000;3.926119
3709.000000;3.579376
3708.000000;3.468255
3707.000000;3.409832
3706.000000;3.384785
3705.000000;3.358414
3704.000000;3.336482
3703.000000;3.387579
3702.000000;3.539014
3701.000000;3.687663
3700.000000;3.681479
3699.000000;3.635079
3698.000000;3.613399
3697.000000;3.606905
3696.000000;3.613927
3695.000000;3.622136
3694.000000;3.631144
3693.000000;3.570709
3692.000000;3.440057
3691.000000;3.357948
3690.000000;3.378004
3689.000000;3.469741
3688.000000;3.528989
3687.000000;3.499246
3686.000000;3.415514
3685.000000;3.308892
3684.000000;3.222608
3683.000000;3.181295
3682.000000;3.193345
3681.000000;3.267774
3680.000000;3.391404
3679.000000;3.521039
3678.000000;3.624544
3677.000000;3.703644
3676.000000;3.682238
3675.000000;3.580404
3674.000000;3.534047
3673.000000;3.533865
3672.000000;3.501506
3671.000000;3.408069
3670.000000;3.310605
3669.000000;3.238757
3668.000000;3.223221
3667.000000;3.269075
3666.000000;3.372081
3665.000000;3.519302
3664.000000;3.562943
3663.000000;3.453156
3662.000000;3.542845
3661.000000;4.063116
3660.000000;3.769480
3659.000000;3.530174
3658.000000;3.492305
3657.000000;3.323967
3656.000000;3.215873
3655.000000;3.231719
3654.000000;3.332561
3653.000000;3.435125
3652.000000;3.503197
3651.000000;3.625412
3650.000000;3.867585
3649.000000;3.940086
3648.000000;3.873254
3647.000000;3.908569
3646.000000;3.951947
3645.000000;3.915524
3644.000000;3.742746
3643.000000;3.578544
3642.000000;3.535641
3641.000000;3.573093
3640.000000;3.548523
3639.000000;3.438187
3638.000000;3.372367
3637.000000;3.367164
3636.000000;3.409527
3635.000000;3.473043
3634.000000;3.626144
3633.000000;3.971792
3632.000000;3.773685
3631.000000;3.485780
3630.000000;3.402379
3629.000000;3.431406
3628.000000;3.551830
3627.000000;3.688421
3626.000000;3.762350
3625.000000;3.714084
3624.000000;3.577999
3623.000000;3.469337
3622.000000;3.435746
3621.000000;3.452003
3620.000000;3.514361
3619.000000;3.554522
3618.000000;3.542027
3617.000000;3.567232
3616.000000;3.776864
3615.000000;4.236943
3614.000000;3.771865
3613.000000;3.467631
3612.000000;3.425850
3611.000000;3.502382
3610.000000;3.766201
3609.000000;4.028239
3608.000000;3.785313
3607.000000;3.689431
3606.000000;3.701132
3605.000000;3.696591
3604.000000;3.672344
3603.000000;3.550369
3602.000000;3.413526
3601.000000;3.324192
3600.000000;3.273472
3599.000000;3.258895
3598.000000;3.281913
3597.000000;3.314589
3596.000000;3.331160
3595.000000;3.344212
3594.000000;3.377758
3593.000000;3.431810
3592.000000;3.481659
3591.000000;3.417320
3590.000000;3.249032
3589.000000;3.136367
3588.000000;3.124088
3587.000000;3.165548
3586.000000;3.186911
3585.000000;3.170012
3584.000000;3.135637
3583.000000;3.108220
3582.000000;3.138254
3581.000000;3.277740
3580.000000;3.462731
3579.000000;3.572218
3578.000000;3.494533
3577.000000;3.272795
3576.000000;3.144106
3575.000000;3.109596
3574.000000;3.126401
3573.000000;3.168070
3572.000000;3.225576
3571.000000;3.301919
3570.000000;3.497296
3569.000000;3.799903
3568.000000;3.563700
3567.000000;3.353319
3566.000000;3.313730
3565.000000;3.345863
3564.000000;3.449914
3563.000000;3.586837
3562.000000;3.674102
3561.000000;3.716624
3560.000000;3.698028
3559.000000;3.557820
3558.000000;3.385607
3557.000000;3.251990
3556.000000;3.185474
3555.000000;3.191643
3554.000000;3.244276
3553.000000;3.354411
3552.000000;3.534400
3551.000000;3.914245
3550.000000;4.089965
3549.000000;3.490289
3548.000000;3.267096
3547.000000;3.219249
3546.000000;3.397567
3545.000000;3.754830
3544.000000;3.590406
3543.000000;3.491641
3542.000000;3.588714
3541.000000;3.783593
3540.000000;3.775166
3539.000000;3.598149
3538.000000;3.506925
3537.000000;3.431701
3536.000000;3.431206
3535.000000;3.516203
3534.000000;3.737207
3533.000000;3.933413
3532.000000;3.556491
3531.000000;3.288890
3530.000000;3.193219
3529.000000;3.206099
3528.000000;3.304541
3527.000000;3.439579
3526.000000;3.482056
3525.000000;3.337867
3524.000000;3.152162
3523.000000;3.046309
3522.000000;3.043192
3521.000000;3.112779
3520.000000;3.197054
3519.000000;3.289695
3518.000000;3.412993
3517.000000;3.376310
3516.000000;3.237527
3515.000000;3.215179
3514.000000;3.356215
3513.000000;3.767875
3512.000000;3.753536
3511.000000;3.400494
3510.000000;3.278606
3509.000000;3.260908
3508.000000;3.370032
3507.000000;3.559693
3506.000000;3.705152
3505.000000;3.707591
3504.000000;3.593275
3503.000000;3.544400
3502.000000;3.574234
3501.000000;3.505242
3500.000000;3.357247
3499.000000;3.259160
3498.000000;3.207925
3497.000000;3.148649
3496.000000;3.074086
3495.000000;3.036217
3494.000000;3.059303
3493.000000;3.150388
3492.000000;3.204104
3491.000000;3.123216
3490.000000;3.081076
3489.000000;3.119896
3488.000000;3.187160
3487.000000;3.266595
3486.000000;3.324426
3485.000000;3.306723
3484.000000;3.272161
3483.000000;3.330332
3482.000000;3.457537
3481.000000;3.432443
3480.000000;3.467753
3479.000000;3.560759
3478.000000;3.455746
3477.000000;3.554625
3476.000000;3.558701
3475.000000;3.308317
3474.000000;3.273251
3473.000000;3.355207
3472.000000;3.298307
3471.000000;3.118351
3470.000000;3.012447
3469.000000;3.018791
3468.000000;3.196525
3467.000000;3.678144
3466.000000;3.580352
3465.000000;3.334770
3464.000000;3.359602
3463.000000;3.349348
3462.000000;3.336984
3461.000000;3.614341
3460.000000;4.119180
3459.000000;3.605315
3458.000000;3.323578
3457.000000;3.203995
3456.000000;3.256239
3455.000000;3.616135
3454.000000;3.558352
3453.000000;3.255980
3452.000000;3.185527
3451.000000;3.177699
3450.000000;3.190404
3449.000000;3.211899
3448.000000;3.262022
3447.000000;3.298181
3446.000000;3.316000
3445.000000;3.397280
3444.000000;3.525326
3443.000000;3.588321
3442.000000;3.517559
3441.000000;3.426274
3440.000000;3.380641
3439.000000;3.373927
3438.000000;3.424120
3437.000000;3.485095
3436.000000;3.480846
3435.000000;3.533682
3434.000000;3.843367
3433.000000;4.249911
3432.000000;3.877724
3431.000000;3.637790
3430.000000;3.451716
3429.000000;3.272266
3428.000000;3.115020
3427.000000;2.992938
3426.000000;2.917575
3425.000000;2.897932
3424.000000;2.930538
3423.000000;2.983113
3422.000000;3.003307
3421.000000;2.973403
3420.000000;2.927345
3419.000000;2.904056
3418.000000;2.928273
3417.000000;3.020570
3416.000000;3.141078
3415.000000;3.100856
3414.000000;2.988213
3413.000000;2.955516
3412.000000;2.993459
3411.000000;3.034004
3410.000000;3.025419
3409.000000;3.014778
3408.000000;3.055274
3407.000000;3.233844
3406.000000;3.459056
3405.000000;3.350625
3404.000000;3.364790
3403.000000;3.651632
3402.000000;3.492854
3401.000000;3.144978
3400.000000;2.905674
3399.000000;2.776064
3398.000000;2.785283
3397.000000;2.960954
3396.000000;3.495555
3395.000000;3.353298
3394.000000;3.136657
3393.000000;3.187623
3392.000000;3.249871
3391.000000;3.261879
3390.000000;3.313415
3389.000000;3.373150
3388.000000;3.326547
3387.000000;3.312147
3386.000000;3.360749
3385.000000;3.436918
3384.000000;3.630363
3383.000000;3.658488
3382.000000;3.315640
3381.000000;3.090843
3380.000000;2.952826
3379.000000;2.899884
3378.000000;2.932954
3377.000000;3.026649
3376.000000;3.120101
3375.000000;3.171937
3374.000000;3.194073
3373.000000;3.201839
3372.000000;3.244880
3371.000000;3.282588
3370.000000;3.176314
3369.000000;3.084990
3368.000000;3.108382
3367.000000;3.230894
3366.000000;3.380072
3365.000000;3.451169
3364.000000;3.496348
3363.000000;3.672838
3362.000000;3.744426
3361.000000;3.225133
3360.000000;2.997011
3359.000000;2.948844
3358.000000;3.035120
3357.000000;3.225652
3356.000000;3.480023
3355.000000;3.581422
3354.000000;3.425226
3353.000000;3.355190
3352.000000;3.385212
3351.000000;3.291621
3350.000000;3.148439
3349.000000;3.191004
3348.000000;3.350776
3347.000000;3.264351
3346.000000;3.173156
3345.000000;3.252077
3344.000000;3.406197
3343.000000;3.729930
3342.000000;3.805507
3341.000000;3.355309
3340.000000;3.126367
3339.000000;3.010221
3338.000000;2.938038
3337.000000;2.880236
3336.000000;2.827665
3335.000000;2.805520
3334.000000;2.832756
3333.000000;2.892808
3332.000000;2.943923
3331.000000;2.980139
3330.000000;3.077234
3329.000000;3.289774
3328.000000;3.610612
3327.000000;3.670030
3326.000000;3.359011
3325.000000;3.253954
3324.000000;3.507054
3323.000000;3.491742
3322.000000;3.090239
3321.000000;2.952245
3320.000000;2.947673
3319.000000;3.073669
3318.000000;3.455664
3317.000000;3.717883
3316.000000;3.697569
3315.000000;3.824858
3314.000000;3.315848
3313.000000;3.115101
3312.000000;3.059434
3311.000000;3.035499
3310.000000;3.062211
3309.000000;3.177661
3308.000000;3.304384
3307.000000;3.214773
3306.000000;3.148749
3305.000000;3.285852
3304.000000;3.679222
3303.000000;3.330588
3302.000000;3.055572
3301.000000;2.975549
3300.000000;2.971787
3299.000000;3.001288
3298.000000;3.068252
3297.000000;3.244050
3296.000000;3.687006
3295.000000;3.474901
3294.000000;3.134964
3293.000000;3.051407
3292.000000;3.103975
3291.000000;3.357034
3290.000000;3.238032
3289.000000;3.062576
3288.000000;3.082624
3287.000000;3.144868
3286.000000;3.084795
3285.000000;3.018354
3284.000000;3.058750
3283.000000;3.224090
3282.000000;3.457722
3281.000000;3.590656
3280.000000;3.504465
3279.000000;3.357875
3278.000000;3.301950
3277.000000;3.232261
3276.000000;3.091415
3275.000000;2.942237
3274.000000;2.856887
3273.000000;2.835695
3272.000000;2.843093
3271.000000;2.857073
3270.000000;2.887133
3269.000000;2.960775
3268.000000;3.123187
3267.000000;3.447847
3266.000000;3.919122
3265.000000;3.661167
3264.000000;3.262297
3263.000000;3.098338
3262.000000;3.102915
3261.000000;3.209716
3260.000000;3.330176
3259.000000;3.392044
3258.000000;3.359699
3257.000000;3.298006
3256.000000;3.271825
3255.000000;3.257306
3254.000000;3.297855
3253.000000;3.429294
3252.000000;3.599666
3251.000000;3.974814
3250.000000;3.650301
3249.000000;3.224228
3248.000000;3.068011
3247.000000;3.021693
3246.000000;3.067549
3245.000000;3.403392
3244.000000;3.667349
3243.000000;3.184434
3242.000000;3.097533
3241.000000;3.153449
3240.000000;3.330688
3239.000000;3.495327
3238.000000;3.715704
3237.000000;4.126731
3236.000000;3.624432
3235.000000;3.403767
3234.000000;3.316022
3233.000000;3.290420
3232.000000;3.505555
3231.000000;3.724522
3230.000000;3.418471
3229.000000;3.338928
3228.000000;3.314413
3227.000000;3.302601
3226.000000;3.376400
3225.000000;3.513168
3224.000000;3.560769
3223.000000;3.484796
3222.000000;3.383901
3221.000000;3.327315
3220.000000;3.307077
3219.000000;3.279690
3218.000000;3.257126
3217.000000;3.275571
3216.000000;3.266227
3215.000000;3.183790
3214.000000;3.146950
3213.000000;3.219931
3212.000000;3.362707
3211.000000;3.477225
3210.000000;3.614014
3209.000000;3.567004
3208.000000;3.405457
3207.000000;3.267393
3206.000000;3.127795
3205.000000;3.059236
3204.000000;3.065426
3203.000000;3.077547
3202.000000;3.063085
3201.000000;3.049223
3200.000000;3.040387
3199.000000;3.042070
3198.000000;3.080897
3197.000000;3.190071
3196.000000;3.482685
3195.000000;3.594155
3194.000000;3.210157
3193.000000;3.145533
3192.000000;3.213115
3191.000000;3.294390
3190.000000;3.210495
3189.000000;3.070364
3188.000000;3.030458
3187.000000;3.158048
3186.000000;3.550977
3185.000000;3.310449
3184.000000;2.972479
3183.000000;2.824081
3182.000000;2.781930
3181.000000;2.878966
3180.000000;3.158722
3179.000000;3.600440
3178.000000;3.577871
3177.000000;3.189836
3176.000000;2.953175
3175.000000;2.912062
3174.000000;3.033010
3173.000000;3.229314
3172.000000;3.267665
3171.000000;3.140533
3170.000000;3.106152
3169.000000;3.329093
3168.000000;3.823092
3167.000000;3.493636
3166.000000;3.180756
3165.000000;2.964255
3164.000000;2.927547
3163.000000;3.049766
3162.000000;3.224145
3161.000000;3.311915
3160.000000;3.192665
3159.000000;2.993139
3158.000000;2.940062
3157.000000;3.040215
3156.000000;3.235552
3155.000000;3.131890
3154.000000;2.954336
3153.000000;2.841535
3152.000000;2.751351
3151.000000;2.714004
3150.000000;2.753943
3149.000000;2.873634
3148.000000;3.036073
3147.000000;3.165382
3146.000000;3.215101
3145.000000;3.225613
3144.000000;3.287904
3143.000000;3.491801
3142.000000;3.607371
3141.000000;3.593869
3140.000000;3.487319
3139.000000;3.043992
3138.000000;2.869733
3137.000000;2.871331
3136.000000;3.106970
3135.000000;3.598468
3134.000000;3.340086
3133.000000;3.163401
3132.000000;3.187128
3131.000000;3.213440
3130.000000;3.251463
3129.000000;3.219003
3128.000000;3.228827
3127.000000;3.252222
3126.000000;3.106578
3125.000000;2.981553
3124.000000;2.932708
3123.000000;2.921838
3122.000000;2.932119
3121.000000;2.952337
3120.000000;2.948080
3119.000000;2.907472
3118.000000;2.883369
3117.000000;2.917106
3116.000000;3.013723
3115.000000;3.133054
3114.000000;3.191792
3113.000000;3.307682
3112.000000;3.640815
3111.000000;3.370098
3110.000000;3.007995
3109.000000;2.856950
3108.000000;2.809396
3107.000000;2.868572
3106.000000;3.031327
3105.000000;3.294738
3104.000000;3.484939
3103.000000;3.505652
3102.000000;3.374294
3101.000000;3.253423
3100.000000;3.278620
3099.000000;3.436919
3098.000000;3.362867
3097.000000;3.215674
3096.000000;3.211608
3095.000000;3.202529
3094.000000;3.039139
3093.000000;2.915274
3092.000000;2.864889
3091.000000;2.852893
3090.000000;2.859292
3089.000000;2.868664
3088.000000;2.847483
3087.000000;2.782638
3086.000000;2.726503
3085.000000;2.720982
3084.000000;2.743287
3083.000000;2.747835
3082.000000;2.763457
3081.000000;2.851931
3080.000000;3.001418
3079.000000;3.102690
3078.000000;3.181201
3077.000000;3.624448
3076.000000;3.319929
3075.000000;3.009959
3074.000000;2.972586
3073.000000;3.015642
3072.000000;3.072101
3071.000000;3.031290
3070.000000;2.949503
3069.000000;2.906706
3068.000000;2.925931
3067.000000;2.990967
3066.000000;3.029453
3065.000000;2.999462
3064.000000;2.971918
3063.000000;2.988757
3062.000000;3.044295
3061.000000;3.133734
3060.000000;3.255597
3059.000000;3.288921
3058.000000;3.116404
3057.000000;2.941547
3056.000000;2.881375
3055.000000;3.002688
3054.000000;3.229951
3053.000000;3.120488
3052.000000;3.000832
3051.000000;3.047100
3050.000000;3.155179
3049.000000;3.394618
3048.000000;3.373018
3047.000000;2.961725
3046.000000;2.740438
3045.000000;2.677281
3044.000000;2.728996
3043.000000;2.870536
3042.000000;3.051614
3041.000000;3.170077
3040.000000;3.203318
3039.000000;3.254230
3038.000000;3.214156
3037.000000;3.057078
3036.000000;2.945578
3035.000000;2.889735
3034.000000;2.863974
3033.000000;2.855052
3032.000000;2.867032
3031.000000;2.864230
3030.000000;2.827731
3029.000000;2.814197
3028.000000;2.854767
3027.000000;2.940641
3026.000000;3.020548
3025.000000;3.046854
3024.000000;3.098103
3023.000000;3.372554
3022.000000;3.402988
3021.000000;3.145307
3020.000000;3.043044
3019.000000;3.027269
3018.000000;3.136427
3017.000000;3.432051
3016.000000;3.762228
3015.000000;3.399401
3014.000000;3.012861
3013.000000;2.814333
3012.000000;2.776022
3011.000000;2.892309
3010.000000;3.214942
3009.000000;3.764612
3008.000000;3.621379
3007.000000;3.519163
3006.000000;3.661387
3005.000000;3.698163
3004.000000;3.272495
3003.000000;3.101754
3002.000000;3.048890
3001.000000;3.017747
3000.000000;2.980937
2999.000000;2.962767
2998.000000;3.009080
2997.000000;3.155602
2996.000000;3.348145
2995.000000;3.391509
2994.000000;3.418092
2993.000000;3.533576
2992.000000;3.442002
2991.000000;3.232878
2990.000000;3.020237
2989.000000;2.862232
2988.000000;2.794942
2987.000000;2.831050
2986.000000;2.957575
2985.000000;3.237283
2984.000000;3.876200
2983.000000;3.210606
2982.000000;3.007435
2981.000000;3.005689
2980.000000;3.015960
2979.000000;2.927664
2978.000000;2.865396
2977.000000;2.885857
2976.000000;2.920996
2975.000000;2.885450
2974.000000;2.808862
2973.000000;2.759604
2972.000000;2.760350
2971.000000;2.799299
2970.000000;2.839897
2969.000000;2.892092
2968.000000;3.114928
2967.000000;3.361587
2966.000000;3.070744
2965.000000;2.999650
2964.000000;3.218464
2963.000000;3.770127
2962.000000;4.465887
2961.000000;3.696055
2960.000000;3.370790
2959.000000;3.151520
2958.000000;2.963037
2957.000000;2.859118
2956.000000;2.857474
2955.000000;2.945658
2954.000000;3.062616
2953.000000;3.108768
2952.000000;3.081334
2951.000000;3.020211
2950.000000;2.960774
2949.000000;2.950631
2948.000000;2.990801
2947.000000;3.030298
2946.000000;3.031163
2945.000000;2.972587
2944.000000;2.900391
2943.000000;2.906611
2942.000000;3.012384
2941.000000;3.182320
2940.000000;3.397708
2939.000000;3.425825
2938.000000;3.318247
2937.000000;3.271946
2936.000000;3.171915
2935.000000;3.001507
2934.000000;2.877884
2933.000000;2.867934
2932.000000;2.980603
2931.000000;3.203238
2930.000000;3.449216
2929.000000;3.650646
2928.000000;4.019067
2927.000000;3.538678
2926.000000;3.129075
2925.000000;3.013311
2924.000000;3.139155
2923.000000;3.297799
2922.000000;3.075595
2921.000000;2.966819
2920.000000;3.044877
2919.000000;3.213150
2918.000000;3.209138
2917.000000;3.135787
2916.000000;3.144875
2915.000000;3.079112
2914.000000;2.927595
2913.000000;2.782919
2912.000000;2.727942
2911.000000;2.808340
2910.000000;3.064633
2909.000000;3.579028
2908.000000;3.959326
2907.000000;3.448581
2906.000000;3.117555
2905.000000;2.967657
2904.000000;2.979888
2903.000000;3.027934
2902.000000;2.857639
2901.000000;2.723007
2900.000000;2.722174
2899.000000;2.819295
2898.000000;2.958952
2897.000000;3.077193
2896.000000;3.288617
2895.000000;3.400792
2894.000000;3.118402
2893.000000;2.910062
2892.000000;2.795414
2891.000000;2.753527
2890.000000;2.793989
2889.000000;2.926251
2888.000000;3.236126
2887.000000;3.896074
2886.000000;3.615940
2885.000000;3.394375
2884.000000;3.242383
2883.000000;3.078804
2882.000000;3.014573
2881.000000;2.976863
2880.000000;2.942771
2879.000000;2.939355
2878.000000;2.977803
2877.000000;3.013257
2876.000000;3.022685
2875.000000;3.119271
2874.000000;3.446208
2873.000000;3.495234
2872.000000;3.364343
2871.000000;3.504261
2870.000000;3.317144
2869.000000;3.149964
2868.000000;3.016278
2867.000000;2.880901
2866.000000;2.850632
2865.000000;2.956813
2864.000000;3.364826
2863.000000;3.504081
2862.000000;3.199000
2861.000000;3.199294
2860.000000;3.276344
2859.000000;3.307673
2858.000000;3.286569
2857.000000;3.277785
2856.000000;3.374219
2855.000000;3.752610
2854.000000;3.599673
2853.000000;3.272235
2852.000000;3.188547
2851.000000;3.325535
2850.000000;3.635074
2849.000000;3.324896
2848.000000;3.116269
2847.000000;3.060293
2846.000000;3.022571
2845.000000;2.987870
2844.000000;2.969318
2843.000000;2.951736
2842.000000;2.902029
2841.000000;2.858977
2840.000000;2.859546
2839.000000;2.910160
2838.000000;2.990115
2837.000000;3.075357
2836.000000;3.153025
2835.000000;3.192836
2834.000000;3.177278
2833.000000;3.275902
2832.000000;3.510747
2831.000000;3.395281
2830.000000;3.343848
2829.000000;3.313149
2828.000000;3.289448
2827.000000;3.415760
2826.000000;3.179281
2825.000000;2.978941
2824.000000;2.954470
2823.000000;3.029584
2822.000000;3.135653
2821.000000;3.191129
2820.000000;3.254779
2819.000000;3.204099
2818.000000;3.046270
2817.000000;2.977196
2816.000000;3.039782
2815.000000;3.119299
2814.000000;3.013042
2813.000000;2.905168
2812.000000;2.984673
2811.000000;3.262502
2810.000000;3.246562
2809.000000;3.094052
2808.000000;3.189417
2807.000000;3.449123
2806.000000;3.459855
2805.000000;3.305729
2804.000000;3.275736
2803.000000;3.277579
2802.000000;3.384376
2801.000000;3.326075
2800.000000;3.069258
2799.000000;2.984680
2798.000000;3.054340
2797.000000;3.230527
2796.000000;3.316073
2795.000000;3.146356
2794.000000;3.031530
2793.000000;3.030092
2792.000000;3.217934
2791.000000;3.528086
2790.000000;3.297763
2789.000000;3.123778
2788.000000;3.168972
2787.000000;3.260911
2786.000000;3.188241
2785.000000;3.122661
2784.000000;3.066478
2783.000000;2.924024
2782.000000;2.800787
2781.000000;2.787587
2780.000000;2.879724
2779.000000;3.157177
2778.000000;3.790734
2777.000000;3.319144
2776.000000;3.100088
2775.000000;3.184694
2774.000000;3.503674
2773.000000;3.643379
2772.000000;3.289681
2771.000000;3.209340
2770.000000;3.414947
2769.000000;3.980166
2768.000000;3.593314
2767.000000;3.365410
2766.000000;3.592717
2765.000000;3.762655
2764.000000;3.259817
2763.000000;3.058473
2762.000000;3.014772
2761.000000;3.050532
2760.000000;3.073833
2759.000000;3.019400
2758.000000;3.084300
2757.000000;3.215308
2756.000000;3.175330
2755.000000;3.067890
2754.000000;3.162726
2753.000000;3.392122
2752.000000;3.211481
2751.000000;3.063037
2750.000000;3.228160
2749.000000;3.874350
2748.000000;3.808110
2747.000000;3.443853
2746.000000;3.334066
2745.000000;3.300940
2744.000000;3.539045
2743.000000;4.198261
2742.000000;3.945423
2741.000000;3.487734
2740.000000;3.121627
2739.000000;2.913073
2738.000000;2.861465
2737.000000;2.908132
2736.000000;3.250565
2735.000000;3.610217
2734.000000;3.082239
2733.000000;2.946632
2732.000000;2.950625
2731.000000;3.008588
2730.000000;3.105031
2729.000000;3.218371
2728.000000;3.502857
2727.000000;3.420236
2726.000000;3.196014
2725.000000;3.152263
2724.000000;3.358663
2723.000000;3.706024
2722.000000;3.203473
2721.000000;2.952489
2720.000000;2.899710
2719.000000;2.916621
2718.000000;3.004616
2717.000000;3.140512
2716.000000;3.487384
2715.000000;3.589738
2714.000000;3.118272
2713.000000;2.924882
2712.000000;2.870455
2711.000000;2.930027
2710.000000;3.127815
2709.000000;3.253907
2708.000000;3.183280
2707.000000;3.182654
2706.000000;3.239013
2705.000000;3.186208
2704.000000;3.079565
2703.000000;3.036983
2702.000000;3.073566
2701.000000;3.087842
2700.000000;3.018990
2699.000000;2.929428
2698.000000;2.868216
2697.000000;2.861889
2696.000000;2.943229
2695.000000;3.099658
2694.000000;3.121935
2693.000000;3.154143
2692.000000;3.259345
2691.000000;3.045386
2690.000000;2.872616
2689.000000;2.844359
2688.000000;2.911792
2687.000000;3.101870
2686.000000;3.341505
2685.000000;3.318660
2684.000000;3.265508
2683.000000;3.561832
2682.000000;3.522512
2681.000000;3.099624
2680.000000;2.987627
2679.000000;3.002578
2678.000000;3.082882
2677.000000;3.176313
2676.000000;3.126728
2675.000000;3.009530
2674.000000;2.938448
2673.000000;2.931857
2672.000000;2.982627
2671.000000;3.077605
2670.000000;3.194815
2669.000000;3.301193
2668.000000;3.321720
2667.000000;3.361599
2666.000000;3.474765
2665.000000;3.467815
2664.000000;3.248590
2663.000000;3.064723
2662.000000;3.010641
2661.000000;3.060232
2660.000000;3.171268
2659.000000;3.352719
2658.000000;3.374032
2657.000000;3.044035
2656.000000;2.829564
2655.000000;2.774475
2654.000000;2.837224
2653.000000;3.167595
2652.000000;3.546733
2651.000000;3.104153
2650.000000;2.921420
2649.000000;2.835579
2648.000000;2.758077
2647.000000;2.722084
2646.000000;2.731601
2645.000000;2.803695
2644.000000;2.925233
2643.000000;3.089171
2642.000000;3.240223
2641.000000;3.170806
2640.000000;2.983815
2639.000000;2.899041
2638.000000;2.942472
2637.000000;3.129479
2636.000000;3.474751
2635.000000;3.551966
2634.000000;3.250757
2633.000000;3.040606
2632.000000;2.939140
2631.000000;2.946283
2630.000000;3.003101
2629.000000;3.044424
2628.000000;3.127802
2627.000000;3.203114
2626.000000;3.134988
2625.000000;3.076490
2624.000000;3.073024
2623.000000;3.124666
2622.000000;3.252603
2621.000000;3.226699
2620.000000;3.079702
2619.000000;3.079747
2618.000000;3.355660
2617.000000;3.438879
2616.000000;3.191612
2615.000000;3.131287
2614.000000;3.268007
2613.000000;3.807266
2612.000000;3.660127
2611.000000;3.361987
2610.000000;3.357933
2609.000000;3.271309
2608.000000;3.117194
2607.000000;3.006107
2606.000000;2.996038
2605.000000;3.069783
2604.000000;3.141626
2603.000000;3.164430
2602.000000;3.253871
2601.000000;3.315051
2600.000000;3.102120
2599.000000;2.946270
2598.000000;2.940339
2597.000000;3.132944
2596.000000;3.731515
2595.000000;3.660293
2594.000000;3.215578
2593.000000;3.075182
2592.000000;3.030715
2591.000000;3.191274
2590.000000;3.702484
2589.000000;3.671530
2588.000000;3.336052
2587.000000;3.357186
2586.000000;3.503927
2585.000000;3.195555
2584.000000;2.960297
2583.000000;2.897112
2582.000000;2.925542
2581.000000;3.047067
2580.000000;3.221429
2579.000000;3.299632
2578.000000;3.194395
2577.000000;3.069146
2576.000000;2.998237
2575.000000;2.948793
2574.000000;2.887930
2573.000000;2.823606
2572.000000;2.797635
2571.000000;2.841468
2570.000000;2.977476
2569.000000;3.364531
2568.000000;3.847138
2567.000000;3.474409
2566.000000;3.376713
2565.000000;3.434033
2564.000000;3.699861
2563.000000;4.055803
2562.000000;3.629896
2561.000000;3.349391
2560.000000;3.303324
2559.000000;3.516395
2558.000000;3.591397
2557.000000;3.461530
2556.000000;3.279456
2555.000000;2.973333
2554.000000;2.782127
2553.000000;2.739939
2552.000000;2.824703
2551.000000;3.119752
2550.000000;3.720263
2549.000000;3.554381
2548.000000;3.677435
2547.000000;3.550099
2546.000000;3.079590
2545.000000;2.965968
2544.000000;2.993933
2543.000000;3.085771
2542.000000;3.137309
2541.000000;3.150520
2540.000000;3.211455
2539.000000;3.284028
2538.000000;3.319935
2537.000000;3.289428
2536.000000;3.316637
2535.000000;3.337836
2534.000000;3.157043
2533.000000;3.019203
2532.000000;3.029609
2531.000000;3.027815
2530.000000;2.966611
2529.000000;2.996885
2528.000000;3.297016
2527.000000;3.786753
2526.000000;3.436362
2525.000000;3.320470
2524.000000;3.446700
2523.000000;3.665014
2522.000000;3.355363
2521.000000;3.123882
2520.000000;3.075424
2519.000000;3.056960
2518.000000;3.022667
2517.000000;2.984569
2516.000000;2.979105
2515.000000;2.990438
2514.000000;3.021212
2513.000000;3.121686
2512.000000;3.362364
2511.000000;3.443399
2510.000000;3.285048
2509.000000;3.164001
2508.000000;3.054554
2507.000000;2.998990
2506.000000;2.979565
2505.000000;2.950219
2504.000000;2.944171
2503.000000;3.006180
2502.000000;3.166326
2501.000000;3.327333
2500.000000;3.192856
2499.000000;3.024777
2498.000000;2.992876
2497.000000;3.093117
2496.000000;3.269599
2495.000000;3.419574
2494.000000;3.351116
2493.000000;3.175257
2492.000000;3.186644
2491.000000;3.455119
2490.000000;4.127026
2489.000000;3.608135
2488.000000;3.059012
2487.000000;2.851048
2486.000000;2.825468
2485.000000;2.920281
2484.000000;3.052714
2483.000000;3.160140
2482.000000;3.227883
2481.000000;3.107928
2480.000000;2.998582
2479.000000;3.029464
2478.000000;3.233178
2477.000000;3.503659
2476.000000;3.219335
2475.000000;2.999150
2474.000000;2.943504
2473.000000;2.984281
2472.000000;3.100307
2471.000000;3.219111
2470.000000;3.197645
2469.000000;3.100908
2468.000000;3.126627
2467.000000;3.411315
2466.000000;3.620965
2465.000000;3.439881
2464.000000;3.386476
2463.000000;3.143919
2462.000000;2.965771
2461.000000;2.912958
2460.000000;2.904867
2459.000000;2.870522
2458.000000;2.807924
2457.000000;2.780107
2456.000000;2.775964
2455.000000;2.761209
2454.000000;2.749558
2453.000000;2.767416
2452.000000;2.823969
2451.000000;2.928218
2450.000000;3.110085
2449.000000;3.441754
2448.000000;3.607385
2447.000000;3.397730
2446.000000;3.399870
2445.000000;3.576378
2444.000000;3.852386
2443.000000;4.185902
2442.000000;3.596700
2441.000000;3.201667
2440.000000;3.089521
2439.000000;3.271531
2438.000000;3.737278
2437.000000;3.459805
2436.000000;3.258294
2435.000000;3.159175
2434.000000;2.991941
2433.000000;2.889612
2432.000000;2.848990
2431.000000;2.861146
2430.000000;2.928994
2429.000000;3.098932
2428.000000;3.483940
2427.000000;3.489186
2426.000000;3.257717
2425.000000;3.157577
2424.000000;3.063397
2423.000000;3.057364
2422.000000;3.171723
2421.000000;3.299620
2420.000000;3.292036
2419.000000;3.189287
2418.000000;3.139201
2417.000000;3.229651
2416.000000;3.443286
2415.000000;3.654856
2414.000000;3.877414
2413.000000;3.613590
2412.000000;3.181449
2411.000000;2.963093
2410.000000;2.877741
2409.000000;2.907838
2408.000000;3.044602
2407.000000;3.390756
2406.000000;3.740477
2405.000000;3.368892
2404.000000;3.253300
2403.000000;3.493136
2402.000000;3.722172
2401.000000;3.382832
2400.000000;3.221393
2399.000000;3.207294
2398.000000;3.262065
2397.000000;3.340730
2396.000000;3.370207
2395.000000;3.371244
2394.000000;3.409287
2393.000000;3.501649
2392.000000;3.790429
2391.000000;3.754301
2390.000000;3.200531
2389.000000;3.000764
2388.000000;2.999621
2387.000000;3.150283
2386.000000;3.548856
2385.000000;3.799802
2384.000000;3.398748
2383.000000;3.378492
2382.000000;3.630545
2381.000000;3.755077
2380.000000;3.577249
2379.000000;3.701255
2378.000000;4.189780
2377.000000;3.736464
2376.000000;3.473925
2375.000000;3.513508
2374.000000;3.996162
2373.000000;3.917357
2372.000000;3.560372
2371.000000;3.548602
2370.000000;3.680644
2369.000000;3.854064
2368.000000;3.749011
2367.000000;3.590608
2366.000000;3.564238
2365.000000;3.630784
2364.000000;3.747807
2363.000000;3.846964
2362.000000;3.784163
2361.000000;3.668679
2360.000000;3.668416
2359.000000;3.812984
2358.000000;4.188333
2357.000000;4.387845
2356.000000;4.061033
2355.000000;4.130843
2354.000000;4.116429
2353.000000;3.765311
2352.000000;3.610397
2351.000000;3.650867
2350.000000;3.844600
2349.000000;3.983866
2348.000000;3.869418
2347.000000;3.759722
2346.000000;3.734461
2345.000000;3.768147
2344.000000;3.948132
2343.000000;4.524398
2342.000000;3.995323
2341.000000;3.798495
2340.000000;3.782655
2339.000000;3.825286
2338.000000;3.959374
2337.000000;4.094485
2336.000000;4.222035
2335.000000;4.309749
2334.000000;3.978562
2333.000000;3.730001
2332.000000;3.586642
2331.000000;3.531218
2330.000000;3.565368
2329.000000;3.700698
2328.000000;4.074217
2327.000000;4.360394
2326.000000;4.029015
2325.000000;3.971074
2324.000000;4.199986
2323.000000;4.000070
2322.000000;3.644611
2321.000000;3.502890
2320.000000;3.484711
2319.000000;3.519944
2318.000000;3.487267
2317.000000;3.446406
2316.000000;3.534510
2315.000000;3.797306
2314.000000;3.850341
2313.000000;3.946660
2312.000000;4.035185
2311.000000;3.614598
2310.000000;3.455511
2309.000000;3.410278
2308.000000;3.408596
2307.000000;3.428334
2306.000000;3.458867
2305.000000;3.436373
2304.000000;3.355049
2303.000000;3.310011
2302.000000;3.333618
2301.000000;3.378902
2300.000000;3.346061
2299.000000;3.288632
2298.000000;3.309205
2297.000000;3.541322
2296.000000;3.928841
2295.000000;3.504919
2294.000000;3.272947
2293.000000;3.218277
2292.000000;3.243473
2291.000000;3.335124
2290.000000;3.332720
2289.000000;3.209362
2288.000000;3.100261
2287.000000;3.075491
2286.000000;3.162425
2285.000000;3.374807
2284.000000;3.649884
2283.000000;3.497022
2282.000000;3.291553
2281.000000;3.540397
2280.000000;4.012118
2279.000000;3.211002
2278.000000;3.166379
2277.000000;3.319975
2276.000000;3.581347
2275.000000;3.808090
2274.000000;4.150236
2273.000000;3.881682
2272.000000;3.568516
2271.000000;3.375218
2270.000000;3.243947
2269.000000;3.182486
2268.000000;3.178211
2267.000000;3.181631
2266.000000;3.138226
2265.000000;3.102837
2264.000000;3.128488
2263.000000;3.213295
2262.000000;3.304145
2261.000000;3.353653
2260.000000;3.392680
2259.000000;3.415681
2258.000000;3.350896
2257.000000;3.260968
2256.000000;3.247610
2255.000000;3.474427
2254.000000;3.747764
2253.000000;3.250775
2252.000000;3.126921
2251.000000;3.145440
2250.000000;3.251115
2249.000000;3.237815
2248.000000;3.042965
2247.000000;2.949912
2246.000000;3.035918
2245.000000;3.328900
2244.000000;3.645083
2243.000000;3.448664
2242.000000;3.249279
2241.000000;3.254921
2240.000000;3.563553
2239.000000;3.824668
2238.000000;3.440343
2237.000000;3.206844
2236.000000;3.082175
2235.000000;2.997902
2234.000000;2.937400
2233.000000;2.928933
2232.000000;2.998175
2231.000000;3.177956
2230.000000;3.493745
2229.000000;3.451891
2228.000000;3.260235
2227.000000;3.265943
2226.000000;3.587767
2225.000000;3.849561
2224.000000;3.418842
2223.000000;3.370615
2222.000000;3.181446
2221.000000;3.061237
2220.000000;3.103725
2219.000000;3.320751
2218.000000;3.783977
2217.000000;3.933380
2216.000000;3.387467
2215.000000;3.090581
2214.000000;3.001751
2213.000000;3.085983
2212.000000;3.481252
2211.000000;3.707835
2210.000000;3.551237
2209.000000;3.383766
2208.000000;3.110450
2207.000000;3.001102
2206.000000;3.042811
2205.000000;3.229953
2204.000000;3.461823
2203.000000;3.246721
2202.000000;3.064381
2201.000000;3.023106
2200.000000;3.105720
2199.000000;3.453369
2198.000000;4.056804
2197.000000;3.453371
2196.000000;3.425278
2195.000000;3.487074
2194.000000;3.300435
2193.000000;3.025604
2192.000000;2.884230
2191.000000;2.849151
2190.000000;2.912649
2189.000000;3.052681
2188.000000;3.209672
2187.000000;3.349894
2186.000000;3.817394
2185.000000;3.946850
2184.000000;3.582758
2183.000000;3.498821
2182.000000;3.447191
2181.000000;3.408674
2180.000000;3.381276
2179.000000;3.253130
2178.000000;3.110837
2177.000000;3.047731
2176.000000;3.057520
2175.000000;3.106605
2174.000000;3.139092
2173.000000;3.152990
2172.000000;3.181397
2171.000000;3.445775
2170.000000;3.932455
2169.000000;3.385916
2168.000000;3.282733
2167.000000;3.485792
2166.000000;3.677705
2165.000000;3.433116
2164.000000;3.365478
2163.000000;3.335072
2162.000000;3.225627
2161.000000;3.113194
2160.000000;3.041258
2159.000000;3.028286
2158.000000;3.088571
2157.000000;3.175898
2156.000000;3.197167
2155.000000;3.162712
2154.000000;3.167557
2153.000000;3.243139
2152.000000;3.317322
2151.000000;3.311412
2150.000000;3.277441
2149.000000;3.299458
2148.000000;3.339849
2147.000000;3.251073
2146.000000;3.193000
2145.000000;3.236899
2144.000000;3.274305
2143.000000;3.267445
2142.000000;3.232311
2141.000000;3.206415
2140.000000;3.286700
2139.000000;3.587282
2138.000000;4.158421
2137.000000;3.795916
2136.000000;3.725213
2135.000000;3.648524
2134.000000;3.365533
2133.000000;3.284326
2132.000000;3.533202
2131.000000;3.223474
2130.000000;2.993562
2129.000000;3.020861
2128.000000;3.118112
2127.000000;3.063185
2126.000000;3.111677
2125.000000;3.566350
2124.000000;3.435701
2123.000000;3.074295
2122.000000;2.981737
2121.000000;2.987531
2120.000000;3.069699
2119.000000;3.319176
2118.000000;3.507365
2117.000000;3.178559
2116.000000;3.115228
2115.000000;3.229048
2114.000000;3.381522
2113.000000;3.310448
2112.000000;3.269799
2111.000000;3.293471
2110.000000;3.279756
2109.000000;3.202338
2108.000000;3.130129
2107.000000;3.139613
2106.000000;3.280893
2105.000000;3.604396
2104.000000;4.032358
2103.000000;3.782496
2102.000000;3.561167
2101.000000;3.683581
2100.000000;3.854399
2099.000000;3.376624
2098.000000;3.251867
2097.000000;3.258461
2096.000000;3.280591
2095.000000;3.287645
2094.000000;3.257947
2093.000000;3.191352
2092.000000;3.130072
2091.000000;3.105313
2090.000000;3.166195
2089.000000;3.354017
2088.000000;3.307968
2087.000000;3.029208
2086.000000;2.908535
2085.000000;2.930012
2084.000000;3.205137
2083.000000;3.611972
2082.000000;3.374644
2081.000000;3.292118
2080.000000;3.159107
2079.000000;2.980761
2078.000000;2.893285
2077.000000;2.878014
2076.000000;2.929686
2075.000000;3.049135
2074.000000;3.236717
2073.000000;3.469314
2072.000000;3.671565
2071.000000;3.569636
2070.000000;3.295197
2069.000000;3.097259
2068.000000;2.999536
2067.000000;2.989027
2066.000000;3.032426
2065.000000;3.113975
2064.000000;3.329084
2063.000000;3.434658
2062.000000;3.135942
2061.000000;2.993358
2060.000000;2.941313
2059.000000;2.981787
2058.000000;3.087065
2057.000000;3.556166
2056.000000;3.623282
2055.000000;3.206251
2054.000000;3.212963
2053.000000;3.321333
2052.000000;3.347907
2051.000000;3.376823
2050.000000;3.572857
2049.000000;3.569907
2048.000000;3.407945
2047.000000;3.327096
2046.000000;3.313984
2045.000000;3.379319
2044.000000;3.511390
2043.000000;3.624712
2042.000000;3.640199
2041.000000;3.442369
2040.000000;3.213765
2039.000000;3.136499
2038.000000;3.190499
2037.000000;3.278904
2036.000000;3.287045
2035.000000;3.207626
2034.000000;3.139596
2033.000000;3.166084
2032.000000;3.326222
2031.000000;3.381115
2030.000000;3.149128
2029.000000;2.996404
2028.000000;2.975571
2027.000000;3.076061
2026.000000;3.264166
2025.000000;3.469581
2024.000000;3.577998
2023.000000;3.374335
2022.000000;3.225780
2021.000000;3.241383
2020.000000;3.394948
2019.000000;3.609379
2018.000000;3.596429
2017.000000;3.364378
2016.000000;3.237523
2015.000000;3.257399
2014.000000;3.490459
2013.000000;3.532120
2012.000000;3.175700
2011.000000;3.082386
2010.000000;3.128690
2009.000000;3.433128
2008.000000;3.465011
2007.000000;3.055354
2006.000000;2.948217
2005.000000;2.970430
2004.000000;3.107628
2003.000000;3.272998
2002.000000;3.251909
2001.000000;3.144001
2000.000000;3.137517
1999.000000;3.228681
1998.000000;3.348438
1997.000000;3.309782
1996.000000;3.148537
1995.000000;3.045163
1994.000000;3.024385
1993.000000;3.059931
1992.000000;3.104886
1991.000000;3.116404
1990.000000;3.116850
1989.000000;3.157693
1988.000000;3.279778
1987.000000;3.367946
1986.000000;3.173427
1985.000000;2.992846
1984.000000;2.920788
1983.000000;2.940376
1982.000000;3.006678
1981.000000;3.082736
1980.000000;3.154015
1979.000000;3.491035
1978.000000;3.817535
1977.000000;3.307482
1976.000000;3.153918
1975.000000;3.059932
1974.000000;2.980945
1973.000000;2.950091
1972.000000;2.988564
1971.000000;3.117538
1970.000000;3.360696
1969.000000;3.615711
1968.000000;3.614351
1967.000000;3.453578
1966.000000;3.185306
1965.000000;2.991078
1964.000000;2.931427
1963.000000;3.055408
1962.000000;3.529024
1961.000000;3.503477
1960.000000;3.246014
1959.000000;3.475040
1958.000000;3.989038
1957.000000;3.335526
1956.000000;3.091691
1955.000000;2.946321
1954.000000;2.872479
1953.000000;2.868571
1952.000000;2.936657
1951.000000;3.025264
1950.000000;3.053753
1949.000000;3.072569
1948.000000;3.132624
1947.000000;3.237988
1946.000000;3.432535
1945.000000;3.682958
1944.000000;3.858674
1943.000000;3.513186
1942.000000;3.194416
1941.000000;3.062343
1940.000000;3.062543
1939.000000;3.184565
1938.000000;3.414729
1937.000000;3.285701
1936.000000;3.045944
1935.000000;2.951660
1934.000000;2.957044
1933.000000;3.014313
1932.000000;3.099455
1931.000000;3.172767
1930.000000;3.115756
1929.000000;2.961864
1928.000000;2.820656
1927.000000;2.743156
1926.000000;2.752396
1925.000000;2.832035
1924.000000;2.861465
1923.000000;2.812807
1922.000000;2.827629
1921.000000;2.964640
1920.000000;3.155284
1919.000000;3.133546
1918.000000;3.031423
1917.000000;2.990868
1916.000000;2.975671
1915.000000;2.995685
1914.000000;3.078602
1913.000000;3.232307
1912.000000;3.484203
1911.000000;3.726650
1910.000000;3.601471
1909.000000;3.557528
1908.000000;3.543275
1907.000000;3.376158
1906.000000;3.196268
1905.000000;3.157424
1904.000000;3.160260
1903.000000;3.062936
1902.000000;3.031793
1901.000000;3.207122
1900.000000;3.556611
1899.000000;3.504929
1898.000000;3.383539
1897.000000;3.401816
1896.000000;3.380679
1895.000000;3.315694
1894.000000;3.277910
1893.000000;3.298254
1892.000000;3.338240
1891.000000;3.314715
1890.000000;3.249666
1889.000000;3.228738
1888.000000;3.323020
1887.000000;3.753654
1886.000000;3.650901
1885.000000;3.270534
1884.000000;3.155291
1883.000000;3.162050
1882.000000;3.269980
1881.000000;3.432452
1880.000000;3.350042
1879.000000;3.139079
1878.000000;3.006000
1877.000000;2.946846
1876.000000;2.958714
1875.000000;3.039135
1874.000000;3.164759
1873.000000;3.305340
1872.000000;3.473260
1871.000000;3.396598
1870.000000;3.156445
1869.000000;3.051721
1868.000000;3.048466
1867.000000;3.134418
1866.000000;3.272112
1865.000000;3.411411
1864.000000;3.682814
1863.000000;3.439894
1862.000000;3.135744
1861.000000;3.054278
1860.000000;3.119858
1859.000000;3.406129
1858.000000;3.915312
1857.000000;3.337024
1856.000000;3.098660
1855.000000;3.029602
1854.000000;3.026737
1853.000000;3.055663
1852.000000;3.080677
1851.000000;3.135839
1850.000000;3.281361
1849.000000;3.346403
1848.000000;3.178696
1847.000000;3.086022
1846.000000;3.078844
1845.000000;3.087049
1844.000000;3.045207
1843.000000;2.990604
1842.000000;2.984752
1841.000000;3.017718
1840.000000;3.013661
1839.000000;2.954074
1838.000000;2.918979
1837.000000;2.943679
1836.000000;3.045122
1835.000000;3.297315
1834.000000;3.568134
1833.000000;3.547195
1832.000000;3.597491
1831.000000;3.398060
1830.000000;3.240585
1829.000000;3.216494
1828.000000;3.131629
1827.000000;3.027187
1826.000000;3.015065
1825.000000;3.107177
1824.000000;3.324887
1823.000000;3.765360
1822.000000;3.709032
1821.000000;3.517171
1820.000000;3.659484
1819.000000;3.362117
1818.000000;3.033734
1817.000000;2.881746
1816.000000;2.820011
1815.000000;2.827079
1814.000000;2.887855
1813.000000;3.008638
1812.000000;3.179163
1811.000000;3.220762
1810.000000;3.097874
1809.000000;2.990777
1808.000000;2.926853
1807.000000;2.891539
1806.000000;2.811290
1805.000000;2.734386
1804.000000;2.740028
1803.000000;2.924040
1802.000000;3.268056
1801.000000;3.043258
1800.000000;2.907068
1799.000000;2.985437
1798.000000;3.126814
1797.000000;3.125738
1796.000000;3.030015
1795.000000;2.960434
1794.000000;2.887781
1793.000000;2.846668
1792.000000;2.866418
1791.000000;2.959733
1790.000000;3.110881
1789.000000;3.369309
1788.000000;3.515397
1787.000000;3.176477
1786.000000;2.947733
1785.000000;2.861552
1784.000000;2.863482
1783.000000;2.879450
1782.000000;2.880147
1781.000000;2.909250
1780.000000;3.150134
1779.000000;3.636806
1778.000000;3.119990
1777.000000;2.939154
1776.000000;2.948544
1775.000000;2.969257
1774.000000;3.014491
1773.000000;3.083832
1772.000000;3.184355
1771.000000;3.230647
1770.000000;3.264766
1769.000000;3.277093
1768.000000;3.179166
1767.000000;3.061835
1766.000000;2.974317
1765.000000;2.884385
1764.000000;2.816772
1763.000000;2.829265
1762.000000;2.965631
1761.000000;3.135836
1760.000000;3.100947
1759.000000;3.021486
1758.000000;3.038437
1757.000000;3.178116
1756.000000;3.422462
1755.000000;3.845505
1754.000000;3.948639
1753.000000;3.620907
1752.000000;3.793347
1751.000000;3.368636
1750.000000;2.979189
1749.000000;2.840961
1748.000000;2.838615
1747.000000;3.105230
1746.000000;3.601828
1745.000000;3.402869
1744.000000;3.442104
1743.000000;3.191303
1742.000000;3.003636
1741.000000;3.080768
1740.000000;3.180311
1739.000000;3.124743
1738.000000;3.129975
1737.000000;3.249825
1736.000000;3.288116
1735.000000;3.277603
1734.000000;3.240271
1733.000000;3.108951
1732.000000;2.999875
1731.000000;2.948600
1730.000000;3.005196
1729.000000;3.313639
1728.000000;3.409394
1727.000000;3.094954
1726.000000;3.013709
1725.000000;3.095752
1724.000000;3.215988
1723.000000;3.237955
1722.000000;3.257972
1721.000000;3.250759
1720.000000;3.187681
1719.000000;3.204265
1718.000000;3.327599
1717.000000;3.392973
1716.000000;3.537828
1715.000000;3.745963
1714.000000;3.371104
1713.000000;3.201745
1712.000000;3.262195
1711.000000;3.445395
1710.000000;3.516776
1709.000000;3.405922
1708.000000;3.513257
1707.000000;3.802322
1706.000000;3.564060
1705.000000;3.506234
1704.000000;3.551677
1703.000000;3.409567
1702.000000;3.356170
1701.000000;3.531690
1700.000000;4.140205
1699.000000;3.789806
1698.000000;3.453427
1697.000000;3.471344
1696.000000;3.554873
1695.000000;3.343189
1694.000000;3.267516
1693.000000;3.317969
1692.000000;3.356892
1691.000000;3.187236
1690.000000;2.986191
1689.000000;2.932438
1688.000000;3.001829
1687.000000;3.117528
1686.000000;3.087745
1685.000000;3.020598
1684.000000;3.055223
1683.000000;3.207615
1682.000000;3.326355
1681.000000;3.252591
1680.000000;3.206808
1679.000000;3.021381
1678.000000;2.820321
1677.000000;2.767163
1676.000000;2.849483
1675.000000;3.039768
1674.000000;3.209962
1673.000000;3.185709
1672.000000;3.013622
1671.000000;2.865640
1670.000000;2.820071
1669.000000;2.849332
1668.000000;2.864312
1667.000000;2.846546
1666.000000;2.842388
1665.000000;2.851735
1664.000000;2.889686
1663.000000;2.963425
1662.000000;3.263051
1661.000000;3.531566
1660.000000;3.088652
1659.000000;2.965600
1658.000000;3.019414
1657.000000;3.164599
1656.000000;3.201828
1655.000000;3.079418
1654.000000;3.059823
1653.000000;3.090466
1652.000000;3.112505
1651.000000;3.133877
1650.000000;3.138275
1649.000000;3.172274
1648.000000;3.326908
1647.000000;3.318676
1646.000000;3.100763
1645.000000;2.942535
1644.000000;2.857696
1643.000000;2.807610
1642.000000;2.770779
1641.000000;2.771895
1640.000000;2.828117
1639.000000;2.907452
1638.000000;2.945327
1637.000000;2.926055
1636.000000;2.899828
1635.000000;2.915166
1634.000000;2.987700
1633.000000;3.079778
1632.000000;3.097101
1631.000000;3.030703
1630.000000;2.952818
1629.000000;2.951049
1628.000000;3.040577
1627.000000;3.281374
1626.000000;3.839453
1625.000000;3.489646
1624.000000;3.137545
1623.000000;3.021140
1622.000000;2.957598
1621.000000;2.978233
1620.000000;3.037428
1619.000000;3.049527
1618.000000;3.070112
1617.000000;3.109739
1616.000000;3.090004
1615.000000;3.069190
1614.000000;3.071755
1613.000000;3.075281
1612.000000;3.112945
1611.000000;3.140542
1610.000000;3.119365
1609.000000;3.142654
1608.000000;3.251947
1607.000000;3.310869
1606.000000;3.213909
1605.000000;3.215634
1604.000000;3.285709
1603.000000;3.173872
1602.000000;3.043715
1601.000000;3.087121
1600.000000;3.441605
1599.000000;3.588176
1598.000000;3.187022
1597.000000;2.997632
1596.000000;2.920218
1595.000000;2.987476
1594.000000;3.148337
1593.000000;3.103218
1592.000000;2.982448
1591.000000;2.946854
1590.000000;2.974983
1589.000000;3.052247
1588.000000;3.061057
1587.000000;2.959970
1586.000000;2.900184
1585.000000;2.930826
1584.000000;3.010015
1583.000000;3.082607
1582.000000;3.180770
1581.000000;3.183619
1580.000000;3.046633
1579.000000;2.968731
1578.000000;2.947346
1577.000000;2.953841
1576.000000;2.987071
1575.000000;3.041580
1574.000000;3.152346
1573.000000;3.447340
1572.000000;3.679048
1571.000000;3.409439
1570.000000;3.327390
1569.000000;3.390057
1568.000000;3.446840
1567.000000;3.581190
1566.000000;3.571330
1565.000000;3.132876
1564.000000;2.909565
1563.000000;2.856591
1562.000000;2.985417
1561.000000;3.230591
1560.000000;3.084886
1559.000000;2.950281
1558.000000;2.842578
1557.000000;2.795678
1556.000000;2.857422
1555.000000;2.964915
1554.000000;3.175435
1553.000000;3.352276
1552.000000;3.260224
1551.000000;3.117128
1550.000000;3.103225
1549.000000;3.226477
1548.000000;3.739150
1547.000000;3.838813
1546.000000;3.310888
1545.000000;3.523178
1544.000000;3.585625
1543.000000;3.028462
1542.000000;2.819380
1541.000000;2.822995
1540.000000;3.051672
1539.000000;3.284046
1538.000000;3.140165
1537.000000;3.095610
1536.000000;3.071620
1535.000000;2.940498
1534.000000;2.810265
1533.000000;2.739061
1532.000000;2.719975
1531.000000;2.742572
1530.000000;2.810281
1529.000000;2.874955
1528.000000;2.844259
1527.000000;2.786572
1526.000000;2.794491
1525.000000;2.852892
1524.000000;2.901744
1523.000000;2.909207
1522.000000;2.909645
1521.000000;2.946368
1520.000000;3.019240
1519.000000;2.999905
1518.000000;2.867898
1517.000000;2.794067
1516.000000;2.853674
1515.000000;2.943445
1514.000000;2.909479
1513.000000;2.890850
1512.000000;2.972519
1511.000000;3.113772
1510.000000;3.247297
1509.000000;3.308993
1508.000000;3.346078
1507.000000;3.173083
1506.000000;2.885622
1505.000000;2.790339
1504.000000;2.821530
1503.000000;2.846169
1502.000000;2.879934
1501.000000;2.912883
1500.000000;2.909126
1499.000000;2.872259
1498.000000;2.806242
1497.000000;2.769596
1496.000000;2.812890
1495.000000;2.935721
1494.000000;3.084729
1493.000000;3.140331
1492.000000;3.005582
1491.000000;2.962985
1490.000000;3.053309
1489.000000;3.072222
1488.000000;2.965811
1487.000000;3.045310
1486.000000;3.569968
1485.000000;3.169023
1484.000000;2.813069
1483.000000;2.727937
1482.000000;2.755669
1481.000000;2.874235
1480.000000;3.032144
1479.000000;3.226572
1478.000000;3.315645
1477.000000;3.279953
1476.000000;3.225867
1475.000000;3.227964
1474.000000;3.384052
1473.000000;3.497172
1472.000000;3.290193
1471.000000;3.058484
1470.000000;2.901175
1469.000000;2.836914
1468.000000;2.888753
1467.000000;3.032477
1466.000000;3.094817
1465.000000;3.120680
1464.000000;3.161803
1463.000000;3.090750
1462.000000;2.910040
1461.000000;2.795128
1460.000000;2.758780
1459.000000;2.917128
1458.000000;3.596160
1457.000000;3.263286
1456.000000;3.020300
1455.000000;3.061411
1454.000000;3.007245
1453.000000;2.887007
1452.000000;2.756541
1451.000000;2.709155
1450.000000;2.743027
1449.000000;2.847803
1448.000000;2.917661
1447.000000;2.889787
1446.000000;2.964035
1445.000000;3.268569
1444.000000;3.211471
1443.000000;2.989219
1442.000000;3.319734
1441.000000;3.472793
1440.000000;2.929442
1439.000000;2.789308
1438.000000;2.773452
1437.000000;2.830248
1436.000000;2.923031
1435.000000;3.025927
1434.000000;3.166098
1433.000000;3.272227
1432.000000;3.357776
1431.000000;3.306093
1430.000000;3.121785
1429.000000;3.091203
1428.000000;3.252988
1427.000000;3.197344
1426.000000;2.957623
1425.000000;2.828549
1424.000000;2.791242
1423.000000;2.827780
1422.000000;2.892984
1421.000000;3.073002
1420.000000;3.353879
1419.000000;3.196966
1418.000000;3.049785
1417.000000;3.058180
1416.000000;3.132833
1415.000000;3.232240
1414.000000;3.178243
1413.000000;2.982939
1412.000000;2.820245
1411.000000;2.741176
1410.000000;2.743474
1409.000000;2.841774
1408.000000;3.052024
1407.000000;3.074627
1406.000000;2.869871
1405.000000;2.795246
1404.000000;2.854477
1403.000000;3.080369
1402.000000;3.685239
1401.000000;3.569807
1400.000000;3.304611
1399.000000;3.242438
1398.000000;3.055714
1397.000000;2.818821
1396.000000;2.676332
1395.000000;2.678224
1394.000000;2.853671
1393.000000;3.102409
1392.000000;3.061921
1391.000000;3.005371
1390.000000;3.087701
1389.000000;3.231657
1388.000000;3.294099
1387.000000;3.212139
1386.000000;3.133032
1385.000000;3.054176
1384.000000;2.941688
1383.000000;2.868869
1382.000000;2.893801
1381.000000;3.010491
1380.000000;3.179441
1379.000000;3.166906
1378.000000;2.914340
1377.000000;2.737319
1376.000000;2.701213
1375.000000;2.789479
1374.000000;2.953966
1373.000000;3.144594
1372.000000;3.112140
1371.000000;2.903611
1370.000000;2.837566
1369.000000;2.910437
1368.000000;3.115090
1367.000000;3.398800
1366.000000;3.416281
1365.000000;3.283458
1364.000000;3.223537
1363.000000;3.547145
1362.000000;3.648165
1361.000000;3.098851
1360.000000;2.971272
1359.000000;2.927971
1358.000000;2.921352
1357.000000;2.960802
1356.000000;3.078986
1355.000000;3.171008
1354.000000;3.261630
1353.000000;3.828988
1352.000000;3.305409
1351.000000;3.024067
1350.000000;3.038100
1349.000000;3.059156
1348.000000;3.021892
1347.000000;2.924569
1346.000000;2.861603
1345.000000;2.867437
1344.000000;2.895385
1343.000000;2.931083
1342.000000;2.909750
1341.000000;2.775945
1340.000000;2.680766
1339.000000;2.673173
1338.000000;2.708489
1337.000000;2.752816
1336.000000;2.831118
1335.000000;2.991411
1334.000000;3.343640
1333.000000;3.408897
1332.000000;3.128736
1331.000000;3.162974
1330.000000;3.414960
1329.000000;3.735826
1328.000000;3.819890
1327.000000;3.442112
1326.000000;3.248078
1325.000000;3.227881
1324.000000;3.292273
1323.000000;3.412887
1322.000000;3.330755
1321.000000;3.087948
1320.000000;2.900253
1319.000000;2.817506
1318.000000;2.833980
1317.000000;2.878828
1316.000000;2.857375
1315.000000;2.807224
1314.000000;2.778839
1313.000000;2.760387
1312.000000;2.752909
1311.000000;2.788572
1310.000000;2.902221
1309.000000;3.086543
1308.000000;3.259088
1307.000000;3.371642
1306.000000;3.337301
1305.000000;3.307236
1304.000000;3.188816
1303.000000;2.970445
1302.000000;2.863635
1301.000000;2.969775
1300.000000;3.582135
1299.000000;3.167467
1298.000000;2.915100
1297.000000;3.091601
1296.000000;3.472271
1295.000000;3.087196
1294.000000;2.884120
1293.000000;2.895471
1292.000000;3.042547
1291.000000;3.362639
1290.000000;3.473512
1289.000000;3.435298
1288.000000;3.454477
1287.000000;3.189351
1286.000000;2.933346
1285.000000;2.756434
1284.000000;2.668569
1283.000000;2.686984
1282.000000;2.831739
1281.000000;3.143972
1280.000000;3.353856
1279.000000;3.328037
1278.000000;3.555368
1277.000000;3.283482
1276.000000;2.958735
1275.000000;2.827822
1274.000000;2.781873
1273.000000;2.819983
1272.000000;2.949319
1271.000000;3.296042
1270.000000;3.642301
1269.000000;3.140202
1268.000000;2.943432
1267.000000;2.924457
1266.000000;2.972954
1265.000000;3.004464
1264.000000;3.014772
1263.000000;3.084954
1262.000000;3.267361
1261.000000;3.404644
1260.000000;3.081700
1259.000000;2.800932
1258.000000;2.652191
1257.000000;2.616986
1256.000000;2.654719
1255.000000;2.675942
1254.000000;2.655502
1253.000000;2.664447
1252.000000;2.736044
1251.000000;2.848583
1250.000000;2.932389
1249.000000;2.917740
1248.000000;2.866826
1247.000000;2.892444
1246.000000;3.005717
1245.000000;3.125641
1244.000000;3.127801
1243.000000;3.009202
1242.000000;2.962697
1241.000000;3.073776
1240.000000;3.363248
1239.000000;3.385330
1238.000000;3.199929
1237.000000;3.129303
1236.000000;3.106884
1235.000000;3.104677
1234.000000;3.127726
1233.000000;3.163529
1232.000000;3.208227
1231.000000;3.336472
1230.000000;3.375605
1229.000000;3.196807
1228.000000;3.278690
1227.000000;3.706687
1226.000000;3.429272
1225.000000;3.148971
1224.000000;3.106919
1223.000000;3.138627
1222.000000;3.258495
1221.000000;3.821120
1220.000000;3.203446
1219.000000;2.757328
1218.000000;2.592916
1217.000000;2.557112
1216.000000;2.632195
1215.000000;2.768200
1214.000000;2.876241
1213.000000;2.883687
1212.000000;2.843609
1211.000000;2.870280
1210.000000;3.008151
1209.000000;3.046246
1208.000000;2.945281
1207.000000;2.975628
1206.000000;3.143821
1205.000000;3.211839
1204.000000;3.024229
1203.000000;2.871128
1202.000000;2.787378
1201.000000;2.782209
1200.000000;2.860867
