Criado como novo conjunto de dados;"1909daniel.spp","-4260943.6 Secs"
cm-1;Abs
10000.000000;1.907305
9999.000000;1.909017
9998.000000;1.914406
9997.000000;1.919572
9996.000000;1.920966
9995.000000;1.918703
9994.000000;1.914874
9993.000000;1.910507
9992.000000;1.905852
9991.000000;1.902247
9990.000000;1.901558
9989.000000;1.903734
9988.000000;1.906438
9987.000000;1.907675
9986.000000;1.907643
9985.000000;1.907530
9984.000000;1.907655
9983.000000;1.907377
9982.000000;1.906204
9981.000000;1.904451
9980.000000;1.903019
9979.000000;1.902701
9978.000000;1.903332
9977.000000;1.903619
9976.000000;1.902405
9975.000000;1.900225
9974.000000;1.898743
9973.000000;1.898593
9972.000000;1.898529
9971.000000;1.896787
9970.000000;1.892963
9969.000000;1.888554
9968.000000;1.885881
9967.000000;1.886294
9966.000000;1.888820
9965.000000;1.890781
9964.000000;1.890467
9963.000000;1.888908
9962.000000;1.888140
9961.000000;1.888496
9960.000000;1.888974
9959.000000;1.889595
9958.000000;1.891402
9957.000000;1.893894
9956.000000;1.894402
9955.000000;1.891282
9954.000000;1.886492
9953.000000;1.883638
9952.000000;1.884236
9951.000000;1.886722
9950.000000;1.888341
9949.000000;1.887318
9948.000000;1.883842
9947.000000;1.879788
9946.000000;1.877217
9945.000000;1.876552
9944.000000;1.876390
9943.000000;1.875507
9942.000000;1.874543
9941.000000;1.874914
9940.000000;1.876603
9939.000000;1.878151
9938.000000;1.878877
9937.000000;1.879942
9936.000000;1.882567
9935.000000;1.885892
9934.000000;1.887344
9933.000000;1.885157
9932.000000;1.880202
9931.000000;1.875199
9930.000000;1.872332
9929.000000;1.871689
9928.000000;1.871628
9927.000000;1.870281
9926.000000;1.866900
9925.000000;1.862320
9924.000000;1.858435
9923.000000;1.856777
9922.000000;1.857055
9921.000000;1.857239
9920.000000;1.855911
9919.000000;1.854305
9918.000000;1.855018
9917.000000;1.858892
9916.000000;1.863879
9915.000000;1.867001
9914.000000;1.866836
9913.000000;1.864000
9912.000000;1.860308
9911.000000;1.858047
9910.000000;1.858980
9909.000000;1.862867
9908.000000;1.867188
9907.000000;1.869202
9906.000000;1.868272
9905.000000;1.865652
9904.000000;1.862517
9903.000000;1.859092
9902.000000;1.855373
9901.000000;1.851793
9900.000000;1.849018
9899.000000;1.847473
9898.000000;1.847022
9897.000000;1.847077
9896.000000;1.847264
9895.000000;1.847841
9894.000000;1.848753
9893.000000;1.848415
9892.000000;1.844976
9891.000000;1.839413
9890.000000;1.835635
9889.000000;1.836296
9888.000000;1.839521
9887.000000;1.841038
9886.000000;1.839252
9885.000000;1.836616
9884.000000;1.836124
9883.000000;1.838251
9882.000000;1.841365
9881.000000;1.843371
9880.000000;1.842582
9879.000000;1.838615
9878.000000;1.833203
9877.000000;1.829032
9876.000000;1.827247
9875.000000;1.826893
9874.000000;1.826942
9873.000000;1.827560
9872.000000;1.828510
9871.000000;1.827844
9870.000000;1.824050
9869.000000;1.818869
9868.000000;1.815939
9867.000000;1.816692
9866.000000;1.818976
9865.000000;1.819978
9864.000000;1.819545
9863.000000;1.819801
9862.000000;1.822145
9861.000000;1.825576
9860.000000;1.827824
9859.000000;1.827578
9858.000000;1.825503
9857.000000;1.823301
9856.000000;1.821876
9855.000000;1.820439
9854.000000;1.817533
9853.000000;1.812920
9852.000000;1.808196
9851.000000;1.805549
9850.000000;1.806186
9849.000000;1.809795
9848.000000;1.814913
9847.000000;1.819490
9846.000000;1.821512
9845.000000;1.820064
9844.000000;1.816212
9843.000000;1.812424
9842.000000;1.810574
9841.000000;1.810433
9840.000000;1.810265
9839.000000;1.808942
9838.000000;1.807147
9837.000000;1.806316
9836.000000;1.806773
9835.000000;1.807387
9834.000000;1.806941
9833.000000;1.805405
9832.000000;1.803679
9831.000000;1.802374
9830.000000;1.801218
9829.000000;1.799693
9828.000000;1.798081
9827.000000;1.797460
9826.000000;1.798379
9825.000000;1.799752
9824.000000;1.799574
9823.000000;1.797134
9822.000000;1.794183
9821.000000;1.793101
9820.000000;1.794128
9819.000000;1.795149
9818.000000;1.794379
9817.000000;1.792593
9816.000000;1.792022
9815.000000;1.793472
9814.000000;1.795370
9813.000000;1.795670
9812.000000;1.794009
9811.000000;1.791601
9810.000000;1.789601
9809.000000;1.788196
9808.000000;1.786974
9807.000000;1.785479
9806.000000;1.783398
9805.000000;1.780864
9804.000000;1.778865
9803.000000;1.778790
9802.000000;1.781081
9801.000000;1.784379
9800.000000;1.786390
9799.000000;1.785797
9798.000000;1.782980
9797.000000;1.779184
9796.000000;1.775794
9795.000000;1.774248
9794.000000;1.775501
9793.000000;1.778846
9792.000000;1.781846
9791.000000;1.782394
9790.000000;1.780699
9789.000000;1.778447
9788.000000;1.776315
9787.000000;1.773554
9786.000000;1.769990
9785.000000;1.766998
9784.000000;1.765849
9783.000000;1.765874
9782.000000;1.765222
9781.000000;1.763240
9780.000000;1.760930
9779.000000;1.759219
9778.000000;1.758040
9777.000000;1.757010
9776.000000;1.756146
9775.000000;1.755761
9774.000000;1.756024
9773.000000;1.756782
9772.000000;1.757548
9771.000000;1.757696
9770.000000;1.757048
9769.000000;1.756163
9768.000000;1.755597
9767.000000;1.754912
9766.000000;1.753198
9765.000000;1.750725
9764.000000;1.749063
9763.000000;1.749120
9762.000000;1.750091
9761.000000;1.751082
9760.000000;1.752862
9759.000000;1.756661
9758.000000;1.761422
9757.000000;1.763834
9756.000000;1.761817
9755.000000;1.756943
9754.000000;1.752486
9753.000000;1.750022
9752.000000;1.748856
9751.000000;1.747847
9750.000000;1.746647
9749.000000;1.745418
9748.000000;1.744362
9747.000000;1.743726
9746.000000;1.743616
9745.000000;1.743643
9744.000000;1.743403
9743.000000;1.743227
9742.000000;1.743509
9741.000000;1.743652
9740.000000;1.742676
9739.000000;1.740839
9738.000000;1.739739
9737.000000;1.740277
9736.000000;1.741284
9735.000000;1.741007
9734.000000;1.739307
9733.000000;1.737244
9732.000000;1.735074
9731.000000;1.732223
9730.000000;1.729068
9729.000000;1.727219
9728.000000;1.727525
9727.000000;1.728895
9726.000000;1.729804
9725.000000;1.730125
9724.000000;1.730532
9723.000000;1.730839
9722.000000;1.730148
9721.000000;1.728317
9720.000000;1.726220
9719.000000;1.724556
9718.000000;1.723263
9717.000000;1.722421
9716.000000;1.722731
9715.000000;1.724295
9714.000000;1.725668
9713.000000;1.725069
9712.000000;1.722387
9711.000000;1.719391
9710.000000;1.717944
9709.000000;1.718295
9708.000000;1.719053
9707.000000;1.718734
9706.000000;1.717441
9705.000000;1.716900
9704.000000;1.718541
9703.000000;1.721603
9702.000000;1.723639
9701.000000;1.723132
9700.000000;1.720991
9699.000000;1.719020
9698.000000;1.717756
9697.000000;1.716497
9696.000000;1.714855
9695.000000;1.713323
9694.000000;1.712361
9693.000000;1.711711
9692.000000;1.710708
9691.000000;1.708735
9690.000000;1.705392
9689.000000;1.700949
9688.000000;1.696830
9687.000000;1.695012
9686.000000;1.696411
9685.000000;1.699864
9684.000000;1.702936
9683.000000;1.703837
9682.000000;1.702598
9681.000000;1.700616
9680.000000;1.699260
9679.000000;1.698768
9678.000000;1.698236
9677.000000;1.696717
9676.000000;1.694327
9675.000000;1.692127
9674.000000;1.691055
9673.000000;1.691275
9672.000000;1.692409
9671.000000;1.693991
9670.000000;1.695552
9669.000000;1.696611
9668.000000;1.696965
9667.000000;1.696878
9666.000000;1.696580
9665.000000;1.695676
9664.000000;1.693499
9663.000000;1.690177
9662.000000;1.687032
9661.000000;1.685572
9660.000000;1.686203
9659.000000;1.688094
9658.000000;1.690125
9657.000000;1.691569
9656.000000;1.691855
9655.000000;1.690379
9654.000000;1.687166
9653.000000;1.683399
9652.000000;1.680535
9651.000000;1.678872
9650.000000;1.677607
9649.000000;1.676411
9648.000000;1.676153
9647.000000;1.677530
9646.000000;1.679529
9645.000000;1.679946
9644.000000;1.677437
9643.000000;1.672767
9642.000000;1.668192
9641.000000;1.665918
9640.000000;1.666832
9639.000000;1.669973
9638.000000;1.673081
9637.000000;1.674106
9636.000000;1.672600
9635.000000;1.669756
9634.000000;1.667277
9633.000000;1.666192
9632.000000;1.666275
9631.000000;1.666296
9630.000000;1.665194
9629.000000;1.663379
9628.000000;1.662415
9627.000000;1.663003
9626.000000;1.663998
9625.000000;1.664031
9624.000000;1.663377
9623.000000;1.663245
9622.000000;1.663758
9621.000000;1.663866
9620.000000;1.663041
9619.000000;1.661721
9618.000000;1.659967
9617.000000;1.657134
9616.000000;1.653447
9615.000000;1.650721
9614.000000;1.650659
9613.000000;1.652936
9612.000000;1.655496
9611.000000;1.656509
9610.000000;1.655646
9609.000000;1.653670
9608.000000;1.651418
9607.000000;1.649276
9606.000000;1.647414
9605.000000;1.646298
9604.000000;1.646546
9603.000000;1.647931
9602.000000;1.648945
9601.000000;1.648264
9600.000000;1.646579
9599.000000;1.645872
9598.000000;1.646838
9597.000000;1.648148
9596.000000;1.648450
9595.000000;1.647973
9594.000000;1.647555
9593.000000;1.647123
9592.000000;1.646079
9591.000000;1.644411
9590.000000;1.642505
9589.000000;1.640321
9588.000000;1.637658
9587.000000;1.634892
9586.000000;1.632786
9585.000000;1.631813
9584.000000;1.632132
9583.000000;1.633864
9582.000000;1.636677
9581.000000;1.639176
9580.000000;1.639608
9579.000000;1.637497
9578.000000;1.634209
9577.000000;1.631907
9576.000000;1.632054
9575.000000;1.634383
9574.000000;1.636753
9573.000000;1.636566
9572.000000;1.633160
9571.000000;1.628484
9570.000000;1.625002
9569.000000;1.623525
9568.000000;1.623356
9567.000000;1.623739
9566.000000;1.624399
9565.000000;1.625117
9564.000000;1.625685
9563.000000;1.626181
9562.000000;1.626718
9561.000000;1.627132
9560.000000;1.627298
9559.000000;1.627417
9558.000000;1.627483
9557.000000;1.626959
9556.000000;1.625767
9555.000000;1.624926
9554.000000;1.625093
9553.000000;1.625030
9552.000000;1.622975
9551.000000;1.619351
9550.000000;1.616482
9549.000000;1.615537
9548.000000;1.615398
9547.000000;1.614971
9546.000000;1.615084
9545.000000;1.617003
9544.000000;1.620111
9543.000000;1.622214
9542.000000;1.621711
9541.000000;1.618721
9540.000000;1.614664
9539.000000;1.611608
9538.000000;1.611404
9537.000000;1.614108
9536.000000;1.617178
9535.000000;1.617412
9534.000000;1.614177
9533.000000;1.609882
9532.000000;1.607085
9531.000000;1.606222
9530.000000;1.606335
9529.000000;1.606792
9528.000000;1.607392
9527.000000;1.607502
9526.000000;1.606378
9525.000000;1.604310
9524.000000;1.602496
9523.000000;1.601663
9522.000000;1.601584
9521.000000;1.601975
9520.000000;1.602910
9519.000000;1.604010
9518.000000;1.604173
9517.000000;1.602812
9516.000000;1.600675
9515.000000;1.598712
9514.000000;1.596831
9513.000000;1.594617
9512.000000;1.592698
9511.000000;1.592198
9510.000000;1.593111
9509.000000;1.594312
9508.000000;1.595001
9507.000000;1.595050
9506.000000;1.594075
9505.000000;1.591707
9504.000000;1.588963
9503.000000;1.587753
9502.000000;1.588503
9501.000000;1.589526
9500.000000;1.589469
9499.000000;1.589203
9498.000000;1.590160
9497.000000;1.591982
9496.000000;1.593182
9495.000000;1.593260
9494.000000;1.592740
9493.000000;1.591664
9492.000000;1.589473
9491.000000;1.586206
9490.000000;1.582748
9489.000000;1.580008
9488.000000;1.578555
9487.000000;1.578745
9486.000000;1.580364
9485.000000;1.582435
9484.000000;1.584065
9483.000000;1.585129
9482.000000;1.585565
9481.000000;1.584745
9480.000000;1.582506
9479.000000;1.580112
9478.000000;1.578981
9477.000000;1.578908
9476.000000;1.578687
9475.000000;1.578010
9474.000000;1.577436
9473.000000;1.576919
9472.000000;1.575928
9471.000000;1.574828
9470.000000;1.574552
9469.000000;1.574764
9468.000000;1.573950
9467.000000;1.571868
9466.000000;1.570359
9465.000000;1.570876
9464.000000;1.572452
9463.000000;1.572988
9462.000000;1.571655
9461.000000;1.569159
9460.000000;1.566469
9459.000000;1.564319
9458.000000;1.563436
9457.000000;1.564273
9456.000000;1.566502
9455.000000;1.569103
9454.000000;1.570902
9453.000000;1.571131
9452.000000;1.569897
9451.000000;1.568102
9450.000000;1.566481
9449.000000;1.564875
9448.000000;1.563015
9447.000000;1.561652
9446.000000;1.561888
9445.000000;1.563402
9444.000000;1.564506
9443.000000;1.564191
9442.000000;1.562985
9441.000000;1.561517
9440.000000;1.559643
9439.000000;1.557634
9438.000000;1.556766
9437.000000;1.557541
9436.000000;1.558428
9435.000000;1.557703
9434.000000;1.555832
9433.000000;1.554711
9432.000000;1.555125
9431.000000;1.556100
9430.000000;1.556398
9429.000000;1.555570
9428.000000;1.553659
9427.000000;1.550979
9426.000000;1.548359
9425.000000;1.546764
9424.000000;1.546369
9423.000000;1.546416
9422.000000;1.546058
9421.000000;1.545088
9420.000000;1.544004
9419.000000;1.543670
9418.000000;1.544678
9417.000000;1.546676
9416.000000;1.548475
9415.000000;1.549124
9414.000000;1.548666
9413.000000;1.547693
9412.000000;1.546699
9411.000000;1.546018
9410.000000;1.545738
9409.000000;1.545314
9408.000000;1.543906
9407.000000;1.541629
9406.000000;1.539826
9405.000000;1.539468
9404.000000;1.539916
9403.000000;1.539934
9402.000000;1.539340
9401.000000;1.538793
9400.000000;1.538390
9399.000000;1.537596
9398.000000;1.536370
9397.000000;1.535236
9396.000000;1.534266
9395.000000;1.533013
9394.000000;1.531522
9393.000000;1.530493
9392.000000;1.530159
9391.000000;1.529642
9390.000000;1.527976
9389.000000;1.525402
9388.000000;1.523226
9387.000000;1.522769
9386.000000;1.524558
9385.000000;1.527966
9384.000000;1.531327
9383.000000;1.532936
9382.000000;1.532343
9381.000000;1.530497
9380.000000;1.528611
9379.000000;1.527250
9378.000000;1.526390
9377.000000;1.525706
9376.000000;1.524710
9375.000000;1.523235
9374.000000;1.522053
9373.000000;1.522416
9372.000000;1.524552
9371.000000;1.526952
9370.000000;1.527622
9369.000000;1.526016
9368.000000;1.523443
9367.000000;1.521650
9366.000000;1.521271
9365.000000;1.521504
9364.000000;1.521070
9363.000000;1.519584
9362.000000;1.517933
9361.000000;1.517187
9360.000000;1.517415
9359.000000;1.517792
9358.000000;1.517685
9357.000000;1.517324
9356.000000;1.517368
9355.000000;1.518113
9354.000000;1.519116
9353.000000;1.519410
9352.000000;1.518200
9351.000000;1.515630
9350.000000;1.512783
9349.000000;1.510634
9348.000000;1.509279
9347.000000;1.508528
9346.000000;1.508762
9345.000000;1.510307
9344.000000;1.512095
9343.000000;1.512094
9342.000000;1.509596
9341.000000;1.506164
9340.000000;1.503844
9339.000000;1.503302
9338.000000;1.504120
9337.000000;1.505985
9336.000000;1.508648
9335.000000;1.511163
9334.000000;1.512217
9333.000000;1.511321
9332.000000;1.509107
9331.000000;1.506484
9330.000000;1.504130
9329.000000;1.502772
9328.000000;1.503115
9327.000000;1.505094
9326.000000;1.507567
9325.000000;1.509037
9324.000000;1.508639
9323.000000;1.506514
9322.000000;1.503628
9321.000000;1.501394
9320.000000;1.501024
9319.000000;1.502717
9318.000000;1.505322
9317.000000;1.506931
9316.000000;1.506151
9315.000000;1.503175
9314.000000;1.499638
9313.000000;1.497272
9312.000000;1.496580
9311.000000;1.496785
9310.000000;1.496950
9309.000000;1.496825
9308.000000;1.496529
9307.000000;1.495906
9306.000000;1.494656
9305.000000;1.492886
9304.000000;1.491007
9303.000000;1.489260
9302.000000;1.487876
9301.000000;1.487437
9300.000000;1.488329
9299.000000;1.489933
9298.000000;1.491023
9297.000000;1.491074
9296.000000;1.490536
9295.000000;1.489784
9294.000000;1.488654
9293.000000;1.487232
9292.000000;1.486258
9291.000000;1.486241
9290.000000;1.486700
9289.000000;1.486835
9288.000000;1.486521
9287.000000;1.486084
9286.000000;1.485551
9285.000000;1.484775
9284.000000;1.484049
9283.000000;1.483871
9282.000000;1.484203
9281.000000;1.484510
9280.000000;1.484394
9279.000000;1.483779
9278.000000;1.482706
9277.000000;1.481537
9276.000000;1.481166
9275.000000;1.482229
9274.000000;1.484037
9273.000000;1.484996
9272.000000;1.484399
9271.000000;1.483231
9270.000000;1.482847
9269.000000;1.483402
9268.000000;1.483888
9267.000000;1.483276
9266.000000;1.481298
9265.000000;1.478472
9264.000000;1.475767
9263.000000;1.474065
9262.000000;1.473550
9261.000000;1.473661
9260.000000;1.473887
9259.000000;1.474388
9258.000000;1.475540
9257.000000;1.477015
9256.000000;1.477780
9255.000000;1.477170
9254.000000;1.475645
9253.000000;1.474248
9252.000000;1.473469
9251.000000;1.472968
9250.000000;1.472500
9249.000000;1.472692
9248.000000;1.474288
9247.000000;1.476617
9246.000000;1.477568
9245.000000;1.475769
9244.000000;1.472459
9243.000000;1.470246
9242.000000;1.470053
9241.000000;1.470225
9240.000000;1.468791
9239.000000;1.465886
9238.000000;1.463427
9237.000000;1.462955
9236.000000;1.464391
9235.000000;1.466546
9234.000000;1.468218
9233.000000;1.468864
9232.000000;1.468686
9231.000000;1.468259
9230.000000;1.467928
9229.000000;1.467513
9228.000000;1.466710
9227.000000;1.465669
9226.000000;1.464919
9225.000000;1.464733
9224.000000;1.464843
9223.000000;1.464875
9222.000000;1.464812
9221.000000;1.464893
9220.000000;1.465140
9219.000000;1.465096
9218.000000;1.464183
9217.000000;1.462388
9216.000000;1.460399
9215.000000;1.458892
9214.000000;1.457839
9213.000000;1.456779
9212.000000;1.455683
9211.000000;1.455182
9210.000000;1.455877
9209.000000;1.457654
9208.000000;1.459683
9207.000000;1.460852
9206.000000;1.460397
9205.000000;1.458581
9204.000000;1.456712
9203.000000;1.456019
9202.000000;1.456432
9201.000000;1.456881
9200.000000;1.456789
9199.000000;1.456609
9198.000000;1.456701
9197.000000;1.456500
9196.000000;1.455396
9195.000000;1.453852
9194.000000;1.452941
9193.000000;1.453011
9192.000000;1.453345
9191.000000;1.453046
9190.000000;1.451850
9189.000000;1.450239
9188.000000;1.449164
9187.000000;1.449360
9186.000000;1.450525
9185.000000;1.451489
9184.000000;1.451600
9183.000000;1.451488
9182.000000;1.451927
9181.000000;1.452530
9180.000000;1.452321
9179.000000;1.451301
9178.000000;1.450462
9177.000000;1.450224
9176.000000;1.449865
9175.000000;1.448774
9174.000000;1.447462
9173.000000;1.446886
9172.000000;1.447335
9171.000000;1.448316
9170.000000;1.449042
9169.000000;1.448721
9168.000000;1.446919
9167.000000;1.444218
9166.000000;1.442168
9165.000000;1.441939
9164.000000;1.443004
9163.000000;1.443528
9162.000000;1.442268
9161.000000;1.439841
9160.000000;1.437916
9159.000000;1.437378
9158.000000;1.437536
9157.000000;1.437050
9156.000000;1.435444
9155.000000;1.433611
9154.000000;1.432943
9153.000000;1.434144
9152.000000;1.436745
9151.000000;1.439442
9150.000000;1.440891
9149.000000;1.440604
9148.000000;1.439324
9147.000000;1.438328
9146.000000;1.438185
9145.000000;1.438323
9144.000000;1.437868
9143.000000;1.436740
9142.000000;1.435751
9141.000000;1.435782
9140.000000;1.437008
9139.000000;1.438712
9138.000000;1.439765
9137.000000;1.439667
9136.000000;1.439119
9135.000000;1.439028
9134.000000;1.438967
9133.000000;1.437463
9132.000000;1.434251
9131.000000;1.431359
9130.000000;1.430969
9129.000000;1.432712
9128.000000;1.434030
9127.000000;1.433086
9126.000000;1.430431
9125.000000;1.427777
9124.000000;1.426189
9123.000000;1.425789
9122.000000;1.426341
9121.000000;1.427474
9120.000000;1.428687
9119.000000;1.429621
9118.000000;1.430217
9117.000000;1.430461
9116.000000;1.430316
9115.000000;1.430018
9114.000000;1.429958
9113.000000;1.430103
9112.000000;1.429994
9111.000000;1.429502
9110.000000;1.429133
9109.000000;1.429293
9108.000000;1.429645
9107.000000;1.429637
9106.000000;1.429379
9105.000000;1.429493
9104.000000;1.430142
9103.000000;1.430632
9102.000000;1.430094
9101.000000;1.428432
9100.000000;1.426437
9099.000000;1.425021
9098.000000;1.424425
9097.000000;1.424259
9096.000000;1.424256
9095.000000;1.424624
9094.000000;1.425462
9093.000000;1.426266
9092.000000;1.426476
9091.000000;1.426270
9090.000000;1.426324
9089.000000;1.426854
9088.000000;1.427408
9087.000000;1.427585
9086.000000;1.427453
9085.000000;1.427123
9084.000000;1.426276
9083.000000;1.424415
9082.000000;1.421566
9081.000000;1.418616
9080.000000;1.416824
9079.000000;1.416835
9078.000000;1.418073
9077.000000;1.419247
9076.000000;1.419547
9075.000000;1.419145
9074.000000;1.418547
9073.000000;1.417972
9072.000000;1.417680
9071.000000;1.418324
9070.000000;1.420178
9069.000000;1.422293
9068.000000;1.423163
9067.000000;1.422163
9066.000000;1.419721
9065.000000;1.416386
9064.000000;1.412606
9063.000000;1.409357
9062.000000;1.407950
9061.000000;1.408846
9060.000000;1.411120
9059.000000;1.413294
9058.000000;1.414352
9057.000000;1.414037
9056.000000;1.412894
9055.000000;1.412115
9054.000000;1.412579
9053.000000;1.413828
9052.000000;1.414599
9051.000000;1.414552
9050.000000;1.414658
9049.000000;1.415611
9048.000000;1.416774
9047.000000;1.417204
9046.000000;1.416881
9045.000000;1.416239
9044.000000;1.415250
9043.000000;1.413820
9042.000000;1.412490
9041.000000;1.411857
9040.000000;1.411643
9039.000000;1.411125
9038.000000;1.410178
9037.000000;1.409171
9036.000000;1.408159
9035.000000;1.407082
9034.000000;1.406573
9033.000000;1.407531
9032.000000;1.409682
9031.000000;1.411352
9030.000000;1.411049
9029.000000;1.408895
9028.000000;1.406206
9027.000000;1.404132
9026.000000;1.403035
9025.000000;1.402744
9024.000000;1.402911
9023.000000;1.403202
9022.000000;1.403476
9021.000000;1.403875
9020.000000;1.404638
9019.000000;1.405734
9018.000000;1.406639
9017.000000;1.406576
9016.000000;1.405266
9015.000000;1.403498
9014.000000;1.402583
9013.000000;1.403046
9012.000000;1.404051
9011.000000;1.404352
9010.000000;1.403647
9009.000000;1.402728
9008.000000;1.402511
9007.000000;1.403306
9006.000000;1.404839
9005.000000;1.406457
9004.000000;1.407365
9003.000000;1.407191
9002.000000;1.406435
9001.000000;1.405950
9000.000000;1.405910
8999.000000;1.405691
8998.000000;1.404866
8997.000000;1.403832
8996.000000;1.403191
8995.000000;1.402941
8994.000000;1.402697
8993.000000;1.402382
8992.000000;1.402184
8991.000000;1.401940
8990.000000;1.401162
8989.000000;1.399810
8988.000000;1.398638
8987.000000;1.398475
8986.000000;1.399364
8985.000000;1.400582
8984.000000;1.401350
8983.000000;1.401367
8982.000000;1.400825
8981.000000;1.400141
8980.000000;1.399608
8979.000000;1.399091
8978.000000;1.398138
8977.000000;1.396613
8976.000000;1.395175
8975.000000;1.394815
8974.000000;1.395804
8973.000000;1.397306
8972.000000;1.398134
8971.000000;1.397810
8970.000000;1.396858
8969.000000;1.396238
8968.000000;1.396533
8967.000000;1.397426
8966.000000;1.397904
8965.000000;1.397243
8964.000000;1.395882
8963.000000;1.395093
8962.000000;1.395697
8961.000000;1.397317
8960.000000;1.398931
8959.000000;1.399774
8958.000000;1.399513
8957.000000;1.398149
8956.000000;1.396333
8955.000000;1.395387
8954.000000;1.396190
8953.000000;1.397978
8952.000000;1.398805
8951.000000;1.397452
8950.000000;1.394612
8949.000000;1.392069
8948.000000;1.391096
8947.000000;1.391719
8946.000000;1.393068
8945.000000;1.394158
8944.000000;1.394530
8943.000000;1.394292
8942.000000;1.393583
8941.000000;1.392287
8940.000000;1.390467
8939.000000;1.388852
8938.000000;1.388472
8937.000000;1.389746
8936.000000;1.392132
8935.000000;1.394663
8934.000000;1.396489
8933.000000;1.396960
8932.000000;1.395733
8931.000000;1.393158
8930.000000;1.390291
8929.000000;1.388194
8928.000000;1.387210
8927.000000;1.386967
8926.000000;1.386946
8925.000000;1.386932
8924.000000;1.387030
8923.000000;1.387409
8922.000000;1.388090
8921.000000;1.389018
8920.000000;1.390247
8919.000000;1.391784
8918.000000;1.393166
8917.000000;1.393581
8916.000000;1.392729
8915.000000;1.391325
8914.000000;1.390313
8913.000000;1.389740
8912.000000;1.388837
8911.000000;1.387129
8910.000000;1.385005
8909.000000;1.383251
8908.000000;1.382457
8907.000000;1.382829
8906.000000;1.384041
8905.000000;1.385194
8904.000000;1.385447
8903.000000;1.384838
8902.000000;1.384112
8901.000000;1.383663
8900.000000;1.383152
8899.000000;1.382326
8898.000000;1.381642
8897.000000;1.381673
8896.000000;1.382277
8895.000000;1.382831
8894.000000;1.383121
8893.000000;1.383527
8892.000000;1.384287
8891.000000;1.384909
8890.000000;1.384616
8889.000000;1.383345
8888.000000;1.382077
8887.000000;1.381869
8886.000000;1.382580
8885.000000;1.382990
8884.000000;1.382397
8883.000000;1.381549
8882.000000;1.381465
8881.000000;1.381868
8880.000000;1.381710
8879.000000;1.381002
8878.000000;1.381020
8877.000000;1.382526
8876.000000;1.384695
8875.000000;1.386198
8874.000000;1.386690
8873.000000;1.386635
8872.000000;1.386304
8871.000000;1.385624
8870.000000;1.384676
8869.000000;1.383754
8868.000000;1.383091
8867.000000;1.382865
8866.000000;1.383242
8865.000000;1.383987
8864.000000;1.384298
8863.000000;1.383509
8862.000000;1.381900
8861.000000;1.380490
8860.000000;1.380051
8859.000000;1.380537
8858.000000;1.381335
8857.000000;1.381788
8856.000000;1.381597
8855.000000;1.380972
8854.000000;1.380414
8853.000000;1.380296
8852.000000;1.380690
8851.000000;1.381504
8850.000000;1.382465
8849.000000;1.383019
8848.000000;1.382701
8847.000000;1.381806
8846.000000;1.381253
8845.000000;1.381561
8844.000000;1.382303
8843.000000;1.382806
8842.000000;1.382989
8841.000000;1.383201
8840.000000;1.383563
8839.000000;1.383854
8838.000000;1.383831
8837.000000;1.383337
8836.000000;1.382314
8835.000000;1.381048
8834.000000;1.380187
8833.000000;1.380172
8832.000000;1.380781
8831.000000;1.381531
8830.000000;1.382318
8829.000000;1.383313
8828.000000;1.384376
8827.000000;1.384993
8826.000000;1.384798
8825.000000;1.383866
8824.000000;1.382590
8823.000000;1.381460
8822.000000;1.380834
8821.000000;1.380633
8820.000000;1.380412
8819.000000;1.379970
8818.000000;1.379733
8817.000000;1.380246
8816.000000;1.381360
8815.000000;1.382205
8814.000000;1.381967
8813.000000;1.380544
8812.000000;1.378517
8811.000000;1.376748
8810.000000;1.375980
8809.000000;1.376539
8808.000000;1.378253
8807.000000;1.380613
8806.000000;1.382955
8805.000000;1.384557
8804.000000;1.384863
8803.000000;1.383861
8802.000000;1.382200
8801.000000;1.380822
8800.000000;1.380414
8799.000000;1.381115
8798.000000;1.382515
8797.000000;1.383929
8796.000000;1.384920
8795.000000;1.385596
8794.000000;1.386181
8793.000000;1.386331
8792.000000;1.385353
8791.000000;1.383262
8790.000000;1.381216
8789.000000;1.380590
8788.000000;1.381783
8787.000000;1.384016
8786.000000;1.386002
8785.000000;1.386707
8784.000000;1.385837
8783.000000;1.384008
8782.000000;1.382377
8781.000000;1.381896
8780.000000;1.382812
8779.000000;1.384723
8778.000000;1.386854
8777.000000;1.388351
8776.000000;1.388767
8775.000000;1.388454
8774.000000;1.388119
8773.000000;1.387911
8772.000000;1.387403
8771.000000;1.386530
8770.000000;1.385901
8769.000000;1.385905
8768.000000;1.386184
8767.000000;1.386385
8766.000000;1.386792
8765.000000;1.387682
8764.000000;1.388548
8763.000000;1.388637
8762.000000;1.388000
8761.000000;1.387340
8760.000000;1.387016
8759.000000;1.386859
8758.000000;1.386840
8757.000000;1.387234
8756.000000;1.388030
8755.000000;1.388745
8754.000000;1.389018
8753.000000;1.389049
8752.000000;1.389287
8751.000000;1.389938
8750.000000;1.390771
8749.000000;1.391188
8748.000000;1.390610
8747.000000;1.389142
8746.000000;1.387761
8745.000000;1.387481
8744.000000;1.388358
8743.000000;1.389586
8742.000000;1.390447
8741.000000;1.390825
8740.000000;1.390827
8739.000000;1.390425
8738.000000;1.389651
8737.000000;1.388833
8736.000000;1.388379
8735.000000;1.388494
8734.000000;1.389184
8733.000000;1.390355
8732.000000;1.391788
8731.000000;1.393113
8730.000000;1.393915
8729.000000;1.393913
8728.000000;1.393135
8727.000000;1.391972
8726.000000;1.390896
8725.000000;1.390041
8724.000000;1.389222
8723.000000;1.388407
8722.000000;1.387926
8721.000000;1.388067
8720.000000;1.388695
8719.000000;1.389482
8718.000000;1.390289
8717.000000;1.391115
8716.000000;1.391908
8715.000000;1.392737
8714.000000;1.393903
8713.000000;1.395523
8712.000000;1.397109
8711.000000;1.397919
8710.000000;1.397771
8709.000000;1.397229
8708.000000;1.396947
8707.000000;1.397048
8706.000000;1.397128
8705.000000;1.396691
8704.000000;1.395677
8703.000000;1.394725
8702.000000;1.394659
8701.000000;1.395499
8700.000000;1.396295
8699.000000;1.396255
8698.000000;1.395739
8697.000000;1.395702
8696.000000;1.396411
8695.000000;1.397271
8694.000000;1.397759
8693.000000;1.397884
8692.000000;1.397717
8691.000000;1.397121
8690.000000;1.396231
8689.000000;1.395699
8688.000000;1.396077
8687.000000;1.397146
8686.000000;1.398078
8685.000000;1.398172
8684.000000;1.397376
8683.000000;1.396211
8682.000000;1.395314
8681.000000;1.395002
8680.000000;1.395189
8679.000000;1.395631
8678.000000;1.396102
8677.000000;1.396266
8676.000000;1.395716
8675.000000;1.394535
8674.000000;1.393640
8673.000000;1.394039
8672.000000;1.395651
8671.000000;1.397230
8670.000000;1.397645
8669.000000;1.396950
8668.000000;1.396061
8667.000000;1.395687
8666.000000;1.395872
8665.000000;1.396324
8664.000000;1.396751
8663.000000;1.396840
8662.000000;1.396241
8661.000000;1.394889
8660.000000;1.393339
8659.000000;1.392495
8658.000000;1.392790
8657.000000;1.393683
8656.000000;1.394192
8655.000000;1.393915
8654.000000;1.393314
8653.000000;1.392965
8652.000000;1.392910
8651.000000;1.392931
8650.000000;1.393090
8649.000000;1.393649
8648.000000;1.394653
8647.000000;1.395901
8646.000000;1.397197
8645.000000;1.398337
8644.000000;1.399006
8643.000000;1.399009
8642.000000;1.398539
8641.000000;1.397880
8640.000000;1.396976
8639.000000;1.395659
8638.000000;1.394207
8637.000000;1.393176
8636.000000;1.392687
8635.000000;1.392355
8634.000000;1.392087
8633.000000;1.392475
8632.000000;1.394048
8631.000000;1.396378
8630.000000;1.398335
8629.000000;1.399219
8628.000000;1.399342
8627.000000;1.399388
8626.000000;1.399509
8625.000000;1.399308
8624.000000;1.398567
8623.000000;1.397655
8622.000000;1.397099
8621.000000;1.396955
8620.000000;1.396831
8619.000000;1.396419
8618.000000;1.395709
8617.000000;1.394737
8616.000000;1.393532
8615.000000;1.392399
8614.000000;1.391882
8613.000000;1.392171
8612.000000;1.392804
8611.000000;1.393219
8610.000000;1.393384
8609.000000;1.393601
8608.000000;1.393919
8607.000000;1.394157
8606.000000;1.394342
8605.000000;1.394694
8604.000000;1.395197
8603.000000;1.395551
8602.000000;1.395591
8601.000000;1.395444
8600.000000;1.395226
8599.000000;1.394910
8598.000000;1.394592
8597.000000;1.394639
8596.000000;1.395380
8595.000000;1.396685
8594.000000;1.397876
8593.000000;1.398071
8592.000000;1.396812
8591.000000;1.394562
8590.000000;1.392445
8589.000000;1.391278
8588.000000;1.390920
8587.000000;1.390757
8586.000000;1.390651
8585.000000;1.391007
8584.000000;1.391906
8583.000000;1.392656
8582.000000;1.392553
8581.000000;1.391844
8580.000000;1.391531
8579.000000;1.392250
8578.000000;1.393542
8577.000000;1.394324
8576.000000;1.393942
8575.000000;1.392651
8574.000000;1.391133
8573.000000;1.389836
8572.000000;1.388879
8571.000000;1.388357
8570.000000;1.388318
8569.000000;1.388470
8568.000000;1.388369
8567.000000;1.388101
8566.000000;1.388428
8565.000000;1.389892
8564.000000;1.391997
8563.000000;1.393635
8562.000000;1.394228
8561.000000;1.394085
8560.000000;1.393663
8559.000000;1.393005
8558.000000;1.392068
8557.000000;1.391197
8556.000000;1.390931
8555.000000;1.391408
8554.000000;1.392128
8553.000000;1.392342
8552.000000;1.391695
8551.000000;1.390570
8550.000000;1.389786
8549.000000;1.389879
8548.000000;1.390645
8547.000000;1.391391
8546.000000;1.391577
8545.000000;1.391184
8544.000000;1.390615
8543.000000;1.390335
8542.000000;1.390534
8541.000000;1.390920
8540.000000;1.390925
8539.000000;1.390253
8538.000000;1.389184
8537.000000;1.388212
8536.000000;1.387537
8535.000000;1.387069
8534.000000;1.386800
8533.000000;1.386910
8532.000000;1.387496
8531.000000;1.388401
8530.000000;1.389359
8529.000000;1.390173
8528.000000;1.390641
8527.000000;1.390463
8526.000000;1.389421
8525.000000;1.387761
8524.000000;1.386272
8523.000000;1.385759
8522.000000;1.386236
8521.000000;1.386774
8520.000000;1.386392
8519.000000;1.385066
8518.000000;1.383599
8517.000000;1.382613
8516.000000;1.382131
8515.000000;1.382207
8514.000000;1.383295
8513.000000;1.385512
8512.000000;1.387929
8511.000000;1.389247
8510.000000;1.389161
8509.000000;1.388552
8508.000000;1.388355
8507.000000;1.388715
8506.000000;1.389193
8505.000000;1.389308
8504.000000;1.388756
8503.000000;1.387549
8502.000000;1.386205
8501.000000;1.385498
8500.000000;1.385727
8499.000000;1.386359
8498.000000;1.386555
8497.000000;1.385979
8496.000000;1.385006
8495.000000;1.384291
8494.000000;1.384271
8493.000000;1.384898
8492.000000;1.385673
8491.000000;1.386056
8490.000000;1.386069
8489.000000;1.386390
8488.000000;1.387566
8487.000000;1.389088
8486.000000;1.389607
8485.000000;1.388348
8484.000000;1.386140
8483.000000;1.384649
8482.000000;1.384673
8481.000000;1.385542
8480.000000;1.386188
8479.000000;1.386333
8478.000000;1.386365
8477.000000;1.386499
8476.000000;1.386696
8475.000000;1.387173
8474.000000;1.388241
8473.000000;1.389481
8472.000000;1.389698
8471.000000;1.388128
8470.000000;1.385435
8469.000000;1.383187
8468.000000;1.382516
8467.000000;1.383431
8466.000000;1.385060
8465.000000;1.386315
8464.000000;1.386588
8463.000000;1.386109
8462.000000;1.385589
8461.000000;1.385422
8460.000000;1.385360
8459.000000;1.384969
8458.000000;1.384194
8457.000000;1.383351
8456.000000;1.382792
8455.000000;1.382675
8454.000000;1.382811
8453.000000;1.382660
8452.000000;1.381805
8451.000000;1.380571
8450.000000;1.379768
8449.000000;1.379634
8448.000000;1.379468
8447.000000;1.378641
8446.000000;1.377540
8445.000000;1.377067
8444.000000;1.377508
8443.000000;1.378385
8442.000000;1.379214
8441.000000;1.379883
8440.000000;1.380342
8439.000000;1.380449
8438.000000;1.380241
8437.000000;1.380048
8436.000000;1.380218
8435.000000;1.380910
8434.000000;1.382059
8433.000000;1.383329
8432.000000;1.384140
8431.000000;1.384055
8430.000000;1.383174
8429.000000;1.381978
8428.000000;1.380847
8427.000000;1.379958
8426.000000;1.379499
8425.000000;1.379651
8424.000000;1.380313
8423.000000;1.381049
8422.000000;1.381377
8421.000000;1.381108
8420.000000;1.380515
8419.000000;1.380207
8418.000000;1.380585
8417.000000;1.381345
8416.000000;1.381757
8415.000000;1.381604
8414.000000;1.381468
8413.000000;1.381828
8412.000000;1.382299
8411.000000;1.382213
8410.000000;1.381612
8409.000000;1.381166
8408.000000;1.381273
8407.000000;1.381728
8406.000000;1.382145
8405.000000;1.382238
8404.000000;1.381810
8403.000000;1.380972
8402.000000;1.380303
8401.000000;1.380329
8400.000000;1.380820
8399.000000;1.381019
8398.000000;1.380528
8397.000000;1.379557
8396.000000;1.378373
8395.000000;1.377084
8394.000000;1.376059
8393.000000;1.375960
8392.000000;1.377051
8391.000000;1.378727
8390.000000;1.379970
8389.000000;1.380193
8388.000000;1.379617
8387.000000;1.378935
8386.000000;1.378619
8385.000000;1.378477
8384.000000;1.377973
8383.000000;1.377099
8382.000000;1.376635
8381.000000;1.377215
8380.000000;1.378397
8379.000000;1.379141
8378.000000;1.379078
8377.000000;1.378725
8376.000000;1.378486
8375.000000;1.378160
8374.000000;1.377578
8373.000000;1.377068
8372.000000;1.376957
8371.000000;1.377074
8370.000000;1.377108
8369.000000;1.377112
8368.000000;1.377315
8367.000000;1.377666
8366.000000;1.377846
8365.000000;1.377600
8364.000000;1.376947
8363.000000;1.376262
8362.000000;1.376188
8361.000000;1.377120
8360.000000;1.378648
8359.000000;1.379858
8358.000000;1.380333
8357.000000;1.380472
8356.000000;1.380633
8355.000000;1.380494
8354.000000;1.379669
8353.000000;1.378472
8352.000000;1.377552
8351.000000;1.377039
8350.000000;1.376613
8349.000000;1.376221
8348.000000;1.376131
8347.000000;1.376316
8346.000000;1.376393
8345.000000;1.376376
8344.000000;1.376911
8343.000000;1.378340
8342.000000;1.379862
8341.000000;1.380168
8340.000000;1.378918
8339.000000;1.377156
8338.000000;1.376143
8337.000000;1.376160
8336.000000;1.376659
8335.000000;1.377207
8334.000000;1.377826
8333.000000;1.378478
8332.000000;1.378815
8331.000000;1.378636
8330.000000;1.378231
8329.000000;1.377978
8328.000000;1.377842
8327.000000;1.377565
8326.000000;1.377119
8325.000000;1.376696
8324.000000;1.376364
8323.000000;1.376015
8322.000000;1.375551
8321.000000;1.374907
8320.000000;1.374031
8319.000000;1.373101
8318.000000;1.372593
8317.000000;1.372808
8316.000000;1.373430
8315.000000;1.373903
8314.000000;1.374151
8313.000000;1.374578
8312.000000;1.375392
8311.000000;1.376280
8310.000000;1.376765
8309.000000;1.376578
8308.000000;1.375716
8307.000000;1.374489
8306.000000;1.373479
8305.000000;1.373103
8304.000000;1.373199
8303.000000;1.373370
8302.000000;1.373695
8301.000000;1.374614
8300.000000;1.376037
8299.000000;1.377068
8298.000000;1.376903
8297.000000;1.375672
8296.000000;1.374156
8295.000000;1.372972
8294.000000;1.372268
8293.000000;1.371935
8292.000000;1.371838
8291.000000;1.371923
8290.000000;1.372252
8289.000000;1.372820
8288.000000;1.373315
8287.000000;1.373298
8286.000000;1.372710
8285.000000;1.372001
8284.000000;1.371684
8283.000000;1.371882
8282.000000;1.372311
8281.000000;1.372493
8280.000000;1.372043
8279.000000;1.371051
8278.000000;1.370173
8277.000000;1.370044
8276.000000;1.370530
8275.000000;1.370878
8274.000000;1.370606
8273.000000;1.369931
8272.000000;1.369270
8271.000000;1.368778
8270.000000;1.368513
8269.000000;1.368656
8268.000000;1.369298
8267.000000;1.370274
8266.000000;1.371308
8265.000000;1.372087
8264.000000;1.372208
8263.000000;1.371520
8262.000000;1.370593
8261.000000;1.370304
8260.000000;1.370759
8259.000000;1.371155
8258.000000;1.370949
8257.000000;1.370587
8256.000000;1.370704
8255.000000;1.371177
8254.000000;1.371509
8253.000000;1.371608
8252.000000;1.371541
8251.000000;1.370978
8250.000000;1.369717
8249.000000;1.368501
8248.000000;1.368434
8247.000000;1.369531
8246.000000;1.370594
8245.000000;1.370651
8244.000000;1.369954
8243.000000;1.369364
8242.000000;1.369348
8241.000000;1.369861
8240.000000;1.370673
8239.000000;1.371398
8238.000000;1.371515
8237.000000;1.370794
8236.000000;1.369600
8235.000000;1.368543
8234.000000;1.367900
8233.000000;1.367515
8232.000000;1.367097
8231.000000;1.366504
8230.000000;1.365912
8229.000000;1.365799
8228.000000;1.366583
8227.000000;1.368083
8226.000000;1.369451
8225.000000;1.369845
8224.000000;1.369191
8223.000000;1.368188
8222.000000;1.367604
8221.000000;1.367637
8220.000000;1.367874
8219.000000;1.367801
8218.000000;1.367345
8217.000000;1.366914
8216.000000;1.366907
8215.000000;1.367281
8214.000000;1.367702
8213.000000;1.368012
8212.000000;1.368323
8211.000000;1.368638
8210.000000;1.368664
8209.000000;1.368208
8208.000000;1.367587
8207.000000;1.367402
8206.000000;1.367906
8205.000000;1.368690
8204.000000;1.369025
8203.000000;1.368476
8202.000000;1.367249
8201.000000;1.365979
8200.000000;1.365216
8199.000000;1.365081
8198.000000;1.365347
8197.000000;1.365728
8196.000000;1.366000
8195.000000;1.365928
8194.000000;1.365339
8193.000000;1.364447
8192.000000;1.363944
8191.000000;1.364501
8190.000000;1.366025
8189.000000;1.367552
8188.000000;1.368055
8187.000000;1.367429
8186.000000;1.366524
8185.000000;1.366172
8184.000000;1.366383
8183.000000;1.366613
8182.000000;1.366597
8181.000000;1.366592
8180.000000;1.366765
8179.000000;1.366721
8178.000000;1.366021
8177.000000;1.364981
8176.000000;1.364544
8175.000000;1.365250
8174.000000;1.366600
8173.000000;1.367576
8172.000000;1.367615
8171.000000;1.366899
8170.000000;1.365864
8169.000000;1.364775
8168.000000;1.363773
8167.000000;1.363025
8166.000000;1.362583
8165.000000;1.362260
8164.000000;1.361858
8163.000000;1.361521
8162.000000;1.361626
8161.000000;1.362257
8160.000000;1.362968
8159.000000;1.363219
8158.000000;1.362955
8157.000000;1.362601
8156.000000;1.362537
8155.000000;1.362753
8154.000000;1.363027
8153.000000;1.363254
8152.000000;1.363460
8151.000000;1.363571
8150.000000;1.363392
8149.000000;1.362892
8148.000000;1.362412
8147.000000;1.362424
8146.000000;1.363019
8145.000000;1.363733
8144.000000;1.363953
8143.000000;1.363510
8142.000000;1.362749
8141.000000;1.362058
8140.000000;1.361529
8139.000000;1.361161
8138.000000;1.361135
8137.000000;1.361640
8136.000000;1.362494
8135.000000;1.363197
8134.000000;1.363408
8133.000000;1.363223
8132.000000;1.362976
8131.000000;1.362916
8130.000000;1.363095
8129.000000;1.363403
8128.000000;1.363619
8127.000000;1.363557
8126.000000;1.363253
8125.000000;1.362951
8124.000000;1.362889
8123.000000;1.363154
8122.000000;1.363704
8121.000000;1.364413
8120.000000;1.365043
8119.000000;1.365292
8118.000000;1.364954
8117.000000;1.364071
8116.000000;1.362927
8115.000000;1.361932
8114.000000;1.361431
8113.000000;1.361500
8112.000000;1.361907
8111.000000;1.362335
8110.000000;1.362627
8109.000000;1.362799
8108.000000;1.362882
8107.000000;1.362884
8106.000000;1.362810
8105.000000;1.362597
8104.000000;1.362125
8103.000000;1.361474
8102.000000;1.361040
8101.000000;1.361125
8100.000000;1.361482
8099.000000;1.361608
8098.000000;1.361497
8097.000000;1.361729
8096.000000;1.362648
8095.000000;1.363789
8094.000000;1.364365
8093.000000;1.364103
8092.000000;1.363358
8091.000000;1.362585
8090.000000;1.361968
8089.000000;1.361474
8088.000000;1.360987
8087.000000;1.360368
8086.000000;1.359601
8085.000000;1.358928
8084.000000;1.358747
8083.000000;1.359311
8082.000000;1.360498
8081.000000;1.361784
8080.000000;1.362495
8079.000000;1.362299
8078.000000;1.361586
8077.000000;1.361133
8076.000000;1.361257
8075.000000;1.361463
8074.000000;1.361120
8073.000000;1.360277
8072.000000;1.359521
8071.000000;1.359189
8070.000000;1.359110
8069.000000;1.359076
8068.000000;1.359147
8067.000000;1.359363
8066.000000;1.359516
8065.000000;1.359490
8064.000000;1.359575
8063.000000;1.360126
8062.000000;1.360943
8061.000000;1.361321
8060.000000;1.360794
8059.000000;1.359676
8058.000000;1.358718
8057.000000;1.358347
8056.000000;1.358420
8055.000000;1.358640
8054.000000;1.358994
8053.000000;1.359611
8052.000000;1.360343
8051.000000;1.360761
8050.000000;1.360633
8049.000000;1.360212
8048.000000;1.359948
8047.000000;1.360020
8046.000000;1.360276
8045.000000;1.360471
8044.000000;1.360418
8043.000000;1.359989
8042.000000;1.359219
8041.000000;1.358453
8040.000000;1.358174
8039.000000;1.358550
8038.000000;1.359202
8037.000000;1.359526
8036.000000;1.359273
8035.000000;1.358784
8034.000000;1.358645
8033.000000;1.359115
8032.000000;1.359876
8031.000000;1.360297
8030.000000;1.359963
8029.000000;1.358992
8028.000000;1.357898
8027.000000;1.357189
8026.000000;1.357027
8025.000000;1.357162
8024.000000;1.357180
8023.000000;1.356910
8022.000000;1.356606
8021.000000;1.356672
8020.000000;1.357166
8019.000000;1.357687
8018.000000;1.357819
8017.000000;1.357593
8016.000000;1.357469
8015.000000;1.357858
8014.000000;1.358709
8013.000000;1.359491
8012.000000;1.359638
8011.000000;1.359097
8010.000000;1.358422
8009.000000;1.358193
8008.000000;1.358422
8007.000000;1.358697
8006.000000;1.358844
8005.000000;1.359063
8004.000000;1.359352
8003.000000;1.359241
8002.000000;1.358409
8001.000000;1.357242
8000.000000;1.356405
7999.000000;1.356081
7998.000000;1.356011
7997.000000;1.356100
7996.000000;1.356450
7995.000000;1.356853
7994.000000;1.356824
7993.000000;1.356330
7992.000000;1.355997
7991.000000;1.356299
7990.000000;1.356888
7989.000000;1.357059
7988.000000;1.356646
7987.000000;1.356090
7986.000000;1.355787
7985.000000;1.355751
7984.000000;1.355867
7983.000000;1.356102
7982.000000;1.356368
7981.000000;1.356441
7980.000000;1.356174
7979.000000;1.355682
7978.000000;1.355241
7977.000000;1.355051
7976.000000;1.355135
7975.000000;1.355365
7974.000000;1.355554
7973.000000;1.355573
7972.000000;1.355454
7971.000000;1.355386
7970.000000;1.355604
7969.000000;1.356236
7968.000000;1.357129
7967.000000;1.357806
7966.000000;1.357773
7965.000000;1.357047
7964.000000;1.356283
7963.000000;1.356165
7962.000000;1.356716
7961.000000;1.357327
7960.000000;1.357470
7959.000000;1.357184
7958.000000;1.356828
7957.000000;1.356577
7956.000000;1.356338
7955.000000;1.356030
7954.000000;1.355738
7953.000000;1.355608
7952.000000;1.355725
7951.000000;1.356131
7950.000000;1.356837
7949.000000;1.357729
7948.000000;1.358462
7947.000000;1.358588
7946.000000;1.357929
7945.000000;1.356872
7944.000000;1.356187
7943.000000;1.356389
7942.000000;1.357240
7941.000000;1.357943
7940.000000;1.357862
7939.000000;1.357026
7938.000000;1.355944
7937.000000;1.355084
7936.000000;1.354628
7935.000000;1.354578
7934.000000;1.354892
7933.000000;1.355482
7932.000000;1.356189
7931.000000;1.356835
7930.000000;1.357286
7929.000000;1.357493
7928.000000;1.357497
7927.000000;1.357396
7926.000000;1.357278
7925.000000;1.357190
7924.000000;1.357187
7923.000000;1.357334
7922.000000;1.357605
7921.000000;1.357840
7920.000000;1.357909
7919.000000;1.357878
7918.000000;1.357882
7917.000000;1.357887
7916.000000;1.357736
7915.000000;1.357432
7914.000000;1.357205
7913.000000;1.357205
7912.000000;1.357271
7911.000000;1.357144
7910.000000;1.356797
7909.000000;1.356432
7908.000000;1.356241
7907.000000;1.356323
7906.000000;1.356765
7905.000000;1.357583
7904.000000;1.358523
7903.000000;1.359098
7902.000000;1.358936
7901.000000;1.358110
7900.000000;1.357108
7899.000000;1.356518
7898.000000;1.356653
7897.000000;1.357345
7896.000000;1.358053
7895.000000;1.358261
7894.000000;1.357865
7893.000000;1.357175
7892.000000;1.356568
7891.000000;1.356218
7890.000000;1.356120
7889.000000;1.356221
7888.000000;1.356460
7887.000000;1.356767
7886.000000;1.357099
7885.000000;1.357424
7884.000000;1.357643
7883.000000;1.357634
7882.000000;1.357426
7881.000000;1.357214
7880.000000;1.357099
7879.000000;1.356901
7878.000000;1.356411
7877.000000;1.355781
7876.000000;1.355445
7875.000000;1.355666
7874.000000;1.356326
7873.000000;1.357188
7872.000000;1.358119
7871.000000;1.358942
7870.000000;1.359293
7869.000000;1.358905
7868.000000;1.358015
7867.000000;1.357215
7866.000000;1.356868
7865.000000;1.356829
7864.000000;1.356808
7863.000000;1.356810
7862.000000;1.357049
7861.000000;1.357519
7860.000000;1.357895
7859.000000;1.357895
7858.000000;1.357574
7857.000000;1.357205
7856.000000;1.356943
7855.000000;1.356721
7854.000000;1.356426
7853.000000;1.356101
7852.000000;1.355919
7851.000000;1.355974
7850.000000;1.356141
7849.000000;1.356164
7848.000000;1.355935
7847.000000;1.355672
7846.000000;1.355761
7845.000000;1.356360
7844.000000;1.357196
7843.000000;1.357798
7842.000000;1.357907
7841.000000;1.357614
7840.000000;1.357165
7839.000000;1.356763
7838.000000;1.356556
7837.000000;1.356650
7836.000000;1.357027
7835.000000;1.357526
7834.000000;1.358003
7833.000000;1.358447
7832.000000;1.358836
7831.000000;1.358978
7830.000000;1.358694
7829.000000;1.358147
7828.000000;1.357788
7827.000000;1.357856
7826.000000;1.358084
7825.000000;1.358054
7824.000000;1.357717
7823.000000;1.357396
7822.000000;1.357324
7821.000000;1.357418
7820.000000;1.357527
7819.000000;1.357657
7818.000000;1.357859
7817.000000;1.358028
7816.000000;1.357987
7815.000000;1.357715
7814.000000;1.357401
7813.000000;1.357310
7812.000000;1.357608
7811.000000;1.358219
7810.000000;1.358790
7809.000000;1.358914
7808.000000;1.358539
7807.000000;1.358062
7806.000000;1.357895
7805.000000;1.358022
7804.000000;1.358133
7803.000000;1.358088
7802.000000;1.358046
7801.000000;1.358126
7800.000000;1.358212
7799.000000;1.358174
7798.000000;1.358118
7797.000000;1.358311
7796.000000;1.358930
7795.000000;1.359944
7794.000000;1.361078
7793.000000;1.361856
7792.000000;1.361871
7791.000000;1.361200
7790.000000;1.360455
7789.000000;1.360255
7788.000000;1.360639
7787.000000;1.361089
7786.000000;1.361070
7785.000000;1.360479
7784.000000;1.359649
7783.000000;1.359028
7782.000000;1.358873
7781.000000;1.359134
7780.000000;1.359555
7779.000000;1.359879
7778.000000;1.359977
7777.000000;1.359838
7776.000000;1.359552
7775.000000;1.359351
7774.000000;1.359509
7773.000000;1.360079
7772.000000;1.360761
7771.000000;1.361129
7770.000000;1.360995
7769.000000;1.360540
7768.000000;1.360161
7767.000000;1.360198
7766.000000;1.360682
7765.000000;1.361275
7764.000000;1.361569
7763.000000;1.361521
7762.000000;1.361455
7761.000000;1.361573
7760.000000;1.361678
7759.000000;1.361567
7758.000000;1.361458
7757.000000;1.361697
7756.000000;1.362151
7755.000000;1.362287
7754.000000;1.361900
7753.000000;1.361391
7752.000000;1.361217
7751.000000;1.361379
7750.000000;1.361619
7749.000000;1.361883
7748.000000;1.362285
7747.000000;1.362756
7746.000000;1.363001
7745.000000;1.362827
7744.000000;1.362366
7743.000000;1.361943
7742.000000;1.361812
7741.000000;1.361990
7740.000000;1.362260
7739.000000;1.362343
7738.000000;1.362166
7737.000000;1.361956
7736.000000;1.362010
7735.000000;1.362383
7734.000000;1.362857
7733.000000;1.363182
7732.000000;1.363304
7731.000000;1.363399
7730.000000;1.363694
7729.000000;1.364223
7728.000000;1.364716
7727.000000;1.364800
7726.000000;1.364368
7725.000000;1.363697
7724.000000;1.363173
7723.000000;1.362992
7722.000000;1.363155
7721.000000;1.363572
7720.000000;1.364039
7719.000000;1.364257
7718.000000;1.364107
7717.000000;1.363863
7716.000000;1.363942
7715.000000;1.364441
7714.000000;1.365077
7713.000000;1.365568
7712.000000;1.365877
7711.000000;1.366073
7710.000000;1.366190
7709.000000;1.366319
7708.000000;1.366607
7707.000000;1.367011
7706.000000;1.367214
7705.000000;1.367006
7704.000000;1.366645
7703.000000;1.366589
7702.000000;1.366909
7701.000000;1.367189
7700.000000;1.367060
7699.000000;1.366632
7698.000000;1.366296
7697.000000;1.366248
7696.000000;1.366351
7695.000000;1.366391
7694.000000;1.366342
7693.000000;1.366379
7692.000000;1.366709
7691.000000;1.367350
7690.000000;1.368030
7689.000000;1.368350
7688.000000;1.368167
7687.000000;1.367774
7686.000000;1.367618
7685.000000;1.367853
7684.000000;1.368265
7683.000000;1.368615
7682.000000;1.368906
7681.000000;1.369242
7680.000000;1.369568
7679.000000;1.369689
7678.000000;1.369521
7677.000000;1.369237
7676.000000;1.369146
7675.000000;1.369429
7674.000000;1.369954
7673.000000;1.370331
7672.000000;1.370265
7671.000000;1.369933
7670.000000;1.369911
7669.000000;1.370586
7668.000000;1.371650
7667.000000;1.372353
7666.000000;1.372268
7665.000000;1.371682
7664.000000;1.371175
7663.000000;1.371004
7662.000000;1.371024
7661.000000;1.371058
7660.000000;1.371104
7659.000000;1.371170
7658.000000;1.371130
7657.000000;1.370869
7656.000000;1.370502
7655.000000;1.370339
7654.000000;1.370617
7653.000000;1.371273
7652.000000;1.371960
7651.000000;1.372291
7650.000000;1.372157
7649.000000;1.371863
7648.000000;1.371898
7647.000000;1.372485
7646.000000;1.373360
7645.000000;1.374057
7644.000000;1.374410
7643.000000;1.374694
7642.000000;1.375230
7641.000000;1.375966
7640.000000;1.376506
7639.000000;1.376509
7638.000000;1.375969
7637.000000;1.375153
7636.000000;1.374390
7635.000000;1.373937
7634.000000;1.373914
7633.000000;1.374247
7632.000000;1.374691
7631.000000;1.375001
7630.000000;1.375109
7629.000000;1.375112
7628.000000;1.375128
7627.000000;1.375194
7626.000000;1.375318
7625.000000;1.375553
7624.000000;1.375978
7623.000000;1.376591
7622.000000;1.377231
7621.000000;1.377654
7620.000000;1.377754
7619.000000;1.377684
7618.000000;1.377704
7617.000000;1.377874
7616.000000;1.377958
7615.000000;1.377727
7614.000000;1.377309
7613.000000;1.377169
7612.000000;1.377700
7611.000000;1.378858
7610.000000;1.380203
7609.000000;1.381255
7608.000000;1.381824
7607.000000;1.382026
7606.000000;1.382052
7605.000000;1.381976
7604.000000;1.381772
7603.000000;1.381437
7602.000000;1.381008
7601.000000;1.380513
7600.000000;1.380024
7599.000000;1.379752
7598.000000;1.379957
7597.000000;1.380653
7596.000000;1.381491
7595.000000;1.382033
7594.000000;1.382141
7593.000000;1.382037
7592.000000;1.382053
7591.000000;1.382392
7590.000000;1.383062
7589.000000;1.383891
7588.000000;1.384594
7587.000000;1.384946
7586.000000;1.384933
7585.000000;1.384733
7584.000000;1.384573
7583.000000;1.384653
7582.000000;1.385108
7581.000000;1.385876
7580.000000;1.386623
7579.000000;1.386964
7578.000000;1.386860
7577.000000;1.386674
7576.000000;1.386777
7575.000000;1.387164
7574.000000;1.387530
7573.000000;1.387654
7572.000000;1.387629
7571.000000;1.387744
7570.000000;1.388200
7569.000000;1.388925
7568.000000;1.389626
7567.000000;1.390028
7566.000000;1.390098
7565.000000;1.390015
7564.000000;1.389955
7563.000000;1.389972
7562.000000;1.390088
7561.000000;1.390387
7560.000000;1.390946
7559.000000;1.391693
7558.000000;1.392410
7557.000000;1.392883
7556.000000;1.393052
7555.000000;1.392997
7554.000000;1.392817
7553.000000;1.392574
7552.000000;1.392400
7551.000000;1.392545
7550.000000;1.393160
7549.000000;1.394004
7548.000000;1.394598
7547.000000;1.394774
7546.000000;1.394907
7545.000000;1.395428
7544.000000;1.396254
7543.000000;1.396939
7542.000000;1.397252
7541.000000;1.397309
7540.000000;1.397206
7539.000000;1.396932
7538.000000;1.396690
7537.000000;1.396891
7536.000000;1.397643
7535.000000;1.398552
7534.000000;1.399242
7533.000000;1.399799
7532.000000;1.400441
7531.000000;1.401065
7530.000000;1.401446
7529.000000;1.401681
7528.000000;1.402019
7527.000000;1.402366
7526.000000;1.402381
7525.000000;1.402061
7524.000000;1.401840
7523.000000;1.402061
7522.000000;1.402652
7521.000000;1.403422
7520.000000;1.404319
7519.000000;1.405269
7518.000000;1.406016
7517.000000;1.406371
7516.000000;1.406450
7515.000000;1.406482
7514.000000;1.406487
7513.000000;1.406332
7512.000000;1.406010
7511.000000;1.405687
7510.000000;1.405505
7509.000000;1.405514
7508.000000;1.405789
7507.000000;1.406489
7506.000000;1.407708
7505.000000;1.409244
7504.000000;1.410564
7503.000000;1.411085
7502.000000;1.410689
7501.000000;1.409936
7500.000000;1.409595
7499.000000;1.409943
7498.000000;1.410571
7497.000000;1.410959
7496.000000;1.411061
7495.000000;1.411197
7494.000000;1.411525
7493.000000;1.411882
7492.000000;1.412140
7491.000000;1.412475
7490.000000;1.413141
7489.000000;1.414079
7488.000000;1.414894
7487.000000;1.415246
7486.000000;1.415196
7485.000000;1.415119
7484.000000;1.415319
7483.000000;1.415744
7482.000000;1.416093
7481.000000;1.416168
7480.000000;1.416100
7479.000000;1.416241
7478.000000;1.416861
7477.000000;1.417935
7476.000000;1.419191
7475.000000;1.420308
7474.000000;1.421083
7473.000000;1.421463
7472.000000;1.421514
7471.000000;1.421410
7470.000000;1.421381
7469.000000;1.421549
7468.000000;1.421824
7467.000000;1.422040
7466.000000;1.422226
7465.000000;1.422619
7464.000000;1.423355
7463.000000;1.424263
7462.000000;1.425045
7461.000000;1.425575
7460.000000;1.425917
7459.000000;1.426145
7458.000000;1.426299
7457.000000;1.426441
7456.000000;1.426611
7455.000000;1.426784
7454.000000;1.426973
7453.000000;1.427298
7452.000000;1.427782
7451.000000;1.428194
7450.000000;1.428296
7449.000000;1.428231
7448.000000;1.428396
7447.000000;1.428947
7446.000000;1.429665
7445.000000;1.430352
7444.000000;1.431091
7443.000000;1.431976
7442.000000;1.432812
7441.000000;1.433282
7440.000000;1.433307
7439.000000;1.433077
7438.000000;1.432834
7437.000000;1.432727
7436.000000;1.432808
7435.000000;1.433047
7434.000000;1.433430
7433.000000;1.434081
7432.000000;1.435157
7431.000000;1.436513
7430.000000;1.437653
7429.000000;1.438172
7428.000000;1.438188
7427.000000;1.438176
7426.000000;1.438444
7425.000000;1.438884
7424.000000;1.439194
7423.000000;1.439225
7422.000000;1.439081
7421.000000;1.438996
7420.000000;1.439139
7419.000000;1.439516
7418.000000;1.439990
7417.000000;1.440460
7416.000000;1.440982
7415.000000;1.441699
7414.000000;1.442611
7413.000000;1.443474
7412.000000;1.443949
7411.000000;1.443915
7410.000000;1.443647
7409.000000;1.443605
7408.000000;1.443945
7407.000000;1.444335
7406.000000;1.444381
7405.000000;1.444159
7404.000000;1.444147
7403.000000;1.444620
7402.000000;1.445308
7401.000000;1.445766
7400.000000;1.445862
7399.000000;1.445813
7398.000000;1.445937
7397.000000;1.446452
7396.000000;1.447259
7395.000000;1.447914
7394.000000;1.448109
7393.000000;1.448153
7392.000000;1.448654
7391.000000;1.449663
7390.000000;1.450539
7389.000000;1.450809
7388.000000;1.450711
7387.000000;1.450707
7386.000000;1.450890
7385.000000;1.451122
7384.000000;1.451312
7383.000000;1.451293
7382.000000;1.450762
7381.000000;1.449756
7380.000000;1.448971
7379.000000;1.449120
7378.000000;1.450062
7377.000000;1.450975
7376.000000;1.451325
7375.000000;1.451461
7374.000000;1.452124
7373.000000;1.453533
7372.000000;1.455199
7371.000000;1.456418
7370.000000;1.456827
7369.000000;1.456691
7368.000000;1.456584
7367.000000;1.456674
7366.000000;1.456690
7365.000000;1.456640
7364.000000;1.456915
7363.000000;1.457586
7362.000000;1.458119
7361.000000;1.458069
7360.000000;1.457774
7359.000000;1.457951
7358.000000;1.458731
7357.000000;1.459472
7356.000000;1.459546
7355.000000;1.459062
7354.000000;1.458689
7353.000000;1.459051
7352.000000;1.460300
7351.000000;1.461974
7350.000000;1.463192
7349.000000;1.463410
7348.000000;1.463007
7347.000000;1.462771
7346.000000;1.462823
7345.000000;1.462604
7344.000000;1.461868
7343.000000;1.460994
7342.000000;1.460312
7341.000000;1.459747
7340.000000;1.459491
7339.000000;1.460327
7338.000000;1.462686
7337.000000;1.465934
7336.000000;1.468971
7335.000000;1.471128
7334.000000;1.472282
7333.000000;1.472525
7332.000000;1.472084
7331.000000;1.471411
7330.000000;1.470832
7329.000000;1.470244
7328.000000;1.469664
7327.000000;1.469846
7326.000000;1.471357
7325.000000;1.473494
7324.000000;1.475115
7323.000000;1.476006
7322.000000;1.476874
7321.000000;1.478224
7320.000000;1.479840
7319.000000;1.481204
7318.000000;1.481897
7317.000000;1.481823
7316.000000;1.481418
7315.000000;1.481481
7314.000000;1.482332
7313.000000;1.483177
7312.000000;1.482993
7311.000000;1.482072
7310.000000;1.481830
7309.000000;1.482917
7308.000000;1.484456
7307.000000;1.485459
7306.000000;1.486115
7305.000000;1.487126
7304.000000;1.488644
7303.000000;1.490434
7302.000000;1.492201
7301.000000;1.493456
7300.000000;1.493675
7299.000000;1.493077
7298.000000;1.492756
7297.000000;1.493491
7296.000000;1.494802
7295.000000;1.495615
7294.000000;1.495794
7293.000000;1.496313
7292.000000;1.497764
7291.000000;1.499597
7290.000000;1.500989
7289.000000;1.501704
7288.000000;1.502100
7287.000000;1.502730
7286.000000;1.503921
7285.000000;1.505508
7284.000000;1.507090
7283.000000;1.508559
7282.000000;1.510168
7281.000000;1.512072
7280.000000;1.513929
7279.000000;1.515186
7278.000000;1.515749
7277.000000;1.516089
7276.000000;1.516754
7275.000000;1.517949
7274.000000;1.519473
7273.000000;1.520941
7272.000000;1.522159
7271.000000;1.523325
7270.000000;1.524723
7269.000000;1.526263
7268.000000;1.527587
7267.000000;1.528580
7266.000000;1.529486
7265.000000;1.530482
7264.000000;1.531512
7263.000000;1.532657
7262.000000;1.534243
7261.000000;1.536349
7260.000000;1.538542
7259.000000;1.540346
7258.000000;1.541690
7257.000000;1.542737
7256.000000;1.543652
7255.000000;1.544662
7254.000000;1.546063
7253.000000;1.548058
7252.000000;1.550677
7251.000000;1.553794
7250.000000;1.557141
7249.000000;1.560138
7248.000000;1.562032
7247.000000;1.562710
7246.000000;1.562989
7245.000000;1.563624
7244.000000;1.564401
7243.000000;1.564860
7242.000000;1.565536
7241.000000;1.567499
7240.000000;1.570922
7239.000000;1.575062
7238.000000;1.579168
7237.000000;1.582783
7236.000000;1.585522
7235.000000;1.586973
7234.000000;1.586970
7233.000000;1.586094
7232.000000;1.585823
7231.000000;1.587708
7230.000000;1.592151
7229.000000;1.598045
7228.000000;1.603651
7227.000000;1.607984
7226.000000;1.611437
7225.000000;1.614922
7224.000000;1.618507
7223.000000;1.621452
7222.000000;1.623346
7221.000000;1.624593
7220.000000;1.626081
7219.000000;1.628757
7218.000000;1.633073
7217.000000;1.638420
7216.000000;1.643431
7215.000000;1.647195
7214.000000;1.650013
7213.000000;1.652777
7212.000000;1.655886
7211.000000;1.659180
7210.000000;1.662664
7209.000000;1.666487
7208.000000;1.670281
7207.000000;1.673287
7206.000000;1.675379
7205.000000;1.677434
7204.000000;1.680498
7203.000000;1.684922
7202.000000;1.690384
7201.000000;1.696287
7200.000000;1.701968
7199.000000;1.706877
7198.000000;1.710905
7197.000000;1.714481
7196.000000;1.718216
7195.000000;1.722444
7194.000000;1.727046
7193.000000;1.731560
7192.000000;1.735658
7191.000000;1.739612
7190.000000;1.744132
7189.000000;1.749481
7188.000000;1.755092
7187.000000;1.760285
7186.000000;1.765122
7185.000000;1.770104
7184.000000;1.775183
7183.000000;1.779638
7182.000000;1.783095
7181.000000;1.786168
7180.000000;1.789723
7179.000000;1.794011
7178.000000;1.798900
7177.000000;1.804211
7176.000000;1.809570
7175.000000;1.814570
7174.000000;1.819375
7173.000000;1.824626
7172.000000;1.830416
7171.000000;1.835784
7170.000000;1.839784
7169.000000;1.842853
7168.000000;1.846635
7167.000000;1.852186
7166.000000;1.858898
7165.000000;1.865457
7164.000000;1.871239
7163.000000;1.876399
7162.000000;1.881133
7161.000000;1.885546
7160.000000;1.890000
7159.000000;1.894978
7158.000000;1.900614
7157.000000;1.906656
7156.000000;1.912817
7155.000000;1.919070
7154.000000;1.925496
7153.000000;1.931972
7152.000000;1.938109
7151.000000;1.943370
7150.000000;1.947489
7149.000000;1.950957
7148.000000;1.954831
7147.000000;1.959758
7146.000000;1.965337
7145.000000;1.970604
7144.000000;1.975142
7143.000000;1.979477
7142.000000;1.984251
7141.000000;1.989327
7140.000000;1.994048
7139.000000;1.998311
7138.000000;2.002891
7137.000000;2.008388
7136.000000;2.014418
7135.000000;2.020263
7134.000000;2.025889
7133.000000;2.031728
7132.000000;2.037652
7131.000000;2.042857
7130.000000;2.047039
7129.000000;2.050996
7128.000000;2.055592
7127.000000;2.060569
7126.000000;2.064958
7125.000000;2.068420
7124.000000;2.071550
7123.000000;2.074898
7122.000000;2.078391
7121.000000;2.081765
7120.000000;2.085004
7119.000000;2.088267
7118.000000;2.091834
7117.000000;2.096183
7116.000000;2.101532
7115.000000;2.107337
7114.000000;2.112833
7113.000000;2.117926
7112.000000;2.122958
7111.000000;2.127723
7110.000000;2.131334
7109.000000;2.133500
7108.000000;2.135501
7107.000000;2.139072
7106.000000;2.144340
7105.000000;2.149586
7104.000000;2.153194
7103.000000;2.155303
7102.000000;2.157311
7101.000000;2.160104
7100.000000;2.163111
7099.000000;2.165201
7098.000000;2.166346
7097.000000;2.167967
7096.000000;2.171383
7095.000000;2.176262
7094.000000;2.180958
7093.000000;2.184408
7092.000000;2.187336
7091.000000;2.191277
7090.000000;2.196726
7089.000000;2.202659
7088.000000;2.207639
7087.000000;2.211017
7086.000000;2.212980
7085.000000;2.213872
7084.000000;2.214058
7083.000000;2.214494
7082.000000;2.216835
7081.000000;2.222237
7080.000000;2.229678
7079.000000;2.236005
7078.000000;2.238629
7077.000000;2.238018
7076.000000;2.236896
7075.000000;2.237468
7074.000000;2.240062
7073.000000;2.243815
7072.000000;2.247618
7071.000000;2.250399
7070.000000;2.251683
7069.000000;2.252451
7068.000000;2.254679
7067.000000;2.259279
7066.000000;2.264764
7065.000000;2.268520
7064.000000;2.269460
7063.000000;2.268968
7062.000000;2.269332
7061.000000;2.271742
7060.000000;2.275566
7059.000000;2.279047
7058.000000;2.280844
7057.000000;2.281222
7056.000000;2.281728
7055.000000;2.283561
7054.000000;2.286399
7053.000000;2.288834
7052.000000;2.289725
7051.000000;2.288943
7050.000000;2.287165
7049.000000;2.285646
7048.000000;2.285948
7047.000000;2.288886
7046.000000;2.293331
7045.000000;2.296727
7044.000000;2.297611
7043.000000;2.297264
7042.000000;2.298112
7041.000000;2.300814
7040.000000;2.303709
7039.000000;2.305200
7038.000000;2.305784
7037.000000;2.307134
7036.000000;2.309926
7035.000000;2.313387
7034.000000;2.316624
7033.000000;2.319411
7032.000000;2.321623
7031.000000;2.322700
7030.000000;2.322190
7029.000000;2.320478
7028.000000;2.318480
7027.000000;2.316754
7026.000000;2.315396
7025.000000;2.314606
7024.000000;2.314809
7023.000000;2.316185
7022.000000;2.318367
7021.000000;2.320727
7020.000000;2.322745
7019.000000;2.324076
7018.000000;2.324476
7017.000000;2.323908
7016.000000;2.322872
7015.000000;2.322305
7014.000000;2.322729
7013.000000;2.323476
7012.000000;2.323276
7011.000000;2.322054
7010.000000;2.321565
7009.000000;2.323503
7008.000000;2.327192
7007.000000;2.329964
7006.000000;2.330003
7005.000000;2.328008
7004.000000;2.325663
7003.000000;2.323667
7002.000000;2.322137
7001.000000;2.321796
7000.000000;2.323320
6999.000000;2.325929
6998.000000;2.327973
6997.000000;2.329228
6996.000000;2.331448
6995.000000;2.335803
6994.000000;2.340957
6993.000000;2.344418
6992.000000;2.344998
6991.000000;2.343620
6990.000000;2.341953
6989.000000;2.340880
6988.000000;2.340452
6987.000000;2.340601
6986.000000;2.341531
6985.000000;2.343388
6984.000000;2.345558
6983.000000;2.346740
6982.000000;2.346350
6981.000000;2.345569
6980.000000;2.346061
6979.000000;2.347812
6978.000000;2.349139
6977.000000;2.349019
6976.000000;2.348405
6975.000000;2.348603
6974.000000;2.349254
6973.000000;2.348915
6972.000000;2.347379
6971.000000;2.346358
6970.000000;2.347517
6969.000000;2.350406
6968.000000;2.352755
6967.000000;2.352728
6966.000000;2.350668
6965.000000;2.348457
6964.000000;2.347263
6963.000000;2.346395
6962.000000;2.344747
6961.000000;2.342946
6960.000000;2.343121
6959.000000;2.346246
6958.000000;2.350427
6957.000000;2.352439
6956.000000;2.350861
6955.000000;2.347179
6954.000000;2.343934
6953.000000;2.342441
6952.000000;2.342277
6951.000000;2.342344
6950.000000;2.342150
6949.000000;2.342236
6948.000000;2.343350
6947.000000;2.344958
6946.000000;2.344917
6945.000000;2.341768
6944.000000;2.337215
6943.000000;2.334820
6942.000000;2.336152
6941.000000;2.339119
6940.000000;2.340585
6939.000000;2.340126
6938.000000;2.339938
6937.000000;2.341349
6936.000000;2.343028
6935.000000;2.343033
6934.000000;2.341367
6933.000000;2.339494
6932.000000;2.338167
6931.000000;2.337105
6930.000000;2.336453
6929.000000;2.337132
6928.000000;2.339381
6927.000000;2.341989
6926.000000;2.343646
6925.000000;2.344437
6924.000000;2.345163
6923.000000;2.345701
6922.000000;2.345028
6921.000000;2.342803
6920.000000;2.340038
6919.000000;2.337944
6918.000000;2.336682
6917.000000;2.335526
6916.000000;2.333952
6915.000000;2.332364
6914.000000;2.331923
6913.000000;2.333525
6912.000000;2.336528
6911.000000;2.338843
6910.000000;2.339050
6909.000000;2.338168
6908.000000;2.338401
6907.000000;2.340283
6906.000000;2.342105
6905.000000;2.342127
6904.000000;2.340252
6903.000000;2.337407
6902.000000;2.334607
6901.000000;2.333158
6900.000000;2.334420
6899.000000;2.338174
6898.000000;2.341896
6897.000000;2.342929
6896.000000;2.341177
6895.000000;2.338431
6894.000000;2.335702
6893.000000;2.332926
6892.000000;2.330595
6891.000000;2.329781
6890.000000;2.330421
6889.000000;2.330839
6888.000000;2.329685
6887.000000;2.327725
6886.000000;2.326876
6885.000000;2.327876
6884.000000;2.329543
6883.000000;2.330165
6882.000000;2.329224
6881.000000;2.327820
6880.000000;2.327602
6879.000000;2.329211
6878.000000;2.331627
6877.000000;2.333082
6876.000000;2.332735
6875.000000;2.331247
6874.000000;2.329531
6873.000000;2.327466
6872.000000;2.324320
6871.000000;2.320144
6870.000000;2.316316
6869.000000;2.314642
6868.000000;2.315942
6867.000000;2.319264
6866.000000;2.322286
6865.000000;2.322895
6864.000000;2.320912
6863.000000;2.318256
6862.000000;2.317282
6861.000000;2.318859
6860.000000;2.321730
6859.000000;2.323605
6858.000000;2.322969
6857.000000;2.320073
6856.000000;2.316467
6855.000000;2.313822
6854.000000;2.313042
6853.000000;2.313957
6852.000000;2.315496
6851.000000;2.316367
6850.000000;2.316011
6849.000000;2.314996
6848.000000;2.314247
6847.000000;2.313953
6846.000000;2.313572
6845.000000;2.312889
6844.000000;2.312446
6843.000000;2.312596
6842.000000;2.312694
6841.000000;2.311889
6840.000000;2.310317
6839.000000;2.308740
6838.000000;2.307211
6837.000000;2.305015
6836.000000;2.302070
6835.000000;2.299522
6834.000000;2.298410
6833.000000;2.298344
6832.000000;2.298133
6831.000000;2.297346
6830.000000;2.296581
6829.000000;2.296319
6828.000000;2.296239
6827.000000;2.295748
6826.000000;2.294670
6825.000000;2.293211
6824.000000;2.291585
6823.000000;2.289889
6822.000000;2.288187
6821.000000;2.286541
6820.000000;2.284953
6819.000000;2.283273
6818.000000;2.281151
6817.000000;2.278324
6816.000000;2.275168
6815.000000;2.272819
6814.000000;2.272354
6813.000000;2.273828
6812.000000;2.276372
6811.000000;2.279128
6810.000000;2.281649
6809.000000;2.283322
6808.000000;2.283067
6807.000000;2.280264
6806.000000;2.275824
6805.000000;2.271641
6804.000000;2.268897
6803.000000;2.267163
6802.000000;2.265176
6801.000000;2.262222
6800.000000;2.258658
6799.000000;2.255325
6798.000000;2.252754
6797.000000;2.250983
6796.000000;2.249965
6795.000000;2.249739
6794.000000;2.250070
6793.000000;2.250281
6792.000000;2.249760
6791.000000;2.248626
6790.000000;2.247514
6789.000000;2.246568
6788.000000;2.245048
6787.000000;2.242204
6786.000000;2.238323
6785.000000;2.234608
6784.000000;2.232043
6783.000000;2.230725
6782.000000;2.230188
6781.000000;2.229897
6780.000000;2.229315
6779.000000;2.228030
6778.000000;2.226216
6777.000000;2.224694
6776.000000;2.224094
6775.000000;2.224017
6774.000000;2.223347
6773.000000;2.221398
6772.000000;2.218453
6771.000000;2.215216
6770.000000;2.212154
6769.000000;2.209416
6768.000000;2.207006
6767.000000;2.204802
6766.000000;2.202612
6765.000000;2.200408
6764.000000;2.198370
6763.000000;2.196531
6762.000000;2.194495
6761.000000;2.191774
6760.000000;2.188411
6759.000000;2.185056
6758.000000;2.182353
6757.000000;2.180360
6756.000000;2.178671
6755.000000;2.177054
6754.000000;2.175756
6753.000000;2.175055
6752.000000;2.174740
6751.000000;2.174307
6750.000000;2.173548
6749.000000;2.172567
6748.000000;2.171170
6747.000000;2.168704
6746.000000;2.164855
6745.000000;2.160332
6744.000000;2.156348
6743.000000;2.153558
6742.000000;2.151804
6741.000000;2.150639
6740.000000;2.149629
6739.000000;2.148361
6738.000000;2.146720
6737.000000;2.145137
6736.000000;2.144084
6735.000000;2.143274
6734.000000;2.141909
6733.000000;2.139846
6732.000000;2.137839
6731.000000;2.136274
6730.000000;2.134361
6729.000000;2.131262
6728.000000;2.127591
6727.000000;2.124931
6726.000000;2.123925
6725.000000;2.123567
6724.000000;2.122530
6723.000000;2.120706
6722.000000;2.119045
6721.000000;2.118180
6720.000000;2.117616
6719.000000;2.116282
6718.000000;2.113656
6717.000000;2.110288
6716.000000;2.107228
6715.000000;2.104980
6714.000000;2.103203
6713.000000;2.101315
6712.000000;2.099225
6711.000000;2.097271
6710.000000;2.095587
6709.000000;2.093873
6708.000000;2.091988
6707.000000;2.090125
6706.000000;2.088468
6705.000000;2.086755
6704.000000;2.084463
6703.000000;2.081552
6702.000000;2.078802
6701.000000;2.077185
6700.000000;2.076813
6699.000000;2.076639
6698.000000;2.075395
6697.000000;2.072830
6696.000000;2.069823
6695.000000;2.067344
6694.000000;2.065608
6693.000000;2.064271
6692.000000;2.063022
6691.000000;2.061638
6690.000000;2.059770
6689.000000;2.057133
6688.000000;2.053833
6687.000000;2.050285
6686.000000;2.046953
6685.000000;2.044332
6684.000000;2.042883
6683.000000;2.042528
6682.000000;2.042313
6681.000000;2.041039
6680.000000;2.038324
6679.000000;2.034766
6678.000000;2.031131
6677.000000;2.027832
6676.000000;2.025127
6675.000000;2.023197
6674.000000;2.021821
6673.000000;2.020463
6672.000000;2.018990
6671.000000;2.017877
6670.000000;2.017334
6669.000000;2.016578
6668.000000;2.014553
6667.000000;2.011315
6666.000000;2.008208
6665.000000;2.006486
6664.000000;2.006042
6663.000000;2.005600
6662.000000;2.004049
6661.000000;2.001493
6660.000000;1.998970
6659.000000;1.997222
6658.000000;1.995920
6657.000000;1.994212
6656.000000;1.991848
6655.000000;1.989475
6654.000000;1.987735
6653.000000;1.986421
6652.000000;1.984724
6651.000000;1.982148
6650.000000;1.979003
6649.000000;1.976124
6648.000000;1.974245
6647.000000;1.973450
6646.000000;1.973052
6645.000000;1.972102
6644.000000;1.970222
6643.000000;1.967851
6642.000000;1.965638
6641.000000;1.963847
6640.000000;1.962484
6639.000000;1.961621
6638.000000;1.961142
6637.000000;1.960368
6636.000000;1.958501
6635.000000;1.955538
6634.000000;1.952320
6633.000000;1.949586
6632.000000;1.947386
6631.000000;1.945485
6630.000000;1.943863
6629.000000;1.942532
6628.000000;1.941176
6627.000000;1.939452
6626.000000;1.937523
6625.000000;1.935920
6624.000000;1.934846
6623.000000;1.933945
6622.000000;1.932809
6621.000000;1.931481
6620.000000;1.930314
6619.000000;1.929479
6618.000000;1.928709
6617.000000;1.927424
6616.000000;1.925119
6615.000000;1.921826
6614.000000;1.918286
6613.000000;1.915491
6612.000000;1.913864
6611.000000;1.912934
6610.000000;1.911938
6609.000000;1.910655
6608.000000;1.909459
6607.000000;1.908624
6606.000000;1.907910
6605.000000;1.906876
6604.000000;1.905348
6603.000000;1.903410
6602.000000;1.901188
6601.000000;1.898850
6600.000000;1.896659
6599.000000;1.894754
6598.000000;1.892942
6597.000000;1.890945
6596.000000;1.888801
6595.000000;1.886803
6594.000000;1.885084
6593.000000;1.883526
6592.000000;1.882067
6591.000000;1.880771
6590.000000;1.879545
6589.000000;1.878081
6588.000000;1.876273
6587.000000;1.874482
6586.000000;1.873170
6585.000000;1.872367
6584.000000;1.871639
6583.000000;1.870479
6582.000000;1.868642
6581.000000;1.866259
6580.000000;1.863798
6579.000000;1.861800
6578.000000;1.860476
6577.000000;1.859567
6576.000000;1.858646
6575.000000;1.857449
6574.000000;1.855846
6573.000000;1.853761
6572.000000;1.851396
6571.000000;1.849325
6570.000000;1.848015
6569.000000;1.847256
6568.000000;1.846345
6567.000000;1.844843
6566.000000;1.842938
6565.000000;1.841053
6564.000000;1.839401
6563.000000;1.837974
6562.000000;1.836709
6561.000000;1.835492
6560.000000;1.834165
6559.000000;1.832651
6558.000000;1.831011
6557.000000;1.829332
6556.000000;1.827717
6555.000000;1.826376
6554.000000;1.825494
6553.000000;1.824887
6552.000000;1.824006
6551.000000;1.822492
6550.000000;1.820607
6549.000000;1.818921
6548.000000;1.817657
6547.000000;1.816532
6546.000000;1.815200
6545.000000;1.813641
6544.000000;1.812083
6543.000000;1.810690
6542.000000;1.809407
6541.000000;1.808063
6540.000000;1.806541
6539.000000;1.804870
6538.000000;1.803201
6537.000000;1.801716
6536.000000;1.800544
6535.000000;1.799696
6534.000000;1.798993
6533.000000;1.798099
6532.000000;1.796761
6531.000000;1.795061
6530.000000;1.793352
6529.000000;1.791891
6528.000000;1.790614
6527.000000;1.789317
6526.000000;1.787959
6525.000000;1.786673
6524.000000;1.785529
6523.000000;1.784439
6522.000000;1.783295
6521.000000;1.782089
6520.000000;1.780846
6519.000000;1.779491
6518.000000;1.777922
6517.000000;1.776219
6516.000000;1.774717
6515.000000;1.773737
6514.000000;1.773215
6513.000000;1.772655
6512.000000;1.771566
6511.000000;1.769909
6510.000000;1.768032
6509.000000;1.766224
6508.000000;1.764517
6507.000000;1.762919
6506.000000;1.761591
6505.000000;1.760658
6504.000000;1.759946
6503.000000;1.759103
6502.000000;1.757959
6501.000000;1.756673
6500.000000;1.755544
6499.000000;1.754733
6498.000000;1.754159
6497.000000;1.753534
6496.000000;1.752515
6495.000000;1.750967
6494.000000;1.749130
6493.000000;1.747476
6492.000000;1.746355
6491.000000;1.745739
6490.000000;1.745292
6489.000000;1.744640
6488.000000;1.743596
6487.000000;1.742207
6486.000000;1.740660
6485.000000;1.739141
6484.000000;1.737762
6483.000000;1.736530
6482.000000;1.735357
6481.000000;1.734135
6480.000000;1.732864
6479.000000;1.731681
6478.000000;1.730699
6477.000000;1.729800
6476.000000;1.728716
6475.000000;1.727335
6474.000000;1.725834
6473.000000;1.724467
6472.000000;1.723308
6471.000000;1.722296
6470.000000;1.721434
6469.000000;1.720781
6468.000000;1.720274
6467.000000;1.719704
6466.000000;1.718914
6465.000000;1.717931
6464.000000;1.716856
6463.000000;1.715707
6462.000000;1.714440
6461.000000;1.713075
6460.000000;1.711751
6459.000000;1.710619
6458.000000;1.709705
6457.000000;1.708889
6456.000000;1.708020
6455.000000;1.707071
6454.000000;1.706137
6453.000000;1.705291
6452.000000;1.704432
6451.000000;1.703349
6450.000000;1.701950
6449.000000;1.700413
6448.000000;1.699054
6447.000000;1.698037
6446.000000;1.697229
6445.000000;1.696361
6444.000000;1.695334
6443.000000;1.694291
6442.000000;1.693415
6441.000000;1.692719
6440.000000;1.692087
6439.000000;1.691427
6438.000000;1.690696
6437.000000;1.689832
6436.000000;1.688795
6435.000000;1.687646
6434.000000;1.686481
6433.000000;1.685296
6432.000000;1.684038
6431.000000;1.682803
6430.000000;1.681808
6429.000000;1.681106
6428.000000;1.680480
6427.000000;1.679715
6426.000000;1.678850
6425.000000;1.678045
6424.000000;1.677301
6423.000000;1.676455
6422.000000;1.675411
6421.000000;1.674261
6420.000000;1.673174
6419.000000;1.672275
6418.000000;1.671604
6417.000000;1.671080
6416.000000;1.670532
6415.000000;1.669816
6414.000000;1.668933
6413.000000;1.667965
6412.000000;1.666965
6411.000000;1.665960
6410.000000;1.664997
6409.000000;1.664109
6408.000000;1.663272
6407.000000;1.662476
6406.000000;1.661807
6405.000000;1.661321
6404.000000;1.660876
6403.000000;1.660206
6402.000000;1.659180
6401.000000;1.657896
6400.000000;1.656535
6399.000000;1.655244
6398.000000;1.654162
6397.000000;1.653407
6396.000000;1.652933
6395.000000;1.652503
6394.000000;1.651884
6393.000000;1.651054
6392.000000;1.650166
6391.000000;1.649334
6390.000000;1.648537
6389.000000;1.647696
6388.000000;1.646810
6387.000000;1.645987
6386.000000;1.645364
6385.000000;1.644977
6384.000000;1.644730
6383.000000;1.644481
6382.000000;1.644133
6381.000000;1.643619
6380.000000;1.642862
6379.000000;1.641827
6378.000000;1.640605
6377.000000;1.639379
6376.000000;1.638289
6375.000000;1.637370
6374.000000;1.636610
6373.000000;1.635976
6372.000000;1.635407
6371.000000;1.634840
6370.000000;1.634260
6369.000000;1.633662
6368.000000;1.632984
6367.000000;1.632153
6366.000000;1.631239
6365.000000;1.630457
6364.000000;1.629954
6363.000000;1.629625
6362.000000;1.629177
6361.000000;1.628360
6360.000000;1.627156
6359.000000;1.625810
6358.000000;1.624693
6357.000000;1.624028
6356.000000;1.623693
6355.000000;1.623346
6354.000000;1.622771
6353.000000;1.622067
6352.000000;1.621450
6351.000000;1.620959
6350.000000;1.620439
6349.000000;1.619760
6348.000000;1.618961
6347.000000;1.618188
6346.000000;1.617557
6345.000000;1.617087
6344.000000;1.616687
6343.000000;1.616209
6342.000000;1.615546
6341.000000;1.614710
6340.000000;1.613806
6339.000000;1.612926
6338.000000;1.612093
6337.000000;1.611294
6336.000000;1.610540
6335.000000;1.609849
6334.000000;1.609217
6333.000000;1.608620
6332.000000;1.608069
6331.000000;1.607593
6330.000000;1.607185
6329.000000;1.606766
6328.000000;1.606271
6327.000000;1.605751
6326.000000;1.605318
6325.000000;1.604950
6324.000000;1.604445
6323.000000;1.603652
6322.000000;1.602723
6321.000000;1.601989
6320.000000;1.601579
6319.000000;1.601264
6318.000000;1.600724
6317.000000;1.599893
6316.000000;1.598977
6315.000000;1.598199
6314.000000;1.597623
6313.000000;1.597178
6312.000000;1.596733
6311.000000;1.596171
6310.000000;1.595475
6309.000000;1.594788
6308.000000;1.594290
6307.000000;1.594000
6306.000000;1.593729
6305.000000;1.593295
6304.000000;1.592717
6303.000000;1.592153
6302.000000;1.591677
6301.000000;1.591205
6300.000000;1.590636
6299.000000;1.589984
6298.000000;1.589321
6297.000000;1.588654
6296.000000;1.587916
6295.000000;1.587092
6294.000000;1.586263
6293.000000;1.585508
6292.000000;1.584795
6291.000000;1.584055
6290.000000;1.583324
6289.000000;1.582765
6288.000000;1.582496
6287.000000;1.582440
6286.000000;1.582371
6285.000000;1.582112
6284.000000;1.581652
6283.000000;1.581083
6282.000000;1.580481
6281.000000;1.579871
6280.000000;1.579301
6279.000000;1.578848
6278.000000;1.578524
6277.000000;1.578218
6276.000000;1.577779
6275.000000;1.577166
6274.000000;1.576489
6273.000000;1.575908
6272.000000;1.575523
6271.000000;1.575334
6270.000000;1.575254
6269.000000;1.575148
6268.000000;1.574905
6267.000000;1.574496
6266.000000;1.573950
6265.000000;1.573277
6264.000000;1.572482
6263.000000;1.571657
6262.000000;1.570958
6261.000000;1.570433
6260.000000;1.569945
6259.000000;1.569346
6258.000000;1.568692
6257.000000;1.568181
6256.000000;1.567890
6255.000000;1.567663
6254.000000;1.567271
6253.000000;1.566634
6252.000000;1.565845
6251.000000;1.565070
6250.000000;1.564438
6249.000000;1.564005
6248.000000;1.563759
6247.000000;1.563643
6246.000000;1.563570
6245.000000;1.563423
6244.000000;1.563086
6243.000000;1.562533
6242.000000;1.561873
6241.000000;1.561249
6240.000000;1.560689
6239.000000;1.560111
6238.000000;1.559480
6237.000000;1.558894
6236.000000;1.558476
6235.000000;1.558250
6234.000000;1.558144
6233.000000;1.558065
6232.000000;1.557917
6231.000000;1.557603
6230.000000;1.557095
6229.000000;1.556497
6228.000000;1.555971
6227.000000;1.555583
6226.000000;1.555265
6225.000000;1.554936
6224.000000;1.554609
6223.000000;1.554341
6222.000000;1.554127
6221.000000;1.553888
6220.000000;1.553540
6219.000000;1.553058
6218.000000;1.552471
6217.000000;1.551854
6216.000000;1.551323
6215.000000;1.550967
6214.000000;1.550750
6213.000000;1.550515
6212.000000;1.550139
6211.000000;1.549666
6210.000000;1.549224
6209.000000;1.548865
6208.000000;1.548532
6207.000000;1.548184
6206.000000;1.547849
6205.000000;1.547509
6204.000000;1.547055
6203.000000;1.546432
6202.000000;1.545762
6201.000000;1.545236
6200.000000;1.544897
6199.000000;1.544622
6198.000000;1.544304
6197.000000;1.543964
6196.000000;1.543668
6195.000000;1.543413
6194.000000;1.543142
6193.000000;1.542819
6192.000000;1.542454
6191.000000;1.542092
6190.000000;1.541777
6189.000000;1.541510
6188.000000;1.541218
6187.000000;1.540817
6186.000000;1.540311
6185.000000;1.539811
6184.000000;1.539425
6183.000000;1.539171
6182.000000;1.538998
6181.000000;1.538827
6180.000000;1.538546
6179.000000;1.538037
6178.000000;1.537316
6177.000000;1.536608
6176.000000;1.536194
6175.000000;1.536151
6174.000000;1.536259
6173.000000;1.536212
6172.000000;1.535870
6171.000000;1.535327
6170.000000;1.534780
6169.000000;1.534376
6168.000000;1.534148
6167.000000;1.534009
6166.000000;1.533808
6165.000000;1.533437
6164.000000;1.532937
6163.000000;1.532489
6162.000000;1.532245
6161.000000;1.532175
6160.000000;1.532105
6159.000000;1.531903
6158.000000;1.531595
6157.000000;1.531301
6156.000000;1.531098
6155.000000;1.530949
6154.000000;1.530729
6153.000000;1.530314
6152.000000;1.529676
6151.000000;1.528949
6150.000000;1.528363
6149.000000;1.528063
6148.000000;1.527985
6147.000000;1.527924
6146.000000;1.527727
6145.000000;1.527408
6144.000000;1.527105
6143.000000;1.526949
6142.000000;1.526966
6141.000000;1.527065
6140.000000;1.527080
6139.000000;1.526873
6138.000000;1.526397
6137.000000;1.525726
6136.000000;1.525026
6135.000000;1.524504
6134.000000;1.524302
6133.000000;1.524403
6132.000000;1.524618
6131.000000;1.524722
6130.000000;1.524608
6129.000000;1.524323
6128.000000;1.523977
6127.000000;1.523647
6126.000000;1.523351
6125.000000;1.523064
6124.000000;1.522757
6123.000000;1.522428
6122.000000;1.522110
6121.000000;1.521834
6120.000000;1.521598
6119.000000;1.521372
6118.000000;1.521122
6117.000000;1.520826
6116.000000;1.520472
6115.000000;1.520063
6114.000000;1.519622
6113.000000;1.519175
6112.000000;1.518772
6111.000000;1.518494
6110.000000;1.518402
6109.000000;1.518427
6108.000000;1.518375
6107.000000;1.518096
6106.000000;1.517641
6105.000000;1.517204
6104.000000;1.516930
6103.000000;1.516827
6102.000000;1.516822
6101.000000;1.516829
6100.000000;1.516748
6099.000000;1.516491
6098.000000;1.516052
6097.000000;1.515516
6096.000000;1.514996
6095.000000;1.514585
6094.000000;1.514349
6093.000000;1.514301
6092.000000;1.514354
6091.000000;1.514357
6090.000000;1.514221
6089.000000;1.513993
6088.000000;1.513764
6087.000000;1.513542
6086.000000;1.513264
6085.000000;1.512892
6084.000000;1.512469
6083.000000;1.512096
6082.000000;1.511872
6081.000000;1.511841
6080.000000;1.511939
6079.000000;1.512007
6078.000000;1.511902
6077.000000;1.511628
6076.000000;1.511312
6075.000000;1.511064
6074.000000;1.510880
6073.000000;1.510705
6072.000000;1.510531
6071.000000;1.510386
6070.000000;1.510243
6069.000000;1.510011
6068.000000;1.509623
6067.000000;1.509114
6066.000000;1.508594
6065.000000;1.508185
6064.000000;1.507996
6063.000000;1.508085
6062.000000;1.508379
6061.000000;1.508637
6060.000000;1.508593
6059.000000;1.508164
6058.000000;1.507519
6057.000000;1.506956
6056.000000;1.506703
6055.000000;1.506807
6054.000000;1.507108
6053.000000;1.507331
6052.000000;1.507277
6051.000000;1.506986
6050.000000;1.506670
6049.000000;1.506476
6048.000000;1.506353
6047.000000;1.506185
6046.000000;1.505951
6045.000000;1.505725
6044.000000;1.505548
6043.000000;1.505383
6042.000000;1.505161
6041.000000;1.504833
6040.000000;1.504430
6039.000000;1.504081
6038.000000;1.503935
6037.000000;1.503986
6036.000000;1.504048
6035.000000;1.503971
6034.000000;1.503828
6033.000000;1.503788
6032.000000;1.503830
6031.000000;1.503735
6030.000000;1.503359
6029.000000;1.502823
6028.000000;1.502376
6027.000000;1.502169
6026.000000;1.502191
6025.000000;1.502328
6024.000000;1.502418
6023.000000;1.502341
6022.000000;1.502134
6021.000000;1.501971
6020.000000;1.501965
6019.000000;1.502019
6018.000000;1.501940
6017.000000;1.501683
6016.000000;1.501413
6015.000000;1.501334
6014.000000;1.501509
6013.000000;1.501829
6012.000000;1.502105
6011.000000;1.502177
6010.000000;1.502004
6009.000000;1.501711
6008.000000;1.501499
6007.000000;1.501482
6006.000000;1.501583
6005.000000;1.501625
6004.000000;1.501492
6003.000000;1.501203
6002.000000;1.500841
6001.000000;1.500473
6000.000000;1.500130
5999.000000;1.499838
5998.000000;1.499611
5997.000000;1.499427
5996.000000;1.499262
5995.000000;1.499151
5994.000000;1.499166
5993.000000;1.499315
5992.000000;1.499484
5991.000000;1.499517
5990.000000;1.499344
5989.000000;1.499041
5988.000000;1.498791
5987.000000;1.498780
5986.000000;1.499077
5985.000000;1.499555
5984.000000;1.499944
5983.000000;1.500017
5982.000000;1.499762
5981.000000;1.499355
5980.000000;1.498982
5979.000000;1.498713
5978.000000;1.498515
5977.000000;1.498339
5976.000000;1.498189
5975.000000;1.498137
5974.000000;1.498282
5973.000000;1.498657
5972.000000;1.499140
5971.000000;1.499481
5970.000000;1.499484
5969.000000;1.499169
5968.000000;1.498774
5967.000000;1.498556
5966.000000;1.498577
5965.000000;1.498666
5964.000000;1.498600
5963.000000;1.498326
5962.000000;1.498012
5961.000000;1.497875
5960.000000;1.497970
5959.000000;1.498148
5958.000000;1.498206
5957.000000;1.498066
5956.000000;1.497827
5955.000000;1.497664
5954.000000;1.497665
5953.000000;1.497766
5952.000000;1.497855
5951.000000;1.497894
5950.000000;1.497915
5949.000000;1.497928
5948.000000;1.497903
5947.000000;1.497858
5946.000000;1.497875
5945.000000;1.497999
5944.000000;1.498155
5943.000000;1.498217
5942.000000;1.498123
5941.000000;1.497887
5940.000000;1.497569
5939.000000;1.497282
5938.000000;1.497193
5937.000000;1.497385
5936.000000;1.497728
5935.000000;1.497960
5934.000000;1.497940
5933.000000;1.497793
5932.000000;1.497775
5931.000000;1.498008
5930.000000;1.498367
5929.000000;1.498607
5928.000000;1.498585
5927.000000;1.498361
5926.000000;1.498101
5925.000000;1.497905
5924.000000;1.497780
5923.000000;1.497715
5922.000000;1.497720
5921.000000;1.497778
5920.000000;1.497846
5919.000000;1.497950
5918.000000;1.498176
5917.000000;1.498528
5916.000000;1.498846
5915.000000;1.498951
5914.000000;1.498810
5913.000000;1.498518
5912.000000;1.498189
5911.000000;1.497962
5910.000000;1.498004
5909.000000;1.498344
5908.000000;1.498749
5907.000000;1.498914
5906.000000;1.498809
5905.000000;1.498708
5904.000000;1.498847
5903.000000;1.499182
5902.000000;1.499492
5901.000000;1.499616
5900.000000;1.499524
5899.000000;1.499286
5898.000000;1.499071
5897.000000;1.499088
5896.000000;1.499406
5895.000000;1.499850
5894.000000;1.500139
5893.000000;1.500149
5892.000000;1.499993
5891.000000;1.499883
5890.000000;1.499943
5889.000000;1.500135
5888.000000;1.500322
5887.000000;1.500413
5886.000000;1.500453
5885.000000;1.500553
5884.000000;1.500717
5883.000000;1.500833
5882.000000;1.500832
5881.000000;1.500808
5880.000000;1.500891
5879.000000;1.501075
5878.000000;1.501229
5877.000000;1.501256
5876.000000;1.501184
5875.000000;1.501107
5874.000000;1.501113
5873.000000;1.501237
5872.000000;1.501448
5871.000000;1.501656
5870.000000;1.501803
5869.000000;1.501929
5868.000000;1.502105
5867.000000;1.502326
5866.000000;1.502522
5865.000000;1.502685
5864.000000;1.502908
5863.000000;1.503251
5862.000000;1.503644
5861.000000;1.503946
5860.000000;1.504102
5859.000000;1.504175
5858.000000;1.504261
5857.000000;1.504402
5856.000000;1.504583
5855.000000;1.504764
5854.000000;1.504899
5853.000000;1.504945
5852.000000;1.504896
5851.000000;1.504802
5850.000000;1.504760
5849.000000;1.504847
5848.000000;1.505066
5847.000000;1.505348
5846.000000;1.505618
5845.000000;1.505871
5844.000000;1.506151
5843.000000;1.506469
5842.000000;1.506751
5841.000000;1.506923
5840.000000;1.507017
5839.000000;1.507151
5838.000000;1.507374
5837.000000;1.507612
5836.000000;1.507786
5835.000000;1.507930
5834.000000;1.508137
5833.000000;1.508419
5832.000000;1.508722
5831.000000;1.509041
5830.000000;1.509450
5829.000000;1.509992
5828.000000;1.510603
5827.000000;1.511182
5826.000000;1.511656
5825.000000;1.511956
5824.000000;1.512022
5823.000000;1.511900
5822.000000;1.511778
5821.000000;1.511849
5820.000000;1.512132
5819.000000;1.512506
5818.000000;1.512883
5817.000000;1.513283
5816.000000;1.513739
5815.000000;1.514220
5814.000000;1.514645
5813.000000;1.514954
5812.000000;1.515134
5811.000000;1.515206
5810.000000;1.515219
5809.000000;1.515235
5808.000000;1.515321
5807.000000;1.515528
5806.000000;1.515858
5805.000000;1.516241
5804.000000;1.516607
5803.000000;1.516977
5802.000000;1.517450
5801.000000;1.518040
5800.000000;1.518603
5799.000000;1.518971
5798.000000;1.519159
5797.000000;1.519356
5796.000000;1.519732
5795.000000;1.520305
5794.000000;1.520968
5793.000000;1.521578
5792.000000;1.522021
5791.000000;1.522272
5790.000000;1.522426
5789.000000;1.522619
5788.000000;1.522896
5787.000000;1.523191
5786.000000;1.523419
5785.000000;1.523572
5784.000000;1.523710
5783.000000;1.523923
5782.000000;1.524303
5781.000000;1.524880
5780.000000;1.525580
5779.000000;1.526270
5778.000000;1.526867
5777.000000;1.527359
5776.000000;1.527742
5775.000000;1.528002
5774.000000;1.528194
5773.000000;1.528445
5772.000000;1.528837
5771.000000;1.529310
5770.000000;1.529747
5769.000000;1.530127
5768.000000;1.530552
5767.000000;1.531111
5766.000000;1.531777
5765.000000;1.532432
5764.000000;1.532959
5763.000000;1.533316
5762.000000;1.533561
5761.000000;1.533831
5760.000000;1.534286
5759.000000;1.535009
5758.000000;1.535913
5757.000000;1.536779
5756.000000;1.537415
5755.000000;1.537801
5754.000000;1.538087
5753.000000;1.538437
5752.000000;1.538932
5751.000000;1.539579
5750.000000;1.540375
5749.000000;1.541281
5748.000000;1.542168
5747.000000;1.542855
5746.000000;1.543255
5745.000000;1.543479
5744.000000;1.543767
5743.000000;1.544288
5742.000000;1.544980
5741.000000;1.545594
5740.000000;1.545937
5739.000000;1.546057
5738.000000;1.546196
5737.000000;1.546554
5736.000000;1.547146
5735.000000;1.547868
5734.000000;1.548629
5733.000000;1.549388
5732.000000;1.550115
5731.000000;1.550778
5730.000000;1.551359
5729.000000;1.551853
5728.000000;1.552264
5727.000000;1.552649
5726.000000;1.553118
5725.000000;1.553769
5724.000000;1.554606
5723.000000;1.555536
5722.000000;1.556427
5721.000000;1.557165
5720.000000;1.557718
5719.000000;1.558178
5718.000000;1.558699
5717.000000;1.559337
5716.000000;1.559988
5715.000000;1.560540
5714.000000;1.561018
5713.000000;1.561545
5712.000000;1.562187
5711.000000;1.562911
5710.000000;1.563664
5709.000000;1.564419
5708.000000;1.565150
5707.000000;1.565865
5706.000000;1.566637
5705.000000;1.567545
5704.000000;1.568544
5703.000000;1.569472
5702.000000;1.570189
5701.000000;1.570703
5700.000000;1.571120
5699.000000;1.571579
5698.000000;1.572192
5697.000000;1.572984
5696.000000;1.573848
5695.000000;1.574611
5694.000000;1.575193
5693.000000;1.575695
5692.000000;1.576303
5691.000000;1.577125
5690.000000;1.578116
5689.000000;1.579127
5688.000000;1.580028
5687.000000;1.580814
5686.000000;1.581590
5685.000000;1.582439
5684.000000;1.583309
5683.000000;1.584063
5682.000000;1.584639
5681.000000;1.585121
5680.000000;1.585656
5679.000000;1.586344
5678.000000;1.587192
5677.000000;1.588114
5676.000000;1.588979
5675.000000;1.589694
5674.000000;1.590264
5673.000000;1.590762
5672.000000;1.591244
5671.000000;1.591766
5670.000000;1.592444
5669.000000;1.593374
5668.000000;1.594463
5667.000000;1.595433
5666.000000;1.596090
5665.000000;1.596552
5664.000000;1.597107
5663.000000;1.597859
5662.000000;1.598635
5661.000000;1.599245
5660.000000;1.599745
5659.000000;1.600350
5658.000000;1.601146
5657.000000;1.601994
5656.000000;1.602741
5655.000000;1.603410
5654.000000;1.604126
5653.000000;1.604936
5652.000000;1.605789
5651.000000;1.606644
5650.000000;1.607476
5649.000000;1.608198
5648.000000;1.608724
5647.000000;1.609145
5646.000000;1.609708
5645.000000;1.610541
5644.000000;1.611495
5643.000000;1.612323
5642.000000;1.612936
5641.000000;1.613400
5640.000000;1.613776
5639.000000;1.614091
5638.000000;1.614407
5637.000000;1.614797
5636.000000;1.615261
5635.000000;1.615774
5634.000000;1.616385
5633.000000;1.617177
5632.000000;1.618117
5631.000000;1.619046
5630.000000;1.619828
5629.000000;1.620432
5628.000000;1.620891
5627.000000;1.621255
5626.000000;1.621587
5625.000000;1.621900
5624.000000;1.622111
5623.000000;1.622163
5622.000000;1.622187
5621.000000;1.622449
5620.000000;1.623074
5619.000000;1.623911
5618.000000;1.624690
5617.000000;1.625265
5616.000000;1.625672
5615.000000;1.626030
5614.000000;1.626443
5613.000000;1.626928
5612.000000;1.627396
5611.000000;1.627753
5610.000000;1.628014
5609.000000;1.628280
5608.000000;1.628595
5607.000000;1.628898
5606.000000;1.629150
5605.000000;1.629411
5604.000000;1.629749
5603.000000;1.630154
5602.000000;1.630579
5601.000000;1.630994
5600.000000;1.631352
5599.000000;1.631567
5598.000000;1.631623
5597.000000;1.631649
5596.000000;1.631810
5595.000000;1.632145
5594.000000;1.632554
5593.000000;1.632942
5592.000000;1.633308
5591.000000;1.633697
5590.000000;1.634125
5589.000000;1.634547
5588.000000;1.634900
5587.000000;1.635145
5586.000000;1.635291
5585.000000;1.635366
5584.000000;1.635384
5583.000000;1.635362
5582.000000;1.635342
5581.000000;1.635364
5580.000000;1.635419
5579.000000;1.635490
5578.000000;1.635607
5577.000000;1.635819
5576.000000;1.636087
5575.000000;1.636302
5574.000000;1.636425
5573.000000;1.636541
5572.000000;1.636750
5571.000000;1.637055
5570.000000;1.637364
5569.000000;1.637585
5568.000000;1.637663
5567.000000;1.637596
5566.000000;1.637440
5565.000000;1.637297
5564.000000;1.637255
5563.000000;1.637334
5562.000000;1.637498
5561.000000;1.637690
5560.000000;1.637839
5559.000000;1.637909
5558.000000;1.637923
5557.000000;1.637925
5556.000000;1.637925
5555.000000;1.637911
5554.000000;1.637901
5553.000000;1.637918
5552.000000;1.637922
5551.000000;1.637858
5550.000000;1.637745
5549.000000;1.637675
5548.000000;1.637690
5547.000000;1.637749
5546.000000;1.637815
5545.000000;1.637931
5544.000000;1.638140
5543.000000;1.638400
5542.000000;1.638608
5541.000000;1.638699
5540.000000;1.638695
5539.000000;1.638663
5538.000000;1.638632
5537.000000;1.638563
5536.000000;1.638420
5535.000000;1.638241
5534.000000;1.638111
5533.000000;1.638068
5532.000000;1.638090
5531.000000;1.638151
5530.000000;1.638230
5529.000000;1.638281
5528.000000;1.638289
5527.000000;1.638321
5526.000000;1.638461
5525.000000;1.638671
5524.000000;1.638793
5523.000000;1.638759
5522.000000;1.638677
5521.000000;1.638650
5520.000000;1.638655
5519.000000;1.638651
5518.000000;1.638677
5517.000000;1.638775
5516.000000;1.638875
5515.000000;1.638921
5514.000000;1.638981
5513.000000;1.639119
5512.000000;1.639263
5511.000000;1.639329
5510.000000;1.639372
5509.000000;1.639465
5508.000000;1.639562
5507.000000;1.639614
5506.000000;1.639749
5505.000000;1.640123
5504.000000;1.640631
5503.000000;1.641014
5502.000000;1.641185
5501.000000;1.641232
5500.000000;1.641192
5499.000000;1.640976
5498.000000;1.640562
5497.000000;1.640192
5496.000000;1.640171
5495.000000;1.640531
5494.000000;1.640968
5493.000000;1.641175
5492.000000;1.641192
5491.000000;1.641303
5490.000000;1.641682
5489.000000;1.642206
5488.000000;1.642628
5487.000000;1.642860
5486.000000;1.643009
5485.000000;1.643199
5484.000000;1.643407
5483.000000;1.643589
5482.000000;1.643832
5481.000000;1.644126
5480.000000;1.644307
5479.000000;1.644386
5478.000000;1.644633
5477.000000;1.645150
5476.000000;1.645582
5475.000000;1.645663
5474.000000;1.645669
5473.000000;1.645983
5472.000000;1.646585
5471.000000;1.647221
5470.000000;1.647741
5469.000000;1.648131
5468.000000;1.648427
5467.000000;1.648708
5466.000000;1.649068
5465.000000;1.649523
5464.000000;1.649969
5463.000000;1.650352
5462.000000;1.650765
5461.000000;1.651239
5460.000000;1.651711
5459.000000;1.652291
5458.000000;1.653185
5457.000000;1.654250
5456.000000;1.655008
5455.000000;1.655238
5454.000000;1.655280
5453.000000;1.655651
5452.000000;1.656486
5451.000000;1.657479
5450.000000;1.658309
5449.000000;1.658944
5448.000000;1.659627
5447.000000;1.660476
5446.000000;1.661221
5445.000000;1.661644
5444.000000;1.662052
5443.000000;1.662906
5442.000000;1.664191
5441.000000;1.665398
5440.000000;1.666150
5439.000000;1.666623
5438.000000;1.667279
5437.000000;1.668342
5436.000000;1.669590
5435.000000;1.670657
5434.000000;1.671390
5433.000000;1.671950
5432.000000;1.672809
5431.000000;1.674347
5430.000000;1.676217
5429.000000;1.677702
5428.000000;1.678729
5427.000000;1.679847
5426.000000;1.681395
5425.000000;1.683163
5424.000000;1.684726
5423.000000;1.685923
5422.000000;1.687008
5421.000000;1.688381
5420.000000;1.690125
5419.000000;1.691959
5418.000000;1.693733
5417.000000;1.695626
5416.000000;1.697749
5415.000000;1.699737
5414.000000;1.701182
5413.000000;1.702342
5412.000000;1.703849
5411.000000;1.705914
5410.000000;1.708217
5409.000000;1.710434
5408.000000;1.712619
5407.000000;1.715029
5406.000000;1.717773
5405.000000;1.720615
5404.000000;1.723233
5403.000000;1.725601
5402.000000;1.727879
5401.000000;1.730354
5400.000000;1.733248
5399.000000;1.736349
5398.000000;1.739258
5397.000000;1.741889
5396.000000;1.744531
5395.000000;1.747416
5394.000000;1.750477
5393.000000;1.753643
5392.000000;1.756905
5391.000000;1.760170
5390.000000;1.763428
5389.000000;1.766855
5388.000000;1.770548
5387.000000;1.774320
5386.000000;1.777984
5385.000000;1.781685
5384.000000;1.785798
5383.000000;1.790354
5382.000000;1.794887
5381.000000;1.799139
5380.000000;1.803494
5379.000000;1.808420
5378.000000;1.813804
5377.000000;1.819199
5376.000000;1.824500
5375.000000;1.829882
5374.000000;1.835386
5373.000000;1.841030
5372.000000;1.846895
5371.000000;1.852936
5370.000000;1.858961
5369.000000;1.864891
5368.000000;1.870897
5367.000000;1.877257
5366.000000;1.884092
5365.000000;1.891252
5364.000000;1.898553
5363.000000;1.905917
5362.000000;1.913313
5361.000000;1.920793
5360.000000;1.928396
5359.000000;1.936046
5358.000000;1.943725
5357.000000;1.951699
5356.000000;1.960263
5355.000000;1.969223
5354.000000;1.978094
5353.000000;1.986858
5352.000000;1.996045
5351.000000;2.005891
5350.000000;2.015975
5349.000000;2.025925
5348.000000;2.036124
5347.000000;2.047244
5346.000000;2.059214
5345.000000;2.071179
5344.000000;2.082596
5343.000000;2.093791
5342.000000;2.105361
5341.000000;2.117648
5340.000000;2.130347
5339.000000;2.142717
5338.000000;2.154644
5337.000000;2.166909
5336.000000;2.180202
5335.000000;2.194483
5334.000000;2.209250
5333.000000;2.223979
5332.000000;2.238489
5331.000000;2.252907
5330.000000;2.267203
5329.000000;2.281110
5328.000000;2.294519
5327.000000;2.307697
5326.000000;2.321048
5325.000000;2.334711
5324.000000;2.348616
5323.000000;2.362825
5322.000000;2.377351
5321.000000;2.391787
5320.000000;2.405655
5319.000000;2.419240
5318.000000;2.433473
5317.000000;2.448757
5316.000000;2.464278
5315.000000;2.478794
5314.000000;2.491843
5313.000000;2.503825
5312.000000;2.515452
5311.000000;2.527405
5310.000000;2.539832
5309.000000;2.551750
5308.000000;2.561621
5307.000000;2.569070
5306.000000;2.575424
5305.000000;2.582170
5304.000000;2.589654
5303.000000;2.597436
5302.000000;2.605052
5301.000000;2.612134
5300.000000;2.618507
5299.000000;2.624554
5298.000000;2.630923
5297.000000;2.637526
5296.000000;2.643281
5295.000000;2.647361
5294.000000;2.650233
5293.000000;2.652865
5292.000000;2.655626
5291.000000;2.658484
5290.000000;2.661572
5289.000000;2.664800
5288.000000;2.667482
5287.000000;2.669132
5286.000000;2.669995
5285.000000;2.670440
5284.000000;2.670553
5283.000000;2.670549
5282.000000;2.670960
5281.000000;2.672069
5280.000000;2.673638
5279.000000;2.675284
5278.000000;2.676777
5277.000000;2.677903
5276.000000;2.678403
5275.000000;2.678405
5274.000000;2.678553
5273.000000;2.679384
5272.000000;2.680972
5271.000000;2.683189
5270.000000;2.685499
5269.000000;2.686619
5268.000000;2.685457
5267.000000;2.682602
5266.000000;2.679898
5265.000000;2.678391
5264.000000;2.677668
5263.000000;2.677094
5262.000000;2.676595
5261.000000;2.675970
5260.000000;2.674722
5259.000000;2.673163
5258.000000;2.672705
5257.000000;2.674084
5256.000000;2.675956
5255.000000;2.676201
5254.000000;2.674445
5253.000000;2.672523
5252.000000;2.672591
5251.000000;2.675409
5250.000000;2.679745
5249.000000;2.683274
5248.000000;2.684777
5247.000000;2.685153
5246.000000;2.685800
5245.000000;2.686752
5244.000000;2.687145
5243.000000;2.686808
5242.000000;2.686300
5241.000000;2.685733
5240.000000;2.684857
5239.000000;2.684197
5238.000000;2.684570
5237.000000;2.685224
5236.000000;2.684096
5235.000000;2.680767
5234.000000;2.677560
5233.000000;2.676770
5232.000000;2.678057
5231.000000;2.679324
5230.000000;2.679230
5229.000000;2.678187
5228.000000;2.677507
5227.000000;2.678193
5226.000000;2.680229
5225.000000;2.682622
5224.000000;2.684276
5223.000000;2.685111
5222.000000;2.685897
5221.000000;2.686802
5220.000000;2.686785
5219.000000;2.684870
5218.000000;2.681531
5217.000000;2.678462
5216.000000;2.677428
5215.000000;2.679152
5214.000000;2.682480
5213.000000;2.684916
5212.000000;2.684945
5211.000000;2.683800
5210.000000;2.684078
5209.000000;2.686700
5208.000000;2.690073
5207.000000;2.692204
5206.000000;2.692400
5205.000000;2.690693
5204.000000;2.687371
5203.000000;2.684061
5202.000000;2.683262
5201.000000;2.685527
5200.000000;2.688354
5199.000000;2.688895
5198.000000;2.687182
5197.000000;2.685641
5196.000000;2.686060
5195.000000;2.688003
5194.000000;2.689745
5193.000000;2.689917
5192.000000;2.688434
5191.000000;2.686556
5190.000000;2.685784
5189.000000;2.686231
5188.000000;2.686666
5187.000000;2.686559
5186.000000;2.687082
5185.000000;2.689271
5184.000000;2.692167
5183.000000;2.693945
5182.000000;2.694266
5181.000000;2.694073
5180.000000;2.693597
5179.000000;2.692196
5178.000000;2.689953
5177.000000;2.687954
5176.000000;2.686845
5175.000000;2.686147
5174.000000;2.685198
5173.000000;2.683917
5172.000000;2.682530
5171.000000;2.681252
5170.000000;2.680356
5169.000000;2.679920
5168.000000;2.679508
5167.000000;2.678715
5166.000000;2.678083
5165.000000;2.678835
5164.000000;2.681434
5163.000000;2.684749
5162.000000;2.686806
5161.000000;2.686285
5160.000000;2.683469
5159.000000;2.680081
5158.000000;2.678065
5157.000000;2.678162
5156.000000;2.679645
5155.000000;2.681447
5154.000000;2.683083
5153.000000;2.684344
5152.000000;2.685018
5151.000000;2.685468
5150.000000;2.686471
5149.000000;2.687800
5148.000000;2.687935
5147.000000;2.686219
5146.000000;2.684338
5145.000000;2.684232
5144.000000;2.685420
5143.000000;2.685837
5142.000000;2.684829
5141.000000;2.683573
5140.000000;2.682697
5139.000000;2.681600
5138.000000;2.680340
5137.000000;2.680264
5136.000000;2.682043
5135.000000;2.684546
5134.000000;2.686455
5133.000000;2.687729
5132.000000;2.688634
5131.000000;2.688658
5130.000000;2.687581
5129.000000;2.686607
5128.000000;2.687087
5127.000000;2.688665
5126.000000;2.689809
5125.000000;2.689865
5124.000000;2.689623
5123.000000;2.689902
5122.000000;2.690529
5121.000000;2.690739
5120.000000;2.689899
5119.000000;2.687808
5118.000000;2.684896
5117.000000;2.682237
5116.000000;2.680932
5115.000000;2.681310
5114.000000;2.682835
5113.000000;2.684635
5112.000000;2.685927
5111.000000;2.686206
5110.000000;2.685498
5109.000000;2.684382
5108.000000;2.683471
5107.000000;2.683022
5106.000000;2.683029
5105.000000;2.683200
5104.000000;2.682800
5103.000000;2.681284
5102.000000;2.679622
5101.000000;2.680181
5100.000000;2.684292
5099.000000;2.690139
5098.000000;2.693869
5097.000000;2.693174
5096.000000;2.689211
5095.000000;2.684797
5094.000000;2.681695
5093.000000;2.680035
5092.000000;2.679373
5091.000000;2.679377
5090.000000;2.679633
5089.000000;2.679573
5088.000000;2.679009
5087.000000;2.678581
5086.000000;2.679313
5085.000000;2.681569
5084.000000;2.684307
5083.000000;2.685680
5082.000000;2.684787
5081.000000;2.682601
5080.000000;2.680823
5079.000000;2.680168
5078.000000;2.680087
5077.000000;2.679892
5076.000000;2.679597
5075.000000;2.679638
5074.000000;2.680290
5073.000000;2.681469
5072.000000;2.682769
5071.000000;2.683551
5070.000000;2.683342
5069.000000;2.682302
5068.000000;2.681025
5067.000000;2.679904
5066.000000;2.679124
5065.000000;2.679152
5064.000000;2.680480
5063.000000;2.682646
5062.000000;2.684200
5061.000000;2.684232
5060.000000;2.683198
5059.000000;2.681695
5058.000000;2.679415
5057.000000;2.676209
5056.000000;2.673437
5055.000000;2.672954
5054.000000;2.674845
5053.000000;2.677194
5052.000000;2.678304
5051.000000;2.678233
5050.000000;2.677781
5049.000000;2.677052
5048.000000;2.675811
5047.000000;2.674566
5046.000000;2.674377
5045.000000;2.675687
5044.000000;2.677870
5043.000000;2.679735
5042.000000;2.680112
5041.000000;2.678469
5040.000000;2.675509
5039.000000;2.672832
5038.000000;2.671498
5037.000000;2.671133
5036.000000;2.670906
5035.000000;2.670916
5034.000000;2.671818
5033.000000;2.673268
5032.000000;2.673711
5031.000000;2.672010
5030.000000;2.668725
5029.000000;2.665484
5028.000000;2.663598
5027.000000;2.663452
5026.000000;2.664588
5025.000000;2.665946
5024.000000;2.666349
5023.000000;2.665223
5022.000000;2.662921
5021.000000;2.660401
5020.000000;2.658809
5019.000000;2.659154
5018.000000;2.661667
5017.000000;2.665220
5016.000000;2.667920
5015.000000;2.668745
5014.000000;2.668256
5013.000000;2.667437
5012.000000;2.666333
5011.000000;2.664302
5010.000000;2.661339
5009.000000;2.658470
5008.000000;2.656758
5007.000000;2.656375
5006.000000;2.656622
5005.000000;2.656679
5004.000000;2.656262
5003.000000;2.655572
5002.000000;2.654751
5001.000000;2.653520
5000.000000;2.651562
4999.000000;2.649542
4998.000000;2.648982
4997.000000;2.650386
4996.000000;2.652295
4995.000000;2.652739
4994.000000;2.651207
4993.000000;2.648737
4992.000000;2.646424
4991.000000;2.644626
4990.000000;2.643453
4989.000000;2.643150
4988.000000;2.643602
4987.000000;2.643982
4986.000000;2.643378
4985.000000;2.641560
4984.000000;2.638805
4983.000000;2.635333
4982.000000;2.631614
4981.000000;2.629003
4980.000000;2.629171
4979.000000;2.632459
4978.000000;2.637011
4977.000000;2.640103
4976.000000;2.640373
4975.000000;2.638585
4974.000000;2.636408
4973.000000;2.634945
4972.000000;2.634271
4971.000000;2.633553
4970.000000;2.631564
4969.000000;2.627832
4968.000000;2.623608
4967.000000;2.621027
4966.000000;2.620857
4965.000000;2.621560
4964.000000;2.621178
4963.000000;2.619591
4962.000000;2.618101
4961.000000;2.617279
4960.000000;2.616446
4959.000000;2.615198
4958.000000;2.614120
4957.000000;2.613713
4956.000000;2.613474
4955.000000;2.612541
4954.000000;2.610542
4953.000000;2.607368
4952.000000;2.602959
4951.000000;2.597990
4950.000000;2.594205
4949.000000;2.593139
4948.000000;2.594686
4947.000000;2.597310
4946.000000;2.599459
4945.000000;2.600365
4944.000000;2.599816
4943.000000;2.597902
4942.000000;2.594996
4941.000000;2.591488
4940.000000;2.587500
4939.000000;2.583268
4938.000000;2.579636
4937.000000;2.577666
4936.000000;2.577672
4935.000000;2.578906
4934.000000;2.580195
4933.000000;2.580638
4932.000000;2.579944
4931.000000;2.578717
4930.000000;2.578076
4929.000000;2.578402
4928.000000;2.578553
4927.000000;2.576759
4926.000000;2.572492
4925.000000;2.567078
4924.000000;2.562421
4923.000000;2.559588
4922.000000;2.558524
4921.000000;2.558451
4920.000000;2.558380
4919.000000;2.557732
4918.000000;2.556744
4917.000000;2.555912
4916.000000;2.554909
4915.000000;2.552554
4914.000000;2.548205
4913.000000;2.542814
4912.000000;2.538249
4911.000000;2.535846
4910.000000;2.535793
4909.000000;2.537354
4908.000000;2.539135
4907.000000;2.539480
4906.000000;2.537392
4905.000000;2.533293
4904.000000;2.528689
4903.000000;2.525043
4902.000000;2.523068
4901.000000;2.522631
4900.000000;2.522769
4899.000000;2.522026
4898.000000;2.519451
4897.000000;2.515481
4896.000000;2.511582
4895.000000;2.508941
4894.000000;2.507621
4893.000000;2.506871
4892.000000;2.505895
4891.000000;2.504251
4890.000000;2.501790
4889.000000;2.498497
4888.000000;2.494457
4887.000000;2.489969
4886.000000;2.485668
4885.000000;2.482340
4884.000000;2.480358
4883.000000;2.479304
4882.000000;2.478336
4881.000000;2.476976
4880.000000;2.475420
4879.000000;2.474080
4878.000000;2.473060
4877.000000;2.472130
4876.000000;2.471012
4875.000000;2.469506
4874.000000;2.467448
4873.000000;2.464770
4872.000000;2.461594
4871.000000;2.458205
4870.000000;2.454905
4869.000000;2.451901
4868.000000;2.449274
4867.000000;2.447081
4866.000000;2.445467
4865.000000;2.444511
4864.000000;2.443832
4863.000000;2.442580
4862.000000;2.440180
4861.000000;2.436997
4860.000000;2.433896
4859.000000;2.431117
4858.000000;2.428065
4857.000000;2.424350
4856.000000;2.420557
4855.000000;2.417568
4854.000000;2.415437
4853.000000;2.413415
4852.000000;2.410921
4851.000000;2.408141
4850.000000;2.405598
4849.000000;2.403442
4848.000000;2.401392
4847.000000;2.399267
4846.000000;2.397327
4845.000000;2.395963
4844.000000;2.395063
4843.000000;2.393926
4842.000000;2.391997
4841.000000;2.389479
4840.000000;2.386887
4839.000000;2.384132
4838.000000;2.380569
4837.000000;2.376065
4836.000000;2.371563
4835.000000;2.368203
4834.000000;2.366192
4833.000000;2.364870
4832.000000;2.363558
4831.000000;2.361831
4830.000000;2.359262
4829.000000;2.355618
4828.000000;2.351513
4827.000000;2.348220
4826.000000;2.346490
4825.000000;2.345713
4824.000000;2.344424
4823.000000;2.341640
4822.000000;2.337678
4821.000000;2.333836
4820.000000;2.331315
4819.000000;2.330180
4818.000000;2.329349
4817.000000;2.327782
4816.000000;2.325530
4815.000000;2.323325
4814.000000;2.321337
4813.000000;2.318889
4812.000000;2.315571
4811.000000;2.311923
4810.000000;2.308758
4809.000000;2.306137
4808.000000;2.303447
4807.000000;2.300260
4806.000000;2.296680
4805.000000;2.293142
4804.000000;2.290236
4803.000000;2.288530
4802.000000;2.288036
4801.000000;2.287830
4800.000000;2.286584
4799.000000;2.283701
4798.000000;2.279843
4797.000000;2.276310
4796.000000;2.273997
4795.000000;2.272818
4794.000000;2.271853
4793.000000;2.270075
4792.000000;2.267156
4791.000000;2.263688
4790.000000;2.260554
4789.000000;2.258083
4788.000000;2.255841
4787.000000;2.253187
4786.000000;2.249948
4785.000000;2.246577
4784.000000;2.243734
4783.000000;2.241718
4782.000000;2.240270
4781.000000;2.238913
4780.000000;2.237424
4779.000000;2.235836
4778.000000;2.234011
4777.000000;2.231457
4776.000000;2.227803
4775.000000;2.223353
4774.000000;2.219020
4773.000000;2.215686
4772.000000;2.213574
4771.000000;2.212052
4770.000000;2.210051
4769.000000;2.206927
4768.000000;2.203110
4767.000000;2.199779
4766.000000;2.197776
4765.000000;2.196858
4764.000000;2.196024
4763.000000;2.194430
4762.000000;2.191936
4761.000000;2.189012
4760.000000;2.186322
4759.000000;2.184227
4758.000000;2.182442
4757.000000;2.180274
4756.000000;2.177393
4755.000000;2.174231
4754.000000;2.171407
4753.000000;2.168991
4752.000000;2.166636
4751.000000;2.164273
4750.000000;2.162205
4749.000000;2.160484
4748.000000;2.158650
4747.000000;2.156298
4746.000000;2.153628
4745.000000;2.151235
4744.000000;2.149488
4743.000000;2.148286
4742.000000;2.147232
4741.000000;2.145877
4740.000000;2.143924
4739.000000;2.141416
4738.000000;2.138722
4737.000000;2.136206
4736.000000;2.133899
4735.000000;2.131504
4734.000000;2.128716
4733.000000;2.125556
4732.000000;2.122439
4731.000000;2.119882
4730.000000;2.118062
4729.000000;2.116634
4728.000000;2.115017
4727.000000;2.112864
4726.000000;2.110235
4725.000000;2.107450
4724.000000;2.104918
4723.000000;2.102994
4722.000000;2.101710
4721.000000;2.100603
4720.000000;2.099047
4719.000000;2.096893
4718.000000;2.094629
4717.000000;2.092828
4716.000000;2.091574
4715.000000;2.090495
4714.000000;2.089130
4713.000000;2.087170
4712.000000;2.084566
4711.000000;2.081683
4710.000000;2.079186
4709.000000;2.077462
4708.000000;2.076167
4707.000000;2.074582
4706.000000;2.072479
4705.000000;2.070339
4704.000000;2.068653
4703.000000;2.067329
4702.000000;2.065994
4701.000000;2.064604
4700.000000;2.063382
4699.000000;2.062293
4698.000000;2.060954
4697.000000;2.059149
4696.000000;2.057090
4695.000000;2.055062
4694.000000;2.053088
4693.000000;2.051170
4692.000000;2.049570
4691.000000;2.048507
4690.000000;2.047693
4689.000000;2.046521
4688.000000;2.044750
4687.000000;2.042748
4686.000000;2.040995
4685.000000;2.039569
4684.000000;2.038146
4683.000000;2.036300
4682.000000;2.033778
4681.000000;2.030715
4680.000000;2.027684
4679.000000;2.025301
4678.000000;2.023637
4677.000000;2.022184
4676.000000;2.020522
4675.000000;2.018803
4674.000000;2.017393
4673.000000;2.016293
4672.000000;2.015163
4671.000000;2.013798
4670.000000;2.012314
4669.000000;2.010920
4668.000000;2.009702
4667.000000;2.008572
4666.000000;2.007260
4665.000000;2.005477
4664.000000;2.003252
4663.000000;2.001012
4662.000000;1.999117
4661.000000;1.997472
4660.000000;1.995799
4659.000000;1.994118
4658.000000;1.992648
4657.000000;1.991375
4656.000000;1.990138
4655.000000;1.989047
4654.000000;1.988359
4653.000000;1.987888
4652.000000;1.987013
4651.000000;1.985471
4650.000000;1.983723
4649.000000;1.982273
4648.000000;1.980998
4647.000000;1.979485
4646.000000;1.977743
4645.000000;1.976177
4644.000000;1.974991
4643.000000;1.973960
4642.000000;1.972787
4641.000000;1.971382
4640.000000;1.969804
4639.000000;1.968139
4638.000000;1.966489
4637.000000;1.964928
4636.000000;1.963440
4635.000000;1.961998
4634.000000;1.960660
4633.000000;1.959469
4632.000000;1.958325
4631.000000;1.957092
4630.000000;1.955788
4629.000000;1.954555
4628.000000;1.953446
4627.000000;1.952376
4626.000000;1.951233
4625.000000;1.949969
4624.000000;1.948675
4623.000000;1.947658
4622.000000;1.947261
4621.000000;1.947403
4620.000000;1.947389
4619.000000;1.946504
4618.000000;1.944783
4617.000000;1.942969
4616.000000;1.941693
4615.000000;1.940916
4614.000000;1.940183
4613.000000;1.939173
4612.000000;1.937899
4611.000000;1.936584
4610.000000;1.935506
4609.000000;1.934794
4608.000000;1.934236
4607.000000;1.933431
4606.000000;1.932266
4605.000000;1.931071
4604.000000;1.930125
4603.000000;1.929197
4602.000000;1.927863
4601.000000;1.926207
4600.000000;1.924860
4599.000000;1.924223
4598.000000;1.923916
4597.000000;1.923210
4596.000000;1.921913
4595.000000;1.920538
4594.000000;1.919590
4593.000000;1.918988
4592.000000;1.918319
4591.000000;1.917489
4590.000000;1.916794
4589.000000;1.916394
4588.000000;1.916002
4587.000000;1.915249
4586.000000;1.914138
4585.000000;1.912916
4584.000000;1.911670
4583.000000;1.910334
4582.000000;1.909062
4581.000000;1.908265
4580.000000;1.908144
4579.000000;1.908370
4578.000000;1.908341
4577.000000;1.907664
4576.000000;1.906355
4575.000000;1.904722
4574.000000;1.903202
4573.000000;1.902137
4572.000000;1.901529
4571.000000;1.901036
4570.000000;1.900328
4569.000000;1.899431
4568.000000;1.898617
4567.000000;1.898030
4566.000000;1.897545
4565.000000;1.896971
4564.000000;1.896241
4563.000000;1.895404
4562.000000;1.894543
4561.000000;1.893738
4560.000000;1.893025
4559.000000;1.892400
4558.000000;1.891884
4557.000000;1.891519
4556.000000;1.891234
4555.000000;1.890785
4554.000000;1.889994
4553.000000;1.889027
4552.000000;1.888267
4551.000000;1.887865
4550.000000;1.887557
4549.000000;1.886989
4548.000000;1.886096
4547.000000;1.885085
4546.000000;1.884173
4545.000000;1.883447
4544.000000;1.882872
4543.000000;1.882295
4542.000000;1.881489
4541.000000;1.880368
4540.000000;1.879170
4539.000000;1.878283
4538.000000;1.877857
4537.000000;1.877689
4536.000000;1.877516
4535.000000;1.877287
4534.000000;1.877084
4533.000000;1.876918
4532.000000;1.876701
4531.000000;1.876343
4530.000000;1.875765
4529.000000;1.874928
4528.000000;1.874008
4527.000000;1.873443
4526.000000;1.873588
4525.000000;1.874297
4524.000000;1.875037
4523.000000;1.875404
4522.000000;1.875324
4521.000000;1.874740
4520.000000;1.873521
4519.000000;1.871884
4518.000000;1.870562
4517.000000;1.870144
4516.000000;1.870373
4515.000000;1.870482
4514.000000;1.870164
4513.000000;1.869812
4512.000000;1.869777
4511.000000;1.869858
4510.000000;1.869719
4509.000000;1.869451
4508.000000;1.869371
4507.000000;1.869476
4506.000000;1.869421
4505.000000;1.868964
4504.000000;1.868224
4503.000000;1.867551
4502.000000;1.867316
4501.000000;1.867713
4500.000000;1.868523
4499.000000;1.869123
4498.000000;1.868991
4497.000000;1.868276
4496.000000;1.867683
4495.000000;1.867742
4494.000000;1.868288
4493.000000;1.868651
4492.000000;1.868306
4491.000000;1.867405
4490.000000;1.866763
4489.000000;1.867206
4488.000000;1.868773
4487.000000;1.870527
4486.000000;1.871286
4485.000000;1.870649
4484.000000;1.869277
4483.000000;1.868227
4482.000000;1.868104
4481.000000;1.868736
4480.000000;1.869483
4479.000000;1.869856
4478.000000;1.869929
4477.000000;1.870068
4476.000000;1.870287
4475.000000;1.870132
4474.000000;1.869433
4473.000000;1.868856
4472.000000;1.869256
4471.000000;1.870553
4470.000000;1.871679
4469.000000;1.871750
4468.000000;1.870950
4467.000000;1.870101
4466.000000;1.869773
4465.000000;1.870078
4464.000000;1.871026
4463.000000;1.872593
4462.000000;1.874436
4461.000000;1.875830
4460.000000;1.876119
4459.000000;1.875266
4458.000000;1.873994
4457.000000;1.873335
4456.000000;1.873883
4455.000000;1.875355
4454.000000;1.876890
4453.000000;1.877826
4452.000000;1.878147
4451.000000;1.878250
4450.000000;1.878495
4449.000000;1.878991
4448.000000;1.879609
4447.000000;1.880081
4446.000000;1.880282
4445.000000;1.880519
4444.000000;1.881315
4443.000000;1.882740
4442.000000;1.884180
4441.000000;1.884997
4440.000000;1.885303
4439.000000;1.885803
4438.000000;1.886920
4437.000000;1.888260
4436.000000;1.888990
4435.000000;1.888628
4434.000000;1.887485
4433.000000;1.886419
4432.000000;1.886180
4431.000000;1.886883
4430.000000;1.888113
4429.000000;1.889508
4428.000000;1.891109
4427.000000;1.893021
4426.000000;1.894915
4425.000000;1.896092
4424.000000;1.896102
4423.000000;1.895210
4422.000000;1.894273
4421.000000;1.894211
4420.000000;1.895436
4419.000000;1.897513
4418.000000;1.899396
4417.000000;1.900256
4416.000000;1.900209
4415.000000;1.900109
4414.000000;1.900574
4413.000000;1.901433
4412.000000;1.902212
4411.000000;1.902895
4410.000000;1.903897
4409.000000;1.905321
4408.000000;1.906645
4407.000000;1.907367
4406.000000;1.907728
4405.000000;1.908425
4404.000000;1.909632
4403.000000;1.910661
4402.000000;1.910791
4401.000000;1.910212
4400.000000;1.909863
4399.000000;1.910429
4398.000000;1.911718
4397.000000;1.912975
4396.000000;1.913635
4395.000000;1.913811
4394.000000;1.914179
4393.000000;1.915338
4392.000000;1.917108
4391.000000;1.918511
4390.000000;1.918755
4389.000000;1.918238
4388.000000;1.918210
4387.000000;1.919337
4386.000000;1.920964
4385.000000;1.922011
4384.000000;1.922336
4383.000000;1.922826
4382.000000;1.924185
4381.000000;1.925990
4380.000000;1.927111
4379.000000;1.926977
4378.000000;1.926262
4377.000000;1.926260
4376.000000;1.927632
4375.000000;1.929825
4374.000000;1.931727
4373.000000;1.932811
4372.000000;1.933413
4371.000000;1.933921
4370.000000;1.934103
4369.000000;1.933487
4368.000000;1.932241
4367.000000;1.931341
4366.000000;1.931693
4365.000000;1.933185
4364.000000;1.934788
4363.000000;1.935712
4362.000000;1.936286
4361.000000;1.937514
4360.000000;1.939858
4359.000000;1.942731
4358.000000;1.945248
4357.000000;1.947162
4356.000000;1.948740
4355.000000;1.949935
4354.000000;1.950164
4353.000000;1.949019
4352.000000;1.946888
4351.000000;1.944675
4350.000000;1.943099
4349.000000;1.942434
4348.000000;1.942644
4347.000000;1.943562
4346.000000;1.944969
4345.000000;1.946557
4344.000000;1.947917
4343.000000;1.948759
4342.000000;1.949267
4341.000000;1.949983
4340.000000;1.951028
4339.000000;1.951663
4338.000000;1.951090
4337.000000;1.949628
4336.000000;1.948534
4335.000000;1.948534
4334.000000;1.949040
4333.000000;1.949085
4332.000000;1.948686
4331.000000;1.948823
4330.000000;1.950118
4329.000000;1.951959
4328.000000;1.953139
4327.000000;1.953295
4326.000000;1.953413
4325.000000;1.954572
4324.000000;1.956425
4323.000000;1.957588
4322.000000;1.957680
4321.000000;1.958051
4320.000000;1.959822
4319.000000;1.962042
4318.000000;1.962787
4317.000000;1.961620
4316.000000;1.959865
4315.000000;1.958601
4314.000000;1.957563
4313.000000;1.956195
4312.000000;1.954771
4311.000000;1.953999
4310.000000;1.954303
4309.000000;1.955787
4308.000000;1.958156
4307.000000;1.960431
4306.000000;1.961539
4305.000000;1.961446
4304.000000;1.960954
4303.000000;1.960238
4302.000000;1.958721
4301.000000;1.956723
4300.000000;1.955936
4299.000000;1.957379
4298.000000;1.959739
4297.000000;1.960590
4296.000000;1.958947
4295.000000;1.955858
4294.000000;1.952849
4293.000000;1.950805
4292.000000;1.950155
4291.000000;1.950988
4290.000000;1.952487
4289.000000;1.952705
4288.000000;1.949744
4287.000000;1.943951
4286.000000;1.938804
4285.000000;1.938516
4284.000000;1.943788
4283.000000;1.950068
4282.000000;1.951321
4281.000000;1.946312
4280.000000;1.939576
4279.000000;1.935943
4278.000000;1.936221
4277.000000;1.937978
4276.000000;1.938576
4275.000000;1.936924
4274.000000;1.933936
4273.000000;1.932127
4272.000000;1.933152
4271.000000;1.934912
4270.000000;1.933032
4269.000000;1.926449
4268.000000;1.919170
4267.000000;1.914821
4266.000000;1.912222
4265.000000;1.908468
4264.000000;1.904199
4263.000000;1.902703
4262.000000;1.904895
4261.000000;1.908277
4260.000000;1.910681
4259.000000;1.912192
4258.000000;1.912859
4257.000000;1.911334
4256.000000;1.906843
4255.000000;1.900455
4254.000000;1.893571
4253.000000;1.886564
4252.000000;1.879272
4251.000000;1.871609
4250.000000;1.863612
4249.000000;1.856078
4248.000000;1.850739
4247.000000;1.848528
4246.000000;1.847963
4245.000000;1.846566
4244.000000;1.843433
4243.000000;1.838883
4242.000000;1.832415
4241.000000;1.823666
4240.000000;1.814715
4239.000000;1.808225
4238.000000;1.803842
4237.000000;1.798795
4236.000000;1.791554
4235.000000;1.783504
4234.000000;1.776699
4233.000000;1.771307
4232.000000;1.766410
4231.000000;1.761419
4230.000000;1.755203
4229.000000;1.745690
4228.000000;1.731818
4227.000000;1.714937
4226.000000;1.697546
4225.000000;1.681562
4224.000000;1.667820
4223.000000;1.655587
4222.000000;1.643256
4221.000000;1.630686
4220.000000;1.619080
4219.000000;1.608512
4218.000000;1.596956
4217.000000;1.582204
4216.000000;1.564574
4215.000000;1.545897
4214.000000;1.525898
4213.000000;1.502881
4212.000000;1.477611
4211.000000;1.452563
4210.000000;1.427355
4209.000000;1.398472
4208.000000;1.365288
4207.000000;1.330587
4206.000000;1.292812
4205.000000;1.246693
4204.000000;1.192138
4203.000000;1.135403
4202.000000;1.079952
4201.000000;1.022097
4200.000000;0.961820
4199.000000;0.914019
4198.000000;0.898262
4197.000000;0.920003
4196.000000;0.969684
4195.000000;1.032089
4194.000000;1.096854
4193.000000;1.161258
4192.000000;1.224204
4191.000000;1.282893
4190.000000;1.335083
4189.000000;1.381255
4188.000000;1.423953
4187.000000;1.466144
4186.000000;1.508987
4185.000000;1.550212
4184.000000;1.586036
4183.000000;1.615614
4182.000000;1.642879
4181.000000;1.673709
4180.000000;1.711826
4179.000000;1.755816
4178.000000;1.797872
4177.000000;1.827720
4176.000000;1.843505
4175.000000;1.856408
4174.000000;1.878214
4173.000000;1.907849
4172.000000;1.932626
4171.000000;1.942199
4170.000000;1.938956
4169.000000;1.933277
4168.000000;1.934895
4167.000000;1.949201
4166.000000;1.974682
4165.000000;2.003879
4164.000000;2.030568
4163.000000;2.052579
4162.000000;2.069223
4161.000000;2.081252
4160.000000;2.090320
4159.000000;2.098763
4158.000000;2.108917
4157.000000;2.119205
4156.000000;2.124691
4155.000000;2.124496
4154.000000;2.124329
4153.000000;2.131516
4152.000000;2.148417
4151.000000;2.169773
4150.000000;2.188293
4149.000000;2.202349
4148.000000;2.215901
4147.000000;2.231823
4146.000000;2.247940
4145.000000;2.260569
4144.000000;2.270166
4143.000000;2.280872
4142.000000;2.294846
4141.000000;2.308965
4140.000000;2.317922
4139.000000;2.320024
4138.000000;2.319724
4137.000000;2.325285
4136.000000;2.343097
4135.000000;2.372749
4134.000000;2.405355
4133.000000;2.425713
4132.000000;2.422640
4131.000000;2.400017
4130.000000;2.373327
4129.000000;2.359060
4128.000000;2.365576
4127.000000;2.388699
4126.000000;2.416243
4125.000000;2.439572
4124.000000;2.459370
4123.000000;2.478025
4122.000000;2.491117
4121.000000;2.491331
4120.000000;2.481878
4119.000000;2.476310
4118.000000;2.483651
4117.000000;2.503890
4116.000000;2.528351
4115.000000;2.540094
4114.000000;2.532078
4113.000000;2.517042
4112.000000;2.510266
4111.000000;2.516600
4110.000000;2.531779
4109.000000;2.549604
4108.000000;2.565616
4107.000000;2.575965
4106.000000;2.578227
4105.000000;2.576801
4104.000000;2.580736
4103.000000;2.593816
4102.000000;2.611749
4101.000000;2.629102
4100.000000;2.645976
4099.000000;2.662788
4098.000000;2.672166
4097.000000;2.665298
4096.000000;2.645690
4095.000000;2.625603
4094.000000;2.613823
4093.000000;2.616757
4092.000000;2.638385
4091.000000;2.672492
4090.000000;2.699555
4089.000000;2.705465
4088.000000;2.701201
4087.000000;2.705731
4086.000000;2.722384
4085.000000;2.736709
4084.000000;2.736821
4083.000000;2.731268
4082.000000;2.734512
4081.000000;2.747712
4080.000000;2.763836
4079.000000;2.777457
4078.000000;2.779557
4077.000000;2.766429
4076.000000;2.755595
4075.000000;2.764662
4074.000000;2.790804
4073.000000;2.816312
4072.000000;2.830818
4071.000000;2.845353
4070.000000;2.870250
4069.000000;2.892808
4068.000000;2.892150
4067.000000;2.868345
4066.000000;2.843197
4065.000000;2.831056
4064.000000;2.823822
4063.000000;2.809419
4062.000000;2.793900
4061.000000;2.790837
4060.000000;2.805855
4059.000000;2.840238
4058.000000;2.891559
4057.000000;2.941976
4056.000000;2.958836
4055.000000;2.931246
4054.000000;2.888190
4053.000000;2.859358
4052.000000;2.851689
4051.000000;2.857114
4050.000000;2.864258
4049.000000;2.866273
4048.000000;2.863819
4047.000000;2.859720
4046.000000;2.855563
4045.000000;2.859463
4044.000000;2.878682
4043.000000;2.908035
4042.000000;2.938055
4041.000000;2.960669
4040.000000;2.965568
4039.000000;2.952615
4038.000000;2.940252
4037.000000;2.949369
4036.000000;2.985123
4035.000000;3.032173
4034.000000;3.073322
4033.000000;3.107010
4032.000000;3.127830
4031.000000;3.128820
4030.000000;3.114834
4029.000000;3.091341
4028.000000;3.071901
4027.000000;3.074189
4026.000000;3.084561
4025.000000;3.078936
4024.000000;3.068018
4023.000000;3.055606
4022.000000;3.039350
4021.000000;3.029532
4020.000000;3.022564
4019.000000;3.020870
4018.000000;3.039936
4017.000000;3.080427
4016.000000;3.120380
4015.000000;3.140063
4014.000000;3.144657
4013.000000;3.145170
4012.000000;3.138476
4011.000000;3.119706
4010.000000;3.099418
4009.000000;3.085578
4008.000000;3.068886
4007.000000;3.041337
4006.000000;3.016314
4005.000000;3.021372
4004.000000;3.073137
4003.000000;3.148772
4002.000000;3.179870
4001.000000;3.138644
4000.000000;3.077473
3999.000000;3.036920
3998.000000;3.017395
3997.000000;3.009169
3996.000000;3.015029
3995.000000;3.041470
3994.000000;3.085625
3993.000000;3.125923
3992.000000;3.138839
3991.000000;3.132395
3990.000000;3.139142
3989.000000;3.191731
3988.000000;3.300702
3987.000000;3.413916
3986.000000;3.453039
3985.000000;3.467558
3984.000000;3.442728
3983.000000;3.328486
3982.000000;3.217243
3981.000000;3.146325
3980.000000;3.111988
3979.000000;3.103998
3978.000000;3.106068
3977.000000;3.110290
3976.000000;3.116275
3975.000000;3.126819
3974.000000;3.148135
3973.000000;3.184152
3972.000000;3.232210
3971.000000;3.284004
3970.000000;3.332486
3969.000000;3.367208
3968.000000;3.389056
3967.000000;3.422082
3966.000000;3.448379
3965.000000;3.453014
3964.000000;3.524451
3963.000000;3.625058
3962.000000;3.536017
3961.000000;3.416594
3960.000000;3.384587
3959.000000;3.412616
3958.000000;3.443731
3957.000000;3.432000
3956.000000;3.408103
3955.000000;3.401791
3954.000000;3.386943
3953.000000;3.344886
3952.000000;3.309592
3951.000000;3.334017
3950.000000;3.449473
3949.000000;3.632154
3948.000000;3.788693
3947.000000;3.806182
3946.000000;3.707086
3945.000000;3.618421
3944.000000;3.603694
3943.000000;3.636331
3942.000000;3.627205
3941.000000;3.524167
3940.000000;3.403341
3939.000000;3.360400
3938.000000;3.395046
3937.000000;3.420689
3936.000000;3.375025
3935.000000;3.335479
3934.000000;3.367344
3933.000000;3.442466
3932.000000;3.496179
3931.000000;3.507030
3930.000000;3.500087
3929.000000;3.489445
3928.000000;3.475510
3927.000000;3.468978
3926.000000;3.492411
3925.000000;3.522368
3924.000000;3.523380
3923.000000;3.504503
3922.000000;3.478650
3921.000000;3.446181
3920.000000;3.400040
3919.000000;3.357520
3918.000000;3.367048
3917.000000;3.423358
3916.000000;3.484143
3915.000000;3.522438
3914.000000;3.543120
3913.000000;3.568870
3912.000000;3.646156
3911.000000;3.829682
3910.000000;4.169712
3909.000000;4.871889
3908.000000;4.798077
3907.000000;4.325101
3906.000000;4.318987
3905.000000;4.557149
3904.000000;4.437921
3903.000000;4.127483
3902.000000;3.958811
3901.000000;3.986994
3900.000000;4.200289
3899.000000;4.464573
3898.000000;4.437046
3897.000000;4.181004
3896.000000;4.097315
3895.000000;4.060318
3894.000000;3.739258
3893.000000;3.704971
3892.000000;3.951007
3891.000000;4.214992
3890.000000;4.360431
3889.000000;4.148800
3888.000000;3.918380
3887.000000;3.999373
3886.000000;4.235531
3885.000000;4.385745
3884.000000;4.089652
3883.000000;3.609258
3882.000000;3.508699
3881.000000;3.672001
3880.000000;3.811454
3879.000000;3.753234
3878.000000;3.643094
3877.000000;3.727175
3876.000000;4.162107
3875.000000;4.745551
3874.000000;4.259373
3873.000000;3.848793
3872.000000;3.711724
3871.000000;3.869304
3870.000000;4.086616
3869.000000;4.077950
3868.000000;3.920624
3867.000000;3.817028
3866.000000;3.877981
3865.000000;4.053581
3864.000000;4.374460
3863.000000;4.378072
3862.000000;4.108094
3861.000000;4.126826
3860.000000;4.360775
3859.000000;4.647674
3858.000000;4.769875
3857.000000;4.647512
3856.000000;4.668283
3855.000000;4.995227
3854.000000;5.310101
3853.000000;5.047860
3852.000000;4.684797
3851.000000;4.384537
3850.000000;4.259773
3849.000000;4.206650
3848.000000;4.302889
3847.000000;4.507068
3846.000000;4.347859
3845.000000;4.572491
3844.000000;4.683316
3843.000000;4.449519
3842.000000;4.624056
3841.000000;4.882699
3840.000000;4.838918
3839.000000;4.773361
3838.000000;4.540933
3837.000000;4.250254
3836.000000;4.010256
3835.000000;3.867365
3834.000000;3.888062
3833.000000;3.987702
3832.000000;3.988696
3831.000000;3.924092
3830.000000;3.811941
3829.000000;3.751173
3828.000000;3.887591
3827.000000;4.199949
3826.000000;4.592010
3825.000000;4.291403
3824.000000;3.961377
3823.000000;4.172029
3822.000000;4.688771
3821.000000;4.643676
3820.000000;4.528019
3819.000000;4.259555
3818.000000;4.249847
3817.000000;4.522626
3816.000000;4.821280
3815.000000;4.582050
3814.000000;4.204036
3813.000000;3.995108
3812.000000;3.900862
3811.000000;3.802552
3810.000000;3.778234
3809.000000;4.035337
3808.000000;4.542809
3807.000000;4.760312
3806.000000;4.711287
3805.000000;4.401607
3804.000000;4.098748
3803.000000;4.082967
3802.000000;4.271238
3801.000000;4.328559
3800.000000;4.526432
3799.000000;4.291614
3798.000000;3.893535
3797.000000;3.852197
3796.000000;4.037042
3795.000000;4.633304
3794.000000;3.973260
3793.000000;3.695787
3792.000000;3.705782
3791.000000;4.002473
3790.000000;4.830459
3789.000000;4.018985
3788.000000;3.760760
3787.000000;3.688846
3786.000000;3.774613
3785.000000;4.005198
3784.000000;4.316835
3783.000000;4.137108
3782.000000;3.868678
3781.000000;3.845421
3780.000000;3.689756
3779.000000;3.536596
3778.000000;3.476835
3777.000000;3.533814
3776.000000;3.656433
3775.000000;3.646934
3774.000000;3.551851
3773.000000;3.566663
3772.000000;3.808288
3771.000000;4.251883
3770.000000;4.483847
3769.000000;4.395313
3768.000000;4.582907
3767.000000;4.097278
3766.000000;3.847584
3765.000000;3.806374
3764.000000;3.748262
3763.000000;3.671811
3762.000000;3.677476
3761.000000;3.813872
3760.000000;3.960369
3759.000000;4.069202
3758.000000;4.221312
3757.000000;4.373169
3756.000000;4.462856
3755.000000;4.576553
3754.000000;4.768947
3753.000000;4.879692
3752.000000;4.794450
3751.000000;4.845249
3750.000000;4.851318
3749.000000;4.837713
3748.000000;4.442637
3747.000000;4.427531
3746.000000;4.548458
3745.000000;4.414898
3744.000000;4.246261
3743.000000;4.036996
3742.000000;4.000884
3741.000000;4.220969
3740.000000;4.644731
3739.000000;4.679894
3738.000000;4.329954
3737.000000;4.227569
3736.000000;4.174291
3735.000000;4.372074
3734.000000;4.567752
3733.000000;4.068477
3732.000000;3.988501
3731.000000;3.961706
3730.000000;3.870188
3729.000000;3.982585
3728.000000;4.085471
3727.000000;3.939896
3726.000000;3.855520
3725.000000;3.869108
3724.000000;4.084629
3723.000000;4.399581
3722.000000;4.425757
3721.000000;4.320355
3720.000000;3.973075
3719.000000;3.838218
3718.000000;3.914357
3717.000000;4.041945
3716.000000;4.060683
3715.000000;3.934927
3714.000000;3.893270
3713.000000;4.024451
3712.000000;4.429128
3711.000000;5.630951
3710.000000;4.597525
3709.000000;4.230222
3708.000000;4.109689
3707.000000;3.965985
3706.000000;3.702836
3705.000000;3.521821
3704.000000;3.518282
3703.000000;3.821498
3702.000000;4.225624
3701.000000;3.896769
3700.000000;3.701065
3699.000000;3.638369
3698.000000;3.654737
3697.000000;3.662162
3696.000000;3.706487
3695.000000;3.933796
3694.000000;4.169756
3693.000000;4.158977
3692.000000;4.320103
3691.000000;4.440529
3690.000000;4.182392
3689.000000;4.006416
3688.000000;3.860796
3687.000000;3.723525
3686.000000;3.734381
3685.000000;3.864023
3684.000000;3.928336
3683.000000;3.915877
3682.000000;4.248033
3681.000000;4.909284
3680.000000;4.311757
3679.000000;3.913135
3678.000000;3.802855
3677.000000;4.238078
3676.000000;5.356803
3675.000000;4.677937
3674.000000;4.533437
3673.000000;4.529767
3672.000000;4.170444
3671.000000;3.873087
3670.000000;3.836645
3669.000000;3.815971
3668.000000;3.853008
3667.000000;3.902404
3666.000000;3.997123
3665.000000;3.845664
3664.000000;3.815697
3663.000000;4.318833
3662.000000;4.083300
3661.000000;3.765832
3660.000000;3.678282
3659.000000;3.634228
3658.000000;3.719132
3657.000000;3.969533
3656.000000;4.306383
3655.000000;4.486281
3654.000000;4.385199
3653.000000;4.165730
3652.000000;4.117993
3651.000000;4.205045
3650.000000;4.259743
3649.000000;4.289472
3648.000000;4.302148
3647.000000;4.265552
3646.000000;4.023963
3645.000000;3.786887
3644.000000;3.976088
3643.000000;3.868292
3642.000000;3.477115
3641.000000;3.358092
3640.000000;3.363219
3639.000000;3.447610
3638.000000;3.532739
3637.000000;3.597184
3636.000000;3.702595
3635.000000;3.887687
3634.000000;4.082465
3633.000000;4.297192
3632.000000;4.858491
3631.000000;4.490194
3630.000000;4.529936
3629.000000;4.557663
3628.000000;4.249992
3627.000000;4.014433
3626.000000;4.008522
3625.000000;4.178643
3624.000000;3.848650
3623.000000;3.606235
3622.000000;3.570117
3621.000000;3.619351
3620.000000;3.696892
3619.000000;3.848239
3618.000000;4.216096
3617.000000;4.288663
3616.000000;3.903728
3615.000000;3.859663
3614.000000;3.941918
3613.000000;3.932366
3612.000000;3.781245
3611.000000;3.621836
3610.000000;3.597983
3609.000000;3.772259
3608.000000;4.219670
3607.000000;4.252130
3606.000000;4.132306
3605.000000;4.428163
3604.000000;4.859322
3603.000000;4.219286
3602.000000;3.813924
3601.000000;3.676991
3600.000000;3.664418
3599.000000;3.667382
3598.000000;3.720371
3597.000000;3.984780
3596.000000;3.806614
3595.000000;3.536870
3594.000000;3.541277
3593.000000;3.649624
3592.000000;3.841084
3591.000000;4.123718
3590.000000;4.236917
3589.000000;4.091943
3588.000000;4.031419
3587.000000;4.006150
3586.000000;3.832160
3585.000000;3.661070
3584.000000;3.628809
3583.000000;3.682556
3582.000000;3.660130
3581.000000;3.614742
3580.000000;3.629544
3579.000000;3.645052
3578.000000;3.634137
3577.000000;3.659597
3576.000000;3.771008
3575.000000;3.840361
3574.000000;3.776719
3573.000000;3.759201
3572.000000;3.781863
3571.000000;4.044645
3570.000000;4.483029
3569.000000;4.017909
3568.000000;3.928837
3567.000000;4.159834
3566.000000;4.376022
3565.000000;4.028108
3564.000000;3.893717
3563.000000;4.176593
3562.000000;4.287191
3561.000000;4.136174
3560.000000;4.213169
3559.000000;3.991340
3558.000000;3.700593
3557.000000;3.521337
3556.000000;3.439006
3555.000000;3.478749
3554.000000;3.630565
3553.000000;3.840715
3552.000000;3.903152
3551.000000;3.783782
3550.000000;3.709857
3549.000000;3.669362
3548.000000;3.593003
3547.000000;3.519311
3546.000000;3.486302
3545.000000;3.526935
3544.000000;3.641316
3543.000000;3.769144
3542.000000;3.758116
3541.000000;3.637790
3540.000000;3.531292
3539.000000;3.615046
3538.000000;4.154697
3537.000000;3.941560
3536.000000;3.544080
3535.000000;3.438545
3534.000000;3.379318
3533.000000;3.405373
3532.000000;3.471534
3531.000000;3.525994
3530.000000;3.587398
3529.000000;3.683695
3528.000000;3.832712
3527.000000;3.960623
3526.000000;4.045194
3525.000000;4.219563
3524.000000;4.450079
3523.000000;4.219765
3522.000000;3.986445
3521.000000;3.859647
3520.000000;3.746440
3519.000000;3.614070
3518.000000;3.512692
3517.000000;3.493850
3516.000000;3.574396
3515.000000;3.736307
3514.000000;3.715888
3513.000000;3.583843
3512.000000;3.702805
3511.000000;4.076623
3510.000000;4.468836
3509.000000;4.294082
3508.000000;3.775667
3507.000000;3.601321
3506.000000;3.554165
3505.000000;3.475939
3504.000000;3.481479
3503.000000;3.616138
3502.000000;3.959434
3501.000000;4.179510
3500.000000;3.789581
3499.000000;3.633456
3498.000000;3.634658
3497.000000;3.673893
3496.000000;3.804524
3495.000000;4.095976
3494.000000;4.001648
3493.000000;3.760482
3492.000000;3.789202
3491.000000;4.166235
3490.000000;4.219039
3489.000000;3.856781
3488.000000;3.856337
3487.000000;3.833514
3486.000000;3.706458
3485.000000;3.591441
3484.000000;3.590276
3483.000000;3.697863
3482.000000;3.889241
3481.000000;3.946695
3480.000000;3.926018
3479.000000;4.576670
3478.000000;3.874199
3477.000000;3.425252
3476.000000;3.295877
3475.000000;3.263514
3474.000000;3.280309
3473.000000;3.250570
3472.000000;3.226931
3471.000000;3.305458
3470.000000;3.521529
3469.000000;3.715140
3468.000000;3.695851
3467.000000;3.714518
3466.000000;3.840374
3465.000000;3.957146
3464.000000;3.838265
3463.000000;3.721171
3462.000000;3.766639
3461.000000;3.925118
3460.000000;3.994655
3459.000000;3.851969
3458.000000;3.759685
3457.000000;3.722484
3456.000000;3.837776
3455.000000;4.275717
3454.000000;3.969477
3453.000000;3.689435
3452.000000;3.702225
3451.000000;3.688142
3450.000000;3.569622
3449.000000;3.479765
3448.000000;3.502622
3447.000000;3.632888
3446.000000;3.827576
3445.000000;3.945085
3444.000000;3.890841
3443.000000;3.854970
3442.000000;3.859577
3441.000000;3.839073
3440.000000;3.842696
3439.000000;3.769653
3438.000000;3.584906
3437.000000;3.438930
3436.000000;3.343046
3435.000000;3.312044
3434.000000;3.373868
3433.000000;3.474885
3432.000000;3.533237
3431.000000;3.619643
3430.000000;3.922144
3429.000000;4.541642
3428.000000;4.354772
3427.000000;4.183866
3426.000000;4.109995
3425.000000;3.967598
3424.000000;3.956132
3423.000000;3.867451
3422.000000;3.659250
3421.000000;3.538343
3420.000000;3.502704
3419.000000;3.461808
3418.000000;3.384886
3417.000000;3.297780
3416.000000;3.211880
3415.000000;3.158684
3414.000000;3.140978
3413.000000;3.148624
3412.000000;3.205043
3411.000000;3.376929
3410.000000;3.847226
3409.000000;3.914718
3408.000000;3.525415
3407.000000;3.484305
3406.000000;3.661655
3405.000000;3.921926
3404.000000;3.681507
3403.000000;3.530935
3402.000000;3.568283
3401.000000;3.579549
3400.000000;3.620744
3399.000000;3.760430
3398.000000;4.007539
3397.000000;4.436708
3396.000000;4.300748
3395.000000;4.020486
3394.000000;3.895367
3393.000000;3.818832
3392.000000;3.849091
3391.000000;3.773521
3390.000000;3.579253
3389.000000;3.485223
3388.000000;3.520383
3387.000000;3.805390
3386.000000;4.515872
3385.000000;4.086032
3384.000000;3.848584
3383.000000;3.736742
3382.000000;3.631899
3381.000000;3.581079
3380.000000;3.574186
3379.000000;3.875680
3378.000000;4.240712
3377.000000;3.832096
3376.000000;3.741936
3375.000000;3.890933
3374.000000;4.369937
3373.000000;3.926490
3372.000000;3.595892
3371.000000;3.598035
3370.000000;3.699872
3369.000000;3.792607
3368.000000;3.742137
3367.000000;3.595979
3366.000000;3.439028
3365.000000;3.338692
3364.000000;3.333399
3363.000000;3.397839
3362.000000;3.408271
3361.000000;3.379066
3360.000000;3.436984
3359.000000;3.520146
3358.000000;3.472372
3357.000000;3.341834
3356.000000;3.276876
3355.000000;3.297728
3354.000000;3.378008
3353.000000;3.459140
3352.000000;3.568950
3351.000000;4.071231
3350.000000;3.975257
3349.000000;3.533126
3348.000000;3.495224
3347.000000;3.651360
3346.000000;3.832166
3345.000000;3.541291
3344.000000;3.360665
3343.000000;3.368497
3342.000000;3.423632
3341.000000;3.470846
3340.000000;3.500268
3339.000000;3.549145
3338.000000;3.527529
3337.000000;3.582397
3336.000000;3.964079
3335.000000;3.864566
3334.000000;3.498773
3333.000000;3.575220
3332.000000;4.026462
3331.000000;3.667226
3330.000000;3.399258
3329.000000;3.373157
3328.000000;3.562152
3327.000000;4.010370
3326.000000;3.808388
3325.000000;3.866146
3324.000000;3.930226
3323.000000;3.548519
3322.000000;3.430609
3321.000000;3.384005
3320.000000;3.379915
3319.000000;3.456781
3318.000000;3.552541
3317.000000;3.575815
3316.000000;3.600544
3315.000000;3.649886
3314.000000;3.534962
3313.000000;3.416655
3312.000000;3.435471
3311.000000;3.539606
3310.000000;3.560263
3309.000000;3.557318
3308.000000;3.631658
3307.000000;3.887277
3306.000000;3.919448
3305.000000;3.554691
3304.000000;3.477171
3303.000000;3.700257
3302.000000;3.882745
3301.000000;3.516545
3300.000000;3.330877
3299.000000;3.242435
3298.000000;3.186407
3297.000000;3.181061
3296.000000;3.211191
3295.000000;3.256690
3294.000000;3.229407
3293.000000;3.194942
3292.000000;3.231540
3291.000000;3.407008
3290.000000;3.994620
3289.000000;3.809427
3288.000000;3.460792
3287.000000;3.437718
3286.000000;3.531279
3285.000000;3.797754
3284.000000;4.153866
3283.000000;4.138980
3282.000000;4.068253
3281.000000;4.293760
3280.000000;4.553066
3279.000000;4.066848
3278.000000;3.816885
3277.000000;3.671119
3276.000000;3.611299
3275.000000;3.773776
3274.000000;3.846992
3273.000000;3.593688
3272.000000;3.674885
3271.000000;3.963443
3270.000000;3.886829
3269.000000;3.727964
3268.000000;3.421340
3267.000000;3.228375
3266.000000;3.222816
3265.000000;3.382006
3264.000000;3.698387
3263.000000;3.685872
3262.000000;3.485735
3261.000000;3.397847
3260.000000;3.384181
3259.000000;3.428515
3258.000000;3.395535
3257.000000;3.309587
3256.000000;3.295282
3255.000000;3.339587
3254.000000;3.365287
3253.000000;3.379059
3252.000000;3.460151
3251.000000;3.610673
3250.000000;3.643166
3249.000000;3.547999
3248.000000;3.566153
3247.000000;3.647664
3246.000000;3.513785
3245.000000;3.369793
3244.000000;3.382949
3243.000000;3.544621
3242.000000;3.742506
3241.000000;3.759088
3240.000000;3.819775
3239.000000;3.823790
3238.000000;3.613447
3237.000000;3.501348
3236.000000;3.489290
3235.000000;3.516990
3234.000000;3.547549
3233.000000;3.541335
3232.000000;3.464577
3231.000000;3.332240
3230.000000;3.245647
3229.000000;3.234323
3228.000000;3.275372
3227.000000;3.357269
3226.000000;3.522364
3225.000000;3.874051
3224.000000;3.884161
3223.000000;3.642630
3222.000000;3.599765
3221.000000;3.454525
3220.000000;3.322105
3219.000000;3.306782
3218.000000;3.399270
3217.000000;3.612305
3216.000000;3.584420
3215.000000;3.363643
3214.000000;3.291397
3213.000000;3.335584
3212.000000;3.471971
3211.000000;3.650044
3210.000000;3.858665
3209.000000;4.028303
3208.000000;3.870771
3207.000000;3.791400
3206.000000;3.816133
3205.000000;3.624609
3204.000000;3.402690
3203.000000;3.281313
3202.000000;3.272790
3201.000000;3.403682
3200.000000;3.684859
3199.000000;3.813600
3198.000000;3.644549
3197.000000;3.578348
3196.000000;3.552360
3195.000000;3.752110
3194.000000;4.092795
3193.000000;3.486026
3192.000000;3.232527
3191.000000;3.188322
3190.000000;3.289578
3189.000000;3.418769
3188.000000;3.383156
3187.000000;3.396211
3186.000000;3.583944
3185.000000;3.655938
3184.000000;3.567814
3183.000000;3.671799
3182.000000;3.922109
3181.000000;3.958220
3180.000000;3.697069
3179.000000;3.429563
3178.000000;3.323359
3177.000000;3.536327
3176.000000;3.957381
3175.000000;3.400994
3174.000000;3.300194
3173.000000;3.522528
3172.000000;3.983306
3171.000000;3.668463
3170.000000;3.637561
3169.000000;3.669239
3168.000000;3.440575
3167.000000;3.394103
3166.000000;3.480997
3165.000000;3.541745
3164.000000;3.514021
3163.000000;3.535551
3162.000000;3.658290
3161.000000;3.732509
3160.000000;3.737155
3159.000000;3.712775
3158.000000;3.607765
3157.000000;3.570989
3156.000000;3.698891
3155.000000;4.134471
3154.000000;4.111432
3153.000000;3.734569
3152.000000;3.622956
3151.000000;3.666796
3150.000000;3.770325
3149.000000;3.598302
3148.000000;3.370006
3147.000000;3.281108
3146.000000;3.389435
3145.000000;3.737048
3144.000000;3.620078
3143.000000;3.464174
3142.000000;3.554975
3141.000000;3.623104
3140.000000;3.543192
3139.000000;3.463461
3138.000000;3.404591
3137.000000;3.368872
3136.000000;3.324669
3135.000000;3.220933
3134.000000;3.118373
3133.000000;3.114799
3132.000000;3.260504
3131.000000;3.395374
3130.000000;3.318178
3129.000000;3.278416
3128.000000;3.302620
3127.000000;3.303266
3126.000000;3.243718
3125.000000;3.208108
3124.000000;3.262122
3123.000000;3.256129
3122.000000;3.193679
3121.000000;3.245725
3120.000000;3.444817
3119.000000;3.738663
3118.000000;3.837437
3117.000000;3.660904
3116.000000;3.547048
3115.000000;3.522067
3114.000000;3.499240
3113.000000;3.446877
3112.000000;3.377768
3111.000000;3.291550
3110.000000;3.244171
3109.000000;3.313932
3108.000000;3.549565
3107.000000;3.565751
3106.000000;3.437435
3105.000000;3.679591
3104.000000;4.008119
3103.000000;3.616999
3102.000000;3.405257
3101.000000;3.379533
3100.000000;3.502871
3099.000000;3.741016
3098.000000;3.982591
3097.000000;3.872514
3096.000000;4.037149
3095.000000;3.838631
3094.000000;3.489055
3093.000000;3.583742
3092.000000;3.660852
3091.000000;3.272570
3090.000000;3.207051
3089.000000;3.357038
3088.000000;3.713652
3087.000000;3.999205
3086.000000;3.721616
3085.000000;3.607933
3084.000000;3.699035
3083.000000;3.984862
3082.000000;3.993057
3081.000000;3.842071
3080.000000;3.886489
3079.000000;3.955913
3078.000000;4.003455
3077.000000;4.160672
3076.000000;4.186546
3075.000000;3.792065
3074.000000;3.656277
3073.000000;3.713645
3072.000000;3.557759
3071.000000;3.366807
3070.000000;3.251486
3069.000000;3.222946
3068.000000;3.376778
3067.000000;3.789805
3066.000000;3.520421
3065.000000;3.329001
3064.000000;3.253690
3063.000000;3.256016
3062.000000;3.422134
3061.000000;3.715950
3060.000000;3.620686
3059.000000;3.572410
3058.000000;3.572307
3057.000000;3.427820
3056.000000;3.328626
3055.000000;3.242141
3054.000000;3.186071
3053.000000;3.200123
3052.000000;3.232686
3051.000000;3.224451
3050.000000;3.217028
3049.000000;3.251155
3048.000000;3.297170
3047.000000;3.285623
3046.000000;3.231119
3045.000000;3.234493
3044.000000;3.323014
3043.000000;3.360447
3042.000000;3.325718
3041.000000;3.319542
3040.000000;3.275334
3039.000000;3.187324
3038.000000;3.122844
3037.000000;3.105369
3036.000000;3.133196
3035.000000;3.194185
3034.000000;3.256529
3033.000000;3.291272
3032.000000;3.330482
3031.000000;3.343689
3030.000000;3.295627
3029.000000;3.286669
3028.000000;3.307561
3027.000000;3.246616
3026.000000;3.178148
3025.000000;3.229298
3024.000000;3.444937
3023.000000;3.747291
3022.000000;3.565073
3021.000000;3.262833
3020.000000;3.126160
3019.000000;3.128609
3018.000000;3.233680
3017.000000;3.366491
3016.000000;3.421628
3015.000000;3.399560
3014.000000;3.392631
3013.000000;3.484286
3012.000000;3.697037
3011.000000;3.628757
3010.000000;3.443250
3009.000000;3.386953
3008.000000;3.428250
3007.000000;3.542077
3006.000000;3.920716
3005.000000;4.381328
3004.000000;3.617564
3003.000000;3.404610
3002.000000;3.306078
3001.000000;3.317679
3000.000000;3.360439
2999.000000;3.318254
2998.000000;3.235020
2997.000000;3.221186
2996.000000;3.319456
2995.000000;3.368942
2994.000000;3.323737
2993.000000;3.553981
2992.000000;3.640026
2991.000000;3.284775
2990.000000;3.170550
2989.000000;3.192192
2988.000000;3.301884
2987.000000;3.547820
2986.000000;3.977817
2985.000000;4.164058
2984.000000;3.637340
2983.000000;3.348657
2982.000000;3.304265
2981.000000;3.425670
2980.000000;3.528112
2979.000000;3.591272
2978.000000;3.757742
2977.000000;3.811041
2976.000000;3.822138
2975.000000;4.036269
2974.000000;4.405785
2973.000000;3.895695
2972.000000;3.592668
2971.000000;3.630924
2970.000000;3.625498
2969.000000;3.458007
2968.000000;3.479659
2967.000000;3.592317
2966.000000;3.478820
2965.000000;3.437927
2964.000000;3.680228
2963.000000;3.651189
2962.000000;3.348351
2961.000000;3.225512
2960.000000;3.208197
2959.000000;3.272738
2958.000000;3.418393
2957.000000;3.446616
2956.000000;3.314129
2955.000000;3.291023
2954.000000;3.409595
2953.000000;3.635226
2952.000000;3.831474
2951.000000;4.036584
2950.000000;3.892531
2949.000000;3.606250
2948.000000;3.560213
2947.000000;3.378008
2946.000000;3.154425
2945.000000;3.082590
2944.000000;3.148033
2943.000000;3.319150
2942.000000;3.511805
2941.000000;3.599534
2940.000000;3.523979
2939.000000;3.395964
2938.000000;3.366052
2937.000000;3.435453
2936.000000;3.420469
2935.000000;3.283262
2934.000000;3.144951
2933.000000;3.064830
2932.000000;3.084341
2931.000000;3.246142
2930.000000;3.670120
2929.000000;3.784455
2928.000000;3.449324
2927.000000;3.436757
2926.000000;3.652235
2925.000000;4.023957
2924.000000;3.589392
2923.000000;3.400516
2922.000000;3.350419
2921.000000;3.319519
2920.000000;3.287514
2919.000000;3.381871
2918.000000;3.635226
2917.000000;3.497717
2916.000000;3.327462
2915.000000;3.349311
2914.000000;3.446600
2913.000000;3.527843
2912.000000;3.459543
2911.000000;3.359567
2910.000000;3.344797
2909.000000;3.319666
2908.000000;3.175112
2907.000000;3.111244
2906.000000;3.211762
2905.000000;3.536292
2904.000000;3.810870
2903.000000;3.512987
2902.000000;3.396890
2901.000000;3.342054
2900.000000;3.382681
2899.000000;3.544084
2898.000000;3.770557
2897.000000;3.696637
2896.000000;3.458054
2895.000000;3.384585
2894.000000;3.503416
2893.000000;3.541869
2892.000000;3.470897
2891.000000;3.597012
2890.000000;3.871222
2889.000000;4.069753
2888.000000;4.215388
2887.000000;4.258981
2886.000000;4.154911
2885.000000;3.658297
2884.000000;3.407298
2883.000000;3.373793
2882.000000;3.479979
2881.000000;3.423978
2880.000000;3.249415
2879.000000;3.226453
2878.000000;3.422313
2877.000000;3.807735
2876.000000;3.499024
2875.000000;3.378423
2874.000000;3.290929
2873.000000;3.255296
2872.000000;3.317020
2871.000000;3.457531
2870.000000;3.560178
2869.000000;3.490421
2868.000000;3.399535
2867.000000;3.393672
2866.000000;3.763189
2865.000000;3.995091
2864.000000;3.567376
2863.000000;3.781723
2862.000000;3.793792
2861.000000;3.567737
2860.000000;3.569612
2859.000000;3.639542
2858.000000;3.760150
2857.000000;4.172706
2856.000000;3.691396
2855.000000;3.373663
2854.000000;3.242401
2853.000000;3.221205
2852.000000;3.278240
2851.000000;3.352240
2850.000000;3.339614
2849.000000;3.260890
2848.000000;3.247492
2847.000000;3.357611
2846.000000;3.462873
2845.000000;3.325981
2844.000000;3.208149
2843.000000;3.146161
2842.000000;3.106687
2841.000000;3.119090
2840.000000;3.231893
2839.000000;3.424065
2838.000000;3.453734
2837.000000;3.360177
2836.000000;3.357433
2835.000000;3.461018
2834.000000;3.671794
2833.000000;3.773816
2832.000000;3.710752
2831.000000;3.700233
2830.000000;3.693990
2829.000000;3.574797
2828.000000;3.448245
2827.000000;3.423125
2826.000000;3.538804
2825.000000;3.836526
2824.000000;3.794106
2823.000000;3.513345
2822.000000;3.318339
2821.000000;3.219530
2820.000000;3.269090
2819.000000;3.595624
2818.000000;3.844181
2817.000000;3.468997
2816.000000;3.542549
2815.000000;3.647343
2814.000000;3.608252
2813.000000;3.598826
2812.000000;3.742399
2811.000000;4.008636
2810.000000;4.087138
2809.000000;3.912036
2808.000000;3.747478
2807.000000;3.546565
2806.000000;3.374658
2805.000000;3.280478
2804.000000;3.294542
2803.000000;3.442391
2802.000000;3.796279
2801.000000;4.087016
2800.000000;4.227349
2799.000000;3.819677
2798.000000;3.559418
2797.000000;3.458102
2796.000000;3.387486
2795.000000;3.330623
2794.000000;3.317640
2793.000000;3.357307
2792.000000;3.472661
2791.000000;3.716743
2790.000000;4.030948
2789.000000;4.001302
2788.000000;3.877343
2787.000000;3.816282
2786.000000;3.704096
2785.000000;3.504565
2784.000000;3.320600
2783.000000;3.192118
2782.000000;3.155691
2781.000000;3.246481
2780.000000;3.489214
2779.000000;4.014065
2778.000000;4.318428
2777.000000;3.867702
2776.000000;3.699552
2775.000000;3.659034
2774.000000;3.594742
2773.000000;3.529826
2772.000000;3.526193
2771.000000;3.569001
2770.000000;3.583840
2769.000000;3.545367
2768.000000;3.501236
2767.000000;3.490180
2766.000000;3.517994
2765.000000;3.521143
2764.000000;3.446382
2763.000000;3.348661
2762.000000;3.301459
2761.000000;3.349746
2760.000000;3.494193
2759.000000;3.434137
2758.000000;3.246031
2757.000000;3.197676
2756.000000;3.281878
2755.000000;3.515397
2754.000000;3.909691
2753.000000;4.281654
2752.000000;3.825230
2751.000000;3.442454
2750.000000;3.237685
2749.000000;3.193578
2748.000000;3.321576
2747.000000;3.753137
2746.000000;3.779342
2745.000000;3.567125
2744.000000;3.541911
2743.000000;3.563567
2742.000000;3.570642
2741.000000;3.528897
2740.000000;3.459136
2739.000000;3.402627
2738.000000;3.397617
2737.000000;3.462686
2736.000000;3.513965
2735.000000;3.500305
2734.000000;3.524303
2733.000000;3.944750
2732.000000;3.789579
2731.000000;3.358583
2730.000000;3.336912
2729.000000;3.620162
2728.000000;3.835789
2727.000000;3.505947
2726.000000;3.500824
2725.000000;3.613332
2724.000000;3.464001
2723.000000;3.378014
2722.000000;3.431804
2721.000000;3.313345
2720.000000;3.242617
2719.000000;3.414287
2718.000000;4.189987
2717.000000;3.592864
2716.000000;3.670745
2715.000000;4.064547
2714.000000;3.581295
2713.000000;3.629717
2712.000000;3.784123
2711.000000;3.507217
2710.000000;3.370243
2709.000000;3.347831
2708.000000;3.419712
2707.000000;3.679564
2706.000000;4.047850
2705.000000;4.511851
2704.000000;4.117549
2703.000000;3.509590
2702.000000;3.292219
2701.000000;3.211116
2700.000000;3.188064
2699.000000;3.171906
2698.000000;3.216705
2697.000000;3.385218
2696.000000;3.705358
2695.000000;4.022444
2694.000000;4.117509
2693.000000;4.061615
2692.000000;3.987717
2691.000000;3.829365
2690.000000;3.666354
2689.000000;3.606598
2688.000000;3.662353
2687.000000;3.873378
2686.000000;4.381933
2685.000000;4.938156
2684.000000;3.922452
2683.000000;3.479424
2682.000000;3.283193
2681.000000;3.260992
2680.000000;3.394075
2679.000000;3.674702
2678.000000;3.699624
2677.000000;3.547486
2676.000000;3.789463
2675.000000;4.017972
2674.000000;3.743502
2673.000000;4.117265
2672.000000;3.977433
2671.000000;3.654690
2670.000000;3.733069
2669.000000;4.487538
2668.000000;3.790912
2667.000000;3.558873
2666.000000;3.670909
2665.000000;3.908487
2664.000000;3.522621
2663.000000;3.264250
2662.000000;3.142529
2661.000000;3.140659
2660.000000;3.293014
2659.000000;3.645245
2658.000000;3.725746
2657.000000;3.660643
2656.000000;4.022981
2655.000000;3.787598
2654.000000;3.429890
2653.000000;3.348737
2652.000000;3.349929
2651.000000;3.413831
2650.000000;3.510119
2649.000000;3.624884
2648.000000;3.725692
2647.000000;3.734856
2646.000000;3.631148
2645.000000;3.504104
2644.000000;3.410028
2643.000000;3.363154
2642.000000;3.394045
2641.000000;3.570417
2640.000000;4.107728
2639.000000;4.040163
2638.000000;3.864646
2637.000000;3.647355
2636.000000;3.535663
2635.000000;3.573815
2634.000000;3.730459
2633.000000;4.016731
2632.000000;3.952782
2631.000000;3.803607
2630.000000;4.122350
2629.000000;4.561245
2628.000000;3.815558
2627.000000;3.730984
2626.000000;3.544931
2625.000000;3.314532
2624.000000;3.192261
2623.000000;3.208048
2622.000000;3.363144
2621.000000;4.011979
2620.000000;3.867714
2619.000000;3.524242
2618.000000;3.768853
2617.000000;4.015152
2616.000000;3.690187
2615.000000;3.605617
2614.000000;3.764052
2613.000000;3.874002
2612.000000;3.821562
2611.000000;3.859039
2610.000000;3.862916
2609.000000;3.687441
2608.000000;3.516313
2607.000000;3.448174
2606.000000;3.490713
2605.000000;3.587919
2604.000000;3.618850
2603.000000;3.551923
2602.000000;3.489773
2601.000000;3.473140
2600.000000;3.472384
2599.000000;3.460154
2598.000000;3.456553
2597.000000;3.475275
2596.000000;3.450735
2595.000000;3.390997
2594.000000;3.382583
2593.000000;3.432699
2592.000000;3.510543
2591.000000;3.588147
2590.000000;3.626702
2589.000000;3.564349
2588.000000;3.473887
2587.000000;3.451084
2586.000000;3.510838
2585.000000;3.555071
2584.000000;3.435559
2583.000000;3.329936
2582.000000;3.344052
2581.000000;3.376085
2580.000000;3.284083
2579.000000;3.236474
2578.000000;3.304264
2577.000000;3.448054
2576.000000;3.564451
2575.000000;3.548900
2574.000000;3.496319
2573.000000;3.419702
2572.000000;3.339209
2571.000000;3.369660
2570.000000;3.623115
2569.000000;4.093898
2568.000000;3.989148
2567.000000;4.047158
2566.000000;4.237490
2565.000000;3.846865
2564.000000;3.659832
2563.000000;3.665430
2562.000000;3.879071
2561.000000;4.304520
2560.000000;3.907976
2559.000000;3.686253
2558.000000;3.618971
2557.000000;3.597684
2556.000000;3.608819
2555.000000;3.643230
2554.000000;3.675493
2553.000000;3.567594
2552.000000;3.446897
2551.000000;3.454752
2550.000000;3.816934
2549.000000;4.595841
2548.000000;3.798815
2547.000000;3.878427
2546.000000;3.957952
2545.000000;3.827060
2544.000000;3.657729
2543.000000;3.621137
2542.000000;3.561984
2541.000000;3.446088
2540.000000;3.458058
2539.000000;3.540369
2538.000000;3.532730
2537.000000;3.537276
2536.000000;3.687558
2535.000000;3.898329
2534.000000;4.002959
2533.000000;4.049590
2532.000000;3.770080
2531.000000;3.524760
2530.000000;3.449860
2529.000000;3.603549
2528.000000;4.111219
2527.000000;3.771252
2526.000000;3.565883
2525.000000;3.515007
2524.000000;3.483467
2523.000000;3.501654
2522.000000;3.878858
2521.000000;4.420106
2520.000000;3.648384
2519.000000;3.588271
2518.000000;3.524937
2517.000000;3.524849
2516.000000;3.740903
2515.000000;3.694478
2514.000000;3.442202
2513.000000;3.431807
2512.000000;3.704279
2511.000000;3.626867
2510.000000;3.415974
2509.000000;3.473259
2508.000000;3.532078
2507.000000;3.455472
2506.000000;3.435244
2505.000000;3.524201
2504.000000;3.725495
2503.000000;3.754020
2502.000000;3.571124
2501.000000;3.498793
2500.000000;3.478945
2499.000000;3.551768
2498.000000;3.890549
2497.000000;3.612482
2496.000000;3.258137
2495.000000;3.191949
2494.000000;3.330219
2493.000000;3.826294
2492.000000;3.827408
2491.000000;3.475887
2490.000000;3.536693
2489.000000;3.605215
2488.000000;3.494201
2487.000000;3.379770
2486.000000;3.401851
2485.000000;3.618024
2484.000000;3.758798
2483.000000;3.627095
2482.000000;3.622149
2481.000000;3.640634
2480.000000;3.511845
2479.000000;3.545350
2478.000000;4.125884
2477.000000;3.719765
2476.000000;3.418191
2475.000000;3.375234
2474.000000;3.364290
2473.000000;3.409330
2472.000000;3.631115
2471.000000;3.777695
2470.000000;3.596331
2469.000000;3.686840
2468.000000;3.748150
2467.000000;3.740658
2466.000000;3.950004
2465.000000;3.742631
2464.000000;3.531921
2463.000000;3.520466
2462.000000;3.536525
2461.000000;3.584849
2460.000000;3.711160
2459.000000;3.922586
2458.000000;4.319441
2457.000000;4.018736
2456.000000;3.689764
2455.000000;3.579806
2454.000000;3.571026
2453.000000;3.734796
2452.000000;3.882333
2451.000000;3.641134
2450.000000;3.616280
2449.000000;3.778838
2448.000000;3.593354
2447.000000;3.456118
2446.000000;3.522043
2445.000000;3.775474
2444.000000;4.003299
2443.000000;4.053858
2442.000000;4.378306
2441.000000;4.149501
2440.000000;3.971310
2439.000000;4.132034
2438.000000;3.982985
2437.000000;3.729445
2436.000000;3.645700
2435.000000;3.662401
2434.000000;3.680635
2433.000000;3.583852
2432.000000;3.466032
2431.000000;3.492809
2430.000000;3.938968
2429.000000;3.880201
2428.000000;3.489492
2427.000000;3.416279
2426.000000;3.458531
2425.000000;3.565863
2424.000000;3.572639
2423.000000;3.449722
2422.000000;3.335290
2421.000000;3.283595
2420.000000;3.319284
2419.000000;3.421691
2418.000000;3.477715
2417.000000;3.376040
2416.000000;3.242022
2415.000000;3.171910
2414.000000;3.182434
2413.000000;3.280593
2412.000000;3.442587
2411.000000;3.838024
2410.000000;4.242023
2409.000000;3.783046
2408.000000;3.907191
2407.000000;4.111604
2406.000000;3.822945
2405.000000;3.755213
2404.000000;3.760521
2403.000000;3.703004
2402.000000;3.660243
2401.000000;3.649143
2400.000000;3.698811
2399.000000;3.906787
2398.000000;3.877097
2397.000000;3.584892
2396.000000;3.452961
2395.000000;3.467131
2394.000000;3.605939
2393.000000;3.956158
2392.000000;4.161023
2391.000000;3.956563
2390.000000;4.020740
2389.000000;3.695781
2388.000000;3.409912
2387.000000;3.325953
2386.000000;3.378584
2385.000000;3.471709
2384.000000;3.410243
2383.000000;3.253639
2382.000000;3.160995
2381.000000;3.188030
2380.000000;3.384491
2379.000000;3.876730
2378.000000;3.791579
2377.000000;3.456045
2376.000000;3.334103
2375.000000;3.280074
2374.000000;3.295576
2373.000000;3.403426
2372.000000;3.624634
2371.000000;3.775387
2370.000000;3.199480
2369.000000;3.270387
2368.000000;3.484229
2367.000000;3.533658
2366.000000;3.973843
2365.000000;4.456191
2364.000000;4.364115
2363.000000;4.020375
2362.000000;4.126459
2361.000000;4.153162
2360.000000;3.693176
2359.000000;3.519304
2358.000000;3.568612
2357.000000;3.883310
2356.000000;4.395732
2355.000000;4.279384
2354.000000;4.440993
2353.000000;4.256693
2352.000000;3.961530
2351.000000;3.817431
2350.000000;3.634672
2349.000000;3.466359
2348.000000;3.380794
2347.000000;3.410830
2346.000000;3.552896
2345.000000;3.826823
2344.000000;4.048886
2343.000000;3.740686
2342.000000;3.505977
2341.000000;3.413773
2340.000000;3.448890
2339.000000;3.585864
2338.000000;3.954742
2337.000000;3.723526
2336.000000;3.785395
2335.000000;3.141398
2334.000000;3.062234
2333.000000;3.254796
2332.000000;3.299003
2331.000000;3.384813
2330.000000;3.373201
2329.000000;3.313761
2328.000000;3.230821
2327.000000;3.237921
2326.000000;3.349148
2325.000000;3.705017
2324.000000;3.824823
2323.000000;3.334892
2322.000000;3.167126
2321.000000;3.191245
2320.000000;3.423452
2319.000000;3.812319
2318.000000;3.666763
2317.000000;3.528004
2316.000000;3.465174
2315.000000;3.360488
2314.000000;3.412924
2313.000000;3.774168
2312.000000;3.682254
2311.000000;3.408345
2310.000000;3.560760
2309.000000;3.791721
2308.000000;3.527515
2307.000000;3.529578
2306.000000;3.854030
2305.000000;3.952615
2304.000000;4.081145
2303.000000;4.037741
2302.000000;3.650430
2301.000000;3.561898
2300.000000;3.449971
2299.000000;3.380028
2298.000000;3.510850
2297.000000;3.794345
2296.000000;4.158551
2295.000000;4.133737
2294.000000;3.818191
2293.000000;3.708599
2292.000000;3.872723
2291.000000;4.142530
2290.000000;4.012011
2289.000000;3.914174
2288.000000;3.757987
2287.000000;3.624289
2286.000000;3.657084
2285.000000;3.908279
2284.000000;4.510505
2283.000000;4.412991
2282.000000;4.167697
2281.000000;4.065851
2280.000000;4.156161
2279.000000;4.464835
2278.000000;4.081293
2277.000000;3.710274
2276.000000;3.517058
2275.000000;3.463920
2274.000000;3.559963
2273.000000;3.741765
2272.000000;3.954830
2271.000000;4.216579
2270.000000;4.057951
2269.000000;3.832899
2268.000000;3.741543
2267.000000;3.627400
2266.000000;3.506622
2265.000000;3.452360
2264.000000;3.500972
2263.000000;3.655349
2262.000000;3.831376
2261.000000;3.863392
2260.000000;3.868947
2259.000000;3.887015
2258.000000;3.745458
2257.000000;3.606852
2256.000000;3.627049
2255.000000;3.819265
2254.000000;3.954603
2253.000000;3.894065
2252.000000;3.739420
2251.000000;3.539189
2250.000000;3.455670
2249.000000;3.517173
2248.000000;3.697364
2247.000000;3.881105
2246.000000;3.927832
2245.000000;3.797161
2244.000000;3.808836
2243.000000;3.952533
2242.000000;3.766081
2241.000000;3.643193
2240.000000;3.832900
2239.000000;3.926450
2238.000000;3.900967
2237.000000;4.506296
2236.000000;3.848945
2235.000000;3.625134
2234.000000;3.996422
2233.000000;3.821249
2232.000000;3.470229
2231.000000;3.444690
2230.000000;3.637674
2229.000000;3.928883
2228.000000;3.893312
2227.000000;3.784278
2226.000000;3.771537
2225.000000;3.839910
2224.000000;4.090225
2223.000000;4.287627
2222.000000;4.074535
2221.000000;3.897993
2220.000000;3.848648
2219.000000;3.978820
2218.000000;4.350025
2217.000000;4.332626
2216.000000;4.369411
2215.000000;4.355861
2214.000000;3.963193
2213.000000;3.821189
2212.000000;3.746224
2211.000000;3.694214
2210.000000;3.837795
2209.000000;4.026395
2208.000000;4.214891
2207.000000;4.198754
2206.000000;3.716493
2205.000000;3.561990
2204.000000;3.653175
2203.000000;3.862555
2202.000000;3.801222
2201.000000;3.689943
2200.000000;3.694791
2199.000000;3.693541
2198.000000;3.843220
2197.000000;3.772385
2196.000000;3.500920
2195.000000;3.381529
2194.000000;3.328207
2193.000000;3.359671
2192.000000;3.674151
2191.000000;3.968312
2190.000000;3.804573
2189.000000;4.215561
2188.000000;3.828583
2187.000000;3.472401
2186.000000;3.417165
2185.000000;3.537315
2184.000000;3.903807
2183.000000;3.683282
2182.000000;3.496088
2181.000000;3.517908
2180.000000;3.655895
2179.000000;3.802994
2178.000000;3.558832
2177.000000;3.413295
2176.000000;3.469759
2175.000000;3.827570
2174.000000;4.241388
2173.000000;4.026497
2172.000000;4.023836
2171.000000;3.803414
2170.000000;3.660040
2169.000000;3.552741
2168.000000;3.463661
2167.000000;3.452979
2166.000000;3.476065
2165.000000;3.520336
2164.000000;3.576292
2163.000000;3.680532
2162.000000;3.794019
2161.000000;3.744372
2160.000000;3.565693
2159.000000;3.446570
2158.000000;3.428842
2157.000000;3.492339
2156.000000;3.554822
2155.000000;3.576442
2154.000000;3.606580
2153.000000;3.876065
2152.000000;4.106799
2151.000000;3.680435
2150.000000;3.582041
2149.000000;3.673289
2148.000000;3.802934
2147.000000;3.857786
2146.000000;3.824313
2145.000000;4.119634
2144.000000;4.389973
2143.000000;3.943662
2142.000000;4.350893
2141.000000;4.529303
2140.000000;3.856007
2139.000000;3.921862
2138.000000;3.902994
2137.000000;3.788748
2136.000000;3.825709
2135.000000;3.920239
2134.000000;3.872937
2133.000000;3.690399
2132.000000;3.618757
2131.000000;3.694819
2130.000000;3.942294
2129.000000;4.202548
2128.000000;4.413754
2127.000000;4.232941
2126.000000;3.770758
2125.000000;3.600579
2124.000000;3.641893
2123.000000;3.802762
2122.000000;3.760044
2121.000000;3.843407
2120.000000;4.119328
2119.000000;3.684758
2118.000000;3.463548
2117.000000;3.485197
2116.000000;3.656710
2115.000000;3.678446
2114.000000;3.564351
2113.000000;3.627179
2112.000000;3.793829
2111.000000;3.762471
2110.000000;3.639515
2109.000000;3.542203
2108.000000;3.543185
2107.000000;3.567004
2106.000000;3.757150
2105.000000;4.598256
2104.000000;4.251555
2103.000000;4.285797
2102.000000;3.759304
2101.000000;3.386603
2100.000000;3.313194
2099.000000;3.375538
2098.000000;3.505872
2097.000000;3.465887
2096.000000;3.404306
2095.000000;3.441502
2094.000000;3.621454
2093.000000;4.098586
2092.000000;4.039762
2091.000000;3.675766
2090.000000;3.658524
2089.000000;3.789627
2088.000000;3.716049
2087.000000;3.500902
2086.000000;3.514915
2085.000000;3.797944
2084.000000;3.709788
2083.000000;3.508576
2082.000000;3.687255
2081.000000;3.940100
2080.000000;3.710612
2079.000000;3.635654
2078.000000;3.899487
2077.000000;4.443311
2076.000000;3.986147
2075.000000;3.681781
2074.000000;3.515514
2073.000000;3.499936
2072.000000;3.888532
2071.000000;3.947889
2070.000000;3.765167
2069.000000;4.038195
2068.000000;3.620096
2067.000000;3.406861
2066.000000;3.434786
2065.000000;3.481046
2064.000000;3.480736
2063.000000;3.507700
2062.000000;3.856903
2061.000000;4.354376
2060.000000;4.102621
2059.000000;4.235591
2058.000000;4.155455
2057.000000;3.962661
2056.000000;3.664020
2055.000000;3.481454
2054.000000;3.486056
2053.000000;3.700134
2052.000000;4.391295
2051.000000;4.338371
2050.000000;3.942606
2049.000000;3.609203
2048.000000;3.440623
2047.000000;3.494586
2046.000000;3.767513
2045.000000;4.090757
2044.000000;4.042673
2043.000000;3.869356
2042.000000;3.562356
2041.000000;3.442662
2040.000000;3.578247
2039.000000;3.698434
2038.000000;3.506671
2037.000000;3.470945
2036.000000;3.678038
2035.000000;3.790575
2034.000000;3.829524
2033.000000;3.952915
2032.000000;3.605793
2031.000000;3.362747
2030.000000;3.414626
2029.000000;3.620760
2028.000000;3.535969
2027.000000;3.401971
2026.000000;3.567940
2025.000000;3.975854
2024.000000;3.849927
2023.000000;3.639240
2022.000000;3.550283
2021.000000;3.439115
2020.000000;3.581213
2019.000000;3.977380
2018.000000;3.657129
2017.000000;3.526082
2016.000000;3.798742
2015.000000;4.482837
2014.000000;3.947455
2013.000000;3.898192
2012.000000;4.359708
2011.000000;3.975591
2010.000000;3.742590
2009.000000;3.906828
2008.000000;4.009705
2007.000000;3.751904
2006.000000;3.804013
2005.000000;4.210308
2004.000000;4.240324
2003.000000;3.869302
2002.000000;3.703427
2001.000000;3.605912
2000.000000;3.598580
1999.000000;3.862054
1998.000000;4.026772
1997.000000;3.576051
1996.000000;3.404436
1995.000000;3.435249
1994.000000;3.603684
1993.000000;3.802179
1992.000000;3.903735
1991.000000;3.962944
1990.000000;3.771638
1989.000000;3.681855
1988.000000;3.799183
1987.000000;3.963735
1986.000000;3.832657
1985.000000;3.597144
1984.000000;3.464540
1983.000000;3.411790
1982.000000;3.417467
1981.000000;3.485558
1980.000000;3.706049
1979.000000;4.058309
1978.000000;3.914463
1977.000000;3.741590
1976.000000;3.818299
1975.000000;3.966593
1974.000000;3.791735
1973.000000;3.615150
1972.000000;3.612863
1971.000000;3.760438
1970.000000;4.026391
1969.000000;3.947797
1968.000000;3.751149
1967.000000;3.703702
1966.000000;3.761132
1965.000000;3.872830
1964.000000;3.909362
1963.000000;4.012243
1962.000000;4.117201
1961.000000;3.906942
1960.000000;3.810306
1959.000000;3.839266
1958.000000;4.028055
1957.000000;4.408712
1956.000000;4.112901
1955.000000;3.908229
1954.000000;3.931859
1953.000000;3.990387
1952.000000;4.011279
1951.000000;3.935842
1950.000000;3.806995
1949.000000;3.739435
1948.000000;3.779976
1947.000000;3.900173
1946.000000;3.969748
1945.000000;3.858845
1944.000000;3.678318
1943.000000;3.546372
1942.000000;3.489100
1941.000000;3.506409
1940.000000;3.584163
1939.000000;3.703021
1938.000000;3.784373
1937.000000;3.812838
1936.000000;3.798477
1935.000000;3.909843
1934.000000;4.199315
1933.000000;3.810778
1932.000000;3.534848
1931.000000;3.473943
1930.000000;3.505567
1929.000000;3.571774
1928.000000;3.633241
1927.000000;3.684791
1926.000000;3.750515
1925.000000;3.821681
1924.000000;3.873688
1923.000000;3.957213
1922.000000;4.107876
1921.000000;4.014779
1920.000000;4.001452
1919.000000;4.514352
1918.000000;3.990493
1917.000000;3.674478
1916.000000;3.692959
1915.000000;3.780873
1914.000000;3.901944
1913.000000;4.111989
1912.000000;3.958342
1911.000000;3.687718
1910.000000;3.576260
1909.000000;3.597346
1908.000000;3.681779
1907.000000;3.604013
1906.000000;3.610760
1905.000000;3.871842
1904.000000;3.774378
1903.000000;3.549892
1902.000000;3.610776
1901.000000;3.967361
1900.000000;3.958632
1899.000000;3.721319
1898.000000;3.956319
1897.000000;3.870292
1896.000000;3.641154
1895.000000;3.745446
1894.000000;3.786279
1893.000000;3.686336
1892.000000;3.719186
1891.000000;4.065460
1890.000000;4.088519
1889.000000;3.721876
1888.000000;3.627212
1887.000000;3.655098
1886.000000;3.690323
1885.000000;3.579742
1884.000000;3.500693
1883.000000;3.526883
1882.000000;3.834208
1881.000000;4.527171
1880.000000;3.732808
1879.000000;3.590873
1878.000000;3.706337
1877.000000;3.986144
1876.000000;3.850349
1875.000000;3.562220
1874.000000;3.522919
1873.000000;3.622774
1872.000000;3.899055
1871.000000;4.231550
1870.000000;4.202302
1869.000000;4.233583
1868.000000;4.305105
1867.000000;4.022070
1866.000000;3.775083
1865.000000;3.632782
1864.000000;3.557205
1863.000000;3.556619
1862.000000;3.614432
1861.000000;3.783722
1860.000000;4.039310
1859.000000;3.949775
1858.000000;3.904930
1857.000000;4.150832
1856.000000;4.579347
1855.000000;4.341029
1854.000000;4.348385
1853.000000;4.417359
1852.000000;4.017739
1851.000000;3.845879
1850.000000;3.851354
1849.000000;4.158817
1848.000000;4.327036
1847.000000;3.850020
1846.000000;3.686569
1845.000000;3.677233
1844.000000;3.779416
1843.000000;3.921917
1842.000000;3.908128
1841.000000;3.740392
1840.000000;3.619379
1839.000000;3.667962
1838.000000;3.920881
1837.000000;4.333550
1836.000000;4.822704
1835.000000;4.279332
1834.000000;4.037255
1833.000000;4.211482
1832.000000;4.267408
1831.000000;3.989592
1830.000000;3.921742
1829.000000;4.049632
1828.000000;4.093603
1827.000000;3.908134
1826.000000;3.830133
1825.000000;4.057137
1824.000000;4.470493
1823.000000;3.939861
1822.000000;3.685339
1821.000000;3.609238
1820.000000;3.660346
1819.000000;3.765601
1818.000000;3.997464
1817.000000;4.278274
1816.000000;3.928257
1815.000000;3.922789
1814.000000;4.000665
1813.000000;3.749175
1812.000000;3.654368
1811.000000;3.749922
1810.000000;3.893509
1809.000000;3.868015
1808.000000;3.773289
1807.000000;3.799575
1806.000000;3.839620
1805.000000;3.710549
1804.000000;3.627602
1803.000000;3.660592
1802.000000;3.734024
1801.000000;3.798599
1800.000000;3.961832
1799.000000;4.116749
1798.000000;3.887244
1797.000000;3.725783
1796.000000;3.716985
1795.000000;3.911546
1794.000000;4.083171
1793.000000;3.922300
1792.000000;4.055267
1791.000000;4.108361
1790.000000;3.821857
1789.000000;3.705736
1788.000000;3.692258
1787.000000;3.695203
1786.000000;3.836334
1785.000000;4.262511
1784.000000;3.909863
1783.000000;3.627107
1782.000000;3.591294
1781.000000;3.688237
1780.000000;3.991655
1779.000000;4.779448
1778.000000;4.351459
1777.000000;3.920419
1776.000000;3.842075
1775.000000;4.015530
1774.000000;3.873935
1773.000000;3.649590
1772.000000;3.647840
1771.000000;3.848972
1770.000000;4.340822
1769.000000;4.006765
1768.000000;3.794705
1767.000000;3.838326
1766.000000;4.012507
1765.000000;4.377079
1764.000000;4.111611
1763.000000;3.842020
1762.000000;3.715279
1761.000000;3.662798
1760.000000;3.815490
1759.000000;4.156121
1758.000000;3.956829
1757.000000;3.835161
1756.000000;4.003196
1755.000000;4.264681
1754.000000;4.416590
1753.000000;4.429850
1752.000000;4.327330
1751.000000;4.141538
1750.000000;4.192584
1749.000000;4.722459
1748.000000;4.480273
1747.000000;4.360611
1746.000000;4.498776
1745.000000;4.140608
1744.000000;4.172029
1743.000000;4.333978
1742.000000;4.145843
1741.000000;4.277211
1740.000000;4.142734
1739.000000;3.829987
1738.000000;3.818405
1737.000000;3.987478
1736.000000;4.180079
1735.000000;4.069972
1734.000000;4.100408
1733.000000;4.439673
1732.000000;4.074152
1731.000000;3.649116
1730.000000;3.468044
1729.000000;3.452243
1728.000000;3.593796
1727.000000;3.944894
1726.000000;4.153127
1725.000000;3.979946
1724.000000;3.960286
1723.000000;3.991098
1722.000000;3.990497
1721.000000;3.971156
1720.000000;4.033990
1719.000000;4.180267
1718.000000;4.012733
1717.000000;3.916459
1716.000000;4.016301
1715.000000;4.395272
1714.000000;4.320167
1713.000000;3.813879
1712.000000;3.679076
1711.000000;3.775322
1710.000000;4.008955
1709.000000;4.009829
1708.000000;3.967309
1707.000000;4.085016
1706.000000;4.377918
1705.000000;4.270785
1704.000000;4.173860
1703.000000;4.642789
1702.000000;4.239774
1701.000000;3.967438
1700.000000;4.004396
1699.000000;4.174730
1698.000000;4.094715
1697.000000;3.750344
1696.000000;3.717312
1695.000000;4.035473
1694.000000;4.303581
1693.000000;3.962363
1692.000000;3.997111
1691.000000;4.248308
1690.000000;4.031540
1689.000000;4.083094
1688.000000;4.336485
1687.000000;4.010545
1686.000000;3.948687
1685.000000;4.376737
1684.000000;4.189903
1683.000000;3.905298
1682.000000;3.864489
1681.000000;3.941786
1680.000000;4.145989
1679.000000;4.237373
1678.000000;4.121736
1677.000000;4.079922
1676.000000;3.998574
1675.000000;3.912430
1674.000000;3.930085
1673.000000;4.027582
1672.000000;4.113751
1671.000000;4.140290
1670.000000;4.218246
1669.000000;4.192019
1668.000000;3.915986
1667.000000;3.674555
1666.000000;3.562671
1665.000000;3.609361
1664.000000;3.953815
1663.000000;4.391793
1662.000000;3.884504
1661.000000;3.783509
1660.000000;3.802783
1659.000000;3.898158
1658.000000;3.736637
1657.000000;3.607516
1656.000000;3.600366
1655.000000;3.674429
1654.000000;4.247410
1653.000000;4.427353
1652.000000;4.009187
1651.000000;4.296629
1650.000000;4.238664
1649.000000;4.073791
1648.000000;3.971490
1647.000000;3.785846
1646.000000;3.665011
1645.000000;3.641994
1644.000000;3.662131
1643.000000;3.680557
1642.000000;3.765153
1641.000000;4.029784
1640.000000;4.405565
1639.000000;4.155711
1638.000000;3.900447
1637.000000;3.831483
1636.000000;3.976003
1635.000000;4.232678
1634.000000;4.062627
1633.000000;3.799610
1632.000000;3.728371
1631.000000;3.798950
1630.000000;3.832665
1629.000000;3.846931
1628.000000;3.939518
1627.000000;4.051322
1626.000000;4.206191
1625.000000;4.058358
1624.000000;3.878380
1623.000000;3.868751
1622.000000;3.857188
1621.000000;3.823475
1620.000000;3.882495
1619.000000;4.370975
1618.000000;4.250537
1617.000000;4.046304
1616.000000;4.434419
1615.000000;4.165357
1614.000000;3.986425
1613.000000;4.147120
1612.000000;4.007836
1611.000000;3.822680
1610.000000;4.021167
1609.000000;4.158386
1608.000000;3.742892
1607.000000;3.655892
1606.000000;3.702156
1605.000000;3.790686
1604.000000;3.764081
1603.000000;3.744644
1602.000000;3.871524
1601.000000;4.188828
1600.000000;4.730595
1599.000000;4.239119
1598.000000;3.878646
1597.000000;3.789052
1596.000000;3.820474
1595.000000;4.200058
1594.000000;4.262516
1593.000000;3.811294
1592.000000;3.722330
1591.000000;3.897947
1590.000000;4.205973
1589.000000;4.174350
1588.000000;4.314203
1587.000000;4.278266
1586.000000;4.244004
1585.000000;4.207153
1584.000000;4.027300
1583.000000;4.000804
1582.000000;4.148702
1581.000000;4.463948
1580.000000;5.011673
1579.000000;4.848862
1578.000000;4.308003
1577.000000;4.068452
1576.000000;3.966144
1575.000000;3.998689
1574.000000;4.139487
1573.000000;4.240872
1572.000000;4.283258
1571.000000;4.571122
1570.000000;4.560522
1569.000000;4.309976
1568.000000;4.185035
1567.000000;4.147742
1566.000000;4.146181
1565.000000;4.158445
1564.000000;4.544146
1563.000000;4.309022
1562.000000;3.995664
1561.000000;3.901855
1560.000000;3.900796
1559.000000;4.013444
1558.000000;4.230817
1557.000000;4.688972
1556.000000;4.163941
1555.000000;3.837874
1554.000000;3.804547
1553.000000;3.786574
1552.000000;3.656358
1551.000000;3.654430
1550.000000;3.789985
1549.000000;3.883767
1548.000000;4.012382
1547.000000;4.096187
1546.000000;3.978150
1545.000000;3.957105
1544.000000;3.918795
1543.000000;3.896928
1542.000000;3.973402
1541.000000;4.384714
1540.000000;4.092577
1539.000000;3.920266
1538.000000;4.333644
1537.000000;4.236423
1536.000000;3.942702
1535.000000;3.928785
1534.000000;4.107170
1533.000000;4.329008
1532.000000;4.171701
1531.000000;3.970528
1530.000000;3.955977
1529.000000;4.272575
1528.000000;5.240689
1527.000000;4.263125
1526.000000;4.093029
1525.000000;3.991032
1524.000000;3.991311
1523.000000;3.992136
1522.000000;3.998591
1521.000000;4.138477
1520.000000;4.309102
1519.000000;4.151318
1518.000000;4.053453
1517.000000;4.054282
1516.000000;3.870627
1515.000000;3.785314
1514.000000;3.858460
1513.000000;3.763664
1512.000000;3.733655
1511.000000;3.927627
1510.000000;4.106867
1509.000000;3.953314
1508.000000;3.853291
1507.000000;3.861655
1506.000000;3.875504
1505.000000;3.901276
1504.000000;4.031289
1503.000000;4.388063
1502.000000;4.447624
1501.000000;4.205580
1500.000000;4.201171
1499.000000;4.183848
1498.000000;4.150321
1497.000000;4.148772
1496.000000;4.187456
1495.000000;4.183080
1494.000000;4.155574
1493.000000;4.163415
1492.000000;4.393567
1491.000000;4.762674
1490.000000;4.335517
1489.000000;4.106001
1488.000000;4.036674
1487.000000;4.037951
1486.000000;4.044284
1485.000000;3.971947
1484.000000;3.853106
1483.000000;3.669617
1482.000000;3.546736
1481.000000;3.535598
1480.000000;3.613590
1479.000000;3.757115
1478.000000;3.910616
1477.000000;3.949623
1476.000000;3.940328
1475.000000;4.007497
1474.000000;4.261193
1473.000000;4.656620
1472.000000;4.516329
1471.000000;4.429560
1470.000000;4.484482
1469.000000;4.397754
1468.000000;3.950715
1467.000000;3.725279
1466.000000;3.685317
1465.000000;3.808340
1464.000000;4.168422
1463.000000;3.929399
1462.000000;3.655394
1461.000000;3.636080
1460.000000;3.731603
1459.000000;3.860130
1458.000000;3.837063
1457.000000;3.714508
1456.000000;3.654978
1455.000000;3.728276
1454.000000;4.057169
1453.000000;4.240880
1452.000000;3.857425
1451.000000;3.701820
1450.000000;3.671560
1449.000000;3.844422
1448.000000;4.208299
1447.000000;4.017082
1446.000000;3.898175
1445.000000;3.764712
1444.000000;3.634780
1443.000000;3.560279
1442.000000;3.574374
1441.000000;3.689306
1440.000000;4.048428
1439.000000;4.194681
1438.000000;3.912292
1437.000000;3.893712
1436.000000;4.476361
1435.000000;4.021130
1434.000000;3.680709
1433.000000;3.751038
1432.000000;4.082948
1431.000000;3.905168
1430.000000;3.785050
1429.000000;4.029776
1428.000000;3.949161
1427.000000;3.752611
1426.000000;3.769060
1425.000000;3.819382
1424.000000;3.916052
1423.000000;4.317375
1422.000000;4.154487
1421.000000;3.956669
1420.000000;4.181479
1419.000000;4.348887
1418.000000;3.940407
1417.000000;3.821992
1416.000000;3.804429
1415.000000;3.890723
1414.000000;3.956024
1413.000000;3.873867
1412.000000;4.075307
1411.000000;4.270592
1410.000000;3.788086
1409.000000;3.627384
1408.000000;3.665949
1407.000000;3.834239
1406.000000;4.117503
1405.000000;4.250936
1404.000000;4.012054
1403.000000;3.822657
1402.000000;3.779959
1401.000000;3.827896
1400.000000;3.775696
1399.000000;3.738124
1398.000000;3.857944
1397.000000;4.140055
1396.000000;4.122598
1395.000000;4.087690
1394.000000;4.431512
1393.000000;4.221195
1392.000000;3.801859
1391.000000;3.758415
1390.000000;3.902899
1389.000000;4.328140
1388.000000;4.917058
1387.000000;4.817422
1386.000000;4.272960
1385.000000;3.933829
1384.000000;3.901598
1383.000000;3.973127
1382.000000;3.953203
1381.000000;3.915905
1380.000000;3.853194
1379.000000;3.826798
1378.000000;3.981175
1377.000000;4.277048
1376.000000;4.137229
1375.000000;4.076033
1374.000000;4.115410
1373.000000;4.052107
1372.000000;3.932603
1371.000000;3.858823
1370.000000;3.930837
1369.000000;4.015571
1368.000000;3.829400
1367.000000;3.799585
1366.000000;3.983653
1365.000000;4.394014
1364.000000;4.545395
1363.000000;4.279450
1362.000000;4.151693
1361.000000;4.087363
1360.000000;3.969890
1359.000000;3.871568
1358.000000;3.871168
1357.000000;3.856380
1356.000000;3.792902
1355.000000;3.779096
1354.000000;4.097949
1353.000000;4.297426
1352.000000;3.888253
1351.000000;3.812729
1350.000000;3.794656
1349.000000;3.743564
1348.000000;3.773619
1347.000000;3.752581
1346.000000;3.623910
1345.000000;3.527613
1344.000000;3.511166
1343.000000;3.651210
1342.000000;4.125309
1341.000000;3.880065
1340.000000;3.649556
1339.000000;3.731354
1338.000000;3.940206
1337.000000;3.845178
1336.000000;3.744037
1335.000000;3.876083
1334.000000;4.061648
1333.000000;3.983891
1332.000000;3.983330
1331.000000;3.836633
1330.000000;3.673580
1329.000000;3.701393
1328.000000;3.959362
1327.000000;3.978770
1326.000000;3.826238
1325.000000;4.023803
1324.000000;4.001329
1323.000000;3.747577
1322.000000;3.731606
1321.000000;3.865148
1320.000000;3.775443
1319.000000;3.662441
1318.000000;3.671456
1317.000000;3.694375
1316.000000;3.698869
1315.000000;3.822643
1314.000000;3.982384
1313.000000;3.862088
1312.000000;4.015261
1311.000000;4.340225
1310.000000;3.818456
1309.000000;3.663067
1308.000000;3.696354
1307.000000;3.742339
1306.000000;3.635618
1305.000000;3.610857
1304.000000;3.831902
1303.000000;4.006864
1302.000000;3.839777
1301.000000;3.790009
1300.000000;3.739443
1299.000000;3.758982
1298.000000;3.932976
1297.000000;3.746134
1296.000000;3.613386
1295.000000;3.641600
1294.000000;3.601676
1293.000000;3.578518
1292.000000;3.686581
1291.000000;3.791325
1290.000000;3.842346
1289.000000;4.028561
1288.000000;3.873847
1287.000000;3.631821
1286.000000;3.546130
1285.000000;3.555219
1284.000000;3.609679
1283.000000;3.645931
1282.000000;3.990023
1281.000000;4.440623
1280.000000;3.813959
1279.000000;3.919374
1278.000000;4.228433
1277.000000;4.099105
1276.000000;3.787139
1275.000000;3.551957
1274.000000;3.494646
1273.000000;3.624984
1272.000000;4.389256
1271.000000;4.064508
1270.000000;3.704034
1269.000000;3.645015
1268.000000;3.689871
1267.000000;3.901650
1266.000000;3.846021
1265.000000;3.627813
1264.000000;3.591948
1263.000000;3.788096
1262.000000;4.372867
1261.000000;3.863255
1260.000000;3.664990
1259.000000;3.608840
1258.000000;3.646540
1257.000000;3.777800
1256.000000;3.941463
1255.000000;3.971536
1254.000000;3.917060
1253.000000;3.863115
1252.000000;3.838430
1251.000000;3.830942
1250.000000;3.750298
1249.000000;3.627726
1248.000000;3.554432
1247.000000;3.555025
1246.000000;3.620631
1245.000000;3.735239
1244.000000;3.846023
1243.000000;4.188170
1242.000000;4.135262
1241.000000;3.722663
1240.000000;3.634493
1239.000000;3.760754
1238.000000;3.898067
1237.000000;3.805295
1236.000000;3.741162
1235.000000;3.680609
1234.000000;3.625878
1233.000000;3.629435
1232.000000;3.687486
1231.000000;3.754224
1230.000000;3.663072
1229.000000;3.472531
1228.000000;3.400828
1227.000000;3.444179
1226.000000;3.807281
1225.000000;3.965745
1224.000000;3.453919
1223.000000;3.328193
1222.000000;3.377797
1221.000000;3.530931
1220.000000;3.600866
1219.000000;3.550400
1218.000000;3.491489
1217.000000;3.561476
1216.000000;4.073403
1215.000000;3.782814
1214.000000;3.575067
1213.000000;3.632256
1212.000000;3.635657
1211.000000;3.568568
1210.000000;3.585343
1209.000000;3.742264
1208.000000;4.068558
1207.000000;4.012069
1206.000000;3.847355
1205.000000;3.909950
1204.000000;4.040524
1203.000000;4.111662
1202.000000;4.220536
1201.000000;4.320749
1200.000000;4.433210
