Criado como novo conjunto de dados;"1909daniel.spp","-4231062.2 Secs"
cm-1;Abs
10000.000000;1.420493
9999.000000;1.420160
9998.000000;1.421168
9997.000000;1.422440
9996.000000;1.422873
9995.000000;1.422077
9994.000000;1.420514
9993.000000;1.418834
9992.000000;1.417369
9991.000000;1.416423
9990.000000;1.416477
9989.000000;1.417562
9988.000000;1.418804
9987.000000;1.419248
9986.000000;1.418992
9985.000000;1.418844
9984.000000;1.418884
9983.000000;1.418166
9982.000000;1.416081
9981.000000;1.413325
9980.000000;1.411053
9979.000000;1.409602
9978.000000;1.408486
9977.000000;1.407268
9976.000000;1.405998
9975.000000;1.404971
9974.000000;1.404419
9973.000000;1.404325
9972.000000;1.404288
9971.000000;1.403782
9970.000000;1.402855
9969.000000;1.402305
9968.000000;1.402769
9967.000000;1.403812
9966.000000;1.404328
9965.000000;1.403785
9964.000000;1.402648
9963.000000;1.401580
9962.000000;1.400705
9961.000000;1.399842
9960.000000;1.399052
9959.000000;1.398576
9958.000000;1.398395
9957.000000;1.398188
9956.000000;1.397704
9955.000000;1.397007
9954.000000;1.396366
9953.000000;1.395983
9952.000000;1.395813
9951.000000;1.395525
9950.000000;1.394688
9949.000000;1.393161
9948.000000;1.391322
9947.000000;1.389725
9946.000000;1.388510
9945.000000;1.387291
9944.000000;1.385735
9943.000000;1.384085
9942.000000;1.382893
9941.000000;1.382378
9940.000000;1.382279
9939.000000;1.382264
9938.000000;1.382194
9937.000000;1.381985
9936.000000;1.381603
9935.000000;1.381316
9934.000000;1.381518
9933.000000;1.381967
9932.000000;1.381585
9931.000000;1.379572
9930.000000;1.376566
9929.000000;1.374094
9928.000000;1.372978
9927.000000;1.372819
9926.000000;1.372986
9925.000000;1.373431
9924.000000;1.374255
9923.000000;1.375061
9922.000000;1.375262
9921.000000;1.374709
9920.000000;1.373603
9919.000000;1.372122
9918.000000;1.370557
9917.000000;1.369596
9916.000000;1.369804
9915.000000;1.370747
9914.000000;1.371154
9913.000000;1.370179
9912.000000;1.368253
9911.000000;1.366503
9910.000000;1.365605
9909.000000;1.365327
9908.000000;1.364949
9907.000000;1.363885
9906.000000;1.362098
9905.000000;1.360129
9904.000000;1.358650
9903.000000;1.357851
9902.000000;1.357339
9901.000000;1.356723
9900.000000;1.356090
9899.000000;1.355728
9898.000000;1.355579
9897.000000;1.355317
9896.000000;1.354890
9895.000000;1.354570
9894.000000;1.354388
9893.000000;1.353986
9892.000000;1.353231
9891.000000;1.352558
9890.000000;1.352269
9889.000000;1.351844
9888.000000;1.350529
9887.000000;1.348581
9886.000000;1.347277
9885.000000;1.347476
9884.000000;1.348556
9883.000000;1.349079
9882.000000;1.348274
9881.000000;1.346576
9880.000000;1.344890
9879.000000;1.343725
9878.000000;1.343027
9877.000000;1.342557
9876.000000;1.342302
9875.000000;1.342468
9874.000000;1.343046
9873.000000;1.343509
9872.000000;1.343216
9871.000000;1.342209
9870.000000;1.341278
9869.000000;1.340920
9868.000000;1.340542
9867.000000;1.339190
9866.000000;1.336877
9865.000000;1.334660
9864.000000;1.333381
9863.000000;1.332803
9862.000000;1.332116
9861.000000;1.330963
9860.000000;1.329731
9859.000000;1.329046
9858.000000;1.329223
9857.000000;1.330016
9856.000000;1.330705
9855.000000;1.330550
9854.000000;1.329403
9853.000000;1.327864
9852.000000;1.326738
9851.000000;1.326312
9850.000000;1.326177
9849.000000;1.325706
9848.000000;1.324647
9847.000000;1.323249
9846.000000;1.321905
9845.000000;1.320774
9844.000000;1.319840
9843.000000;1.319220
9842.000000;1.319119
9841.000000;1.319392
9840.000000;1.319393
9839.000000;1.318499
9838.000000;1.316676
9837.000000;1.314368
9836.000000;1.312051
9835.000000;1.310134
9834.000000;1.309022
9833.000000;1.308848
9832.000000;1.309204
9831.000000;1.309560
9830.000000;1.309931
9829.000000;1.310703
9828.000000;1.311762
9827.000000;1.312286
9826.000000;1.311617
9825.000000;1.310016
9824.000000;1.308340
9823.000000;1.307254
9822.000000;1.306926
9821.000000;1.307169
9820.000000;1.307551
9819.000000;1.307531
9818.000000;1.306771
9817.000000;1.305337
9816.000000;1.303524
9815.000000;1.301637
9814.000000;1.299990
9813.000000;1.298869
9812.000000;1.298352
9811.000000;1.298291
9810.000000;1.298544
9809.000000;1.299025
9808.000000;1.299471
9807.000000;1.299449
9806.000000;1.298786
9805.000000;1.297781
9804.000000;1.296833
9803.000000;1.296089
9802.000000;1.295580
9801.000000;1.295397
9800.000000;1.295408
9799.000000;1.295075
9798.000000;1.293937
9797.000000;1.292197
9796.000000;1.290596
9795.000000;1.289758
9794.000000;1.289711
9793.000000;1.289846
9792.000000;1.289293
9791.000000;1.287632
9790.000000;1.285402
9789.000000;1.283638
9788.000000;1.282752
9787.000000;1.282192
9786.000000;1.281400
9785.000000;1.280666
9784.000000;1.280570
9783.000000;1.280930
9782.000000;1.280933
9781.000000;1.280229
9780.000000;1.279337
9779.000000;1.278865
9778.000000;1.278738
9777.000000;1.278371
9776.000000;1.277381
9775.000000;1.276006
9774.000000;1.274938
9773.000000;1.274700
9772.000000;1.274971
9771.000000;1.274674
9770.000000;1.273059
9769.000000;1.270648
9768.000000;1.268733
9767.000000;1.267966
9766.000000;1.267867
9765.000000;1.267720
9764.000000;1.267494
9763.000000;1.267632
9762.000000;1.268282
9761.000000;1.269110
9760.000000;1.269719
9759.000000;1.269961
9758.000000;1.269842
9757.000000;1.269356
9756.000000;1.268520
9755.000000;1.267505
9754.000000;1.266590
9753.000000;1.265881
9752.000000;1.265069
9751.000000;1.263641
9750.000000;1.261468
9749.000000;1.259068
9748.000000;1.257172
9747.000000;1.256126
9746.000000;1.255819
9745.000000;1.255977
9744.000000;1.256282
9743.000000;1.256314
9742.000000;1.255730
9741.000000;1.254548
9740.000000;1.253095
9739.000000;1.251729
9738.000000;1.250699
9737.000000;1.250112
9736.000000;1.249796
9735.000000;1.249367
9734.000000;1.248741
9733.000000;1.248420
9732.000000;1.248858
9731.000000;1.249634
9730.000000;1.249772
9729.000000;1.248934
9728.000000;1.247760
9727.000000;1.246875
9726.000000;1.246179
9725.000000;1.245413
9724.000000;1.244799
9723.000000;1.244619
9722.000000;1.244545
9721.000000;1.244005
9720.000000;1.243068
9719.000000;1.242354
9718.000000;1.242062
9717.000000;1.241604
9716.000000;1.240424
9715.000000;1.238841
9714.000000;1.237720
9713.000000;1.237422
9712.000000;1.237425
9711.000000;1.237117
9710.000000;1.236712
9709.000000;1.236991
9708.000000;1.238054
9707.000000;1.238801
9706.000000;1.238068
9705.000000;1.236116
9704.000000;1.234440
9703.000000;1.234124
9702.000000;1.234863
9701.000000;1.235640
9700.000000;1.235785
9699.000000;1.235143
9698.000000;1.233739
9697.000000;1.231838
9696.000000;1.230062
9695.000000;1.228898
9694.000000;1.228152
9693.000000;1.227227
9692.000000;1.225947
9691.000000;1.224772
9690.000000;1.224200
9689.000000;1.224212
9688.000000;1.224359
9687.000000;1.224134
9686.000000;1.223226
9685.000000;1.221641
9684.000000;1.219724
9683.000000;1.218008
9682.000000;1.216960
9681.000000;1.216791
9680.000000;1.217328
9679.000000;1.217986
9678.000000;1.218047
9677.000000;1.217198
9676.000000;1.215783
9675.000000;1.214397
9674.000000;1.213296
9673.000000;1.212259
9672.000000;1.210922
9671.000000;1.209136
9670.000000;1.207151
9669.000000;1.205600
9668.000000;1.205183
9667.000000;1.206114
9666.000000;1.207819
9665.000000;1.209268
9664.000000;1.209675
9663.000000;1.208929
9662.000000;1.207520
9661.000000;1.206201
9660.000000;1.205528
9659.000000;1.205469
9658.000000;1.205521
9657.000000;1.205299
9656.000000;1.204848
9655.000000;1.204278
9654.000000;1.203398
9653.000000;1.201959
9652.000000;1.200023
9651.000000;1.197807
9650.000000;1.195416
9649.000000;1.193134
9648.000000;1.191733
9647.000000;1.191928
9646.000000;1.193456
9645.000000;1.195088
9644.000000;1.195691
9643.000000;1.195036
9642.000000;1.193606
9641.000000;1.192101
9640.000000;1.191231
9639.000000;1.191447
9638.000000;1.192453
9637.000000;1.193222
9636.000000;1.192860
9635.000000;1.191397
9634.000000;1.189619
9633.000000;1.188275
9632.000000;1.187635
9631.000000;1.187602
9630.000000;1.187925
9629.000000;1.188288
9628.000000;1.188410
9627.000000;1.188139
9626.000000;1.187428
9625.000000;1.186324
9624.000000;1.185018
9623.000000;1.183806
9622.000000;1.182863
9621.000000;1.182146
9620.000000;1.181584
9619.000000;1.181233
9618.000000;1.181073
9617.000000;1.180807
9616.000000;1.180092
9615.000000;1.178942
9614.000000;1.177713
9613.000000;1.176699
9612.000000;1.175920
9611.000000;1.175309
9610.000000;1.174902
9609.000000;1.174765
9608.000000;1.174859
9607.000000;1.175093
9606.000000;1.175384
9605.000000;1.175529
9604.000000;1.175085
9603.000000;1.173661
9602.000000;1.171431
9601.000000;1.169181
9600.000000;1.167656
9599.000000;1.166922
9598.000000;1.166529
9597.000000;1.166206
9596.000000;1.166099
9595.000000;1.166277
9594.000000;1.166347
9593.000000;1.165862
9592.000000;1.164913
9591.000000;1.164028
9590.000000;1.163562
9589.000000;1.163482
9588.000000;1.163622
9587.000000;1.163752
9586.000000;1.163384
9585.000000;1.162020
9584.000000;1.159876
9583.000000;1.158014
9582.000000;1.157369
9581.000000;1.157731
9580.000000;1.157953
9579.000000;1.157207
9578.000000;1.155820
9577.000000;1.154745
9576.000000;1.154456
9575.000000;1.154551
9574.000000;1.154344
9573.000000;1.153601
9572.000000;1.152582
9571.000000;1.151545
9570.000000;1.150465
9569.000000;1.149267
9568.000000;1.148100
9567.000000;1.147222
9566.000000;1.146773
9565.000000;1.146811
9564.000000;1.147415
9563.000000;1.148492
9562.000000;1.149550
9561.000000;1.149957
9560.000000;1.149487
9559.000000;1.148398
9558.000000;1.147006
9557.000000;1.145484
9556.000000;1.144109
9555.000000;1.143283
9554.000000;1.143062
9553.000000;1.142907
9552.000000;1.142217
9551.000000;1.141011
9550.000000;1.139873
9549.000000;1.139248
9548.000000;1.139015
9547.000000;1.138771
9546.000000;1.138386
9545.000000;1.138139
9544.000000;1.138290
9543.000000;1.138600
9542.000000;1.138392
9541.000000;1.137168
9540.000000;1.135140
9539.000000;1.133045
9538.000000;1.131469
9537.000000;1.130509
9536.000000;1.130041
9535.000000;1.130010
9534.000000;1.130310
9533.000000;1.130558
9532.000000;1.130264
9531.000000;1.129293
9530.000000;1.128079
9529.000000;1.127323
9528.000000;1.127410
9527.000000;1.128005
9526.000000;1.128225
9525.000000;1.127377
9524.000000;1.125587
9523.000000;1.123632
9522.000000;1.122185
9521.000000;1.121403
9520.000000;1.121139
9519.000000;1.121226
9518.000000;1.121443
9517.000000;1.121517
9516.000000;1.121403
9515.000000;1.121357
9514.000000;1.121548
9513.000000;1.121775
9512.000000;1.121755
9511.000000;1.121497
9510.000000;1.121153
9509.000000;1.120636
9508.000000;1.119682
9507.000000;1.118235
9506.000000;1.116511
9505.000000;1.114713
9504.000000;1.112964
9503.000000;1.111553
9502.000000;1.110919
9501.000000;1.111214
9500.000000;1.112049
9499.000000;1.112826
9498.000000;1.113238
9497.000000;1.113329
9496.000000;1.113190
9495.000000;1.112812
9494.000000;1.112230
9493.000000;1.111639
9492.000000;1.111187
9491.000000;1.110698
9490.000000;1.109780
9489.000000;1.108339
9488.000000;1.106846
9487.000000;1.105913
9486.000000;1.105660
9485.000000;1.105694
9484.000000;1.105694
9483.000000;1.105705
9482.000000;1.105721
9481.000000;1.105307
9480.000000;1.103987
9479.000000;1.101971
9478.000000;1.100191
9477.000000;1.099516
9476.000000;1.099989
9475.000000;1.100804
9474.000000;1.100917
9473.000000;1.099845
9472.000000;1.098066
9471.000000;1.096626
9470.000000;1.096247
9469.000000;1.096800
9468.000000;1.097597
9467.000000;1.098039
9466.000000;1.097893
9465.000000;1.097152
9464.000000;1.095957
9463.000000;1.094609
9462.000000;1.093409
9461.000000;1.092432
9460.000000;1.091568
9459.000000;1.090742
9458.000000;1.089982
9457.000000;1.089363
9456.000000;1.089038
9455.000000;1.089164
9454.000000;1.089556
9453.000000;1.089539
9452.000000;1.088572
9451.000000;1.087043
9450.000000;1.086042
9449.000000;1.086198
9448.000000;1.087036
9447.000000;1.087648
9446.000000;1.087717
9445.000000;1.087574
9444.000000;1.087449
9443.000000;1.087071
9442.000000;1.086060
9441.000000;1.084455
9440.000000;1.082732
9439.000000;1.081411
9438.000000;1.080725
9437.000000;1.080555
9436.000000;1.080551
9435.000000;1.080318
9434.000000;1.079630
9433.000000;1.078626
9432.000000;1.077750
9431.000000;1.077338
9430.000000;1.077200
9429.000000;1.076734
9428.000000;1.075604
9427.000000;1.074220
9426.000000;1.073389
9425.000000;1.073529
9424.000000;1.074301
9423.000000;1.074900
9422.000000;1.074615
9421.000000;1.073324
9420.000000;1.071680
9419.000000;1.070684
9418.000000;1.070778
9417.000000;1.071365
9416.000000;1.071487
9415.000000;1.070899
9414.000000;1.070129
9413.000000;1.069551
9412.000000;1.068932
9411.000000;1.068041
9410.000000;1.067193
9409.000000;1.066837
9408.000000;1.066909
9407.000000;1.066969
9406.000000;1.066755
9405.000000;1.066284
9404.000000;1.065606
9403.000000;1.064876
9402.000000;1.064486
9401.000000;1.064664
9400.000000;1.064948
9399.000000;1.064526
9398.000000;1.063217
9397.000000;1.061742
9396.000000;1.060881
9395.000000;1.060682
9394.000000;1.060664
9393.000000;1.060472
9392.000000;1.060077
9391.000000;1.059538
9390.000000;1.058907
9389.000000;1.058290
9388.000000;1.057765
9387.000000;1.057268
9386.000000;1.056755
9385.000000;1.056427
9384.000000;1.056517
9383.000000;1.056790
9382.000000;1.056593
9381.000000;1.055606
9380.000000;1.054369
9379.000000;1.053715
9378.000000;1.053711
9377.000000;1.053490
9376.000000;1.052259
9375.000000;1.050273
9374.000000;1.048629
9373.000000;1.048232
9372.000000;1.049098
9371.000000;1.050524
9370.000000;1.051706
9369.000000;1.052226
9368.000000;1.052141
9367.000000;1.051677
9366.000000;1.050830
9365.000000;1.049384
9364.000000;1.047432
9363.000000;1.045642
9362.000000;1.044703
9361.000000;1.044582
9360.000000;1.044613
9359.000000;1.044321
9358.000000;1.043847
9357.000000;1.043485
9356.000000;1.043185
9355.000000;1.042739
9354.000000;1.042188
9353.000000;1.041726
9352.000000;1.041347
9351.000000;1.040831
9350.000000;1.040074
9349.000000;1.039234
9348.000000;1.038580
9347.000000;1.038267
9346.000000;1.038203
9345.000000;1.038066
9344.000000;1.037596
9343.000000;1.036935
9342.000000;1.036521
9341.000000;1.036572
9340.000000;1.036869
9339.000000;1.037150
9338.000000;1.037492
9337.000000;1.038073
9336.000000;1.038744
9335.000000;1.039070
9334.000000;1.038649
9333.000000;1.037248
9332.000000;1.034908
9331.000000;1.032253
9330.000000;1.030402
9329.000000;1.030064
9328.000000;1.030733
9327.000000;1.031154
9326.000000;1.030616
9325.000000;1.029473
9324.000000;1.028408
9323.000000;1.027669
9322.000000;1.027154
9321.000000;1.026797
9320.000000;1.026573
9319.000000;1.026377
9318.000000;1.026150
9317.000000;1.025961
9316.000000;1.025837
9315.000000;1.025645
9314.000000;1.025251
9313.000000;1.024606
9312.000000;1.023673
9311.000000;1.022505
9310.000000;1.021464
9309.000000;1.021064
9308.000000;1.021414
9307.000000;1.022030
9306.000000;1.022348
9305.000000;1.022224
9304.000000;1.021811
9303.000000;1.021238
9302.000000;1.020638
9301.000000;1.020249
9300.000000;1.020145
9299.000000;1.020004
9298.000000;1.019434
9297.000000;1.018516
9296.000000;1.017755
9295.000000;1.017514
9294.000000;1.017672
9293.000000;1.017782
9292.000000;1.017411
9291.000000;1.016419
9290.000000;1.015119
9289.000000;1.014139
9288.000000;1.013936
9287.000000;1.014422
9286.000000;1.015077
9285.000000;1.015398
9284.000000;1.015200
9283.000000;1.014694
9282.000000;1.014344
9281.000000;1.014468
9280.000000;1.014834
9279.000000;1.014802
9278.000000;1.014093
9277.000000;1.013159
9276.000000;1.012517
9275.000000;1.012000
9274.000000;1.011099
9273.000000;1.009835
9272.000000;1.008776
9271.000000;1.008198
9270.000000;1.007757
9269.000000;1.007128
9268.000000;1.006542
9267.000000;1.006418
9266.000000;1.006755
9265.000000;1.007182
9264.000000;1.007431
9263.000000;1.007504
9262.000000;1.007458
9261.000000;1.007212
9260.000000;1.006631
9259.000000;1.005699
9258.000000;1.004623
9257.000000;1.003733
9256.000000;1.003216
9255.000000;1.003002
9254.000000;1.002949
9253.000000;1.003047
9252.000000;1.003287
9251.000000;1.003451
9250.000000;1.003292
9249.000000;1.002892
9248.000000;1.002537
9247.000000;1.002213
9246.000000;1.001569
9245.000000;1.000476
9244.000000;0.999341
9243.000000;0.998679
9242.000000;0.998567
9241.000000;0.998703
9240.000000;0.998799
9239.000000;0.998738
9238.000000;0.998489
9237.000000;0.998110
9236.000000;0.997756
9235.000000;0.997547
9234.000000;0.997461
9233.000000;0.997374
9232.000000;0.997105
9231.000000;0.996429
9230.000000;0.995288
9229.000000;0.994034
9228.000000;0.993186
9227.000000;0.992828
9226.000000;0.992541
9225.000000;0.992089
9224.000000;0.991837
9223.000000;0.992156
9222.000000;0.992690
9221.000000;0.992660
9220.000000;0.991825
9219.000000;0.990731
9218.000000;0.990008
9217.000000;0.989791
9216.000000;0.989875
9215.000000;0.990050
9214.000000;0.990113
9213.000000;0.989802
9212.000000;0.988972
9211.000000;0.987777
9210.000000;0.986610
9209.000000;0.985862
9208.000000;0.985705
9207.000000;0.986004
9206.000000;0.986466
9205.000000;0.986916
9204.000000;0.987376
9203.000000;0.987787
9202.000000;0.987840
9201.000000;0.987327
9200.000000;0.986548
9199.000000;0.986089
9198.000000;0.986187
9197.000000;0.986569
9196.000000;0.986862
9195.000000;0.986852
9194.000000;0.986346
9193.000000;0.985197
9192.000000;0.983661
9191.000000;0.982437
9190.000000;0.982072
9189.000000;0.982424
9188.000000;0.982876
9187.000000;0.982947
9186.000000;0.982558
9185.000000;0.981834
9184.000000;0.980897
9183.000000;0.979912
9182.000000;0.979166
9181.000000;0.978987
9180.000000;0.979506
9179.000000;0.980464
9178.000000;0.981254
9177.000000;0.981283
9176.000000;0.980388
9175.000000;0.978899
9174.000000;0.977382
9173.000000;0.976376
9172.000000;0.976240
9171.000000;0.976935
9170.000000;0.977845
9169.000000;0.978071
9168.000000;0.977164
9167.000000;0.975568
9166.000000;0.974188
9165.000000;0.973569
9164.000000;0.973542
9163.000000;0.973551
9162.000000;0.973219
9161.000000;0.972629
9160.000000;0.972191
9159.000000;0.972228
9158.000000;0.972657
9157.000000;0.973045
9156.000000;0.972991
9155.000000;0.972442
9154.000000;0.971681
9153.000000;0.971087
9152.000000;0.970896
9151.000000;0.971053
9150.000000;0.971236
9149.000000;0.971122
9148.000000;0.970709
9147.000000;0.970286
9146.000000;0.970088
9145.000000;0.970075
9144.000000;0.970085
9143.000000;0.970021
9142.000000;0.969821
9141.000000;0.969392
9140.000000;0.968712
9139.000000;0.967888
9138.000000;0.967014
9137.000000;0.966067
9136.000000;0.965058
9135.000000;0.964137
9134.000000;0.963382
9133.000000;0.962656
9132.000000;0.961896
9131.000000;0.961485
9130.000000;0.962001
9129.000000;0.963477
9128.000000;0.965095
9127.000000;0.965819
9126.000000;0.965312
9125.000000;0.964164
9124.000000;0.963230
9123.000000;0.962877
9122.000000;0.962868
9121.000000;0.962848
9120.000000;0.962754
9119.000000;0.962727
9118.000000;0.962796
9117.000000;0.962830
9116.000000;0.962755
9115.000000;0.962639
9114.000000;0.962518
9113.000000;0.962328
9112.000000;0.962079
9111.000000;0.961964
9110.000000;0.962160
9109.000000;0.962585
9108.000000;0.962944
9107.000000;0.962956
9106.000000;0.962490
9105.000000;0.961582
9104.000000;0.960454
9103.000000;0.959446
9102.000000;0.958814
9101.000000;0.958599
9100.000000;0.958747
9099.000000;0.959218
9098.000000;0.959860
9097.000000;0.960280
9096.000000;0.960080
9095.000000;0.959264
9094.000000;0.958297
9093.000000;0.957697
9092.000000;0.957598
9091.000000;0.957673
9090.000000;0.957397
9089.000000;0.956469
9088.000000;0.955127
9087.000000;0.954040
9086.000000;0.953746
9085.000000;0.954172
9084.000000;0.954725
9083.000000;0.954826
9082.000000;0.954321
9081.000000;0.953480
9080.000000;0.952723
9079.000000;0.952302
9078.000000;0.952086
9077.000000;0.951670
9076.000000;0.950816
9075.000000;0.949780
9074.000000;0.949074
9073.000000;0.948957
9072.000000;0.949323
9071.000000;0.950013
9070.000000;0.950959
9069.000000;0.951961
9068.000000;0.952589
9067.000000;0.952506
9066.000000;0.951812
9065.000000;0.950880
9064.000000;0.949944
9063.000000;0.949001
9062.000000;0.948063
9061.000000;0.947363
9060.000000;0.947186
9059.000000;0.947569
9058.000000;0.948209
9057.000000;0.948701
9056.000000;0.948847
9055.000000;0.948745
9054.000000;0.948612
9053.000000;0.948568
9052.000000;0.948536
9051.000000;0.948299
9050.000000;0.947667
9049.000000;0.946708
9048.000000;0.945835
9047.000000;0.945531
9046.000000;0.945887
9045.000000;0.946469
9044.000000;0.946763
9043.000000;0.946676
9042.000000;0.946502
9041.000000;0.946468
9040.000000;0.946469
9039.000000;0.946228
9038.000000;0.945570
9037.000000;0.944563
9036.000000;0.943511
9035.000000;0.942800
9034.000000;0.942613
9033.000000;0.942791
9032.000000;0.943033
9031.000000;0.943193
9030.000000;0.943228
9029.000000;0.943010
9028.000000;0.942431
9027.000000;0.941720
9026.000000;0.941375
9025.000000;0.941639
9024.000000;0.942239
9023.000000;0.942719
9022.000000;0.942875
9021.000000;0.942772
9020.000000;0.942518
9019.000000;0.942181
9018.000000;0.941817
9017.000000;0.941432
9016.000000;0.940985
9015.000000;0.940492
9014.000000;0.940028
9013.000000;0.939596
9012.000000;0.939141
9011.000000;0.938763
9010.000000;0.938712
9009.000000;0.939007
9008.000000;0.939235
9007.000000;0.938935
9006.000000;0.938096
9005.000000;0.937102
9004.000000;0.936285
9003.000000;0.935757
9002.000000;0.935581
9001.000000;0.935828
9000.000000;0.936442
8999.000000;0.937221
8998.000000;0.937958
8997.000000;0.938452
8996.000000;0.938423
8995.000000;0.937663
8994.000000;0.936379
8993.000000;0.935213
8992.000000;0.934776
8991.000000;0.935205
8990.000000;0.936197
8989.000000;0.937328
8988.000000;0.938231
8987.000000;0.938615
8986.000000;0.938308
8985.000000;0.937382
8984.000000;0.936156
8983.000000;0.935053
8982.000000;0.934400
8981.000000;0.934275
8980.000000;0.934478
8979.000000;0.934674
8978.000000;0.934638
8977.000000;0.934386
8976.000000;0.934080
8975.000000;0.933841
8974.000000;0.933727
8973.000000;0.933800
8972.000000;0.934090
8971.000000;0.934457
8970.000000;0.934608
8969.000000;0.934381
8968.000000;0.933952
8967.000000;0.933638
8966.000000;0.933473
8965.000000;0.933150
8964.000000;0.932455
8963.000000;0.931627
8962.000000;0.931109
8961.000000;0.931034
8960.000000;0.931136
8959.000000;0.931149
8958.000000;0.931078
8957.000000;0.930993
8956.000000;0.930786
8955.000000;0.930295
8954.000000;0.929549
8953.000000;0.928753
8952.000000;0.928099
8951.000000;0.927719
8950.000000;0.927712
8949.000000;0.928067
8948.000000;0.928624
8947.000000;0.929244
8946.000000;0.929923
8945.000000;0.930566
8944.000000;0.930779
8943.000000;0.930183
8942.000000;0.928997
8941.000000;0.928020
8940.000000;0.927870
8939.000000;0.928390
8938.000000;0.928906
8937.000000;0.928953
8936.000000;0.928624
8935.000000;0.928332
8934.000000;0.928406
8933.000000;0.928850
8932.000000;0.929369
8931.000000;0.929587
8930.000000;0.929323
8929.000000;0.928632
8928.000000;0.927655
8927.000000;0.926563
8926.000000;0.925660
8925.000000;0.925304
8924.000000;0.925557
8923.000000;0.926048
8922.000000;0.926381
8921.000000;0.926581
8920.000000;0.926937
8919.000000;0.927488
8918.000000;0.927871
8917.000000;0.927693
8916.000000;0.926880
8915.000000;0.925671
8914.000000;0.924485
8913.000000;0.923783
8912.000000;0.923824
8911.000000;0.924389
8910.000000;0.924904
8909.000000;0.924959
8908.000000;0.924631
8907.000000;0.924282
8906.000000;0.924176
8905.000000;0.924352
8904.000000;0.924687
8903.000000;0.924940
8902.000000;0.924893
8901.000000;0.924577
8900.000000;0.924241
8899.000000;0.924013
8898.000000;0.923736
8897.000000;0.923292
8896.000000;0.922904
8895.000000;0.922859
8894.000000;0.923089
8893.000000;0.923310
8892.000000;0.923481
8891.000000;0.923779
8890.000000;0.924123
8889.000000;0.924068
8888.000000;0.923329
8887.000000;0.922170
8886.000000;0.921126
8885.000000;0.920510
8884.000000;0.920353
8883.000000;0.920585
8882.000000;0.921093
8881.000000;0.921662
8880.000000;0.922104
8879.000000;0.922419
8878.000000;0.922721
8877.000000;0.923031
8876.000000;0.923240
8875.000000;0.923238
8874.000000;0.923046
8873.000000;0.922827
8872.000000;0.922790
8871.000000;0.923000
8870.000000;0.923254
8869.000000;0.923238
8868.000000;0.922888
8867.000000;0.922465
8866.000000;0.922229
8865.000000;0.922160
8864.000000;0.922106
8863.000000;0.922061
8862.000000;0.922112
8861.000000;0.922209
8860.000000;0.922123
8859.000000;0.921640
8858.000000;0.920743
8857.000000;0.919673
8856.000000;0.918869
8855.000000;0.918677
8854.000000;0.919019
8853.000000;0.919427
8852.000000;0.919542
8851.000000;0.919459
8850.000000;0.919472
8849.000000;0.919655
8848.000000;0.919896
8847.000000;0.920176
8846.000000;0.920533
8845.000000;0.920850
8844.000000;0.920973
8843.000000;0.921027
8842.000000;0.921309
8841.000000;0.921834
8840.000000;0.922250
8839.000000;0.922271
8838.000000;0.921949
8837.000000;0.921443
8836.000000;0.920778
8835.000000;0.919989
8834.000000;0.919320
8833.000000;0.919067
8832.000000;0.919309
8831.000000;0.919903
8830.000000;0.920649
8829.000000;0.921367
8828.000000;0.921907
8827.000000;0.922202
8826.000000;0.922271
8825.000000;0.922133
8824.000000;0.921810
8823.000000;0.921444
8822.000000;0.921259
8821.000000;0.921290
8820.000000;0.921283
8819.000000;0.920979
8818.000000;0.920449
8817.000000;0.920003
8816.000000;0.919815
8815.000000;0.919756
8814.000000;0.919567
8813.000000;0.919119
8812.000000;0.918543
8811.000000;0.918160
8810.000000;0.918274
8809.000000;0.918943
8808.000000;0.919916
8807.000000;0.920825
8806.000000;0.921446
8805.000000;0.921780
8804.000000;0.921949
8803.000000;0.922059
8802.000000;0.922150
8801.000000;0.922224
8800.000000;0.922268
8799.000000;0.922238
8798.000000;0.922066
8797.000000;0.921757
8796.000000;0.921468
8795.000000;0.921417
8794.000000;0.921639
8793.000000;0.921906
8792.000000;0.921951
8791.000000;0.921744
8790.000000;0.921510
8789.000000;0.921535
8788.000000;0.921998
8787.000000;0.922853
8786.000000;0.923802
8785.000000;0.924472
8784.000000;0.924747
8783.000000;0.924840
8782.000000;0.924960
8781.000000;0.925040
8780.000000;0.924939
8779.000000;0.924733
8778.000000;0.924545
8777.000000;0.924250
8776.000000;0.923649
8775.000000;0.922894
8774.000000;0.922403
8773.000000;0.922363
8772.000000;0.922598
8771.000000;0.922938
8770.000000;0.923362
8769.000000;0.923727
8768.000000;0.923748
8767.000000;0.923449
8766.000000;0.923305
8765.000000;0.923670
8764.000000;0.924274
8763.000000;0.924574
8762.000000;0.924489
8761.000000;0.924536
8760.000000;0.925238
8759.000000;0.926557
8758.000000;0.927882
8757.000000;0.928539
8756.000000;0.928386
8755.000000;0.927904
8754.000000;0.927611
8753.000000;0.927478
8752.000000;0.927132
8751.000000;0.926560
8750.000000;0.926201
8749.000000;0.926242
8748.000000;0.926286
8747.000000;0.925982
8746.000000;0.925610
8745.000000;0.925669
8744.000000;0.926174
8743.000000;0.926775
8742.000000;0.927345
8741.000000;0.927973
8740.000000;0.928463
8739.000000;0.928371
8738.000000;0.927637
8737.000000;0.926821
8736.000000;0.926538
8735.000000;0.926904
8734.000000;0.927612
8733.000000;0.928308
8732.000000;0.928806
8731.000000;0.929131
8730.000000;0.929437
8729.000000;0.929787
8728.000000;0.930000
8727.000000;0.929859
8726.000000;0.929467
8725.000000;0.929213
8724.000000;0.929342
8723.000000;0.929723
8722.000000;0.930059
8721.000000;0.930173
8720.000000;0.930058
8719.000000;0.929822
8718.000000;0.929644
8717.000000;0.929635
8716.000000;0.929725
8715.000000;0.929763
8714.000000;0.929728
8713.000000;0.929716
8712.000000;0.929746
8711.000000;0.929748
8710.000000;0.929731
8709.000000;0.929766
8708.000000;0.929802
8707.000000;0.929716
8706.000000;0.929562
8705.000000;0.929581
8704.000000;0.929853
8703.000000;0.930159
8702.000000;0.930279
8701.000000;0.930257
8700.000000;0.930245
8699.000000;0.930262
8698.000000;0.930297
8697.000000;0.930542
8696.000000;0.931267
8695.000000;0.932441
8694.000000;0.933631
8693.000000;0.934352
8692.000000;0.934473
8691.000000;0.934263
8690.000000;0.934060
8689.000000;0.933936
8688.000000;0.933734
8687.000000;0.933390
8686.000000;0.933117
8685.000000;0.933170
8684.000000;0.933469
8683.000000;0.933619
8682.000000;0.933354
8681.000000;0.932830
8680.000000;0.932456
8679.000000;0.932481
8678.000000;0.932778
8677.000000;0.932999
8676.000000;0.932929
8675.000000;0.932749
8674.000000;0.932915
8673.000000;0.933676
8672.000000;0.934723
8671.000000;0.935418
8670.000000;0.935386
8669.000000;0.934777
8668.000000;0.933981
8667.000000;0.933288
8666.000000;0.932879
8665.000000;0.932897
8664.000000;0.933300
8663.000000;0.933769
8662.000000;0.933940
8661.000000;0.933721
8660.000000;0.933272
8659.000000;0.932761
8658.000000;0.932292
8657.000000;0.932049
8656.000000;0.932290
8655.000000;0.933117
8654.000000;0.934315
8653.000000;0.935466
8652.000000;0.936172
8651.000000;0.936220
8650.000000;0.935676
8649.000000;0.934887
8648.000000;0.934293
8647.000000;0.934118
8646.000000;0.934234
8645.000000;0.934379
8644.000000;0.934433
8643.000000;0.934446
8642.000000;0.934479
8641.000000;0.934521
8640.000000;0.934499
8639.000000;0.934271
8638.000000;0.933674
8637.000000;0.932800
8636.000000;0.932164
8635.000000;0.932325
8634.000000;0.933236
8633.000000;0.934194
8632.000000;0.934606
8631.000000;0.934599
8630.000000;0.934644
8629.000000;0.934787
8628.000000;0.934646
8627.000000;0.934124
8626.000000;0.933682
8625.000000;0.933727
8624.000000;0.934080
8623.000000;0.934288
8622.000000;0.934250
8621.000000;0.934239
8620.000000;0.934415
8619.000000;0.934634
8618.000000;0.934748
8617.000000;0.934818
8616.000000;0.934913
8615.000000;0.934880
8614.000000;0.934493
8613.000000;0.933813
8612.000000;0.933239
8611.000000;0.933119
8610.000000;0.933354
8609.000000;0.933466
8608.000000;0.933116
8607.000000;0.932464
8606.000000;0.931951
8605.000000;0.931825
8604.000000;0.932013
8603.000000;0.932363
8602.000000;0.932754
8601.000000;0.932989
8600.000000;0.932829
8599.000000;0.932304
8598.000000;0.931806
8597.000000;0.931745
8596.000000;0.932198
8595.000000;0.932980
8594.000000;0.933874
8593.000000;0.934632
8592.000000;0.934938
8591.000000;0.934608
8590.000000;0.933799
8589.000000;0.932896
8588.000000;0.932226
8587.000000;0.931931
8586.000000;0.931999
8585.000000;0.932252
8584.000000;0.932426
8583.000000;0.932423
8582.000000;0.932426
8581.000000;0.932604
8580.000000;0.932812
8579.000000;0.932756
8578.000000;0.932376
8577.000000;0.931856
8576.000000;0.931335
8575.000000;0.930842
8574.000000;0.930517
8573.000000;0.930606
8572.000000;0.931154
8571.000000;0.931845
8570.000000;0.932271
8569.000000;0.932276
8568.000000;0.931998
8567.000000;0.931664
8566.000000;0.931393
8565.000000;0.931173
8564.000000;0.931003
8563.000000;0.930997
8562.000000;0.931250
8561.000000;0.931577
8560.000000;0.931585
8559.000000;0.931133
8558.000000;0.930561
8557.000000;0.930283
8556.000000;0.930280
8555.000000;0.930221
8554.000000;0.929954
8553.000000;0.929612
8552.000000;0.929315
8551.000000;0.929068
8550.000000;0.928937
8549.000000;0.929034
8548.000000;0.929301
8547.000000;0.929555
8546.000000;0.929760
8545.000000;0.930023
8544.000000;0.930299
8543.000000;0.930419
8542.000000;0.930456
8541.000000;0.930705
8540.000000;0.931166
8539.000000;0.931379
8538.000000;0.930992
8537.000000;0.930261
8536.000000;0.929710
8535.000000;0.929491
8534.000000;0.929374
8533.000000;0.929260
8532.000000;0.929381
8531.000000;0.929953
8530.000000;0.930789
8529.000000;0.931350
8528.000000;0.931171
8527.000000;0.930277
8526.000000;0.929229
8525.000000;0.928670
8524.000000;0.928766
8523.000000;0.929142
8522.000000;0.929350
8521.000000;0.929265
8520.000000;0.928991
8519.000000;0.928631
8518.000000;0.928299
8517.000000;0.928134
8516.000000;0.928085
8515.000000;0.927858
8514.000000;0.927306
8513.000000;0.926764
8512.000000;0.926701
8511.000000;0.927118
8510.000000;0.927566
8509.000000;0.927752
8508.000000;0.927846
8507.000000;0.928107
8506.000000;0.928458
8505.000000;0.928594
8504.000000;0.928351
8503.000000;0.927839
8502.000000;0.927332
8501.000000;0.927118
8500.000000;0.927353
8499.000000;0.927894
8498.000000;0.928346
8497.000000;0.928374
8496.000000;0.927985
8495.000000;0.927447
8494.000000;0.926980
8493.000000;0.926604
8492.000000;0.926254
8491.000000;0.925939
8490.000000;0.925769
8489.000000;0.925886
8488.000000;0.926376
8487.000000;0.927177
8486.000000;0.928054
8485.000000;0.928681
8484.000000;0.928817
8483.000000;0.928453
8482.000000;0.927815
8481.000000;0.927216
8480.000000;0.926866
8479.000000;0.926770
8478.000000;0.926779
8477.000000;0.926761
8476.000000;0.926731
8475.000000;0.926845
8474.000000;0.927221
8473.000000;0.927763
8472.000000;0.928189
8471.000000;0.928266
8470.000000;0.928004
8469.000000;0.927609
8468.000000;0.927244
8467.000000;0.926919
8466.000000;0.926589
8465.000000;0.926276
8464.000000;0.926048
8463.000000;0.925914
8462.000000;0.925804
8461.000000;0.925674
8460.000000;0.925556
8459.000000;0.925532
8458.000000;0.925647
8457.000000;0.925846
8456.000000;0.925965
8455.000000;0.925830
8454.000000;0.925444
8453.000000;0.925064
8452.000000;0.924991
8451.000000;0.925249
8450.000000;0.925540
8449.000000;0.925573
8448.000000;0.925388
8447.000000;0.925260
8446.000000;0.925335
8445.000000;0.925460
8444.000000;0.925427
8443.000000;0.925254
8442.000000;0.925168
8441.000000;0.925331
8440.000000;0.925672
8439.000000;0.925938
8438.000000;0.925897
8437.000000;0.925530
8436.000000;0.925098
8435.000000;0.924955
8434.000000;0.925218
8433.000000;0.925642
8432.000000;0.925923
8431.000000;0.926067
8430.000000;0.926312
8429.000000;0.926719
8428.000000;0.927004
8427.000000;0.926861
8426.000000;0.926292
8425.000000;0.925559
8424.000000;0.924917
8423.000000;0.924498
8422.000000;0.924346
8421.000000;0.924420
8420.000000;0.924593
8419.000000;0.924733
8418.000000;0.924759
8417.000000;0.924599
8416.000000;0.924235
8415.000000;0.923873
8414.000000;0.923873
8413.000000;0.924318
8412.000000;0.924782
8411.000000;0.924766
8410.000000;0.924310
8409.000000;0.923931
8408.000000;0.923955
8407.000000;0.924201
8406.000000;0.924375
8405.000000;0.924495
8404.000000;0.924739
8403.000000;0.925063
8402.000000;0.925203
8401.000000;0.925009
8400.000000;0.924615
8399.000000;0.924285
8398.000000;0.924203
8397.000000;0.924371
8396.000000;0.924604
8395.000000;0.924646
8394.000000;0.924396
8393.000000;0.924034
8392.000000;0.923865
8391.000000;0.924026
8390.000000;0.924369
8389.000000;0.924603
8388.000000;0.924542
8387.000000;0.924251
8386.000000;0.924022
8385.000000;0.924153
8384.000000;0.924683
8383.000000;0.925315
8382.000000;0.925625
8381.000000;0.925399
8380.000000;0.924788
8379.000000;0.924205
8378.000000;0.924023
8377.000000;0.924287
8376.000000;0.924650
8375.000000;0.924677
8374.000000;0.924286
8373.000000;0.923839
8372.000000;0.923756
8371.000000;0.924096
8370.000000;0.924580
8369.000000;0.924937
8368.000000;0.925073
8367.000000;0.924965
8366.000000;0.924597
8365.000000;0.924084
8364.000000;0.923710
8363.000000;0.923690
8362.000000;0.923919
8361.000000;0.924073
8360.000000;0.923966
8359.000000;0.923727
8358.000000;0.923628
8357.000000;0.923811
8356.000000;0.924207
8355.000000;0.924637
8354.000000;0.924950
8353.000000;0.925078
8352.000000;0.925053
8351.000000;0.924971
8350.000000;0.924906
8349.000000;0.924828
8348.000000;0.924607
8347.000000;0.924144
8346.000000;0.923509
8345.000000;0.922943
8344.000000;0.922704
8343.000000;0.922865
8342.000000;0.923254
8341.000000;0.923602
8340.000000;0.923738
8339.000000;0.923660
8338.000000;0.923449
8337.000000;0.923188
8336.000000;0.922957
8335.000000;0.922832
8334.000000;0.922815
8333.000000;0.922824
8332.000000;0.922803
8331.000000;0.922785
8330.000000;0.922788
8329.000000;0.922719
8328.000000;0.922472
8327.000000;0.922099
8326.000000;0.921767
8325.000000;0.921563
8324.000000;0.921431
8323.000000;0.921314
8322.000000;0.921215
8321.000000;0.921115
8320.000000;0.920959
8319.000000;0.920786
8318.000000;0.920768
8317.000000;0.921013
8316.000000;0.921431
8315.000000;0.921840
8314.000000;0.922116
8313.000000;0.922186
8312.000000;0.922006
8311.000000;0.921648
8310.000000;0.921314
8309.000000;0.921127
8308.000000;0.921001
8307.000000;0.920824
8306.000000;0.920670
8305.000000;0.920704
8304.000000;0.920934
8303.000000;0.921225
8302.000000;0.921509
8301.000000;0.921811
8300.000000;0.922073
8299.000000;0.922162
8298.000000;0.922062
8297.000000;0.921912
8296.000000;0.921813
8295.000000;0.921721
8294.000000;0.921548
8293.000000;0.921264
8292.000000;0.920873
8291.000000;0.920443
8290.000000;0.920165
8289.000000;0.920212
8288.000000;0.920476
8287.000000;0.920621
8286.000000;0.920477
8285.000000;0.920218
8284.000000;0.920065
8283.000000;0.920013
8282.000000;0.919970
8281.000000;0.920008
8280.000000;0.920224
8279.000000;0.920471
8278.000000;0.920473
8277.000000;0.920214
8276.000000;0.919987
8275.000000;0.920004
8274.000000;0.920151
8273.000000;0.920199
8272.000000;0.920126
8271.000000;0.920084
8270.000000;0.920137
8269.000000;0.920171
8268.000000;0.920051
8267.000000;0.919769
8266.000000;0.919435
8265.000000;0.919176
8264.000000;0.919077
8263.000000;0.919188
8262.000000;0.919542
8261.000000;0.920130
8260.000000;0.920825
8259.000000;0.921351
8258.000000;0.921412
8257.000000;0.920919
8256.000000;0.920117
8255.000000;0.919430
8254.000000;0.919124
8253.000000;0.919115
8252.000000;0.919105
8251.000000;0.918903
8250.000000;0.918598
8249.000000;0.918444
8248.000000;0.918610
8247.000000;0.919088
8246.000000;0.919751
8245.000000;0.920426
8244.000000;0.920915
8243.000000;0.921038
8242.000000;0.920753
8241.000000;0.920221
8240.000000;0.919717
8239.000000;0.919441
8238.000000;0.919409
8237.000000;0.919484
8236.000000;0.919530
8235.000000;0.919519
8234.000000;0.919505
8233.000000;0.919484
8232.000000;0.919343
8231.000000;0.919007
8230.000000;0.918595
8229.000000;0.918341
8228.000000;0.918331
8227.000000;0.918413
8226.000000;0.918399
8225.000000;0.918277
8224.000000;0.918169
8223.000000;0.918141
8222.000000;0.918156
8221.000000;0.918154
8220.000000;0.918125
8219.000000;0.918110
8218.000000;0.918200
8217.000000;0.918494
8216.000000;0.918949
8215.000000;0.919342
8214.000000;0.919463
8213.000000;0.919318
8212.000000;0.919022
8211.000000;0.918557
8210.000000;0.917849
8209.000000;0.917099
8208.000000;0.916752
8207.000000;0.916996
8206.000000;0.917485
8205.000000;0.917756
8204.000000;0.917775
8203.000000;0.917836
8202.000000;0.918028
8201.000000;0.918123
8200.000000;0.918000
8199.000000;0.917879
8198.000000;0.918000
8197.000000;0.918300
8196.000000;0.918540
8195.000000;0.918598
8194.000000;0.918513
8193.000000;0.918367
8192.000000;0.918274
8191.000000;0.918370
8190.000000;0.918622
8189.000000;0.918777
8188.000000;0.918656
8187.000000;0.918424
8186.000000;0.918353
8185.000000;0.918375
8184.000000;0.918138
8183.000000;0.917522
8182.000000;0.916865
8181.000000;0.916576
8180.000000;0.916679
8179.000000;0.916890
8178.000000;0.917019
8177.000000;0.917160
8176.000000;0.917467
8175.000000;0.917872
8174.000000;0.918099
8173.000000;0.917973
8172.000000;0.917672
8171.000000;0.917581
8170.000000;0.917855
8169.000000;0.918213
8168.000000;0.918266
8167.000000;0.917964
8166.000000;0.917590
8165.000000;0.917393
8164.000000;0.917417
8163.000000;0.917651
8162.000000;0.918094
8161.000000;0.918589
8160.000000;0.918836
8159.000000;0.918709
8158.000000;0.918434
8157.000000;0.918306
8156.000000;0.918338
8155.000000;0.918312
8154.000000;0.918076
8153.000000;0.917658
8152.000000;0.917162
8151.000000;0.916729
8150.000000;0.916569
8149.000000;0.916862
8148.000000;0.917556
8147.000000;0.918315
8146.000000;0.918707
8145.000000;0.918480
8144.000000;0.917736
8143.000000;0.916883
8142.000000;0.916335
8141.000000;0.916180
8140.000000;0.916154
8139.000000;0.915988
8138.000000;0.915697
8137.000000;0.915490
8136.000000;0.915491
8135.000000;0.915674
8134.000000;0.915994
8133.000000;0.916426
8132.000000;0.916871
8131.000000;0.917147
8130.000000;0.917116
8129.000000;0.916785
8128.000000;0.916298
8127.000000;0.915866
8126.000000;0.915673
8125.000000;0.915748
8124.000000;0.915934
8123.000000;0.916020
8122.000000;0.915921
8121.000000;0.915720
8120.000000;0.915557
8119.000000;0.915516
8118.000000;0.915572
8117.000000;0.915620
8116.000000;0.915587
8115.000000;0.915575
8114.000000;0.915789
8113.000000;0.916280
8112.000000;0.916806
8111.000000;0.917033
8110.000000;0.916830
8109.000000;0.916316
8108.000000;0.915706
8107.000000;0.915223
8106.000000;0.915072
8105.000000;0.915310
8104.000000;0.915740
8103.000000;0.916048
8102.000000;0.916091
8101.000000;0.915972
8100.000000;0.915862
8099.000000;0.915823
8098.000000;0.915819
8097.000000;0.915776
8096.000000;0.915617
8095.000000;0.915322
8094.000000;0.914990
8093.000000;0.914800
8092.000000;0.914890
8091.000000;0.915280
8090.000000;0.915881
8089.000000;0.916512
8088.000000;0.916939
8087.000000;0.916989
8086.000000;0.916652
8085.000000;0.916074
8084.000000;0.915470
8083.000000;0.915070
8082.000000;0.915038
8081.000000;0.915337
8080.000000;0.915722
8079.000000;0.915967
8078.000000;0.916076
8077.000000;0.916169
8076.000000;0.916243
8075.000000;0.916196
8074.000000;0.916065
8073.000000;0.916048
8072.000000;0.916218
8071.000000;0.916369
8070.000000;0.916255
8069.000000;0.915900
8068.000000;0.915581
8067.000000;0.915541
8066.000000;0.915766
8065.000000;0.916012
8064.000000;0.916000
8063.000000;0.915649
8062.000000;0.915143
8061.000000;0.914778
8060.000000;0.914708
8059.000000;0.914883
8058.000000;0.915178
8057.000000;0.915498
8056.000000;0.915738
8055.000000;0.915777
8054.000000;0.915600
8053.000000;0.915360
8052.000000;0.915233
8051.000000;0.915224
8050.000000;0.915192
8049.000000;0.915060
8048.000000;0.914931
8047.000000;0.914969
8046.000000;0.915177
8045.000000;0.915359
8044.000000;0.915314
8043.000000;0.915059
8042.000000;0.914821
8041.000000;0.914772
8040.000000;0.914824
8039.000000;0.914730
8038.000000;0.914395
8037.000000;0.914028
8036.000000;0.913964
8035.000000;0.914353
8034.000000;0.915020
8033.000000;0.915599
8032.000000;0.915807
8031.000000;0.915606
8030.000000;0.915166
8029.000000;0.914729
8028.000000;0.914489
8027.000000;0.914526
8026.000000;0.914749
8025.000000;0.914916
8024.000000;0.914826
8023.000000;0.914562
8022.000000;0.914443
8021.000000;0.914690
8020.000000;0.915153
8019.000000;0.915456
8018.000000;0.915378
8017.000000;0.915065
8016.000000;0.914849
8015.000000;0.914898
8014.000000;0.915043
8013.000000;0.914963
8012.000000;0.914585
8011.000000;0.914227
8010.000000;0.914265
8009.000000;0.914665
8008.000000;0.915013
8007.000000;0.915019
8006.000000;0.914809
8005.000000;0.914634
8004.000000;0.914496
8003.000000;0.914255
8002.000000;0.913949
8001.000000;0.913799
8000.000000;0.913936
7999.000000;0.914303
7998.000000;0.914777
7997.000000;0.915218
7996.000000;0.915423
7995.000000;0.915269
7994.000000;0.914910
7993.000000;0.914665
7992.000000;0.914673
7991.000000;0.914792
7990.000000;0.914853
7989.000000;0.914849
7988.000000;0.914842
7987.000000;0.914860
7986.000000;0.914946
7985.000000;0.915161
7984.000000;0.915457
7983.000000;0.915639
7982.000000;0.915556
7981.000000;0.915262
7980.000000;0.914934
7979.000000;0.914691
7978.000000;0.914545
7977.000000;0.914442
7976.000000;0.914340
7975.000000;0.914282
7974.000000;0.914400
7973.000000;0.914774
7972.000000;0.915300
7971.000000;0.915776
7970.000000;0.916089
7969.000000;0.916213
7968.000000;0.916091
7967.000000;0.915690
7966.000000;0.915180
7965.000000;0.914875
7964.000000;0.914912
7963.000000;0.915147
7962.000000;0.915393
7961.000000;0.915631
7960.000000;0.915894
7959.000000;0.916128
7958.000000;0.916268
7957.000000;0.916343
7956.000000;0.916375
7955.000000;0.916296
7954.000000;0.916065
7953.000000;0.915794
7952.000000;0.915632
7951.000000;0.915630
7950.000000;0.915790
7949.000000;0.916155
7948.000000;0.916700
7947.000000;0.917201
7946.000000;0.917365
7945.000000;0.917095
7944.000000;0.916545
7943.000000;0.915943
7942.000000;0.915441
7941.000000;0.915098
7940.000000;0.914897
7939.000000;0.914813
7938.000000;0.914890
7937.000000;0.915218
7936.000000;0.915750
7935.000000;0.916225
7934.000000;0.916376
7933.000000;0.916198
7932.000000;0.915916
7931.000000;0.915726
7930.000000;0.915664
7929.000000;0.915696
7928.000000;0.915805
7927.000000;0.915964
7926.000000;0.916094
7925.000000;0.916106
7924.000000;0.915982
7923.000000;0.915826
7922.000000;0.915824
7921.000000;0.916100
7920.000000;0.916562
7919.000000;0.916945
7918.000000;0.917044
7917.000000;0.916874
7916.000000;0.916581
7915.000000;0.916293
7914.000000;0.916105
7913.000000;0.916113
7912.000000;0.916333
7911.000000;0.916627
7910.000000;0.916799
7909.000000;0.916770
7908.000000;0.916609
7907.000000;0.916451
7906.000000;0.916453
7905.000000;0.916741
7904.000000;0.917273
7903.000000;0.917782
7902.000000;0.917971
7901.000000;0.917793
7900.000000;0.917476
7899.000000;0.917289
7898.000000;0.917336
7897.000000;0.917522
7896.000000;0.917622
7895.000000;0.917431
7894.000000;0.916979
7893.000000;0.916599
7892.000000;0.916648
7891.000000;0.917134
7890.000000;0.917697
7889.000000;0.917970
7888.000000;0.917887
7887.000000;0.917648
7886.000000;0.917498
7885.000000;0.917557
7884.000000;0.917758
7883.000000;0.917911
7882.000000;0.917920
7881.000000;0.917942
7880.000000;0.918223
7879.000000;0.918743
7878.000000;0.919121
7877.000000;0.918990
7876.000000;0.918401
7875.000000;0.917777
7874.000000;0.917517
7873.000000;0.917704
7872.000000;0.918162
7871.000000;0.918645
7870.000000;0.918965
7869.000000;0.919014
7868.000000;0.918793
7867.000000;0.918463
7866.000000;0.918303
7865.000000;0.918504
7864.000000;0.918948
7863.000000;0.919272
7862.000000;0.919235
7861.000000;0.918981
7860.000000;0.918859
7859.000000;0.919008
7858.000000;0.919249
7857.000000;0.919368
7856.000000;0.919367
7855.000000;0.919369
7854.000000;0.919429
7853.000000;0.919516
7852.000000;0.919606
7851.000000;0.919663
7850.000000;0.919602
7849.000000;0.919395
7848.000000;0.919178
7847.000000;0.919147
7846.000000;0.919327
7845.000000;0.919561
7844.000000;0.919723
7843.000000;0.919849
7842.000000;0.920014
7841.000000;0.920167
7840.000000;0.920183
7839.000000;0.920036
7838.000000;0.919838
7837.000000;0.919712
7836.000000;0.919660
7835.000000;0.919614
7834.000000;0.919592
7833.000000;0.919727
7832.000000;0.920107
7831.000000;0.920615
7830.000000;0.921005
7829.000000;0.921148
7828.000000;0.921126
7827.000000;0.921071
7826.000000;0.920973
7825.000000;0.920752
7824.000000;0.920468
7823.000000;0.920337
7822.000000;0.920515
7821.000000;0.920934
7820.000000;0.921381
7819.000000;0.921681
7818.000000;0.921765
7817.000000;0.921637
7816.000000;0.921355
7815.000000;0.921046
7814.000000;0.920853
7813.000000;0.920852
7812.000000;0.921014
7811.000000;0.921241
7810.000000;0.921428
7809.000000;0.921501
7808.000000;0.921452
7807.000000;0.921366
7806.000000;0.921380
7805.000000;0.921575
7804.000000;0.921893
7803.000000;0.922175
7802.000000;0.922303
7801.000000;0.922298
7800.000000;0.922295
7799.000000;0.922398
7798.000000;0.922578
7797.000000;0.922719
7796.000000;0.922733
7795.000000;0.922623
7794.000000;0.922426
7793.000000;0.922167
7792.000000;0.921900
7791.000000;0.921753
7790.000000;0.921874
7789.000000;0.922284
7788.000000;0.922819
7787.000000;0.923245
7786.000000;0.923448
7785.000000;0.923509
7784.000000;0.923587
7783.000000;0.923743
7782.000000;0.923895
7781.000000;0.923934
7780.000000;0.923853
7779.000000;0.923732
7778.000000;0.923639
7777.000000;0.923608
7776.000000;0.923681
7775.000000;0.923903
7774.000000;0.924237
7773.000000;0.924564
7772.000000;0.924792
7771.000000;0.924925
7770.000000;0.924977
7769.000000;0.924897
7768.000000;0.924667
7767.000000;0.924408
7766.000000;0.924307
7765.000000;0.924412
7764.000000;0.924597
7763.000000;0.924726
7762.000000;0.924774
7761.000000;0.924777
7760.000000;0.924767
7759.000000;0.924785
7758.000000;0.924904
7757.000000;0.925171
7756.000000;0.925563
7755.000000;0.926025
7754.000000;0.926496
7753.000000;0.926882
7752.000000;0.927087
7751.000000;0.927111
7750.000000;0.927074
7749.000000;0.927060
7748.000000;0.927026
7747.000000;0.926914
7746.000000;0.926803
7745.000000;0.926847
7744.000000;0.927090
7743.000000;0.927430
7742.000000;0.927726
7741.000000;0.927878
7740.000000;0.927804
7739.000000;0.927493
7738.000000;0.927072
7737.000000;0.926745
7736.000000;0.926615
7735.000000;0.926636
7734.000000;0.926761
7733.000000;0.927013
7732.000000;0.927367
7731.000000;0.927653
7730.000000;0.927714
7729.000000;0.927619
7728.000000;0.927580
7727.000000;0.927681
7726.000000;0.927798
7725.000000;0.927823
7724.000000;0.927875
7723.000000;0.928154
7722.000000;0.928650
7721.000000;0.929107
7720.000000;0.929300
7719.000000;0.929274
7718.000000;0.929243
7717.000000;0.929331
7716.000000;0.929481
7715.000000;0.929602
7714.000000;0.929694
7713.000000;0.929802
7712.000000;0.929919
7711.000000;0.930004
7710.000000;0.930048
7709.000000;0.930064
7708.000000;0.930015
7707.000000;0.929860
7706.000000;0.929666
7705.000000;0.929628
7704.000000;0.929911
7703.000000;0.930470
7702.000000;0.931044
7701.000000;0.931362
7700.000000;0.931367
7699.000000;0.931263
7698.000000;0.931306
7697.000000;0.931545
7696.000000;0.931780
7695.000000;0.931804
7694.000000;0.931649
7693.000000;0.931560
7692.000000;0.931732
7691.000000;0.932110
7690.000000;0.932462
7689.000000;0.932612
7688.000000;0.932596
7687.000000;0.932601
7686.000000;0.932780
7685.000000;0.933103
7684.000000;0.933404
7683.000000;0.933554
7682.000000;0.933601
7681.000000;0.933691
7680.000000;0.933904
7679.000000;0.934182
7678.000000;0.934415
7677.000000;0.934557
7676.000000;0.934625
7675.000000;0.934654
7674.000000;0.934668
7673.000000;0.934710
7672.000000;0.934858
7671.000000;0.935152
7670.000000;0.935517
7669.000000;0.935777
7668.000000;0.935826
7667.000000;0.935756
7666.000000;0.935769
7665.000000;0.935942
7664.000000;0.936140
7663.000000;0.936201
7662.000000;0.936154
7661.000000;0.936181
7660.000000;0.936399
7659.000000;0.936739
7658.000000;0.937036
7657.000000;0.937198
7656.000000;0.937268
7655.000000;0.937368
7654.000000;0.937575
7653.000000;0.937840
7652.000000;0.938038
7651.000000;0.938108
7650.000000;0.938118
7649.000000;0.938156
7648.000000;0.938206
7647.000000;0.938201
7646.000000;0.938168
7645.000000;0.938228
7644.000000;0.938438
7643.000000;0.938722
7642.000000;0.938973
7641.000000;0.939176
7640.000000;0.939395
7639.000000;0.939697
7638.000000;0.940096
7637.000000;0.940543
7636.000000;0.940948
7635.000000;0.941238
7634.000000;0.941423
7633.000000;0.941551
7632.000000;0.941630
7631.000000;0.941644
7630.000000;0.941645
7629.000000;0.941744
7628.000000;0.941970
7627.000000;0.942227
7626.000000;0.942410
7625.000000;0.942525
7624.000000;0.942633
7623.000000;0.942753
7622.000000;0.942883
7621.000000;0.943073
7620.000000;0.943384
7619.000000;0.943780
7618.000000;0.944137
7617.000000;0.944367
7616.000000;0.944496
7615.000000;0.944611
7614.000000;0.944761
7613.000000;0.944940
7612.000000;0.945122
7611.000000;0.945300
7610.000000;0.945498
7609.000000;0.945741
7608.000000;0.946021
7607.000000;0.946291
7606.000000;0.946514
7605.000000;0.946709
7604.000000;0.946952
7603.000000;0.947313
7602.000000;0.947780
7601.000000;0.948240
7600.000000;0.948548
7599.000000;0.948662
7598.000000;0.948698
7597.000000;0.948830
7596.000000;0.949134
7595.000000;0.949547
7594.000000;0.949975
7593.000000;0.950376
7592.000000;0.950720
7591.000000;0.950942
7590.000000;0.950973
7589.000000;0.950831
7588.000000;0.950659
7587.000000;0.950663
7586.000000;0.950968
7585.000000;0.951503
7584.000000;0.952008
7583.000000;0.952233
7582.000000;0.952159
7581.000000;0.951992
7580.000000;0.951946
7579.000000;0.952067
7578.000000;0.952281
7577.000000;0.952547
7576.000000;0.952877
7575.000000;0.953245
7574.000000;0.953566
7573.000000;0.953778
7572.000000;0.953924
7571.000000;0.954118
7570.000000;0.954452
7569.000000;0.954911
7568.000000;0.955376
7567.000000;0.955716
7566.000000;0.955918
7565.000000;0.956118
7564.000000;0.956468
7563.000000;0.956962
7562.000000;0.957431
7561.000000;0.957711
7560.000000;0.957792
7559.000000;0.957806
7558.000000;0.957887
7557.000000;0.958087
7556.000000;0.958401
7555.000000;0.958815
7554.000000;0.959303
7553.000000;0.959785
7552.000000;0.960147
7551.000000;0.960323
7550.000000;0.960340
7549.000000;0.960284
7548.000000;0.960241
7547.000000;0.960284
7546.000000;0.960483
7545.000000;0.960881
7544.000000;0.961442
7543.000000;0.962055
7542.000000;0.962584
7541.000000;0.962919
7540.000000;0.963040
7539.000000;0.963069
7538.000000;0.963222
7537.000000;0.963647
7536.000000;0.964298
7535.000000;0.964986
7534.000000;0.965552
7533.000000;0.965940
7532.000000;0.966157
7531.000000;0.966255
7530.000000;0.966341
7529.000000;0.966518
7528.000000;0.966785
7527.000000;0.967057
7526.000000;0.967297
7525.000000;0.967561
7524.000000;0.967899
7523.000000;0.968302
7522.000000;0.968780
7521.000000;0.969378
7520.000000;0.970059
7519.000000;0.970640
7518.000000;0.970940
7517.000000;0.970978
7516.000000;0.970951
7515.000000;0.971042
7514.000000;0.971284
7513.000000;0.971581
7512.000000;0.971815
7511.000000;0.971960
7510.000000;0.972112
7509.000000;0.972398
7508.000000;0.972824
7507.000000;0.973277
7506.000000;0.973673
7505.000000;0.974039
7504.000000;0.974409
7503.000000;0.974732
7502.000000;0.974972
7501.000000;0.975216
7500.000000;0.975571
7499.000000;0.976010
7498.000000;0.976402
7497.000000;0.976688
7496.000000;0.976942
7495.000000;0.977260
7494.000000;0.977671
7493.000000;0.978154
7492.000000;0.978672
7491.000000;0.979148
7490.000000;0.979495
7489.000000;0.979702
7488.000000;0.979864
7487.000000;0.980106
7486.000000;0.980477
7485.000000;0.980930
7484.000000;0.981383
7483.000000;0.981791
7482.000000;0.982154
7481.000000;0.982470
7480.000000;0.982690
7479.000000;0.982787
7478.000000;0.982859
7477.000000;0.983088
7476.000000;0.983563
7475.000000;0.984199
7474.000000;0.984881
7473.000000;0.985613
7472.000000;0.986448
7471.000000;0.987321
7470.000000;0.988039
7469.000000;0.988431
7468.000000;0.988471
7467.000000;0.988286
7466.000000;0.988121
7465.000000;0.988224
7464.000000;0.988647
7463.000000;0.989190
7462.000000;0.989604
7461.000000;0.989871
7460.000000;0.990169
7459.000000;0.990596
7458.000000;0.991050
7457.000000;0.991397
7456.000000;0.991640
7455.000000;0.991874
7454.000000;0.992159
7453.000000;0.992508
7452.000000;0.992934
7451.000000;0.993422
7450.000000;0.993899
7449.000000;0.994281
7448.000000;0.994547
7447.000000;0.994752
7446.000000;0.994995
7445.000000;0.995354
7444.000000;0.995844
7443.000000;0.996389
7442.000000;0.996846
7441.000000;0.997079
7440.000000;0.997052
7439.000000;0.996886
7438.000000;0.996814
7437.000000;0.997024
7436.000000;0.997495
7435.000000;0.998039
7434.000000;0.998515
7433.000000;0.998953
7432.000000;0.999425
7431.000000;0.999892
7430.000000;1.000280
7429.000000;1.000619
7428.000000;1.000989
7427.000000;1.001361
7426.000000;1.001639
7425.000000;1.001839
7424.000000;1.002098
7423.000000;1.002506
7422.000000;1.003011
7421.000000;1.003465
7420.000000;1.003732
7419.000000;1.003772
7418.000000;1.003698
7417.000000;1.003721
7416.000000;1.003984
7415.000000;1.004447
7414.000000;1.004995
7413.000000;1.005581
7412.000000;1.006209
7411.000000;1.006831
7410.000000;1.007362
7409.000000;1.007754
7408.000000;1.007965
7407.000000;1.007955
7406.000000;1.007817
7405.000000;1.007830
7404.000000;1.008181
7403.000000;1.008733
7402.000000;1.009188
7401.000000;1.009461
7400.000000;1.009702
7399.000000;1.009999
7398.000000;1.010267
7397.000000;1.010476
7396.000000;1.010710
7395.000000;1.010946
7394.000000;1.011086
7393.000000;1.011225
7392.000000;1.011579
7391.000000;1.012115
7390.000000;1.012569
7389.000000;1.012922
7388.000000;1.013466
7387.000000;1.014248
7386.000000;1.014844
7385.000000;1.014898
7384.000000;1.014529
7383.000000;1.014041
7382.000000;1.013592
7381.000000;1.013312
7380.000000;1.013412
7379.000000;1.013849
7378.000000;1.014178
7377.000000;1.014077
7376.000000;1.013810
7375.000000;1.013978
7374.000000;1.014872
7373.000000;1.016214
7372.000000;1.017500
7371.000000;1.018357
7370.000000;1.018619
7369.000000;1.018441
7368.000000;1.018307
7367.000000;1.018571
7366.000000;1.019126
7365.000000;1.019766
7364.000000;1.020507
7363.000000;1.021344
7362.000000;1.022081
7361.000000;1.022556
7360.000000;1.022825
7359.000000;1.022959
7358.000000;1.022877
7357.000000;1.022556
7356.000000;1.022212
7355.000000;1.022163
7354.000000;1.022504
7353.000000;1.023125
7352.000000;1.023887
7351.000000;1.024567
7350.000000;1.024822
7349.000000;1.024583
7348.000000;1.024313
7347.000000;1.024485
7346.000000;1.024931
7345.000000;1.025104
7344.000000;1.024801
7343.000000;1.024163
7342.000000;1.023245
7341.000000;1.022172
7340.000000;1.021669
7339.000000;1.022693
7338.000000;1.025209
7337.000000;1.028086
7336.000000;1.030328
7335.000000;1.031804
7334.000000;1.032817
7333.000000;1.033503
7332.000000;1.033775
7331.000000;1.033579
7330.000000;1.032915
7329.000000;1.031806
7328.000000;1.030617
7327.000000;1.030219
7326.000000;1.031162
7325.000000;1.032922
7324.000000;1.034611
7323.000000;1.035974
7322.000000;1.037281
7321.000000;1.038594
7320.000000;1.039671
7319.000000;1.040404
7318.000000;1.040843
7317.000000;1.041015
7316.000000;1.041062
7315.000000;1.041326
7314.000000;1.041969
7313.000000;1.042578
7312.000000;1.042631
7311.000000;1.042348
7310.000000;1.042514
7309.000000;1.043362
7308.000000;1.044280
7307.000000;1.044824
7306.000000;1.045410
7305.000000;1.046524
7304.000000;1.047901
7303.000000;1.049061
7302.000000;1.049973
7301.000000;1.050848
7300.000000;1.051727
7299.000000;1.052518
7298.000000;1.053203
7297.000000;1.053726
7296.000000;1.053935
7295.000000;1.053810
7294.000000;1.053747
7293.000000;1.054334
7292.000000;1.055610
7291.000000;1.057013
7290.000000;1.058068
7289.000000;1.058694
7288.000000;1.059058
7287.000000;1.059524
7286.000000;1.060558
7285.000000;1.062284
7284.000000;1.064217
7283.000000;1.065763
7282.000000;1.066817
7281.000000;1.067735
7280.000000;1.068795
7279.000000;1.069890
7278.000000;1.070815
7277.000000;1.071564
7276.000000;1.072254
7275.000000;1.072997
7274.000000;1.073898
7273.000000;1.075024
7272.000000;1.076341
7271.000000;1.077770
7270.000000;1.079260
7269.000000;1.080748
7268.000000;1.082138
7267.000000;1.083406
7266.000000;1.084604
7265.000000;1.085670
7264.000000;1.086414
7263.000000;1.086874
7262.000000;1.087547
7261.000000;1.088960
7260.000000;1.091069
7259.000000;1.093303
7258.000000;1.095128
7257.000000;1.096369
7256.000000;1.097141
7255.000000;1.097686
7254.000000;1.098275
7253.000000;1.099179
7252.000000;1.100643
7251.000000;1.102710
7250.000000;1.105151
7249.000000;1.107589
7248.000000;1.109587
7247.000000;1.110862
7246.000000;1.111461
7245.000000;1.111621
7244.000000;1.111526
7243.000000;1.111512
7242.000000;1.112386
7241.000000;1.114849
7240.000000;1.118564
7239.000000;1.122438
7238.000000;1.125641
7237.000000;1.127995
7236.000000;1.129636
7235.000000;1.130590
7234.000000;1.130763
7233.000000;1.130481
7232.000000;1.130886
7231.000000;1.133151
7230.000000;1.137223
7229.000000;1.141857
7228.000000;1.145735
7227.000000;1.148427
7226.000000;1.150528
7225.000000;1.152939
7224.000000;1.155900
7223.000000;1.158897
7222.000000;1.161425
7221.000000;1.163505
7220.000000;1.165575
7219.000000;1.168154
7218.000000;1.171466
7217.000000;1.175220
7216.000000;1.178855
7215.000000;1.182052
7214.000000;1.184915
7213.000000;1.187676
7212.000000;1.190426
7211.000000;1.193185
7210.000000;1.196053
7209.000000;1.199063
7208.000000;1.201931
7207.000000;1.204251
7206.000000;1.206002
7205.000000;1.207713
7204.000000;1.210083
7203.000000;1.213460
7202.000000;1.217641
7201.000000;1.222050
7200.000000;1.226148
7199.000000;1.229791
7198.000000;1.233174
7197.000000;1.236458
7196.000000;1.239610
7195.000000;1.242638
7194.000000;1.245787
7193.000000;1.249279
7192.000000;1.253090
7191.000000;1.257142
7190.000000;1.261493
7189.000000;1.266039
7188.000000;1.270304
7187.000000;1.273849
7186.000000;1.276779
7185.000000;1.279601
7184.000000;1.282624
7183.000000;1.285746
7182.000000;1.288860
7181.000000;1.292217
7180.000000;1.296112
7179.000000;1.300449
7178.000000;1.304915
7177.000000;1.309298
7176.000000;1.313501
7175.000000;1.317531
7174.000000;1.321490
7173.000000;1.325345
7172.000000;1.328788
7171.000000;1.331522
7170.000000;1.333760
7169.000000;1.336186
7168.000000;1.339447
7167.000000;1.343691
7166.000000;1.348504
7165.000000;1.353319
7164.000000;1.357757
7163.000000;1.361686
7162.000000;1.365219
7161.000000;1.368748
7160.000000;1.372717
7159.000000;1.377113
7158.000000;1.381445
7157.000000;1.385352
7156.000000;1.388990
7155.000000;1.392779
7154.000000;1.396870
7153.000000;1.400962
7152.000000;1.404785
7151.000000;1.408441
7150.000000;1.412168
7149.000000;1.416012
7148.000000;1.419845
7147.000000;1.423478
7146.000000;1.426778
7145.000000;1.429824
7144.000000;1.432917
7143.000000;1.436263
7142.000000;1.439708
7141.000000;1.442964
7140.000000;1.446096
7139.000000;1.449610
7138.000000;1.453884
7137.000000;1.458630
7136.000000;1.463173
7135.000000;1.467131
7134.000000;1.470635
7133.000000;1.473997
7132.000000;1.477449
7131.000000;1.481099
7130.000000;1.484849
7129.000000;1.488341
7128.000000;1.491201
7127.000000;1.493455
7126.000000;1.495568
7125.000000;1.497972
7124.000000;1.500693
7123.000000;1.503492
7122.000000;1.506213
7121.000000;1.508876
7120.000000;1.511508
7119.000000;1.514124
7118.000000;1.516872
7117.000000;1.520050
7116.000000;1.523751
7115.000000;1.527635
7114.000000;1.531240
7113.000000;1.534345
7112.000000;1.536937
7111.000000;1.539107
7110.000000;1.541064
7109.000000;1.543100
7108.000000;1.545416
7107.000000;1.548017
7106.000000;1.550761
7105.000000;1.553526
7104.000000;1.556285
7103.000000;1.558916
7102.000000;1.561183
7101.000000;1.563082
7100.000000;1.564968
7099.000000;1.567169
7098.000000;1.569587
7097.000000;1.571840
7096.000000;1.573765
7095.000000;1.575613
7094.000000;1.577679
7093.000000;1.579914
7092.000000;1.582009
7091.000000;1.583793
7090.000000;1.585398
7089.000000;1.587104
7088.000000;1.589154
7087.000000;1.591648
7086.000000;1.594407
7085.000000;1.596949
7084.000000;1.598781
7083.000000;1.599824
7082.000000;1.600500
7081.000000;1.601387
7080.000000;1.602807
7079.000000;1.604742
7078.000000;1.607005
7077.000000;1.609276
7076.000000;1.611107
7075.000000;1.612239
7074.000000;1.612941
7073.000000;1.613767
7072.000000;1.614894
7071.000000;1.615924
7070.000000;1.616437
7069.000000;1.616562
7068.000000;1.616899
7067.000000;1.618022
7066.000000;1.620111
7065.000000;1.622852
7064.000000;1.625579
7063.000000;1.627628
7062.000000;1.628775
7061.000000;1.629366
7060.000000;1.629914
7059.000000;1.630670
7058.000000;1.631669
7057.000000;1.632920
7056.000000;1.634316
7055.000000;1.635567
7054.000000;1.636452
7053.000000;1.637092
7052.000000;1.637781
7051.000000;1.638590
7050.000000;1.639333
7049.000000;1.639915
7048.000000;1.640513
7047.000000;1.641385
7046.000000;1.642632
7045.000000;1.644134
7044.000000;1.645616
7043.000000;1.646798
7042.000000;1.647607
7041.000000;1.648252
7040.000000;1.648947
7039.000000;1.649615
7038.000000;1.650079
7037.000000;1.650496
7036.000000;1.651282
7035.000000;1.652539
7034.000000;1.653818
7033.000000;1.654599
7032.000000;1.654819
7031.000000;1.654781
7030.000000;1.654739
7029.000000;1.654843
7028.000000;1.655319
7027.000000;1.656402
7026.000000;1.658029
7025.000000;1.659750
7024.000000;1.661046
7023.000000;1.661661
7022.000000;1.661665
7021.000000;1.661338
7020.000000;1.661062
7019.000000;1.661172
7018.000000;1.661751
7017.000000;1.662562
7016.000000;1.663293
7015.000000;1.663858
7014.000000;1.664373
7013.000000;1.664867
7012.000000;1.665167
7011.000000;1.665113
7010.000000;1.664788
7009.000000;1.664435
7008.000000;1.664255
7007.000000;1.664418
7006.000000;1.665183
7005.000000;1.666707
7004.000000;1.668626
7003.000000;1.670118
7002.000000;1.670649
7001.000000;1.670589
7000.000000;1.670832
6999.000000;1.671823
6998.000000;1.673077
6997.000000;1.673696
6996.000000;1.673203
6995.000000;1.671886
6994.000000;1.670510
6993.000000;1.669777
6992.000000;1.669932
6991.000000;1.670719
6990.000000;1.671671
6989.000000;1.672478
6988.000000;1.673053
6987.000000;1.673324
6986.000000;1.673157
6985.000000;1.672625
6984.000000;1.672196
6983.000000;1.672443
6982.000000;1.673523
6981.000000;1.675007
6980.000000;1.676209
6979.000000;1.676668
6978.000000;1.676386
6977.000000;1.675793
6976.000000;1.675495
6975.000000;1.675876
6974.000000;1.676753
6973.000000;1.677445
6972.000000;1.677386
6971.000000;1.676720
6970.000000;1.676142
6969.000000;1.676093
6968.000000;1.676342
6967.000000;1.676438
6966.000000;1.676316
6965.000000;1.676242
6964.000000;1.676334
6963.000000;1.676461
6962.000000;1.676575
6961.000000;1.676793
6960.000000;1.677042
6959.000000;1.676974
6958.000000;1.676431
6957.000000;1.675753
6956.000000;1.675455
6955.000000;1.675731
6954.000000;1.676446
6953.000000;1.677377
6952.000000;1.678254
6951.000000;1.678712
6950.000000;1.678521
6949.000000;1.677869
6948.000000;1.677268
6947.000000;1.677168
6946.000000;1.677698
6945.000000;1.678629
6944.000000;1.679486
6943.000000;1.679830
6942.000000;1.679574
6941.000000;1.678960
6940.000000;1.678166
6939.000000;1.677170
6938.000000;1.676115
6937.000000;1.675487
6936.000000;1.675627
6935.000000;1.676231
6934.000000;1.676674
6933.000000;1.676696
6932.000000;1.676450
6931.000000;1.676083
6930.000000;1.675711
6929.000000;1.675710
6928.000000;1.676492
6927.000000;1.677860
6926.000000;1.679014
6925.000000;1.679344
6924.000000;1.678947
6923.000000;1.678263
6922.000000;1.677558
6921.000000;1.676936
6920.000000;1.676470
6919.000000;1.676026
6918.000000;1.675313
6917.000000;1.674409
6916.000000;1.673955
6915.000000;1.674461
6914.000000;1.675618
6913.000000;1.676641
6912.000000;1.677159
6911.000000;1.677428
6910.000000;1.677769
6909.000000;1.678141
6908.000000;1.678306
6907.000000;1.678132
6906.000000;1.677690
6905.000000;1.677211
6904.000000;1.676935
6903.000000;1.676861
6902.000000;1.676637
6901.000000;1.675927
6900.000000;1.674889
6899.000000;1.674097
6898.000000;1.673957
6897.000000;1.674327
6896.000000;1.674726
6895.000000;1.674782
6894.000000;1.674472
6893.000000;1.674074
6892.000000;1.673919
6891.000000;1.674102
6890.000000;1.674391
6889.000000;1.674477
6888.000000;1.674254
6887.000000;1.673771
6886.000000;1.673064
6885.000000;1.672247
6884.000000;1.671695
6883.000000;1.671848
6882.000000;1.672701
6881.000000;1.673641
6880.000000;1.673967
6879.000000;1.673510
6878.000000;1.672663
6877.000000;1.671930
6876.000000;1.671570
6875.000000;1.671630
6874.000000;1.672053
6873.000000;1.672633
6872.000000;1.672968
6871.000000;1.672705
6870.000000;1.671905
6869.000000;1.671055
6868.000000;1.670586
6867.000000;1.670490
6866.000000;1.670522
6865.000000;1.670671
6864.000000;1.671150
6863.000000;1.671909
6862.000000;1.672445
6861.000000;1.672282
6860.000000;1.671475
6859.000000;1.670450
6858.000000;1.669483
6857.000000;1.668579
6856.000000;1.667758
6855.000000;1.667217
6854.000000;1.667142
6853.000000;1.667485
6852.000000;1.668001
6851.000000;1.668408
6850.000000;1.668518
6849.000000;1.668284
6848.000000;1.667748
6847.000000;1.666881
6846.000000;1.665552
6845.000000;1.663774
6844.000000;1.661970
6843.000000;1.660795
6842.000000;1.660606
6841.000000;1.661146
6840.000000;1.661806
6839.000000;1.662149
6838.000000;1.662165
6837.000000;1.662106
6836.000000;1.662156
6835.000000;1.662256
6834.000000;1.662182
6833.000000;1.661759
6832.000000;1.661013
6831.000000;1.660158
6830.000000;1.659432
6829.000000;1.658922
6828.000000;1.658461
6827.000000;1.657719
6826.000000;1.656492
6825.000000;1.654947
6824.000000;1.653527
6823.000000;1.652555
6822.000000;1.652004
6821.000000;1.651645
6820.000000;1.651279
6819.000000;1.650759
6818.000000;1.649963
6817.000000;1.648935
6816.000000;1.647978
6815.000000;1.647421
6814.000000;1.647305
6813.000000;1.647373
6812.000000;1.647327
6811.000000;1.646994
6810.000000;1.646304
6809.000000;1.645293
6808.000000;1.644119
6807.000000;1.642930
6806.000000;1.641745
6805.000000;1.640591
6804.000000;1.639683
6803.000000;1.639240
6802.000000;1.639143
6801.000000;1.639014
6800.000000;1.638635
6799.000000;1.638057
6798.000000;1.637255
6797.000000;1.635982
6796.000000;1.634144
6795.000000;1.632079
6794.000000;1.630252
6793.000000;1.628841
6792.000000;1.627793
6791.000000;1.627117
6790.000000;1.626842
6789.000000;1.626761
6788.000000;1.626497
6787.000000;1.625842
6786.000000;1.624899
6785.000000;1.623863
6784.000000;1.622809
6783.000000;1.621693
6782.000000;1.620428
6781.000000;1.618971
6780.000000;1.617401
6779.000000;1.615928
6778.000000;1.614717
6777.000000;1.613730
6776.000000;1.612828
6775.000000;1.611968
6774.000000;1.611186
6773.000000;1.610445
6772.000000;1.609651
6771.000000;1.608777
6770.000000;1.607818
6769.000000;1.606652
6768.000000;1.605158
6767.000000;1.603465
6766.000000;1.601919
6765.000000;1.600738
6764.000000;1.599857
6763.000000;1.599126
6762.000000;1.598471
6761.000000;1.597802
6760.000000;1.596955
6759.000000;1.595880
6758.000000;1.594753
6757.000000;1.593731
6756.000000;1.592710
6755.000000;1.591488
6754.000000;1.590082
6753.000000;1.588721
6752.000000;1.587535
6751.000000;1.586422
6750.000000;1.585234
6749.000000;1.583935
6748.000000;1.582553
6747.000000;1.581114
6746.000000;1.579711
6745.000000;1.578527
6744.000000;1.577685
6743.000000;1.577096
6742.000000;1.576528
6741.000000;1.575796
6740.000000;1.574830
6739.000000;1.573593
6738.000000;1.572043
6737.000000;1.570216
6736.000000;1.568304
6735.000000;1.566564
6734.000000;1.565110
6733.000000;1.563864
6732.000000;1.562711
6731.000000;1.561623
6730.000000;1.560589
6729.000000;1.559501
6728.000000;1.558249
6727.000000;1.556893
6726.000000;1.555620
6725.000000;1.554506
6724.000000;1.553445
6723.000000;1.552343
6722.000000;1.551251
6721.000000;1.550219
6720.000000;1.549161
6719.000000;1.547980
6718.000000;1.546761
6717.000000;1.545663
6716.000000;1.544714
6715.000000;1.543747
6714.000000;1.542614
6713.000000;1.541281
6712.000000;1.539720
6711.000000;1.537876
6710.000000;1.535813
6709.000000;1.533717
6708.000000;1.531840
6707.000000;1.530377
6706.000000;1.529318
6705.000000;1.528524
6704.000000;1.527798
6703.000000;1.526961
6702.000000;1.525944
6701.000000;1.524775
6700.000000;1.523515
6699.000000;1.522200
6698.000000;1.520829
6697.000000;1.519389
6696.000000;1.517890
6695.000000;1.516403
6694.000000;1.515014
6693.000000;1.513724
6692.000000;1.512441
6691.000000;1.511121
6690.000000;1.509863
6689.000000;1.508770
6688.000000;1.507760
6687.000000;1.506614
6686.000000;1.505248
6685.000000;1.503830
6684.000000;1.502597
6683.000000;1.501591
6682.000000;1.500594
6681.000000;1.499327
6680.000000;1.497735
6679.000000;1.496098
6678.000000;1.494788
6677.000000;1.493865
6676.000000;1.492968
6675.000000;1.491698
6674.000000;1.490059
6673.000000;1.488403
6672.000000;1.486997
6671.000000;1.485794
6670.000000;1.484624
6669.000000;1.483437
6668.000000;1.482302
6667.000000;1.481297
6666.000000;1.480458
6665.000000;1.479719
6664.000000;1.478862
6663.000000;1.477643
6662.000000;1.476049
6661.000000;1.474346
6660.000000;1.472795
6659.000000;1.471424
6658.000000;1.470141
6657.000000;1.468930
6656.000000;1.467813
6655.000000;1.466730
6654.000000;1.465599
6653.000000;1.464446
6652.000000;1.463351
6651.000000;1.462292
6650.000000;1.461175
6649.000000;1.459964
6648.000000;1.458686
6647.000000;1.457338
6646.000000;1.455914
6645.000000;1.454490
6644.000000;1.453158
6643.000000;1.451879
6642.000000;1.450540
6641.000000;1.449168
6640.000000;1.447939
6639.000000;1.446919
6638.000000;1.445935
6637.000000;1.444784
6636.000000;1.443474
6635.000000;1.442170
6634.000000;1.440953
6633.000000;1.439768
6632.000000;1.438565
6631.000000;1.437396
6630.000000;1.436331
6629.000000;1.435359
6628.000000;1.434398
6627.000000;1.433382
6626.000000;1.432300
6625.000000;1.431171
6624.000000;1.429987
6623.000000;1.428718
6622.000000;1.427334
6621.000000;1.425862
6620.000000;1.424417
6619.000000;1.423148
6618.000000;1.422106
6617.000000;1.421126
6616.000000;1.419898
6615.000000;1.418251
6614.000000;1.416403
6613.000000;1.414836
6612.000000;1.413875
6611.000000;1.413390
6610.000000;1.412941
6609.000000;1.412164
6608.000000;1.411000
6607.000000;1.409613
6606.000000;1.408202
6605.000000;1.406898
6604.000000;1.405737
6603.000000;1.404662
6602.000000;1.403560
6601.000000;1.402325
6600.000000;1.400887
6599.000000;1.399257
6598.000000;1.397589
6597.000000;1.396155
6596.000000;1.395142
6595.000000;1.394437
6594.000000;1.393704
6593.000000;1.392714
6592.000000;1.391538
6591.000000;1.390382
6590.000000;1.389331
6589.000000;1.388329
6588.000000;1.387330
6587.000000;1.386339
6586.000000;1.385321
6585.000000;1.384201
6584.000000;1.382977
6583.000000;1.381737
6582.000000;1.380524
6581.000000;1.379263
6580.000000;1.377885
6579.000000;1.376478
6578.000000;1.375234
6577.000000;1.374257
6576.000000;1.373472
6575.000000;1.372693
6574.000000;1.371730
6573.000000;1.370490
6572.000000;1.369038
6571.000000;1.367574
6570.000000;1.366271
6569.000000;1.365103
6568.000000;1.363922
6567.000000;1.362676
6566.000000;1.361498
6565.000000;1.360522
6564.000000;1.359721
6563.000000;1.358986
6562.000000;1.358270
6561.000000;1.357557
6560.000000;1.356727
6559.000000;1.355590
6558.000000;1.354108
6557.000000;1.352476
6556.000000;1.350975
6555.000000;1.349774
6554.000000;1.348867
6553.000000;1.348119
6552.000000;1.347346
6551.000000;1.346432
6550.000000;1.345412
6549.000000;1.344410
6548.000000;1.343458
6547.000000;1.342458
6546.000000;1.341328
6545.000000;1.340127
6544.000000;1.338956
6543.000000;1.337818
6542.000000;1.336649
6541.000000;1.335464
6540.000000;1.334374
6539.000000;1.333467
6538.000000;1.332710
6537.000000;1.331967
6536.000000;1.331072
6535.000000;1.329922
6534.000000;1.328585
6533.000000;1.327294
6532.000000;1.326261
6531.000000;1.325479
6530.000000;1.324759
6529.000000;1.323957
6528.000000;1.323096
6527.000000;1.322237
6526.000000;1.321348
6525.000000;1.320348
6524.000000;1.319233
6523.000000;1.318062
6522.000000;1.316886
6521.000000;1.315747
6520.000000;1.314727
6519.000000;1.313889
6518.000000;1.313180
6517.000000;1.312455
6516.000000;1.311628
6515.000000;1.310750
6514.000000;1.309901
6513.000000;1.309069
6512.000000;1.308172
6511.000000;1.307178
6510.000000;1.306135
6509.000000;1.305112
6508.000000;1.304147
6507.000000;1.303253
6506.000000;1.302428
6505.000000;1.301649
6504.000000;1.300882
6503.000000;1.300126
6502.000000;1.299390
6501.000000;1.298628
6500.000000;1.297726
6499.000000;1.296625
6498.000000;1.295439
6497.000000;1.294393
6496.000000;1.293599
6495.000000;1.292946
6494.000000;1.292211
6493.000000;1.291270
6492.000000;1.290183
6491.000000;1.289110
6490.000000;1.288168
6489.000000;1.287367
6488.000000;1.286612
6487.000000;1.285779
6486.000000;1.284803
6485.000000;1.283758
6484.000000;1.282808
6483.000000;1.282055
6482.000000;1.281419
6481.000000;1.280713
6480.000000;1.279818
6479.000000;1.278793
6478.000000;1.277786
6477.000000;1.276898
6476.000000;1.276130
6475.000000;1.275438
6474.000000;1.274790
6473.000000;1.274159
6472.000000;1.273500
6471.000000;1.272756
6470.000000;1.271894
6469.000000;1.270936
6468.000000;1.269961
6467.000000;1.269056
6466.000000;1.268259
6465.000000;1.267526
6464.000000;1.266784
6463.000000;1.265987
6462.000000;1.265122
6461.000000;1.264169
6460.000000;1.263119
6459.000000;1.262029
6458.000000;1.261035
6457.000000;1.260258
6456.000000;1.259719
6455.000000;1.259328
6454.000000;1.258937
6453.000000;1.258410
6452.000000;1.257681
6451.000000;1.256798
6450.000000;1.255889
6449.000000;1.255082
6448.000000;1.254417
6447.000000;1.253845
6446.000000;1.253263
6445.000000;1.252562
6444.000000;1.251710
6443.000000;1.250799
6442.000000;1.249964
6441.000000;1.249218
6440.000000;1.248413
6439.000000;1.247441
6438.000000;1.246412
6437.000000;1.245561
6436.000000;1.244985
6435.000000;1.244548
6434.000000;1.244052
6433.000000;1.243430
6432.000000;1.242725
6431.000000;1.241958
6430.000000;1.241105
6429.000000;1.240160
6428.000000;1.239199
6427.000000;1.238342
6426.000000;1.237679
6425.000000;1.237200
6424.000000;1.236791
6423.000000;1.236319
6422.000000;1.235742
6421.000000;1.235127
6420.000000;1.234545
6419.000000;1.233970
6418.000000;1.233328
6417.000000;1.232607
6416.000000;1.231898
6415.000000;1.231295
6414.000000;1.230791
6413.000000;1.230267
6412.000000;1.229583
6411.000000;1.228702
6410.000000;1.227734
6409.000000;1.226853
6408.000000;1.226138
6407.000000;1.225518
6406.000000;1.224897
6405.000000;1.224299
6404.000000;1.223822
6403.000000;1.223442
6402.000000;1.222951
6401.000000;1.222184
6400.000000;1.221244
6399.000000;1.220409
6398.000000;1.219805
6397.000000;1.219281
6396.000000;1.218626
6395.000000;1.217828
6394.000000;1.217045
6393.000000;1.216377
6392.000000;1.215790
6391.000000;1.215225
6390.000000;1.214668
6389.000000;1.214100
6388.000000;1.213464
6387.000000;1.212763
6386.000000;1.212106
6385.000000;1.211615
6384.000000;1.211284
6383.000000;1.210985
6382.000000;1.210572
6381.000000;1.209969
6380.000000;1.209200
6379.000000;1.208382
6378.000000;1.207663
6377.000000;1.207121
6376.000000;1.206706
6375.000000;1.206315
6374.000000;1.205894
6373.000000;1.205431
6372.000000;1.204913
6371.000000;1.204340
6370.000000;1.203759
6369.000000;1.203208
6368.000000;1.202644
6367.000000;1.201990
6366.000000;1.201258
6365.000000;1.200552
6364.000000;1.199931
6363.000000;1.199343
6362.000000;1.198718
6361.000000;1.198090
6360.000000;1.197562
6359.000000;1.197174
6358.000000;1.196854
6357.000000;1.196479
6356.000000;1.195982
6355.000000;1.195390
6354.000000;1.194796
6353.000000;1.194269
6352.000000;1.193786
6351.000000;1.193264
6350.000000;1.192657
6349.000000;1.192016
6348.000000;1.191432
6347.000000;1.190929
6346.000000;1.190450
6345.000000;1.189921
6344.000000;1.189341
6343.000000;1.188781
6342.000000;1.188300
6341.000000;1.187883
6340.000000;1.187454
6339.000000;1.186948
6338.000000;1.186367
6337.000000;1.185758
6336.000000;1.185180
6335.000000;1.184687
6334.000000;1.184309
6333.000000;1.184008
6332.000000;1.183691
6331.000000;1.183294
6330.000000;1.182836
6329.000000;1.182370
6328.000000;1.181902
6327.000000;1.181415
6326.000000;1.180939
6325.000000;1.180535
6324.000000;1.180208
6323.000000;1.179888
6322.000000;1.179523
6321.000000;1.179120
6320.000000;1.178681
6319.000000;1.178162
6318.000000;1.177538
6317.000000;1.176881
6316.000000;1.176305
6315.000000;1.175868
6314.000000;1.175528
6313.000000;1.175205
6312.000000;1.174829
6311.000000;1.174363
6310.000000;1.173816
6309.000000;1.173257
6308.000000;1.172771
6307.000000;1.172381
6306.000000;1.172020
6305.000000;1.171600
6304.000000;1.171113
6303.000000;1.170653
6302.000000;1.170336
6301.000000;1.170182
6300.000000;1.170074
6299.000000;1.169835
6298.000000;1.169352
6297.000000;1.168648
6296.000000;1.167852
6295.000000;1.167111
6294.000000;1.166517
6293.000000;1.166076
6292.000000;1.165726
6291.000000;1.165401
6290.000000;1.165092
6289.000000;1.164829
6288.000000;1.164640
6287.000000;1.164508
6286.000000;1.164389
6285.000000;1.164222
6284.000000;1.163939
6283.000000;1.163488
6282.000000;1.162882
6281.000000;1.162211
6280.000000;1.161596
6279.000000;1.161115
6278.000000;1.160784
6277.000000;1.160564
6276.000000;1.160370
6275.000000;1.160094
6274.000000;1.159671
6273.000000;1.159140
6272.000000;1.158607
6271.000000;1.158162
6270.000000;1.157810
6269.000000;1.157502
6268.000000;1.157188
6267.000000;1.156852
6266.000000;1.156496
6265.000000;1.156120
6264.000000;1.155721
6263.000000;1.155299
6262.000000;1.154865
6261.000000;1.154439
6260.000000;1.154050
6259.000000;1.153704
6258.000000;1.153369
6257.000000;1.152989
6256.000000;1.152549
6255.000000;1.152090
6254.000000;1.151687
6253.000000;1.151383
6252.000000;1.151173
6251.000000;1.151008
6250.000000;1.150813
6249.000000;1.150516
6248.000000;1.150100
6247.000000;1.149628
6246.000000;1.149185
6245.000000;1.148805
6244.000000;1.148462
6243.000000;1.148138
6242.000000;1.147846
6241.000000;1.147576
6240.000000;1.147277
6239.000000;1.146919
6238.000000;1.146545
6237.000000;1.146215
6236.000000;1.145922
6235.000000;1.145615
6234.000000;1.145284
6233.000000;1.144975
6232.000000;1.144716
6231.000000;1.144473
6230.000000;1.144206
6229.000000;1.143926
6228.000000;1.143670
6227.000000;1.143436
6226.000000;1.143167
6225.000000;1.142823
6224.000000;1.142438
6223.000000;1.142107
6222.000000;1.141902
6221.000000;1.141792
6220.000000;1.141658
6219.000000;1.141395
6218.000000;1.140999
6217.000000;1.140548
6216.000000;1.140114
6215.000000;1.139696
6214.000000;1.139265
6213.000000;1.138823
6212.000000;1.138420
6211.000000;1.138100
6210.000000;1.137877
6209.000000;1.137758
6208.000000;1.137754
6207.000000;1.137837
6206.000000;1.137905
6205.000000;1.137813
6204.000000;1.137491
6203.000000;1.137003
6202.000000;1.136496
6201.000000;1.136084
6200.000000;1.135785
6199.000000;1.135533
6198.000000;1.135256
6197.000000;1.134930
6196.000000;1.134595
6195.000000;1.134296
6194.000000;1.134014
6193.000000;1.133686
6192.000000;1.133306
6191.000000;1.132962
6190.000000;1.132727
6189.000000;1.132550
6188.000000;1.132316
6187.000000;1.132008
6186.000000;1.131737
6185.000000;1.131592
6184.000000;1.131530
6183.000000;1.131446
6182.000000;1.131293
6181.000000;1.131088
6180.000000;1.130852
6179.000000;1.130606
6178.000000;1.130394
6177.000000;1.130251
6176.000000;1.130144
6175.000000;1.129976
6174.000000;1.129671
6173.000000;1.129238
6172.000000;1.128758
6171.000000;1.128329
6170.000000;1.128016
6169.000000;1.127823
6168.000000;1.127712
6167.000000;1.127632
6166.000000;1.127539
6165.000000;1.127392
6164.000000;1.127159
6163.000000;1.126845
6162.000000;1.126495
6161.000000;1.126147
6160.000000;1.125807
6159.000000;1.125480
6158.000000;1.125206
6157.000000;1.125031
6156.000000;1.124939
6155.000000;1.124846
6154.000000;1.124656
6153.000000;1.124340
6152.000000;1.123963
6151.000000;1.123635
6150.000000;1.123423
6149.000000;1.123305
6148.000000;1.123209
6147.000000;1.123091
6146.000000;1.122937
6145.000000;1.122732
6144.000000;1.122461
6143.000000;1.122152
6142.000000;1.121879
6141.000000;1.121691
6140.000000;1.121564
6139.000000;1.121437
6138.000000;1.121273
6137.000000;1.121073
6136.000000;1.120876
6135.000000;1.120736
6134.000000;1.120672
6133.000000;1.120620
6132.000000;1.120478
6131.000000;1.120203
6130.000000;1.119838
6129.000000;1.119446
6128.000000;1.119051
6127.000000;1.118689
6126.000000;1.118433
6125.000000;1.118339
6124.000000;1.118383
6123.000000;1.118467
6122.000000;1.118476
6121.000000;1.118318
6120.000000;1.117990
6119.000000;1.117615
6118.000000;1.117352
6117.000000;1.117235
6116.000000;1.117143
6115.000000;1.116961
6114.000000;1.116700
6113.000000;1.116432
6112.000000;1.116174
6111.000000;1.115914
6110.000000;1.115692
6109.000000;1.115562
6108.000000;1.115492
6107.000000;1.115393
6106.000000;1.115233
6105.000000;1.115054
6104.000000;1.114900
6103.000000;1.114785
6102.000000;1.114708
6101.000000;1.114647
6100.000000;1.114532
6099.000000;1.114313
6098.000000;1.114044
6097.000000;1.113837
6096.000000;1.113713
6095.000000;1.113583
6094.000000;1.113391
6093.000000;1.113198
6092.000000;1.113097
6091.000000;1.113086
6090.000000;1.113065
6089.000000;1.112942
6088.000000;1.112727
6087.000000;1.112514
6086.000000;1.112388
6085.000000;1.112346
6084.000000;1.112309
6083.000000;1.112214
6082.000000;1.112078
6081.000000;1.111929
6080.000000;1.111747
6079.000000;1.111504
6078.000000;1.111244
6077.000000;1.111051
6076.000000;1.110947
6075.000000;1.110878
6074.000000;1.110800
6073.000000;1.110731
6072.000000;1.110692
6071.000000;1.110648
6070.000000;1.110542
6069.000000;1.110358
6068.000000;1.110131
6067.000000;1.109916
6066.000000;1.109758
6065.000000;1.109659
6064.000000;1.109581
6063.000000;1.109481
6062.000000;1.109368
6061.000000;1.109290
6060.000000;1.109272
6059.000000;1.109277
6058.000000;1.109244
6057.000000;1.109136
6056.000000;1.108964
6055.000000;1.108769
6054.000000;1.108579
6053.000000;1.108376
6052.000000;1.108132
6051.000000;1.107869
6050.000000;1.107661
6049.000000;1.107544
6048.000000;1.107473
6047.000000;1.107377
6046.000000;1.107252
6045.000000;1.107147
6044.000000;1.107081
6043.000000;1.107023
6042.000000;1.106928
6041.000000;1.106777
6040.000000;1.106578
6039.000000;1.106381
6038.000000;1.106251
6037.000000;1.106203
6036.000000;1.106169
6035.000000;1.106069
6034.000000;1.105913
6033.000000;1.105772
6032.000000;1.105681
6031.000000;1.105624
6030.000000;1.105590
6029.000000;1.105576
6028.000000;1.105553
6027.000000;1.105485
6026.000000;1.105406
6025.000000;1.105403
6024.000000;1.105502
6023.000000;1.105617
6022.000000;1.105646
6021.000000;1.105577
6020.000000;1.105471
6019.000000;1.105373
6018.000000;1.105270
6017.000000;1.105135
6016.000000;1.104972
6015.000000;1.104809
6014.000000;1.104667
6013.000000;1.104540
6012.000000;1.104425
6011.000000;1.104356
6010.000000;1.104393
6009.000000;1.104564
6008.000000;1.104811
6007.000000;1.105036
6006.000000;1.105169
6005.000000;1.105185
6004.000000;1.105085
6003.000000;1.104875
6002.000000;1.104582
6001.000000;1.104262
6000.000000;1.103969
5999.000000;1.103743
5998.000000;1.103590
5997.000000;1.103494
5996.000000;1.103445
5995.000000;1.103467
5994.000000;1.103585
5993.000000;1.103758
5992.000000;1.103886
5991.000000;1.103907
5990.000000;1.103850
5989.000000;1.103788
5988.000000;1.103770
5987.000000;1.103820
5986.000000;1.103942
5985.000000;1.104078
5984.000000;1.104106
5983.000000;1.103952
5982.000000;1.103683
5981.000000;1.103437
5980.000000;1.103290
5979.000000;1.103220
5978.000000;1.103182
5977.000000;1.103145
5976.000000;1.103080
5975.000000;1.102976
5974.000000;1.102872
5973.000000;1.102827
5972.000000;1.102855
5971.000000;1.102910
5970.000000;1.102945
5969.000000;1.102945
5968.000000;1.102935
5967.000000;1.102969
5966.000000;1.103088
5965.000000;1.103251
5964.000000;1.103352
5963.000000;1.103338
5962.000000;1.103285
5961.000000;1.103298
5960.000000;1.103374
5959.000000;1.103433
5958.000000;1.103444
5957.000000;1.103458
5956.000000;1.103526
5955.000000;1.103644
5954.000000;1.103788
5953.000000;1.103930
5952.000000;1.104035
5951.000000;1.104091
5950.000000;1.104125
5949.000000;1.104154
5948.000000;1.104129
5947.000000;1.104008
5946.000000;1.103852
5945.000000;1.103775
5944.000000;1.103819
5943.000000;1.103915
5942.000000;1.103993
5941.000000;1.104039
5940.000000;1.104062
5939.000000;1.104063
5938.000000;1.104057
5937.000000;1.104069
5936.000000;1.104103
5935.000000;1.104149
5934.000000;1.104230
5933.000000;1.104366
5932.000000;1.104519
5931.000000;1.104617
5930.000000;1.104644
5929.000000;1.104641
5928.000000;1.104648
5927.000000;1.104684
5926.000000;1.104773
5925.000000;1.104919
5924.000000;1.105049
5923.000000;1.105087
5922.000000;1.105071
5921.000000;1.105134
5920.000000;1.105346
5919.000000;1.105654
5918.000000;1.105954
5917.000000;1.106167
5916.000000;1.106237
5915.000000;1.106145
5914.000000;1.105973
5913.000000;1.105853
5912.000000;1.105836
5911.000000;1.105871
5910.000000;1.105919
5909.000000;1.106019
5908.000000;1.106190
5907.000000;1.106363
5906.000000;1.106457
5905.000000;1.106468
5904.000000;1.106437
5903.000000;1.106389
5902.000000;1.106355
5901.000000;1.106387
5900.000000;1.106509
5899.000000;1.106671
5898.000000;1.106814
5897.000000;1.106942
5896.000000;1.107098
5895.000000;1.107301
5894.000000;1.107533
5893.000000;1.107746
5892.000000;1.107869
5891.000000;1.107842
5890.000000;1.107686
5889.000000;1.107508
5888.000000;1.107426
5887.000000;1.107495
5886.000000;1.107712
5885.000000;1.108038
5884.000000;1.108385
5883.000000;1.108658
5882.000000;1.108835
5881.000000;1.108979
5880.000000;1.109147
5879.000000;1.109324
5878.000000;1.109469
5877.000000;1.109585
5876.000000;1.109688
5875.000000;1.109777
5874.000000;1.109848
5873.000000;1.109911
5872.000000;1.109964
5871.000000;1.109983
5870.000000;1.109982
5869.000000;1.110037
5868.000000;1.110205
5867.000000;1.110464
5866.000000;1.110751
5865.000000;1.111033
5864.000000;1.111299
5863.000000;1.111530
5862.000000;1.111719
5861.000000;1.111899
5860.000000;1.112098
5859.000000;1.112286
5858.000000;1.112416
5857.000000;1.112487
5856.000000;1.112556
5855.000000;1.112675
5854.000000;1.112860
5853.000000;1.113081
5852.000000;1.113269
5851.000000;1.113357
5850.000000;1.113359
5849.000000;1.113380
5848.000000;1.113518
5847.000000;1.113773
5846.000000;1.114076
5845.000000;1.114381
5844.000000;1.114691
5843.000000;1.114989
5842.000000;1.115229
5841.000000;1.115388
5840.000000;1.115515
5839.000000;1.115689
5838.000000;1.115951
5837.000000;1.116282
5836.000000;1.116632
5835.000000;1.116967
5834.000000;1.117279
5833.000000;1.117563
5832.000000;1.117793
5831.000000;1.117952
5830.000000;1.118078
5829.000000;1.118238
5828.000000;1.118464
5827.000000;1.118725
5826.000000;1.118973
5825.000000;1.119196
5824.000000;1.119416
5823.000000;1.119656
5822.000000;1.119933
5821.000000;1.120250
5820.000000;1.120591
5819.000000;1.120928
5818.000000;1.121251
5817.000000;1.121561
5816.000000;1.121845
5815.000000;1.122079
5814.000000;1.122272
5813.000000;1.122489
5812.000000;1.122798
5811.000000;1.123201
5810.000000;1.123631
5809.000000;1.124003
5808.000000;1.124281
5807.000000;1.124506
5806.000000;1.124768
5805.000000;1.125115
5804.000000;1.125494
5803.000000;1.125818
5802.000000;1.126075
5801.000000;1.126352
5800.000000;1.126725
5799.000000;1.127167
5798.000000;1.127592
5797.000000;1.127963
5796.000000;1.128315
5795.000000;1.128693
5794.000000;1.129089
5793.000000;1.129461
5792.000000;1.129802
5791.000000;1.130166
5790.000000;1.130602
5789.000000;1.131081
5788.000000;1.131506
5787.000000;1.131829
5786.000000;1.132104
5785.000000;1.132415
5784.000000;1.132768
5783.000000;1.133118
5782.000000;1.133450
5781.000000;1.133790
5780.000000;1.134141
5779.000000;1.134477
5778.000000;1.134796
5777.000000;1.135141
5776.000000;1.135533
5775.000000;1.135943
5774.000000;1.136337
5773.000000;1.136718
5772.000000;1.137115
5771.000000;1.137548
5770.000000;1.138030
5769.000000;1.138560
5768.000000;1.139102
5767.000000;1.139610
5766.000000;1.140074
5765.000000;1.140536
5764.000000;1.141027
5763.000000;1.141529
5762.000000;1.141996
5761.000000;1.142400
5760.000000;1.142741
5759.000000;1.143045
5758.000000;1.143363
5757.000000;1.143740
5756.000000;1.144171
5755.000000;1.144608
5754.000000;1.145026
5753.000000;1.145461
5752.000000;1.145968
5751.000000;1.146561
5750.000000;1.147195
5749.000000;1.147815
5748.000000;1.148416
5747.000000;1.149042
5746.000000;1.149724
5745.000000;1.150406
5744.000000;1.150989
5743.000000;1.151438
5742.000000;1.151824
5741.000000;1.152227
5740.000000;1.152645
5739.000000;1.153041
5738.000000;1.153437
5737.000000;1.153889
5736.000000;1.154402
5735.000000;1.154935
5734.000000;1.155480
5733.000000;1.156068
5732.000000;1.156700
5731.000000;1.157337
5730.000000;1.157957
5729.000000;1.158572
5728.000000;1.159166
5727.000000;1.159690
5726.000000;1.160135
5725.000000;1.160553
5724.000000;1.161002
5723.000000;1.161523
5722.000000;1.162156
5721.000000;1.162916
5720.000000;1.163724
5719.000000;1.164442
5718.000000;1.165012
5717.000000;1.165509
5716.000000;1.166028
5715.000000;1.166575
5714.000000;1.167113
5713.000000;1.167639
5712.000000;1.168182
5711.000000;1.168744
5710.000000;1.169318
5709.000000;1.169921
5708.000000;1.170591
5707.000000;1.171340
5706.000000;1.172156
5705.000000;1.173021
5704.000000;1.173892
5703.000000;1.174686
5702.000000;1.175332
5701.000000;1.175844
5700.000000;1.176317
5699.000000;1.176841
5698.000000;1.177434
5697.000000;1.178051
5696.000000;1.178663
5695.000000;1.179284
5694.000000;1.179944
5693.000000;1.180621
5692.000000;1.181249
5691.000000;1.181799
5690.000000;1.182334
5689.000000;1.182944
5688.000000;1.183654
5687.000000;1.184431
5686.000000;1.185266
5685.000000;1.186168
5684.000000;1.187087
5683.000000;1.187902
5682.000000;1.188532
5681.000000;1.189037
5680.000000;1.189563
5679.000000;1.190206
5678.000000;1.190946
5677.000000;1.191693
5676.000000;1.192377
5675.000000;1.192990
5674.000000;1.193574
5673.000000;1.194180
5672.000000;1.194848
5671.000000;1.195588
5670.000000;1.196363
5669.000000;1.197071
5668.000000;1.197611
5667.000000;1.197990
5666.000000;1.198337
5665.000000;1.198789
5664.000000;1.199369
5663.000000;1.200012
5662.000000;1.200667
5661.000000;1.201330
5660.000000;1.201998
5659.000000;1.202664
5658.000000;1.203335
5657.000000;1.204021
5656.000000;1.204705
5655.000000;1.205368
5654.000000;1.206029
5653.000000;1.206706
5652.000000;1.207380
5651.000000;1.208036
5650.000000;1.208722
5649.000000;1.209473
5648.000000;1.210210
5647.000000;1.210800
5646.000000;1.211225
5645.000000;1.211611
5644.000000;1.212065
5643.000000;1.212575
5642.000000;1.213080
5641.000000;1.213573
5640.000000;1.214089
5639.000000;1.214659
5638.000000;1.215302
5637.000000;1.216012
5636.000000;1.216731
5635.000000;1.217376
5634.000000;1.217914
5633.000000;1.218387
5632.000000;1.218842
5631.000000;1.219302
5630.000000;1.219789
5629.000000;1.220311
5628.000000;1.220820
5627.000000;1.221238
5626.000000;1.221550
5625.000000;1.221822
5624.000000;1.222118
5623.000000;1.222458
5622.000000;1.222861
5621.000000;1.223343
5620.000000;1.223868
5619.000000;1.224366
5618.000000;1.224829
5617.000000;1.225310
5616.000000;1.225809
5615.000000;1.226223
5614.000000;1.226488
5613.000000;1.226679
5612.000000;1.226921
5611.000000;1.227246
5610.000000;1.227603
5609.000000;1.227956
5608.000000;1.228323
5607.000000;1.228725
5606.000000;1.229166
5605.000000;1.229611
5604.000000;1.229983
5603.000000;1.230210
5602.000000;1.230332
5601.000000;1.230484
5600.000000;1.230752
5599.000000;1.231070
5598.000000;1.231335
5597.000000;1.231560
5596.000000;1.231850
5595.000000;1.232245
5594.000000;1.232681
5593.000000;1.233075
5592.000000;1.233392
5591.000000;1.233628
5590.000000;1.233787
5589.000000;1.233899
5588.000000;1.234011
5587.000000;1.234147
5586.000000;1.234291
5585.000000;1.234428
5584.000000;1.234569
5583.000000;1.234752
5582.000000;1.234996
5581.000000;1.235277
5580.000000;1.235544
5579.000000;1.235753
5578.000000;1.235890
5577.000000;1.235948
5576.000000;1.235934
5575.000000;1.235909
5574.000000;1.235990
5573.000000;1.236234
5572.000000;1.236548
5571.000000;1.236768
5570.000000;1.236827
5569.000000;1.236793
5568.000000;1.236765
5567.000000;1.236789
5566.000000;1.236885
5565.000000;1.237058
5564.000000;1.237277
5563.000000;1.237485
5562.000000;1.237663
5561.000000;1.237832
5560.000000;1.237975
5559.000000;1.238037
5558.000000;1.238010
5557.000000;1.237956
5556.000000;1.237928
5555.000000;1.237946
5554.000000;1.238029
5553.000000;1.238184
5552.000000;1.238328
5551.000000;1.238340
5550.000000;1.238219
5549.000000;1.238125
5548.000000;1.238206
5547.000000;1.238433
5546.000000;1.238657
5545.000000;1.238771
5544.000000;1.238775
5543.000000;1.238747
5542.000000;1.238784
5541.000000;1.238918
5540.000000;1.239074
5539.000000;1.239134
5538.000000;1.239058
5537.000000;1.238912
5536.000000;1.238797
5535.000000;1.238790
5534.000000;1.238914
5533.000000;1.239125
5532.000000;1.239318
5531.000000;1.239418
5530.000000;1.239447
5529.000000;1.239454
5528.000000;1.239430
5527.000000;1.239341
5526.000000;1.239227
5525.000000;1.239192
5524.000000;1.239271
5523.000000;1.239395
5522.000000;1.239507
5521.000000;1.239597
5520.000000;1.239655
5519.000000;1.239672
5518.000000;1.239700
5517.000000;1.239833
5516.000000;1.240099
5515.000000;1.240420
5514.000000;1.240710
5513.000000;1.240906
5512.000000;1.240952
5511.000000;1.240849
5510.000000;1.240735
5509.000000;1.240776
5508.000000;1.240980
5507.000000;1.241195
5506.000000;1.241306
5505.000000;1.241363
5504.000000;1.241455
5503.000000;1.241591
5502.000000;1.241741
5501.000000;1.241867
5500.000000;1.241948
5499.000000;1.241999
5498.000000;1.242047
5497.000000;1.242121
5496.000000;1.242232
5495.000000;1.242386
5494.000000;1.242571
5493.000000;1.242756
5492.000000;1.242940
5491.000000;1.243152
5490.000000;1.243437
5489.000000;1.243797
5488.000000;1.244158
5487.000000;1.244441
5486.000000;1.244627
5485.000000;1.244754
5484.000000;1.244838
5483.000000;1.244901
5482.000000;1.245056
5481.000000;1.245335
5480.000000;1.245557
5479.000000;1.245600
5478.000000;1.245628
5477.000000;1.245878
5476.000000;1.246291
5475.000000;1.246661
5474.000000;1.246982
5473.000000;1.247354
5472.000000;1.247774
5471.000000;1.248185
5470.000000;1.248597
5469.000000;1.249010
5468.000000;1.249367
5467.000000;1.249693
5466.000000;1.250101
5465.000000;1.250624
5464.000000;1.251128
5463.000000;1.251530
5462.000000;1.251978
5461.000000;1.252567
5460.000000;1.253117
5459.000000;1.253496
5458.000000;1.253898
5457.000000;1.254520
5456.000000;1.255243
5455.000000;1.255875
5454.000000;1.256447
5453.000000;1.257104
5452.000000;1.257833
5451.000000;1.258450
5450.000000;1.258848
5449.000000;1.259098
5448.000000;1.259415
5447.000000;1.260006
5446.000000;1.260792
5445.000000;1.261468
5444.000000;1.261930
5443.000000;1.262453
5442.000000;1.263342
5441.000000;1.264518
5440.000000;1.265584
5439.000000;1.266298
5438.000000;1.266850
5437.000000;1.267602
5436.000000;1.268639
5435.000000;1.269778
5434.000000;1.270812
5433.000000;1.271616
5432.000000;1.272309
5431.000000;1.273211
5430.000000;1.274366
5429.000000;1.275463
5428.000000;1.276378
5427.000000;1.277328
5426.000000;1.278517
5425.000000;1.279935
5424.000000;1.281420
5423.000000;1.282812
5422.000000;1.284078
5421.000000;1.285347
5420.000000;1.286728
5419.000000;1.288097
5418.000000;1.289292
5417.000000;1.290380
5416.000000;1.291591
5415.000000;1.292983
5414.000000;1.294376
5413.000000;1.295700
5412.000000;1.297090
5411.000000;1.298696
5410.000000;1.300544
5409.000000;1.302540
5408.000000;1.304570
5407.000000;1.306595
5406.000000;1.308676
5405.000000;1.310835
5404.000000;1.312985
5403.000000;1.315085
5402.000000;1.317099
5401.000000;1.319043
5400.000000;1.321069
5399.000000;1.323239
5398.000000;1.325515
5397.000000;1.327940
5396.000000;1.330591
5395.000000;1.333375
5394.000000;1.336041
5393.000000;1.338526
5392.000000;1.341004
5391.000000;1.343578
5390.000000;1.346251
5389.000000;1.349109
5388.000000;1.352277
5387.000000;1.355719
5386.000000;1.359257
5385.000000;1.362721
5384.000000;1.366088
5383.000000;1.369432
5382.000000;1.372729
5381.000000;1.375983
5380.000000;1.379398
5379.000000;1.383141
5378.000000;1.387070
5377.000000;1.390981
5376.000000;1.394993
5375.000000;1.399363
5374.000000;1.404064
5373.000000;1.408894
5372.000000;1.413735
5371.000000;1.418554
5370.000000;1.423372
5369.000000;1.428263
5368.000000;1.433292
5367.000000;1.438409
5366.000000;1.443505
5365.000000;1.448536
5364.000000;1.453646
5363.000000;1.459064
5362.000000;1.464826
5361.000000;1.470828
5360.000000;1.476975
5359.000000;1.483153
5358.000000;1.489267
5357.000000;1.495409
5356.000000;1.501820
5355.000000;1.508551
5354.000000;1.515358
5353.000000;1.522080
5352.000000;1.528916
5351.000000;1.536148
5350.000000;1.543717
5349.000000;1.551288
5348.000000;1.558773
5347.000000;1.566487
5346.000000;1.574649
5345.000000;1.583028
5344.000000;1.591267
5343.000000;1.599306
5342.000000;1.607365
5341.000000;1.615845
5340.000000;1.624843
5339.000000;1.633826
5338.000000;1.642351
5337.000000;1.650638
5336.000000;1.659150
5335.000000;1.668094
5334.000000;1.677402
5333.000000;1.686749
5332.000000;1.695755
5331.000000;1.704400
5330.000000;1.713050
5329.000000;1.722051
5328.000000;1.731332
5327.000000;1.740497
5326.000000;1.749341
5325.000000;1.758045
5324.000000;1.766793
5323.000000;1.775545
5322.000000;1.784262
5321.000000;1.793072
5320.000000;1.802037
5319.000000;1.810943
5318.000000;1.819461
5317.000000;1.827415
5316.000000;1.834818
5315.000000;1.841765
5314.000000;1.848454
5313.000000;1.855056
5312.000000;1.861537
5311.000000;1.867841
5310.000000;1.874099
5309.000000;1.880420
5308.000000;1.886603
5307.000000;1.892346
5306.000000;1.897653
5305.000000;1.902761
5304.000000;1.907811
5303.000000;1.912801
5302.000000;1.917712
5301.000000;1.922449
5300.000000;1.926714
5299.000000;1.930228
5298.000000;1.933104
5297.000000;1.935817
5296.000000;1.938658
5295.000000;1.941451
5294.000000;1.944015
5293.000000;1.946494
5292.000000;1.949019
5291.000000;1.951318
5290.000000;1.952996
5289.000000;1.954160
5288.000000;1.955408
5287.000000;1.957220
5286.000000;1.959467
5285.000000;1.961627
5284.000000;1.963502
5283.000000;1.965366
5282.000000;1.967322
5281.000000;1.968926
5280.000000;1.969746
5279.000000;1.969992
5278.000000;1.970186
5277.000000;1.970450
5276.000000;1.970515
5275.000000;1.970319
5274.000000;1.970216
5273.000000;1.970575
5272.000000;1.971442
5271.000000;1.972700
5270.000000;1.974147
5269.000000;1.975375
5268.000000;1.976098
5267.000000;1.976571
5266.000000;1.977273
5265.000000;1.978137
5264.000000;1.978649
5263.000000;1.978733
5262.000000;1.979013
5261.000000;1.979979
5260.000000;1.981354
5259.000000;1.982536
5258.000000;1.983349
5257.000000;1.983958
5256.000000;1.984352
5255.000000;1.984395
5254.000000;1.984155
5253.000000;1.983794
5252.000000;1.983376
5251.000000;1.983172
5250.000000;1.983505
5249.000000;1.984117
5248.000000;1.984473
5247.000000;1.984589
5246.000000;1.984906
5245.000000;1.985381
5244.000000;1.985417
5243.000000;1.984893
5242.000000;1.984659
5241.000000;1.985476
5240.000000;1.986946
5239.000000;1.988051
5238.000000;1.988388
5237.000000;1.988242
5236.000000;1.987763
5235.000000;1.986976
5234.000000;1.986327
5233.000000;1.986352
5232.000000;1.986902
5231.000000;1.987264
5230.000000;1.987132
5229.000000;1.986961
5228.000000;1.987263
5227.000000;1.987870
5226.000000;1.988193
5225.000000;1.988110
5224.000000;1.988136
5223.000000;1.988693
5222.000000;1.989594
5221.000000;1.990328
5220.000000;1.990612
5219.000000;1.990586
5218.000000;1.990504
5217.000000;1.990359
5216.000000;1.989977
5215.000000;1.989405
5214.000000;1.988922
5213.000000;1.988793
5212.000000;1.989133
5211.000000;1.989850
5210.000000;1.990649
5209.000000;1.991123
5208.000000;1.990986
5207.000000;1.990357
5206.000000;1.989715
5205.000000;1.989394
5204.000000;1.989284
5203.000000;1.989190
5202.000000;1.989235
5201.000000;1.989693
5200.000000;1.990585
5199.000000;1.991583
5198.000000;1.992265
5197.000000;1.992347
5196.000000;1.991802
5195.000000;1.990846
5194.000000;1.989822
5193.000000;1.989104
5192.000000;1.988930
5191.000000;1.989220
5190.000000;1.989652
5189.000000;1.989989
5188.000000;1.990302
5187.000000;1.990797
5186.000000;1.991408
5185.000000;1.991674
5184.000000;1.991173
5183.000000;1.990052
5182.000000;1.988989
5181.000000;1.988648
5180.000000;1.989197
5179.000000;1.990267
5178.000000;1.991300
5177.000000;1.991920
5176.000000;1.992045
5175.000000;1.991772
5174.000000;1.991262
5173.000000;1.990706
5172.000000;1.990310
5171.000000;1.990243
5170.000000;1.990573
5169.000000;1.991273
5168.000000;1.992195
5167.000000;1.992992
5166.000000;1.993231
5165.000000;1.992794
5164.000000;1.992130
5163.000000;1.991830
5162.000000;1.991898
5161.000000;1.991746
5160.000000;1.991019
5159.000000;1.990104
5158.000000;1.989618
5157.000000;1.989643
5156.000000;1.989738
5155.000000;1.989557
5154.000000;1.989150
5153.000000;1.988705
5152.000000;1.988293
5151.000000;1.987949
5150.000000;1.987721
5149.000000;1.987572
5148.000000;1.987422
5147.000000;1.987340
5146.000000;1.987494
5145.000000;1.987825
5144.000000;1.987993
5143.000000;1.987731
5142.000000;1.987119
5141.000000;1.986466
5140.000000;1.986087
5139.000000;1.986195
5138.000000;1.986785
5137.000000;1.987502
5136.000000;1.987809
5135.000000;1.987444
5134.000000;1.986656
5133.000000;1.985913
5132.000000;1.985483
5131.000000;1.985309
5130.000000;1.985145
5129.000000;1.984754
5128.000000;1.984069
5127.000000;1.983290
5126.000000;1.982755
5125.000000;1.982645
5124.000000;1.982863
5123.000000;1.983243
5122.000000;1.983751
5121.000000;1.984385
5120.000000;1.984979
5119.000000;1.985244
5118.000000;1.985035
5117.000000;1.984506
5116.000000;1.983954
5115.000000;1.983560
5114.000000;1.983253
5113.000000;1.982826
5112.000000;1.982191
5111.000000;1.981574
5110.000000;1.981427
5109.000000;1.982079
5108.000000;1.983366
5107.000000;1.984588
5106.000000;1.984967
5105.000000;1.984297
5104.000000;1.983115
5103.000000;1.982158
5102.000000;1.981660
5101.000000;1.981343
5100.000000;1.981000
5099.000000;1.980760
5098.000000;1.980706
5097.000000;1.980594
5096.000000;1.980211
5095.000000;1.979767
5094.000000;1.979640
5093.000000;1.979852
5092.000000;1.980082
5091.000000;1.980052
5090.000000;1.979657
5089.000000;1.978866
5088.000000;1.977867
5087.000000;1.977176
5086.000000;1.977190
5085.000000;1.977594
5084.000000;1.977641
5083.000000;1.977067
5082.000000;1.976350
5081.000000;1.975965
5080.000000;1.975800
5079.000000;1.975535
5078.000000;1.975236
5077.000000;1.975228
5076.000000;1.975551
5075.000000;1.975794
5074.000000;1.975467
5073.000000;1.974428
5072.000000;1.973058
5071.000000;1.972042
5070.000000;1.971828
5069.000000;1.972224
5068.000000;1.972657
5067.000000;1.972842
5066.000000;1.972933
5065.000000;1.972995
5064.000000;1.972708
5063.000000;1.971822
5062.000000;1.970633
5061.000000;1.969699
5060.000000;1.969258
5059.000000;1.969186
5058.000000;1.969371
5057.000000;1.969806
5056.000000;1.970375
5055.000000;1.970804
5054.000000;1.970833
5053.000000;1.970307
5052.000000;1.969240
5051.000000;1.967965
5050.000000;1.967084
5049.000000;1.966935
5048.000000;1.967146
5047.000000;1.967003
5046.000000;1.966320
5045.000000;1.965688
5044.000000;1.965769
5043.000000;1.966544
5042.000000;1.967367
5041.000000;1.967592
5040.000000;1.967072
5039.000000;1.966164
5038.000000;1.965415
5037.000000;1.965189
5036.000000;1.965443
5035.000000;1.965741
5034.000000;1.965539
5033.000000;1.964582
5032.000000;1.963146
5031.000000;1.961896
5030.000000;1.961354
5029.000000;1.961426
5028.000000;1.961515
5027.000000;1.961184
5026.000000;1.960588
5025.000000;1.960158
5024.000000;1.959984
5023.000000;1.959739
5022.000000;1.959178
5021.000000;1.958458
5020.000000;1.957895
5019.000000;1.957534
5018.000000;1.957103
5017.000000;1.956312
5016.000000;1.955161
5015.000000;1.953988
5014.000000;1.953221
5013.000000;1.953020
5012.000000;1.953119
5011.000000;1.953122
5010.000000;1.952932
5009.000000;1.952790
5008.000000;1.952832
5007.000000;1.952812
5006.000000;1.952408
5005.000000;1.951769
5004.000000;1.951431
5003.000000;1.951676
5002.000000;1.952160
5001.000000;1.952221
5000.000000;1.951538
4999.000000;1.950341
4998.000000;1.949075
4997.000000;1.948023
4996.000000;1.947257
4995.000000;1.946733
4994.000000;1.946326
4993.000000;1.945881
4992.000000;1.945353
4991.000000;1.944871
4990.000000;1.944549
4989.000000;1.944306
4988.000000;1.943956
4987.000000;1.943453
4986.000000;1.942919
4985.000000;1.942391
4984.000000;1.941701
4983.000000;1.940679
4982.000000;1.939437
4981.000000;1.938351
4980.000000;1.937739
4979.000000;1.937562
4978.000000;1.937447
4977.000000;1.937039
4976.000000;1.936284
4975.000000;1.935357
4974.000000;1.934374
4973.000000;1.933302
4972.000000;1.932181
4971.000000;1.931248
4970.000000;1.930706
4969.000000;1.930462
4968.000000;1.930239
4967.000000;1.929890
4966.000000;1.929462
4965.000000;1.929025
4964.000000;1.928595
4963.000000;1.928159
4962.000000;1.927576
4961.000000;1.926522
4960.000000;1.924810
4959.000000;1.922813
4958.000000;1.921252
4957.000000;1.920492
4956.000000;1.920243
4955.000000;1.920063
4954.000000;1.919847
4953.000000;1.919630
4952.000000;1.919207
4951.000000;1.918331
4950.000000;1.917146
4949.000000;1.916086
4948.000000;1.915393
4947.000000;1.914994
4946.000000;1.914791
4945.000000;1.914745
4944.000000;1.914620
4943.000000;1.914014
4942.000000;1.912804
4941.000000;1.911345
4940.000000;1.910070
4939.000000;1.909033
4938.000000;1.908001
4937.000000;1.906829
4936.000000;1.905565
4935.000000;1.904282
4934.000000;1.903024
4933.000000;1.901890
4932.000000;1.900985
4931.000000;1.900272
4930.000000;1.899577
4929.000000;1.898789
4928.000000;1.897946
4927.000000;1.897146
4926.000000;1.896431
4925.000000;1.895774
4924.000000;1.895091
4923.000000;1.894259
4922.000000;1.893212
4921.000000;1.892045
4920.000000;1.890924
4919.000000;1.889880
4918.000000;1.888801
4917.000000;1.887660
4916.000000;1.886624
4915.000000;1.885805
4914.000000;1.885041
4913.000000;1.884069
4912.000000;1.882877
4911.000000;1.881706
4910.000000;1.880698
4909.000000;1.879732
4908.000000;1.878662
4907.000000;1.877555
4906.000000;1.876552
4905.000000;1.875589
4904.000000;1.874450
4903.000000;1.873096
4902.000000;1.871765
4901.000000;1.870724
4900.000000;1.869973
4899.000000;1.869263
4898.000000;1.868325
4897.000000;1.867072
4896.000000;1.865657
4895.000000;1.864386
4894.000000;1.863493
4893.000000;1.862894
4892.000000;1.862193
4891.000000;1.861028
4890.000000;1.859431
4889.000000;1.857779
4888.000000;1.856389
4887.000000;1.855237
4886.000000;1.854097
4885.000000;1.852862
4884.000000;1.851632
4883.000000;1.850514
4882.000000;1.849446
4881.000000;1.848275
4880.000000;1.846951
4879.000000;1.845563
4878.000000;1.844172
4877.000000;1.842709
4876.000000;1.841085
4875.000000;1.839354
4874.000000;1.837693
4873.000000;1.836212
4872.000000;1.834888
4871.000000;1.833691
4870.000000;1.832654
4869.000000;1.831730
4868.000000;1.830688
4867.000000;1.829337
4866.000000;1.827844
4865.000000;1.826620
4864.000000;1.825817
4863.000000;1.825114
4862.000000;1.824115
4861.000000;1.822804
4860.000000;1.821447
4859.000000;1.820151
4858.000000;1.818775
4857.000000;1.817216
4856.000000;1.815571
4855.000000;1.813958
4854.000000;1.812406
4853.000000;1.810974
4852.000000;1.809782
4851.000000;1.808788
4850.000000;1.807720
4849.000000;1.806394
4848.000000;1.804972
4847.000000;1.803745
4846.000000;1.802730
4845.000000;1.801672
4844.000000;1.800392
4843.000000;1.798993
4842.000000;1.797695
4841.000000;1.796578
4840.000000;1.795467
4839.000000;1.794036
4838.000000;1.792103
4837.000000;1.789915
4836.000000;1.788056
4835.000000;1.786918
4834.000000;1.786287
4833.000000;1.785565
4832.000000;1.784343
4831.000000;1.782637
4830.000000;1.780662
4829.000000;1.778643
4828.000000;1.776829
4827.000000;1.775390
4826.000000;1.774178
4825.000000;1.772815
4824.000000;1.771148
4823.000000;1.769478
4822.000000;1.768136
4821.000000;1.767004
4820.000000;1.765644
4819.000000;1.763847
4818.000000;1.761836
4817.000000;1.759933
4816.000000;1.758201
4815.000000;1.756528
4814.000000;1.754881
4813.000000;1.753347
4812.000000;1.751974
4811.000000;1.750696
4810.000000;1.749476
4809.000000;1.748378
4808.000000;1.747413
4807.000000;1.746374
4806.000000;1.744955
4805.000000;1.743110
4804.000000;1.741164
4803.000000;1.739473
4802.000000;1.738093
4801.000000;1.736845
4800.000000;1.735597
4799.000000;1.734331
4798.000000;1.732984
4797.000000;1.731435
4796.000000;1.729671
4795.000000;1.727827
4794.000000;1.726039
4793.000000;1.724395
4792.000000;1.722992
4791.000000;1.721872
4790.000000;1.720847
4789.000000;1.719575
4788.000000;1.717925
4787.000000;1.716121
4786.000000;1.714428
4785.000000;1.712834
4784.000000;1.711159
4783.000000;1.709377
4782.000000;1.707654
4781.000000;1.706102
4780.000000;1.704634
4779.000000;1.703080
4778.000000;1.701364
4777.000000;1.699566
4776.000000;1.697851
4775.000000;1.696307
4774.000000;1.694830
4773.000000;1.693200
4772.000000;1.691328
4771.000000;1.689392
4770.000000;1.687683
4769.000000;1.686338
4768.000000;1.685257
4767.000000;1.684197
4766.000000;1.682933
4765.000000;1.681362
4764.000000;1.679554
4763.000000;1.677725
4762.000000;1.676109
4761.000000;1.674818
4760.000000;1.673779
4759.000000;1.672766
4758.000000;1.671537
4757.000000;1.670027
4756.000000;1.668398
4755.000000;1.666870
4754.000000;1.665511
4753.000000;1.664269
4752.000000;1.663123
4751.000000;1.662050
4750.000000;1.660850
4749.000000;1.659213
4748.000000;1.657048
4747.000000;1.654641
4746.000000;1.652394
4745.000000;1.650499
4744.000000;1.648924
4743.000000;1.647587
4742.000000;1.646414
4741.000000;1.645296
4740.000000;1.644082
4739.000000;1.642639
4738.000000;1.640891
4737.000000;1.638899
4736.000000;1.636929
4735.000000;1.635315
4734.000000;1.634167
4733.000000;1.633274
4732.000000;1.632337
4731.000000;1.631217
4730.000000;1.629925
4729.000000;1.628518
4728.000000;1.627110
4727.000000;1.625851
4726.000000;1.624750
4725.000000;1.623566
4724.000000;1.622037
4723.000000;1.620182
4722.000000;1.618286
4721.000000;1.616618
4720.000000;1.615265
4719.000000;1.614166
4718.000000;1.613183
4717.000000;1.612150
4716.000000;1.610974
4715.000000;1.609683
4714.000000;1.608331
4713.000000;1.606900
4712.000000;1.605381
4711.000000;1.603890
4710.000000;1.602592
4709.000000;1.601505
4708.000000;1.600491
4707.000000;1.599396
4706.000000;1.598152
4705.000000;1.596770
4704.000000;1.595320
4703.000000;1.593891
4702.000000;1.592496
4701.000000;1.591062
4700.000000;1.589591
4699.000000;1.588235
4698.000000;1.587120
4697.000000;1.586151
4696.000000;1.585137
4695.000000;1.584019
4694.000000;1.582844
4693.000000;1.581562
4692.000000;1.580071
4691.000000;1.578478
4690.000000;1.577085
4689.000000;1.576042
4688.000000;1.575134
4687.000000;1.574032
4686.000000;1.572646
4685.000000;1.571176
4684.000000;1.569871
4683.000000;1.568829
4682.000000;1.567959
4681.000000;1.567085
4680.000000;1.566090
4679.000000;1.564961
4678.000000;1.563700
4677.000000;1.562273
4676.000000;1.560742
4675.000000;1.559373
4674.000000;1.558436
4673.000000;1.557871
4672.000000;1.557314
4671.000000;1.556476
4670.000000;1.555379
4669.000000;1.554162
4668.000000;1.552844
4667.000000;1.551390
4666.000000;1.549899
4665.000000;1.548543
4664.000000;1.547383
4663.000000;1.546363
4662.000000;1.545451
4661.000000;1.544650
4660.000000;1.543901
4659.000000;1.543084
4658.000000;1.542146
4657.000000;1.541122
4656.000000;1.540053
4655.000000;1.538956
4654.000000;1.537915
4653.000000;1.537056
4652.000000;1.536366
4651.000000;1.535616
4650.000000;1.534582
4649.000000;1.533340
4648.000000;1.532226
4647.000000;1.531468
4646.000000;1.530944
4645.000000;1.530378
4644.000000;1.529689
4643.000000;1.529001
4642.000000;1.528329
4641.000000;1.527449
4640.000000;1.526183
4639.000000;1.524686
4638.000000;1.523288
4637.000000;1.522107
4636.000000;1.520977
4635.000000;1.519749
4634.000000;1.518495
4633.000000;1.517387
4632.000000;1.516512
4631.000000;1.515850
4630.000000;1.515320
4629.000000;1.514747
4628.000000;1.513914
4627.000000;1.512747
4626.000000;1.511425
4625.000000;1.510218
4624.000000;1.509264
4623.000000;1.508525
4622.000000;1.507909
4621.000000;1.507340
4620.000000;1.506756
4619.000000;1.506125
4618.000000;1.505465
4617.000000;1.504801
4616.000000;1.504118
4615.000000;1.503416
4614.000000;1.502741
4613.000000;1.502123
4612.000000;1.501513
4611.000000;1.500845
4610.000000;1.500112
4609.000000;1.499326
4608.000000;1.498443
4607.000000;1.497432
4606.000000;1.496364
4605.000000;1.495376
4604.000000;1.494530
4603.000000;1.493787
4602.000000;1.493064
4601.000000;1.492246
4600.000000;1.491215
4599.000000;1.490007
4598.000000;1.488908
4597.000000;1.488232
4596.000000;1.487966
4595.000000;1.487770
4594.000000;1.487351
4593.000000;1.486726
4592.000000;1.486067
4591.000000;1.485455
4590.000000;1.484861
4589.000000;1.484273
4588.000000;1.483716
4587.000000;1.483192
4586.000000;1.482695
4585.000000;1.482229
4584.000000;1.481753
4583.000000;1.481194
4582.000000;1.480565
4581.000000;1.479992
4580.000000;1.479501
4579.000000;1.478885
4578.000000;1.477946
4577.000000;1.476804
4576.000000;1.475799
4575.000000;1.475093
4574.000000;1.474554
4573.000000;1.474025
4572.000000;1.473540
4571.000000;1.473180
4570.000000;1.472858
4569.000000;1.472391
4568.000000;1.471701
4567.000000;1.470868
4566.000000;1.470019
4565.000000;1.469240
4564.000000;1.468579
4563.000000;1.468029
4562.000000;1.467507
4561.000000;1.466905
4560.000000;1.466159
4559.000000;1.465308
4558.000000;1.464488
4557.000000;1.463877
4556.000000;1.463563
4555.000000;1.463397
4554.000000;1.463044
4553.000000;1.462251
4552.000000;1.461104
4551.000000;1.459995
4550.000000;1.459317
4549.000000;1.459161
4548.000000;1.459261
4547.000000;1.459214
4546.000000;1.458773
4545.000000;1.458005
4544.000000;1.457177
4543.000000;1.456536
4542.000000;1.456179
4541.000000;1.456058
4540.000000;1.455993
4539.000000;1.455740
4538.000000;1.455154
4537.000000;1.454349
4536.000000;1.453602
4535.000000;1.453061
4534.000000;1.452635
4533.000000;1.452183
4532.000000;1.451703
4531.000000;1.451249
4530.000000;1.450794
4529.000000;1.450303
4528.000000;1.449889
4527.000000;1.449732
4526.000000;1.449830
4525.000000;1.449953
4524.000000;1.449898
4523.000000;1.449691
4522.000000;1.449499
4521.000000;1.449387
4520.000000;1.449243
4519.000000;1.448942
4518.000000;1.448541
4517.000000;1.448259
4516.000000;1.448276
4515.000000;1.448540
4514.000000;1.448795
4513.000000;1.448783
4512.000000;1.448411
4511.000000;1.447749
4510.000000;1.446964
4509.000000;1.446268
4508.000000;1.445835
4507.000000;1.445684
4506.000000;1.445679
4505.000000;1.445666
4504.000000;1.445573
4503.000000;1.445365
4502.000000;1.445005
4501.000000;1.444548
4500.000000;1.444207
4499.000000;1.444202
4498.000000;1.444532
4497.000000;1.444968
4496.000000;1.445259
4495.000000;1.445299
4494.000000;1.445099
4493.000000;1.444715
4492.000000;1.444241
4491.000000;1.443817
4490.000000;1.443586
4489.000000;1.443598
4488.000000;1.443774
4487.000000;1.443953
4486.000000;1.444025
4485.000000;1.444027
4484.000000;1.444066
4483.000000;1.444155
4482.000000;1.444180
4481.000000;1.444057
4480.000000;1.443844
4479.000000;1.443656
4478.000000;1.443546
4477.000000;1.443530
4476.000000;1.443683
4475.000000;1.444084
4474.000000;1.444665
4473.000000;1.445177
4472.000000;1.445351
4471.000000;1.445123
4470.000000;1.444736
4469.000000;1.444627
4468.000000;1.445100
4467.000000;1.446006
4466.000000;1.446806
4465.000000;1.447032
4464.000000;1.446670
4463.000000;1.446091
4462.000000;1.445667
4461.000000;1.445554
4460.000000;1.445733
4459.000000;1.446110
4458.000000;1.446568
4457.000000;1.447035
4456.000000;1.447507
4455.000000;1.447975
4454.000000;1.448384
4453.000000;1.448728
4452.000000;1.449109
4451.000000;1.449576
4450.000000;1.449972
4449.000000;1.450115
4448.000000;1.450130
4447.000000;1.450391
4446.000000;1.451078
4445.000000;1.451941
4444.000000;1.452567
4443.000000;1.452801
4442.000000;1.452826
4441.000000;1.452878
4440.000000;1.452986
4439.000000;1.452978
4438.000000;1.452725
4437.000000;1.452381
4436.000000;1.452337
4435.000000;1.452865
4434.000000;1.453800
4433.000000;1.454660
4432.000000;1.455083
4431.000000;1.455099
4430.000000;1.454980
4429.000000;1.454955
4428.000000;1.455115
4427.000000;1.455489
4426.000000;1.456081
4425.000000;1.456809
4424.000000;1.457484
4423.000000;1.457927
4422.000000;1.458159
4421.000000;1.458463
4420.000000;1.459179
4419.000000;1.460363
4418.000000;1.461666
4417.000000;1.462596
4416.000000;1.462896
4415.000000;1.462678
4414.000000;1.462310
4413.000000;1.462235
4412.000000;1.462772
4411.000000;1.463916
4410.000000;1.465307
4409.000000;1.466502
4408.000000;1.467276
4407.000000;1.467626
4406.000000;1.467606
4405.000000;1.467308
4404.000000;1.466965
4403.000000;1.466885
4402.000000;1.467218
4401.000000;1.467853
4400.000000;1.468553
4399.000000;1.469105
4398.000000;1.469376
4397.000000;1.469369
4396.000000;1.469244
4395.000000;1.469186
4394.000000;1.469232
4393.000000;1.469314
4392.000000;1.469461
4391.000000;1.469848
4390.000000;1.470653
4389.000000;1.471882
4388.000000;1.473281
4387.000000;1.474342
4386.000000;1.474574
4385.000000;1.473970
4384.000000;1.473154
4383.000000;1.472824
4382.000000;1.473089
4381.000000;1.473500
4380.000000;1.473687
4379.000000;1.473683
4378.000000;1.473651
4377.000000;1.473639
4376.000000;1.473708
4375.000000;1.474011
4374.000000;1.474577
4373.000000;1.475211
4372.000000;1.475744
4371.000000;1.476201
4370.000000;1.476567
4369.000000;1.476649
4368.000000;1.476388
4367.000000;1.476139
4366.000000;1.476367
4365.000000;1.477116
4364.000000;1.477988
4363.000000;1.478608
4362.000000;1.478929
4361.000000;1.479142
4360.000000;1.479453
4359.000000;1.479979
4358.000000;1.480678
4357.000000;1.481327
4356.000000;1.481612
4355.000000;1.481356
4354.000000;1.480677
4353.000000;1.479937
4352.000000;1.479483
4351.000000;1.479372
4350.000000;1.479362
4349.000000;1.479253
4348.000000;1.479164
4347.000000;1.479330
4346.000000;1.479691
4345.000000;1.479944
4344.000000;1.479974
4343.000000;1.479934
4342.000000;1.479835
4341.000000;1.479396
4340.000000;1.478495
4339.000000;1.477516
4338.000000;1.476962
4337.000000;1.476887
4336.000000;1.477015
4335.000000;1.477260
4334.000000;1.477798
4333.000000;1.478594
4332.000000;1.479231
4331.000000;1.479342
4330.000000;1.478994
4329.000000;1.478463
4328.000000;1.477817
4327.000000;1.476947
4326.000000;1.475922
4325.000000;1.475068
4324.000000;1.474602
4323.000000;1.474284
4322.000000;1.473623
4321.000000;1.472505
4320.000000;1.471483
4319.000000;1.471263
4318.000000;1.471928
4317.000000;1.472833
4316.000000;1.473276
4315.000000;1.473055
4314.000000;1.472424
4313.000000;1.471789
4312.000000;1.471552
4311.000000;1.471908
4310.000000;1.472505
4309.000000;1.472498
4308.000000;1.471251
4307.000000;1.469017
4306.000000;1.466746
4305.000000;1.465246
4304.000000;1.464681
4303.000000;1.464772
4302.000000;1.465145
4301.000000;1.465390
4300.000000;1.464986
4299.000000;1.463455
4298.000000;1.460717
4297.000000;1.457276
4296.000000;1.454019
4295.000000;1.451714
4294.000000;1.450533
4293.000000;1.449980
4292.000000;1.449315
4291.000000;1.448165
4290.000000;1.446749
4289.000000;1.445430
4288.000000;1.444067
4287.000000;1.442018
4286.000000;1.438991
4285.000000;1.435732
4284.000000;1.433428
4283.000000;1.432368
4282.000000;1.431602
4281.000000;1.430146
4280.000000;1.428189
4279.000000;1.426646
4278.000000;1.425740
4277.000000;1.424563
4276.000000;1.422103
4275.000000;1.418310
4274.000000;1.414163
4273.000000;1.410968
4272.000000;1.409495
4271.000000;1.409329
4270.000000;1.409008
4269.000000;1.407190
4268.000000;1.403837
4267.000000;1.399999
4266.000000;1.396519
4265.000000;1.393398
4264.000000;1.390301
4263.000000;1.387006
4262.000000;1.383312
4261.000000;1.379106
4260.000000;1.374702
4259.000000;1.370600
4258.000000;1.366797
4257.000000;1.362977
4256.000000;1.359386
4255.000000;1.356626
4254.000000;1.354241
4253.000000;1.350545
4252.000000;1.344677
4251.000000;1.338106
4250.000000;1.332909
4249.000000;1.329242
4248.000000;1.325067
4247.000000;1.318609
4246.000000;1.310228
4245.000000;1.301851
4244.000000;1.295248
4243.000000;1.290920
4242.000000;1.287982
4241.000000;1.284888
4240.000000;1.280554
4239.000000;1.274865
4238.000000;1.268127
4237.000000;1.260520
4236.000000;1.252368
4235.000000;1.244398
4234.000000;1.237026
4233.000000;1.229648
4232.000000;1.221360
4231.000000;1.212151
4230.000000;1.202662
4229.000000;1.192898
4228.000000;1.182017
4227.000000;1.169568
4226.000000;1.156299
4225.000000;1.143312
4224.000000;1.130868
4223.000000;1.118413
4222.000000;1.105431
4221.000000;1.092013
4220.000000;1.078433
4219.000000;1.064099
4218.000000;1.047490
4217.000000;1.027756
4216.000000;1.006047
4215.000000;0.984329
4214.000000;0.962818
4213.000000;0.939606
4212.000000;0.913172
4211.000000;0.884326
4210.000000;0.855063
4209.000000;0.826260
4208.000000;0.796941
4207.000000;0.764708
4206.000000;0.726430
4205.000000;0.680087
4204.000000;0.627043
4203.000000;0.571053
4202.000000;0.513716
4201.000000;0.453645
4200.000000;0.393933
4199.000000;0.348642
4198.000000;0.334548
4197.000000;0.357042
4196.000000;0.408117
4195.000000;0.472208
4194.000000;0.537043
4193.000000;0.599209
4192.000000;0.659099
4191.000000;0.716072
4190.000000;0.769334
4189.000000;0.819161
4188.000000;0.865292
4187.000000;0.906183
4186.000000;0.941099
4185.000000;0.972057
4184.000000;1.002716
4183.000000;1.035425
4182.000000;1.069527
4181.000000;1.102323
4180.000000;1.131694
4179.000000;1.157780
4178.000000;1.181951
4177.000000;1.204559
4176.000000;1.224638
4175.000000;1.242202
4174.000000;1.259830
4173.000000;1.280615
4172.000000;1.304798
4171.000000;1.329427
4170.000000;1.351334
4169.000000;1.369539
4168.000000;1.384699
4167.000000;1.397718
4166.000000;1.409770
4165.000000;1.422605
4164.000000;1.437747
4163.000000;1.455272
4162.000000;1.473462
4161.000000;1.490001
4160.000000;1.503667
4159.000000;1.514914
4158.000000;1.525371
4157.000000;1.536616
4156.000000;1.549042
4155.000000;1.561821
4154.000000;1.573918
4153.000000;1.585012
4152.000000;1.595516
4151.000000;1.606147
4150.000000;1.617625
4149.000000;1.630360
4148.000000;1.644080
4147.000000;1.657850
4146.000000;1.670628
4145.000000;1.681962
4144.000000;1.692250
4143.000000;1.702280
4142.000000;1.712684
4141.000000;1.723912
4140.000000;1.736476
4139.000000;1.750901
4138.000000;1.767115
4137.000000;1.783338
4136.000000;1.795785
4135.000000;1.800830
4134.000000;1.798794
4133.000000;1.795164
4132.000000;1.796793
4131.000000;1.806884
4130.000000;1.823400
4129.000000;1.840775
4128.000000;1.853937
4127.000000;1.861899
4126.000000;1.866927
4125.000000;1.872172
4124.000000;1.880177
4123.000000;1.891510
4122.000000;1.904001
4121.000000;1.913994
4120.000000;1.920192
4119.000000;1.925771
4118.000000;1.934945
4117.000000;1.947708
4116.000000;1.959188
4115.000000;1.965419
4114.000000;1.969207
4113.000000;1.977432
4112.000000;1.992267
4111.000000;2.007270
4110.000000;2.014463
4109.000000;2.014606
4108.000000;2.015886
4107.000000;2.023342
4106.000000;2.032951
4105.000000;2.037125
4104.000000;2.035009
4103.000000;2.033121
4102.000000;2.036394
4101.000000;2.043356
4100.000000;2.050710
4099.000000;2.059338
4098.000000;2.072847
4097.000000;2.091463
4096.000000;2.110424
4095.000000;2.124618
4094.000000;2.132470
4093.000000;2.134689
4092.000000;2.132421
4091.000000;2.128203
4090.000000;2.126366
4089.000000;2.130520
4088.000000;2.140814
4087.000000;2.153774
4086.000000;2.163980
4085.000000;2.166286
4084.000000;2.158916
4083.000000;2.145787
4082.000000;2.135480
4081.000000;2.136325
4080.000000;2.150703
4079.000000;2.172654
4078.000000;2.191039
4077.000000;2.199005
4076.000000;2.199878
4075.000000;2.200026
4074.000000;2.200766
4073.000000;2.200599
4072.000000;2.202512
4071.000000;2.212327
4070.000000;2.228072
4069.000000;2.240115
4068.000000;2.244074
4067.000000;2.244624
4066.000000;2.248439
4065.000000;2.259126
4064.000000;2.275484
4063.000000;2.292043
4062.000000;2.302094
4061.000000;2.302552
4060.000000;2.297198
4059.000000;2.293088
4058.000000;2.293268
4057.000000;2.295310
4056.000000;2.296455
4055.000000;2.297590
4054.000000;2.301911
4053.000000;2.312709
4052.000000;2.331381
4051.000000;2.355206
4050.000000;2.376946
4049.000000;2.387249
4048.000000;2.383164
4047.000000;2.373147
4046.000000;2.368125
4045.000000;2.371675
4044.000000;2.379964
4043.000000;2.387308
4042.000000;2.390323
4041.000000;2.389088
4040.000000;2.386695
4039.000000;2.387484
4038.000000;2.393280
4037.000000;2.400793
4036.000000;2.406217
4035.000000;2.412172
4034.000000;2.425420
4033.000000;2.448054
4032.000000;2.473784
4031.000000;2.493732
4030.000000;2.504169
4029.000000;2.504681
4028.000000;2.495439
4027.000000;2.482158
4026.000000;2.473317
4025.000000;2.470635
4024.000000;2.467870
4023.000000;2.459275
4022.000000;2.447696
4021.000000;2.442588
4020.000000;2.451578
4019.000000;2.474314
4018.000000;2.501773
4017.000000;2.521519
4016.000000;2.527287
4015.000000;2.524121
4014.000000;2.522249
4013.000000;2.527566
4012.000000;2.538789
4011.000000;2.550824
4010.000000;2.559591
4009.000000;2.566182
4008.000000;2.575118
4007.000000;2.588588
4006.000000;2.604966
4005.000000;2.619726
4004.000000;2.627828
4003.000000;2.627826
4002.000000;2.622032
4001.000000;2.613842
4000.000000;2.606753
3999.000000;2.602135
3998.000000;2.597850
3997.000000;2.592903
3996.000000;2.591953
3995.000000;2.601338
3994.000000;2.620511
3993.000000;2.639497
3992.000000;2.647982
3991.000000;2.646253
3990.000000;2.640934
3989.000000;2.635662
3988.000000;2.633935
3987.000000;2.642293
3986.000000;2.661282
3985.000000;2.676518
3984.000000;2.669677
3983.000000;2.644649
3982.000000;2.626223
3981.000000;2.632043
3980.000000;2.659299
3979.000000;2.691577
3978.000000;2.717460
3977.000000;2.736641
3976.000000;2.746703
3975.000000;2.747613
3974.000000;2.750421
3973.000000;2.762522
3972.000000;2.775057
3971.000000;2.773757
3970.000000;2.759878
3969.000000;2.745921
3968.000000;2.737780
3967.000000;2.733973
3966.000000;2.731942
3965.000000;2.734774
3964.000000;2.749685
3963.000000;2.776124
3962.000000;2.804047
3961.000000;2.821643
3960.000000;2.824565
3959.000000;2.820114
3958.000000;2.821314
3957.000000;2.836039
3956.000000;2.855874
3955.000000;2.860262
3954.000000;2.843096
3953.000000;2.825099
3952.000000;2.830604
3951.000000;2.863492
3950.000000;2.898975
3949.000000;2.903499
3948.000000;2.877638
3947.000000;2.847891
3946.000000;2.828516
3945.000000;2.819250
3944.000000;2.817817
3943.000000;2.823132
3942.000000;2.836095
3941.000000;2.858551
3940.000000;2.889018
3939.000000;2.925262
3938.000000;2.964500
3937.000000;3.002108
3936.000000;3.039054
3935.000000;3.075801
3934.000000;3.097679
3933.000000;3.095786
3932.000000;3.091870
3931.000000;3.110900
3930.000000;3.150606
3929.000000;3.182762
3928.000000;3.186658
3927.000000;3.176762
3926.000000;3.178631
3925.000000;3.197718
3924.000000;3.205917
3923.000000;3.172991
3922.000000;3.126278
3921.000000;3.105199
3920.000000;3.109772
3919.000000;3.107737
3918.000000;3.075192
3917.000000;3.037570
3916.000000;3.038587
3915.000000;3.102363
3914.000000;3.222195
3913.000000;3.343645
3912.000000;3.433532
3911.000000;3.549237
3910.000000;3.699974
3909.000000;3.785899
3908.000000;3.746254
3907.000000;3.655126
3906.000000;3.588194
3905.000000;3.578806
3904.000000;3.638138
3903.000000;3.758354
3902.000000;3.859688
3901.000000;3.745762
3900.000000;3.510442
3899.000000;3.339716
3898.000000;3.272256
3897.000000;3.289053
3896.000000;3.346603
3895.000000;3.403089
3894.000000;3.448222
3893.000000;3.508907
3892.000000;3.605526
3891.000000;3.651800
3890.000000;3.605485
3889.000000;3.564065
3888.000000;3.531861
3887.000000;3.484620
3886.000000;3.450871
3885.000000;3.473100
3884.000000;3.564867
3883.000000;3.738373
3882.000000;3.800524
3881.000000;3.641567
3880.000000;3.603058
3879.000000;3.799707
3878.000000;4.359055
3877.000000;4.347663
3876.000000;4.045989
3875.000000;3.950920
3874.000000;3.931943
3873.000000;3.984072
3872.000000;3.954086
3871.000000;3.861756
3870.000000;3.875664
3869.000000;4.240535
3868.000000;4.453030
3867.000000;3.919334
3866.000000;3.792963
3865.000000;3.777320
3864.000000;3.903031
3863.000000;4.215144
3862.000000;4.186251
3861.000000;4.065406
3860.000000;4.573726
3859.000000;4.335449
3858.000000;3.932891
3857.000000;3.963427
3856.000000;4.062613
3855.000000;4.040361
3854.000000;3.942918
3853.000000;3.936968
3852.000000;3.897387
3851.000000;3.883675
3850.000000;4.126408
3849.000000;4.327674
3848.000000;4.071290
3847.000000;4.114972
3846.000000;4.494273
3845.000000;4.353089
3844.000000;4.087380
3843.000000;4.043120
3842.000000;4.181159
3841.000000;4.609036
3840.000000;4.349455
3839.000000;3.978162
3838.000000;3.925548
3837.000000;3.974637
3836.000000;3.985887
3835.000000;3.961408
3834.000000;4.031254
3833.000000;4.223450
3832.000000;4.638836
3831.000000;4.858704
3830.000000;4.407897
3829.000000;4.236900
3828.000000;4.122127
3827.000000;4.058838
3826.000000;4.114384
3825.000000;4.291612
3824.000000;4.542929
3823.000000;4.540693
3822.000000;4.326857
3821.000000;4.207830
3820.000000;4.132976
3819.000000;4.106766
3818.000000;4.130938
3817.000000;3.922820
3816.000000;3.683829
3815.000000;3.504713
3814.000000;3.395397
3813.000000;3.402480
3812.000000;3.495590
3811.000000;3.604657
3810.000000;3.696221
3809.000000;3.763906
3808.000000;3.832762
3807.000000;3.941746
3806.000000;4.075394
3805.000000;4.183563
3804.000000;4.233946
3803.000000;4.443469
3802.000000;4.581046
3801.000000;4.015811
3800.000000;3.771160
3799.000000;3.721860
3798.000000;3.789681
3797.000000;3.860954
3796.000000;3.694725
3795.000000;3.567907
3794.000000;3.632569
3793.000000;3.938339
3792.000000;3.924169
3791.000000;3.787790
3790.000000;3.930240
3789.000000;3.860614
3788.000000;3.719100
3787.000000;3.823978
3786.000000;3.919170
3785.000000;3.729675
3784.000000;3.677436
3783.000000;3.784257
3782.000000;3.878955
3781.000000;3.838778
3780.000000;3.817971
3779.000000;3.851133
3778.000000;3.909269
3777.000000;4.134621
3776.000000;3.945164
3775.000000;3.702289
3774.000000;3.700447
3773.000000;3.846941
3772.000000;3.984649
3771.000000;4.132921
3770.000000;4.337350
3769.000000;3.974623
3768.000000;3.839495
3767.000000;3.955317
3766.000000;4.152522
3765.000000;4.211683
3764.000000;4.202603
3763.000000;4.250269
3762.000000;4.232362
3761.000000;4.247998
3760.000000;4.426773
3759.000000;4.650107
3758.000000;4.629941
3757.000000;4.432599
3756.000000;4.336438
3755.000000;4.406234
3754.000000;4.369447
3753.000000;4.226628
3752.000000;4.078479
3751.000000;3.968864
3750.000000;3.922124
3749.000000;3.903375
3748.000000;3.883307
3747.000000;3.824638
3746.000000;3.703942
3745.000000;3.623598
3744.000000;3.668151
3743.000000;3.864653
3742.000000;4.304541
3741.000000;4.571870
3740.000000;4.255618
3739.000000;4.137250
3738.000000;4.083892
3737.000000;4.038002
3736.000000;3.971222
3735.000000;3.854410
3734.000000;3.719689
3733.000000;3.631884
3732.000000;3.618007
3731.000000;3.629454
3730.000000;3.665811
3729.000000;3.837639
3728.000000;3.979141
3727.000000;3.854815
3726.000000;3.772131
3725.000000;3.753788
3724.000000;3.740499
3723.000000;3.735538
3722.000000;3.768895
3721.000000;3.868043
3720.000000;4.194225
3719.000000;4.244227
3718.000000;3.851485
3717.000000;3.777040
3716.000000;3.920502
3715.000000;4.124155
3714.000000;4.222205
3713.000000;4.224266
3712.000000;4.152200
3711.000000;4.087668
3710.000000;3.999106
3709.000000;4.244112
3708.000000;4.478317
3707.000000;3.852518
3706.000000;3.710846
3705.000000;3.674230
3704.000000;3.599491
3703.000000;3.554747
3702.000000;3.574512
3701.000000;3.840636
3700.000000;4.260467
3699.000000;3.837180
3698.000000;3.651512
3697.000000;3.738664
3696.000000;3.971048
3695.000000;4.266619
3694.000000;4.378559
3693.000000;4.318932
3692.000000;4.183422
3691.000000;4.063552
3690.000000;3.970786
3689.000000;3.824502
3688.000000;3.735133
3687.000000;3.790725
3686.000000;3.684154
3685.000000;3.472926
3684.000000;3.440150
3683.000000;3.587764
3682.000000;3.862682
3681.000000;4.112732
3680.000000;4.262579
3679.000000;4.554692
3678.000000;4.715444
3677.000000;4.446849
3676.000000;4.317009
3675.000000;4.304500
3674.000000;4.464334
3673.000000;4.336222
3672.000000;3.999300
3671.000000;3.840674
3670.000000;3.815905
3669.000000;4.005369
3668.000000;3.874997
3667.000000;3.563313
3666.000000;3.457810
3665.000000;3.553881
3664.000000;3.712277
3663.000000;3.581326
3662.000000;3.495433
3661.000000;3.577510
3660.000000;3.719161
3659.000000;3.925567
3658.000000;4.193066
3657.000000;4.001961
3656.000000;3.828179
3655.000000;3.903542
3654.000000;4.131062
3653.000000;4.355960
3652.000000;4.333623
3651.000000;4.176968
3650.000000;3.978246
3649.000000;3.817526
3648.000000;3.783269
3647.000000;3.881313
3646.000000;3.783074
3645.000000;3.642493
3644.000000;3.730873
3643.000000;3.883132
3642.000000;3.790038
3641.000000;3.607499
3640.000000;3.488506
3639.000000;3.477386
3638.000000;3.605632
3637.000000;3.818614
3636.000000;3.951651
3635.000000;4.110681
3634.000000;4.298035
3633.000000;4.189354
3632.000000;4.101950
3631.000000;4.050298
3630.000000;4.148653
3629.000000;4.517077
3628.000000;4.035548
3627.000000;3.708661
3626.000000;3.623896
3625.000000;3.710161
3624.000000;3.987329
3623.000000;4.362287
3622.000000;4.344565
3621.000000;4.050231
3620.000000;3.819270
3619.000000;3.699005
3618.000000;3.634494
3617.000000;3.676497
3616.000000;3.936950
3615.000000;4.073327
3614.000000;3.701775
3613.000000;3.667924
3612.000000;4.380166
3611.000000;3.875197
3610.000000;3.515141
3609.000000;3.510321
3608.000000;3.761917
3607.000000;4.296954
3606.000000;3.769822
3605.000000;3.666612
3604.000000;3.690504
3603.000000;3.673937
3602.000000;3.743997
3601.000000;4.049461
3600.000000;4.167248
3599.000000;3.686735
3598.000000;3.526085
3597.000000;3.457102
3596.000000;3.449745
3595.000000;3.572558
3594.000000;3.852043
3593.000000;4.061325
3592.000000;4.514423
3591.000000;4.550434
3590.000000;3.998993
3589.000000;4.286480
3588.000000;4.264760
3587.000000;3.761461
3586.000000;3.598466
3585.000000;3.554120
3584.000000;3.496555
3583.000000;3.369695
3582.000000;3.273423
3581.000000;3.243905
3580.000000;3.314242
3579.000000;3.455987
3578.000000;3.766838
3577.000000;4.504063
3576.000000;3.775519
3575.000000;3.463725
3574.000000;3.323148
3573.000000;3.226483
3572.000000;3.210417
3571.000000;3.273766
3570.000000;3.428697
3569.000000;3.597548
3568.000000;3.698210
3567.000000;3.783490
3566.000000;3.720627
3565.000000;3.474123
3564.000000;3.279846
3563.000000;3.214301
3562.000000;3.265196
3561.000000;3.515424
3560.000000;4.006006
3559.000000;3.579588
3558.000000;3.337894
3557.000000;3.358465
3556.000000;3.577536
3555.000000;3.792601
3554.000000;3.459216
3553.000000;3.280299
3552.000000;3.246043
3551.000000;3.310399
3550.000000;3.505258
3549.000000;3.665798
3548.000000;3.718247
3547.000000;3.845227
3546.000000;4.231672
3545.000000;4.730401
3544.000000;4.125684
3543.000000;4.189697
3542.000000;4.330952
3541.000000;3.979733
3540.000000;3.778577
3539.000000;3.591952
3538.000000;3.401927
3537.000000;3.272557
3536.000000;3.239660
3535.000000;3.341398
3534.000000;3.574684
3533.000000;3.518675
3532.000000;3.377808
3531.000000;3.420740
3530.000000;3.657748
3529.000000;4.177875
3528.000000;3.835147
3527.000000;3.869638
3526.000000;4.096280
3525.000000;3.497957
3524.000000;3.288719
3523.000000;3.249769
3522.000000;3.267114
3521.000000;3.314398
3520.000000;3.412607
3519.000000;3.618891
3518.000000;3.828332
3517.000000;3.939708
3516.000000;3.894047
3515.000000;3.870434
3514.000000;4.187847
3513.000000;4.138436
3512.000000;3.704996
3511.000000;3.551706
3510.000000;3.439017
3509.000000;3.343692
3508.000000;3.266120
3507.000000;3.244869
3506.000000;3.251055
3505.000000;3.308532
3504.000000;3.344710
3503.000000;3.498936
3502.000000;4.420686
3501.000000;3.823685
3500.000000;3.621223
3499.000000;3.796751
3498.000000;3.699211
3497.000000;3.565835
3496.000000;3.382115
3495.000000;3.260669
3494.000000;3.214392
3493.000000;3.245407
3492.000000;3.341253
3491.000000;3.494060
3490.000000;3.724450
3489.000000;3.898946
3488.000000;3.774959
3487.000000;3.592086
3486.000000;3.587698
3485.000000;3.802489
3484.000000;4.142864
3483.000000;4.371263
3482.000000;3.745393
3481.000000;3.355899
3480.000000;3.187306
3479.000000;3.129754
3478.000000;3.181392
3477.000000;3.346215
3476.000000;3.622333
3475.000000;3.706979
3474.000000;3.492267
3473.000000;3.356768
3472.000000;3.318217
3471.000000;3.352919
3470.000000;3.431304
3469.000000;3.511766
3468.000000;3.625144
3467.000000;3.760105
3466.000000;3.723999
3465.000000;3.661449
3464.000000;3.740316
3463.000000;3.958116
3462.000000;3.999621
3461.000000;3.711043
3460.000000;3.546328
3459.000000;3.482090
3458.000000;3.340943
3457.000000;3.217193
3456.000000;3.219921
3455.000000;3.392110
3454.000000;3.754228
3453.000000;3.782000
3452.000000;3.616626
3451.000000;3.564900
3450.000000;3.489523
3449.000000;3.411042
3448.000000;3.324615
3447.000000;3.258120
3446.000000;3.237706
3445.000000;3.267192
3444.000000;3.344294
3443.000000;3.476632
3442.000000;3.757964
3441.000000;3.912295
3440.000000;3.636042
3439.000000;3.496528
3438.000000;3.449254
3437.000000;3.540231
3436.000000;3.747646
3435.000000;3.655442
3434.000000;3.495220
3433.000000;3.416774
3432.000000;3.333470
3431.000000;3.263265
3430.000000;3.267710
3429.000000;3.357723
3428.000000;3.322612
3427.000000;3.157024
3426.000000;3.067433
3425.000000;3.079559
3424.000000;3.197252
3423.000000;3.436338
3422.000000;3.863335
3421.000000;4.114874
3420.000000;3.694199
3419.000000;3.442019
3418.000000;3.352771
3417.000000;3.404080
3416.000000;3.604294
3415.000000;3.837941
3414.000000;3.775691
3413.000000;3.670099
3412.000000;3.590109
3411.000000;3.428828
3410.000000;3.334809
3409.000000;3.386008
3408.000000;3.462169
3407.000000;3.383195
3406.000000;3.279934
3405.000000;3.238402
3404.000000;3.249065
3403.000000;3.405292
3402.000000;3.613323
3401.000000;3.368466
3400.000000;3.163118
3399.000000;3.129419
3398.000000;3.181294
3397.000000;3.284258
3396.000000;3.398600
3395.000000;3.572753
3394.000000;3.926444
3393.000000;4.158003
3392.000000;3.869607
3391.000000;3.644082
3390.000000;3.562782
3389.000000;3.605197
3388.000000;3.687854
3387.000000;3.819422
3386.000000;3.999634
3385.000000;3.955097
3384.000000;3.889870
3383.000000;3.615002
3382.000000;3.327775
3381.000000;3.221414
3380.000000;3.243676
3379.000000;3.346435
3378.000000;3.404704
3377.000000;3.366744
3376.000000;3.408274
3375.000000;3.601581
3374.000000;3.829222
3373.000000;3.862092
3372.000000;3.591662
3371.000000;3.397680
3370.000000;3.392526
3369.000000;3.412130
3368.000000;3.333639
3367.000000;3.343595
3366.000000;3.442424
3365.000000;3.729522
3364.000000;3.973317
3363.000000;3.355293
3362.000000;3.126466
3361.000000;3.086758
3360.000000;3.156102
3359.000000;3.357654
3358.000000;3.651519
3357.000000;3.939190
3356.000000;3.857752
3355.000000;3.615290
3354.000000;3.660635
3353.000000;3.937947
3352.000000;3.633028
3351.000000;3.403684
3350.000000;3.376137
3349.000000;3.348171
3348.000000;3.267524
3347.000000;3.161279
3346.000000;3.083614
3345.000000;3.072849
3344.000000;3.129827
3343.000000;3.250113
3342.000000;3.376123
3341.000000;3.370554
3340.000000;3.314064
3339.000000;3.350256
3338.000000;3.478221
3337.000000;3.516600
3336.000000;3.414869
3335.000000;3.333280
3334.000000;3.300317
3333.000000;3.339612
3332.000000;3.467317
3331.000000;3.568434
3330.000000;3.504648
3329.000000;3.438829
3328.000000;3.449903
3327.000000;3.505870
3326.000000;3.496676
3325.000000;3.410406
3324.000000;3.342445
3323.000000;3.377012
3322.000000;3.607165
3321.000000;3.718559
3320.000000;3.492600
3319.000000;3.446338
3318.000000;3.758511
3317.000000;3.905044
3316.000000;3.521622
3315.000000;3.442631
3314.000000;3.532493
3313.000000;3.695941
3312.000000;3.801633
3311.000000;3.742715
3310.000000;3.723248
3309.000000;3.714348
3308.000000;3.665082
3307.000000;3.561241
3306.000000;3.435240
3305.000000;3.392864
3304.000000;3.542095
3303.000000;3.729382
3302.000000;3.566065
3301.000000;3.429639
3300.000000;3.343497
3299.000000;3.261489
3298.000000;3.228600
3297.000000;3.280307
3296.000000;3.418398
3295.000000;3.559585
3294.000000;3.653999
3293.000000;3.834089
3292.000000;3.845339
3291.000000;3.578749
3290.000000;3.501449
3289.000000;3.505835
3288.000000;3.424951
3287.000000;3.359442
3286.000000;3.386598
3285.000000;3.370935
3284.000000;3.482502
3283.000000;4.074059
3282.000000;3.584715
3281.000000;3.290328
3280.000000;3.223343
3279.000000;3.182184
3278.000000;3.172553
3277.000000;3.262853
3276.000000;3.639734
3275.000000;3.785973
3274.000000;3.471964
3273.000000;3.615717
3272.000000;3.835802
3271.000000;3.819926
3270.000000;3.937949
3269.000000;3.648517
3268.000000;3.399328
3267.000000;3.331921
3266.000000;3.291597
3265.000000;3.227689
3264.000000;3.193207
3263.000000;3.211366
3262.000000;3.301881
3261.000000;3.614984
3260.000000;3.884207
3259.000000;3.512970
3258.000000;3.410017
3257.000000;3.456378
3256.000000;3.595439
3255.000000;4.002690
3254.000000;3.847805
3253.000000;3.498442
3252.000000;3.386589
3251.000000;3.365126
3250.000000;3.386953
3249.000000;3.620423
3248.000000;3.805072
3247.000000;3.449300
3246.000000;3.380209
3245.000000;3.511361
3244.000000;3.950032
3243.000000;4.382298
3242.000000;3.977891
3241.000000;3.757201
3240.000000;3.454256
3239.000000;3.322034
3238.000000;3.362846
3237.000000;3.604143
3236.000000;3.889172
3235.000000;3.564500
3234.000000;3.322316
3233.000000;3.261045
3232.000000;3.386404
3231.000000;3.727739
3230.000000;3.866311
3229.000000;3.559200
3228.000000;3.245922
3227.000000;3.101241
3226.000000;3.095897
3225.000000;3.177122
3224.000000;3.297671
3223.000000;3.423956
3222.000000;3.564937
3221.000000;3.739100
3220.000000;3.866615
3219.000000;3.784135
3218.000000;3.638365
3217.000000;3.531352
3216.000000;3.419977
3215.000000;3.319106
3214.000000;3.276801
3213.000000;3.263292
3212.000000;3.245633
3211.000000;3.238478
3210.000000;3.303252
3209.000000;3.558999
3208.000000;3.605920
3207.000000;3.348007
3206.000000;3.263982
3205.000000;3.270248
3204.000000;3.236887
3203.000000;3.144287
3202.000000;3.074992
3201.000000;3.059371
3200.000000;3.085661
3199.000000;3.161734
3198.000000;3.244020
3197.000000;3.245266
3196.000000;3.222566
3195.000000;3.221889
3194.000000;3.229658
3193.000000;3.268969
3192.000000;3.361712
3191.000000;3.604481
3190.000000;3.920892
3189.000000;3.486833
3188.000000;3.200420
3187.000000;3.142564
3186.000000;3.247933
3185.000000;3.557952
3184.000000;3.632069
3183.000000;3.439962
3182.000000;3.406935
3181.000000;3.479507
3180.000000;3.597188
3179.000000;3.757643
3178.000000;3.870056
3177.000000;3.594253
3176.000000;3.408502
3175.000000;3.404353
3174.000000;3.521384
3173.000000;3.356794
3172.000000;3.088102
3171.000000;2.981745
3170.000000;3.024393
3169.000000;3.168267
3168.000000;3.195904
3167.000000;3.109716
3166.000000;3.117619
3165.000000;3.275625
3164.000000;3.672079
3163.000000;3.825261
3162.000000;3.747532
3161.000000;3.994724
3160.000000;3.843977
3159.000000;3.791668
3158.000000;4.070093
3157.000000;4.084460
3156.000000;3.781171
3155.000000;3.609112
3154.000000;3.599308
3153.000000;3.817161
3152.000000;4.052100
3151.000000;3.647075
3150.000000;3.367388
3149.000000;3.233640
3148.000000;3.215767
3147.000000;3.330070
3146.000000;3.523808
3145.000000;3.523672
3144.000000;3.479170
3143.000000;3.598795
3142.000000;3.691219
3141.000000;3.626737
3140.000000;3.681189
3139.000000;3.606460
3138.000000;3.413995
3137.000000;3.349764
3136.000000;3.390431
3135.000000;3.463899
3134.000000;3.542474
3133.000000;3.837533
3132.000000;3.644883
3131.000000;3.261448
3130.000000;3.112728
3129.000000;3.095782
3128.000000;3.219296
3127.000000;3.565162
3126.000000;3.671001
3125.000000;3.406625
3124.000000;3.337974
3123.000000;3.448076
3122.000000;3.779429
3121.000000;4.127850
3120.000000;3.835835
3119.000000;3.544184
3118.000000;3.497835
3117.000000;3.616664
3116.000000;3.401397
3115.000000;3.142808
3114.000000;3.027719
3113.000000;3.023376
3112.000000;3.128442
3111.000000;3.484707
3110.000000;3.862863
3109.000000;3.479684
3108.000000;3.423044
3107.000000;3.485541
3106.000000;3.642350
3105.000000;3.585422
3104.000000;3.407682
3103.000000;3.550132
3102.000000;3.776736
3101.000000;3.490900
3100.000000;3.358674
3099.000000;3.322926
3098.000000;3.292741
3097.000000;3.362249
3096.000000;3.498700
3095.000000;3.384891
3094.000000;3.337757
3093.000000;3.393639
3092.000000;3.293013
3091.000000;3.105656
3090.000000;2.988004
3089.000000;3.000751
3088.000000;3.203555
3087.000000;3.530392
3086.000000;3.400778
3085.000000;3.280263
3084.000000;3.306192
3083.000000;3.424602
3082.000000;3.692768
3081.000000;4.232239
3080.000000;3.937908
3079.000000;3.649599
3078.000000;3.650586
3077.000000;3.442827
3076.000000;3.244071
3075.000000;3.246151
3074.000000;3.531742
3073.000000;4.084880
3072.000000;3.690093
3071.000000;3.421985
3070.000000;3.258317
3069.000000;3.186007
3068.000000;3.209683
3067.000000;3.285448
3066.000000;3.314194
3065.000000;3.255995
3064.000000;3.173695
3063.000000;3.123791
3062.000000;3.167145
3061.000000;3.349188
3060.000000;3.676240
3059.000000;3.906385
3058.000000;3.727479
3057.000000;3.572217
3056.000000;3.547578
3055.000000;3.438528
3054.000000;3.272131
3053.000000;3.210025
3052.000000;3.306400
3051.000000;3.569487
3050.000000;3.590494
3049.000000;3.449285
3048.000000;3.346509
3047.000000;3.263318
3046.000000;3.281250
3045.000000;3.414008
3044.000000;3.604143
3043.000000;3.643172
3042.000000;3.587995
3041.000000;3.598137
3040.000000;3.748771
3039.000000;3.717738
3038.000000;3.446323
3037.000000;3.310849
3036.000000;3.284380
3035.000000;3.324495
3034.000000;3.406171
3033.000000;3.523603
3032.000000;3.405891
3031.000000;3.179035
3030.000000;3.080574
3029.000000;3.089803
3028.000000;3.195247
3027.000000;3.380451
3026.000000;3.669681
3025.000000;4.023418
3024.000000;3.807797
3023.000000;3.482427
3022.000000;3.297783
3021.000000;3.259261
3020.000000;3.397353
3019.000000;3.642239
3018.000000;3.885237
3017.000000;3.873050
3016.000000;3.549498
3015.000000;3.469775
3014.000000;3.594582
3013.000000;3.834992
3012.000000;3.830956
3011.000000;3.546171
3010.000000;3.378433
3009.000000;3.395139
3008.000000;3.694270
3007.000000;3.850150
3006.000000;3.504249
3005.000000;3.513450
3004.000000;3.616665
3003.000000;3.813269
3002.000000;4.146603
3001.000000;3.612719
3000.000000;3.216724
2999.000000;3.080495
2998.000000;3.078432
2997.000000;3.158550
2996.000000;3.200267
2995.000000;3.210255
2994.000000;3.299259
2993.000000;3.447471
2992.000000;3.462658
2991.000000;3.373249
2990.000000;3.309104
2989.000000;3.282476
2988.000000;3.281718
2987.000000;3.280909
2986.000000;3.182180
2985.000000;3.073819
2984.000000;3.081310
2983.000000;3.361529
2982.000000;4.394258
2981.000000;3.361209
2980.000000;3.504489
2979.000000;3.787083
2978.000000;3.297099
2977.000000;3.147234
2976.000000;3.174706
2975.000000;3.479544
2974.000000;3.617569
2973.000000;3.262503
2972.000000;3.172189
2971.000000;3.195879
2970.000000;3.305326
2969.000000;3.391847
2968.000000;3.425470
2967.000000;3.450134
2966.000000;3.333165
2965.000000;3.274470
2964.000000;3.420398
2963.000000;3.882246
2962.000000;3.640672
2961.000000;3.684582
2960.000000;4.044585
2959.000000;3.338900
2958.000000;3.135968
2957.000000;3.092496
2956.000000;3.155102
2955.000000;3.295202
2954.000000;3.393390
2953.000000;3.302651
2952.000000;3.216930
2951.000000;3.224634
2950.000000;3.296080
2949.000000;3.360222
2948.000000;3.447633
2947.000000;3.686640
2946.000000;4.160547
2945.000000;4.208396
2944.000000;3.747871
2943.000000;4.307889
2942.000000;3.660203
2941.000000;3.203626
2940.000000;3.117362
2939.000000;3.182642
2938.000000;3.333922
2937.000000;3.396824
2936.000000;3.446098
2935.000000;3.475068
2934.000000;3.352707
2933.000000;3.286209
2932.000000;3.362033
2931.000000;3.617983
2930.000000;3.901161
2929.000000;3.640367
2928.000000;3.535115
2927.000000;3.491458
2926.000000;3.371480
2925.000000;3.249593
2924.000000;3.234792
2923.000000;3.234971
2922.000000;3.135133
2921.000000;3.106942
2920.000000;3.130449
2919.000000;3.015586
2918.000000;2.939188
2917.000000;3.022035
2916.000000;3.337079
2915.000000;3.894851
2914.000000;3.473795
2913.000000;3.269158
2912.000000;3.246823
2911.000000;3.234753
2910.000000;3.238097
2909.000000;3.311074
2908.000000;3.355678
2907.000000;3.343334
2906.000000;3.545880
2905.000000;4.065943
2904.000000;3.314824
2903.000000;3.145241
2902.000000;3.106415
2901.000000;3.137033
2900.000000;3.161765
2899.000000;3.140542
2898.000000;3.097252
2897.000000;3.091787
2896.000000;3.151072
2895.000000;3.293099
2894.000000;3.360496
2893.000000;3.220774
2892.000000;3.126173
2891.000000;3.129319
2890.000000;3.203292
2889.000000;3.305562
2888.000000;3.370489
2887.000000;3.346645
2886.000000;3.271339
2885.000000;3.217067
2884.000000;3.217573
2883.000000;3.226762
2882.000000;3.213050
2881.000000;3.282399
2880.000000;3.349375
2879.000000;3.245626
2878.000000;3.275367
2877.000000;3.437569
2876.000000;3.257994
2875.000000;3.103523
2874.000000;3.101516
2873.000000;3.366893
2872.000000;3.994178
2871.000000;3.375120
2870.000000;3.328528
2869.000000;3.310252
2868.000000;3.203208
2867.000000;3.161221
2866.000000;3.252816
2865.000000;3.469392
2864.000000;3.674091
2863.000000;3.577239
2862.000000;3.376128
2861.000000;3.273357
2860.000000;3.260346
2859.000000;3.271237
2858.000000;3.229020
2857.000000;3.151613
2856.000000;3.121435
2855.000000;3.160360
2854.000000;3.244079
2853.000000;3.343101
2852.000000;3.347199
2851.000000;3.316073
2850.000000;3.388756
2849.000000;3.482367
2848.000000;3.450311
2847.000000;3.445066
2846.000000;3.513992
2845.000000;3.457828
2844.000000;3.304128
2843.000000;3.295207
2842.000000;3.542288
2841.000000;3.819913
2840.000000;3.654667
2839.000000;3.680095
2838.000000;3.586791
2837.000000;3.409925
2836.000000;3.336404
2835.000000;3.447144
2834.000000;3.783466
2833.000000;3.562892
2832.000000;3.388777
2831.000000;3.431558
2830.000000;3.489063
2829.000000;3.519875
2828.000000;3.723789
2827.000000;4.064507
2826.000000;3.648615
2825.000000;3.646458
2824.000000;3.756694
2823.000000;3.439015
2822.000000;3.231159
2821.000000;3.196446
2820.000000;3.418602
2819.000000;3.616669
2818.000000;3.246784
2817.000000;3.225863
2816.000000;3.399234
2815.000000;3.780898
2814.000000;4.071021
2813.000000;3.774992
2812.000000;3.476926
2811.000000;3.347227
2810.000000;3.294664
2809.000000;3.280439
2808.000000;3.173600
2807.000000;2.997067
2806.000000;2.879121
2805.000000;2.846981
2804.000000;2.903232
2803.000000;3.059418
2802.000000;3.377699
2801.000000;3.623912
2800.000000;3.354499
2799.000000;3.245056
2798.000000;3.273831
2797.000000;3.424518
2796.000000;3.550461
2795.000000;3.385145
2794.000000;3.258495
2793.000000;3.199092
2792.000000;3.183229
2791.000000;3.223848
2790.000000;3.324072
2789.000000;3.317038
2788.000000;3.203202
2787.000000;3.191602
2786.000000;3.314249
2785.000000;3.562738
2784.000000;3.684693
2783.000000;3.547275
2782.000000;3.396374
2781.000000;3.303779
2780.000000;3.312687
2779.000000;3.387534
2778.000000;3.421537
2777.000000;3.403619
2776.000000;3.265869
2775.000000;3.126676
2774.000000;3.092519
2773.000000;3.184610
2772.000000;3.454633
2771.000000;3.688109
2770.000000;3.560981
2769.000000;3.572747
2768.000000;3.415967
2767.000000;3.265580
2766.000000;3.247253
2765.000000;3.359536
2764.000000;3.693737
2763.000000;3.958490
2762.000000;3.603552
2761.000000;3.532333
2760.000000;3.426308
2759.000000;3.283349
2758.000000;3.202539
2757.000000;3.231022
2756.000000;3.390566
2755.000000;3.630936
2754.000000;3.522115
2753.000000;3.328224
2752.000000;3.223803
2751.000000;3.143602
2750.000000;3.096716
2749.000000;3.100657
2748.000000;3.144679
2747.000000;3.189534
2746.000000;3.180724
2745.000000;3.162488
2744.000000;3.206663
2743.000000;3.264677
2742.000000;3.243066
2741.000000;3.183214
2740.000000;3.174388
2739.000000;3.271260
2738.000000;3.514772
2737.000000;3.825063
2736.000000;3.720286
2735.000000;3.557535
2734.000000;3.450169
2733.000000;3.383563
2732.000000;3.378952
2731.000000;3.589237
2730.000000;3.699774
2729.000000;3.445863
2728.000000;3.417805
2727.000000;3.566728
2726.000000;3.772256
2725.000000;3.567789
2724.000000;3.379633
2723.000000;3.353731
2722.000000;3.403186
2721.000000;3.420492
2720.000000;3.409990
2719.000000;3.399718
2718.000000;3.343867
2717.000000;3.370974
2716.000000;3.623422
2715.000000;4.306319
2714.000000;3.696948
2713.000000;3.602829
2712.000000;3.645197
2711.000000;3.860221
2710.000000;4.291115
2709.000000;3.804588
2708.000000;3.568256
2707.000000;3.607719
2706.000000;3.744996
2705.000000;3.645741
2704.000000;3.501418
2703.000000;3.488681
2702.000000;3.528677
2701.000000;3.519312
2700.000000;3.468590
2699.000000;3.382589
2698.000000;3.255773
2697.000000;3.176288
2696.000000;3.185988
2695.000000;3.260198
2694.000000;3.355343
2693.000000;3.488780
2692.000000;3.633677
2691.000000;3.641542
2690.000000;3.573079
2689.000000;3.529096
2688.000000;3.715210
2687.000000;3.937383
2686.000000;3.433083
2685.000000;3.418238
2684.000000;3.770031
2683.000000;3.682422
2682.000000;3.366711
2681.000000;3.409184
2680.000000;3.631348
2679.000000;3.856991
2678.000000;3.579828
2677.000000;3.386732
2676.000000;3.375168
2675.000000;3.499941
2674.000000;3.484600
2673.000000;3.451643
2672.000000;3.594471
2671.000000;3.552738
2670.000000;3.509395
2669.000000;3.654178
2668.000000;3.561645
2667.000000;3.347746
2666.000000;3.244876
2665.000000;3.258855
2664.000000;3.400103
2663.000000;3.688096
2662.000000;4.138973
2661.000000;4.169479
2660.000000;3.597430
2659.000000;3.326906
2658.000000;3.222030
2657.000000;3.241323
2656.000000;3.329005
2655.000000;3.430492
2654.000000;3.578356
2653.000000;3.627646
2652.000000;3.513686
2651.000000;3.562982
2650.000000;3.728059
2649.000000;3.872692
2648.000000;4.250311
2647.000000;3.766071
2646.000000;3.444741
2645.000000;3.383041
2644.000000;3.412396
2643.000000;3.474039
2642.000000;3.581566
2641.000000;3.579792
2640.000000;3.393227
2639.000000;3.306271
2638.000000;3.325404
2637.000000;3.393580
2636.000000;3.463057
2635.000000;3.495210
2634.000000;3.481078
2633.000000;3.453661
2632.000000;3.473630
2631.000000;3.546302
2630.000000;3.616521
2629.000000;3.678442
2628.000000;3.677456
2627.000000;3.569975
2626.000000;3.508010
2625.000000;3.900914
2624.000000;3.844712
2623.000000;3.287163
2622.000000;3.153353
2621.000000;3.167462
2620.000000;3.553673
2619.000000;3.680364
2618.000000;3.265710
2617.000000;3.162332
2616.000000;3.197145
2615.000000;3.328621
2614.000000;3.556162
2613.000000;3.861299
2612.000000;3.743491
2611.000000;3.717252
2610.000000;3.951824
2609.000000;3.884109
2608.000000;3.697897
2607.000000;3.640439
2606.000000;3.692389
2605.000000;3.798855
2604.000000;3.772803
2603.000000;4.030679
2602.000000;3.966840
2601.000000;3.468616
2600.000000;3.520085
2599.000000;3.899648
2598.000000;3.562724
2597.000000;3.286897
2596.000000;3.305706
2595.000000;3.382349
2594.000000;3.308860
2593.000000;3.205672
2592.000000;3.232429
2591.000000;3.309171
2590.000000;3.297692
2589.000000;3.277282
2588.000000;3.370982
2587.000000;3.656901
2586.000000;3.580782
2585.000000;3.418763
2584.000000;3.497079
2583.000000;3.843529
2582.000000;4.094603
2581.000000;3.663781
2580.000000;3.442277
2579.000000;3.334198
2578.000000;3.331070
2577.000000;3.445236
2576.000000;3.646522
2575.000000;3.789847
2574.000000;3.807263
2573.000000;3.721374
2572.000000;3.630149
2571.000000;3.696835
2570.000000;3.929632
2569.000000;3.607937
2568.000000;3.270731
2567.000000;3.115133
2566.000000;3.065929
2565.000000;3.131438
2564.000000;3.334854
2563.000000;3.626628
2562.000000;3.511019
2561.000000;3.369154
2560.000000;3.369986
2559.000000;3.374151
2558.000000;3.255536
2557.000000;3.084292
2556.000000;2.967953
2555.000000;2.934271
2554.000000;2.998452
2553.000000;3.178068
2552.000000;3.229098
2551.000000;3.030070
2550.000000;2.932764
2549.000000;2.925220
2548.000000;2.977751
2547.000000;3.093869
2546.000000;3.303415
2545.000000;3.695782
2544.000000;3.999083
2543.000000;3.795788
2542.000000;3.729750
2541.000000;3.927433
2540.000000;3.488160
2539.000000;3.052910
2538.000000;2.841083
2537.000000;2.749212
2536.000000;2.769639
2535.000000;2.915375
2534.000000;3.225812
2533.000000;3.340324
2532.000000;3.058711
2531.000000;2.856666
2530.000000;2.756995
2529.000000;2.737521
2528.000000;2.753722
2527.000000;2.711964
2526.000000;2.600950
2525.000000;2.528708
2524.000000;2.555622
2523.000000;2.707278
2522.000000;3.010731
2521.000000;3.364059
2520.000000;3.449824
2519.000000;3.391539
2518.000000;3.328914
2517.000000;3.380084
2516.000000;3.250924
2515.000000;2.973940
2514.000000;2.799684
2513.000000;2.737728
2512.000000;2.785788
2511.000000;2.959171
2510.000000;3.145182
2509.000000;3.091705
2508.000000;3.065726
2507.000000;3.199293
2506.000000;3.333154
2505.000000;3.305655
2504.000000;3.299730
2503.000000;3.368516
2502.000000;3.415603
2501.000000;3.378391
2500.000000;3.313052
2499.000000;3.252750
2498.000000;3.181459
2497.000000;3.136709
2496.000000;3.150153
2495.000000;3.224610
2494.000000;3.333423
2493.000000;3.335704
2492.000000;3.222818
2491.000000;3.185644
2490.000000;3.404137
2489.000000;3.544783
2488.000000;3.248656
2487.000000;3.211005
2486.000000;3.324230
2485.000000;3.251201
2484.000000;3.114620
2483.000000;3.040084
2482.000000;2.952507
2481.000000;2.881711
2480.000000;2.882104
2479.000000;3.005188
2478.000000;3.427729
2477.000000;3.459290
2476.000000;3.089065
2475.000000;3.002609
2474.000000;3.057769
2473.000000;3.220930
2472.000000;3.475024
2471.000000;3.662231
2470.000000;3.417048
2469.000000;3.134482
2468.000000;3.017562
2467.000000;3.119061
2466.000000;3.495076
2465.000000;3.345858
2464.000000;3.086251
2463.000000;3.094093
2462.000000;3.177505
2461.000000;3.395492
2460.000000;3.634379
2459.000000;3.405369
2458.000000;3.271247
2457.000000;3.289939
2456.000000;3.340764
2455.000000;3.383963
2454.000000;3.526101
2453.000000;4.114657
2452.000000;3.694065
2451.000000;3.293700
2450.000000;3.175540
2449.000000;3.179325
2448.000000;3.450894
2447.000000;3.985790
2446.000000;3.321895
2445.000000;3.197167
2444.000000;3.347283
2443.000000;3.448812
2442.000000;3.233234
2441.000000;3.267486
2440.000000;3.667639
2439.000000;3.347548
2438.000000;3.040688
2437.000000;3.038057
2436.000000;3.294966
2435.000000;3.572231
2434.000000;3.333228
2433.000000;3.282296
2432.000000;3.319205
2431.000000;3.267911
2430.000000;3.351799
2429.000000;3.508216
2428.000000;3.232897
2427.000000;3.008864
2426.000000;2.954960
2425.000000;3.024766
2424.000000;3.252293
2423.000000;3.529682
2422.000000;3.447928
2421.000000;3.362744
2420.000000;3.369542
2419.000000;3.414961
2418.000000;3.470975
2417.000000;3.405147
2416.000000;3.224222
2415.000000;3.059553
2414.000000;2.971171
2413.000000;2.960410
2412.000000;3.034524
2411.000000;3.197237
2410.000000;3.375010
2409.000000;3.661618
2408.000000;3.950592
2407.000000;3.550108
2406.000000;3.367884
2405.000000;3.537471
2404.000000;3.875108
2403.000000;3.391733
2402.000000;3.162208
2401.000000;3.169569
2400.000000;3.327790
2399.000000;3.802942
2398.000000;3.747653
2397.000000;3.396572
2396.000000;3.278707
2395.000000;3.279882
2394.000000;3.324309
2393.000000;3.300303
2392.000000;3.262122
2391.000000;3.265456
2390.000000;3.310611
2389.000000;3.394919
2388.000000;3.506219
2387.000000;3.504554
2386.000000;3.434451
2385.000000;3.467288
2384.000000;3.537528
2383.000000;3.594175
2382.000000;3.722846
2381.000000;4.083190
2380.000000;4.597212
2379.000000;4.233597
2378.000000;4.310142
2377.000000;4.349670
2376.000000;3.799768
2375.000000;3.519259
2374.000000;3.412416
2373.000000;3.414539
2372.000000;3.499144
2371.000000;3.622367
2370.000000;3.758846
2369.000000;3.953785
2368.000000;3.838111
2367.000000;3.635403
2366.000000;3.533760
2365.000000;3.696543
2364.000000;4.262580
2363.000000;3.612061
2362.000000;3.376301
2361.000000;3.390942
2360.000000;3.491144
2359.000000;3.584339
2358.000000;3.651890
2357.000000;3.660156
2356.000000;3.506759
2355.000000;3.392749
2354.000000;3.340791
2353.000000;3.285668
2352.000000;3.202697
2351.000000;3.139450
2350.000000;3.215684
2349.000000;3.417540
2348.000000;3.679423
2347.000000;4.171734
2346.000000;4.054862
2345.000000;3.667773
2344.000000;3.534251
2343.000000;3.538190
2342.000000;3.747183
2341.000000;3.988329
2340.000000;3.852633
2339.000000;3.823811
2338.000000;3.820562
2337.000000;3.685833
2336.000000;3.539791
2335.000000;3.512521
2334.000000;3.717063
2333.000000;3.975191
2332.000000;3.858253
2331.000000;3.955574
2330.000000;4.058440
2329.000000;3.775033
2328.000000;3.621583
2327.000000;3.549050
2326.000000;3.476245
2325.000000;3.443753
2324.000000;3.505684
2323.000000;3.713811
2322.000000;4.096636
2321.000000;4.003382
2320.000000;3.729777
2319.000000;3.620230
2318.000000;3.556696
2317.000000;3.467282
2316.000000;3.405566
2315.000000;3.431951
2314.000000;3.547627
2313.000000;3.675571
2312.000000;3.687822
2311.000000;3.677778
2310.000000;3.758496
2309.000000;4.017154
2308.000000;4.167742
2307.000000;3.875640
2306.000000;3.706635
2305.000000;3.578901
2304.000000;3.505158
2303.000000;3.557735
2302.000000;3.707778
2301.000000;3.705660
2300.000000;3.618301
2299.000000;3.827335
2298.000000;4.064017
2297.000000;3.644964
2296.000000;3.460700
2295.000000;3.484000
2294.000000;3.583872
2293.000000;3.599871
2292.000000;3.509400
2291.000000;3.509371
2290.000000;3.392362
2289.000000;3.225431
2288.000000;3.177316
2287.000000;3.369967
2286.000000;3.786424
2285.000000;3.440782
2284.000000;3.272662
2283.000000;3.303733
2282.000000;3.423032
2281.000000;3.729284
2280.000000;4.041700
2279.000000;4.197744
2278.000000;4.319930
2277.000000;3.852531
2276.000000;3.534481
2275.000000;3.429486
2274.000000;3.456981
2273.000000;3.543391
2272.000000;3.545875
2271.000000;3.478638
2270.000000;3.411290
2269.000000;3.351353
2268.000000;3.337629
2267.000000;3.368339
2266.000000;3.503692
2265.000000;3.940610
2264.000000;4.191493
2263.000000;3.880616
2262.000000;3.606605
2261.000000;3.380741
2260.000000;3.319512
2259.000000;3.369526
2258.000000;3.580252
2257.000000;4.055266
2256.000000;3.859985
2255.000000;3.601470
2254.000000;3.587569
2253.000000;3.625840
2252.000000;3.595570
2251.000000;3.505279
2250.000000;3.478112
2249.000000;3.617749
2248.000000;3.821873
2247.000000;3.628572
2246.000000;3.420365
2245.000000;3.333303
2244.000000;3.298998
2243.000000;3.317933
2242.000000;3.420340
2241.000000;3.629975
2240.000000;3.912072
2239.000000;3.893938
2238.000000;3.564762
2237.000000;3.311310
2236.000000;3.160019
2235.000000;3.105392
2234.000000;3.160346
2233.000000;3.335213
2232.000000;3.426088
2231.000000;3.306738
2230.000000;3.320350
2229.000000;3.516724
2228.000000;3.461664
2227.000000;3.237990
2226.000000;3.165267
2225.000000;3.159878
2224.000000;3.136260
2223.000000;3.105714
2222.000000;3.133305
2221.000000;3.266536
2220.000000;3.583830
2219.000000;4.189368
2218.000000;3.995059
2217.000000;3.746589
2216.000000;3.668345
2215.000000;3.655250
2214.000000;3.881227
2213.000000;3.835163
2212.000000;3.527607
2211.000000;3.450592
2210.000000;3.533729
2209.000000;3.635905
2208.000000;3.694439
2207.000000;3.692156
2206.000000;3.583322
2205.000000;3.459169
2204.000000;3.492302
2203.000000;3.863516
2202.000000;3.724032
2201.000000;3.346515
2200.000000;3.303716
2199.000000;3.476122
2198.000000;3.853385
2197.000000;4.519694
2196.000000;4.229149
2195.000000;3.628689
2194.000000;3.426547
2193.000000;3.438246
2192.000000;3.499676
2191.000000;3.423767
2190.000000;3.323663
2189.000000;3.291512
2188.000000;3.246350
2187.000000;3.233762
2186.000000;3.330065
2185.000000;3.657306
2184.000000;4.196699
2183.000000;4.117614
2182.000000;3.891586
2181.000000;3.531755
2180.000000;3.337433
2179.000000;3.321766
2178.000000;3.381236
2177.000000;3.364858
2176.000000;3.297663
2175.000000;3.309425
2174.000000;3.368712
2173.000000;3.404965
2172.000000;3.452536
2171.000000;3.563188
2170.000000;3.475864
2169.000000;3.291185
2168.000000;3.267670
2167.000000;3.422888
2166.000000;3.772302
2165.000000;4.049954
2164.000000;3.849272
2163.000000;3.576998
2162.000000;3.460283
2161.000000;3.443284
2160.000000;3.614764
2159.000000;3.929224
2158.000000;3.454204
2157.000000;3.212618
2156.000000;3.213582
2155.000000;3.333867
2154.000000;3.407468
2153.000000;3.322542
2152.000000;3.348916
2151.000000;3.526596
2150.000000;3.951367
2149.000000;4.299249
2148.000000;3.685122
2147.000000;3.458321
2146.000000;3.405434
2145.000000;3.481002
2144.000000;3.655102
2143.000000;3.671470
2142.000000;3.594037
2141.000000;3.485226
2140.000000;3.334976
2139.000000;3.202821
2138.000000;3.179934
2137.000000;3.275368
2136.000000;3.507016
2135.000000;4.215751
2134.000000;3.946857
2133.000000;3.465415
2132.000000;3.341091
2131.000000;3.315953
2130.000000;3.349919
2129.000000;3.357497
2128.000000;3.324458
2127.000000;3.322687
2126.000000;3.383915
2125.000000;3.616779
2124.000000;4.099611
2123.000000;3.967482
2122.000000;3.829713
2121.000000;4.084749
2120.000000;4.341521
2119.000000;4.243720
2118.000000;4.034413
2117.000000;3.696256
2116.000000;3.636490
2115.000000;3.934122
2114.000000;3.915013
2113.000000;3.642213
2112.000000;3.575150
2111.000000;3.607633
2110.000000;3.998815
2109.000000;4.155319
2108.000000;3.646781
2107.000000;3.496216
2106.000000;3.418505
2105.000000;3.361626
2104.000000;3.343657
2103.000000;3.346637
2102.000000;3.275660
2101.000000;3.182421
2100.000000;3.177597
2099.000000;3.294523
2098.000000;3.541117
2097.000000;3.673342
2096.000000;3.536067
2095.000000;3.437984
2094.000000;3.393474
2093.000000;3.369599
2092.000000;3.393920
2091.000000;3.382168
2090.000000;3.258035
2089.000000;3.200169
2088.000000;3.287884
2087.000000;3.546686
2086.000000;4.059494
2085.000000;4.347409
2084.000000;4.220044
2083.000000;4.160622
2082.000000;4.096200
2081.000000;3.986223
2080.000000;3.846033
2079.000000;3.911172
2078.000000;4.202594
2077.000000;4.182935
2076.000000;3.709192
2075.000000;3.402781
2074.000000;3.249551
2073.000000;3.183928
2072.000000;3.183850
2071.000000;3.269914
2070.000000;3.500190
2069.000000;3.630867
2068.000000;3.454440
2067.000000;3.504815
2066.000000;3.919979
2065.000000;3.697054
2064.000000;3.326499
2063.000000;3.231306
2062.000000;3.246034
2061.000000;3.258064
2060.000000;3.201991
2059.000000;3.184662
2058.000000;3.292919
2057.000000;3.635858
2056.000000;4.109831
2055.000000;3.839927
2054.000000;3.727076
2053.000000;3.790601
2052.000000;4.127858
2051.000000;4.262446
2050.000000;3.783470
2049.000000;3.522036
2048.000000;3.322824
2047.000000;3.219839
2046.000000;3.237827
2045.000000;3.405817
2044.000000;3.842832
2043.000000;4.033715
2042.000000;3.761270
2041.000000;3.869518
2040.000000;3.894762
2039.000000;3.630046
2038.000000;3.480541
2037.000000;3.421052
2036.000000;3.421817
2035.000000;3.460049
2034.000000;3.705873
2033.000000;3.834031
2032.000000;3.419947
2031.000000;3.216242
2030.000000;3.145585
2029.000000;3.141176
2028.000000;3.183201
2027.000000;3.253084
2026.000000;3.385724
2025.000000;3.535900
2024.000000;3.460303
2023.000000;3.342870
2022.000000;3.362740
2021.000000;3.526174
2020.000000;3.870161
2019.000000;4.092419
2018.000000;4.019671
2017.000000;3.900129
2016.000000;3.677964
2015.000000;3.509600
2014.000000;3.420759
2013.000000;3.422502
2012.000000;3.495930
2011.000000;3.582219
2010.000000;3.663930
2009.000000;3.621469
2008.000000;3.502390
2007.000000;3.519288
2006.000000;3.619585
2005.000000;3.452103
2004.000000;3.264020
2003.000000;3.237389
2002.000000;3.393454
2001.000000;3.771553
2000.000000;3.801507
1999.000000;3.705448
1998.000000;3.794424
1997.000000;3.546913
1996.000000;3.359737
1995.000000;3.291044
1994.000000;3.395037
1993.000000;3.900710
1992.000000;3.727609
1991.000000;3.403617
1990.000000;3.387112
1989.000000;3.516536
1988.000000;3.825992
1987.000000;3.744628
1986.000000;3.442326
1985.000000;3.332241
1984.000000;3.392777
1983.000000;3.433890
1982.000000;3.247297
1981.000000;3.129677
1980.000000;3.105593
1979.000000;3.070497
1978.000000;3.050100
1977.000000;3.118960
1976.000000;3.421063
1975.000000;3.883248
1974.000000;3.561124
1973.000000;3.490963
1972.000000;3.660435
1971.000000;3.451035
1970.000000;3.235974
1969.000000;3.108674
1968.000000;3.074516
1967.000000;3.142271
1966.000000;3.417463
1965.000000;4.264855
1964.000000;3.818504
1963.000000;3.666774
1962.000000;3.650127
1961.000000;3.476267
1960.000000;3.321365
1959.000000;3.164983
1958.000000;3.070781
1957.000000;3.067668
1956.000000;3.177344
1955.000000;3.423615
1954.000000;3.815705
1953.000000;3.563990
1952.000000;3.240734
1951.000000;3.160692
1950.000000;3.228300
1949.000000;3.392700
1948.000000;3.462247
1947.000000;3.442401
1946.000000;3.392962
1945.000000;3.273047
1944.000000;3.219138
1943.000000;3.303287
1942.000000;3.545564
1941.000000;3.682738
1940.000000;3.557126
1939.000000;3.498857
1938.000000;3.513566
1937.000000;3.576786
1936.000000;3.745625
1935.000000;4.093584
1934.000000;4.141131
1933.000000;3.819120
1932.000000;3.577772
1931.000000;3.443152
1930.000000;3.421153
1929.000000;3.492207
1928.000000;3.559588
1927.000000;3.433987
1926.000000;3.266005
1925.000000;3.192151
1924.000000;3.202559
1923.000000;3.206682
1922.000000;3.129545
1921.000000;3.071230
1920.000000;3.112154
1919.000000;3.195463
1918.000000;3.191715
1917.000000;3.179797
1916.000000;3.252336
1915.000000;3.299880
1914.000000;3.254351
1913.000000;3.244036
1912.000000;3.316464
1911.000000;3.407454
1910.000000;3.431106
1909.000000;3.458909
1908.000000;3.530424
1907.000000;3.860395
1906.000000;4.114516
1905.000000;3.512617
1904.000000;3.404061
1903.000000;3.474447
1902.000000;3.396134
1901.000000;3.221756
1900.000000;3.155256
1899.000000;3.195447
1898.000000;3.325463
1897.000000;3.499214
1896.000000;3.551995
1895.000000;3.530714
1894.000000;3.624677
1893.000000;4.098018
1892.000000;3.936667
1891.000000;3.541020
1890.000000;3.364455
1889.000000;3.238928
1888.000000;3.217394
1887.000000;3.306131
1886.000000;3.500321
1885.000000;3.676226
1884.000000;3.694065
1883.000000;3.859471
1882.000000;3.979146
1881.000000;3.653749
1880.000000;3.526296
1879.000000;3.596237
1878.000000;3.596987
1877.000000;3.348410
1876.000000;3.167699
1875.000000;3.078842
1874.000000;3.049552
1873.000000;3.060713
1872.000000;3.122055
1871.000000;3.204838
1870.000000;3.242500
1869.000000;3.248733
1868.000000;3.366947
1867.000000;3.949327
1866.000000;3.723834
1865.000000;3.350793
1864.000000;3.292728
1863.000000;3.309461
1862.000000;3.409860
1861.000000;3.634942
1860.000000;3.939600
1859.000000;3.698329
1858.000000;3.543565
1857.000000;3.573749
1856.000000;3.798128
1855.000000;4.410303
1854.000000;4.013228
1853.000000;3.777107
1852.000000;3.656496
1851.000000;3.539938
1850.000000;3.565811
1849.000000;3.605422
1848.000000;3.352632
1847.000000;3.153700
1846.000000;3.137640
1845.000000;3.261280
1844.000000;3.399169
1843.000000;3.376930
1842.000000;3.345468
1841.000000;3.388175
1840.000000;3.467257
1839.000000;3.625820
1838.000000;3.666656
1837.000000;3.438733
1836.000000;3.294273
1835.000000;3.244811
1834.000000;3.172094
1833.000000;3.042722
1832.000000;2.950133
1831.000000;2.971924
1830.000000;3.116209
1829.000000;3.422339
1828.000000;3.835402
1827.000000;3.570060
1826.000000;3.397958
1825.000000;3.341835
1824.000000;3.273408
1823.000000;3.243232
1822.000000;3.281850
1821.000000;3.352906
1820.000000;3.365228
1819.000000;3.334032
1818.000000;3.318075
1817.000000;3.352708
1816.000000;3.453056
1815.000000;3.520074
1814.000000;3.521266
1813.000000;3.507009
1812.000000;3.407143
1811.000000;3.288806
1810.000000;3.255086
1809.000000;3.305684
1808.000000;3.286869
1807.000000;3.174949
1806.000000;3.112033
1805.000000;3.129771
1804.000000;3.215430
1803.000000;3.370993
1802.000000;3.481759
1801.000000;3.729704
1800.000000;3.987437
1799.000000;3.371201
1798.000000;3.150900
1797.000000;3.033389
1796.000000;2.955711
1795.000000;2.925331
1794.000000;2.942795
1793.000000;2.999468
1792.000000;3.085460
1791.000000;3.253055
1790.000000;3.548540
1789.000000;3.988260
1788.000000;4.040714
1787.000000;3.678457
1786.000000;3.459504
1785.000000;3.310870
1784.000000;3.204861
1783.000000;3.178610
1782.000000;3.269347
1781.000000;3.506547
1780.000000;3.544837
1779.000000;3.352640
1778.000000;3.271288
1777.000000;3.320806
1776.000000;3.505720
1775.000000;3.687758
1774.000000;3.693518
1773.000000;3.465735
1772.000000;3.197893
1771.000000;3.057130
1770.000000;3.038068
1769.000000;3.101827
1768.000000;3.176188
1767.000000;3.189901
1766.000000;3.196983
1765.000000;3.266455
1764.000000;3.414668
1763.000000;3.577503
1762.000000;3.518737
1761.000000;3.398983
1760.000000;3.457978
1759.000000;3.643538
1758.000000;3.477909
1757.000000;3.249928
1756.000000;3.172799
1755.000000;3.209843
1754.000000;3.390668
1753.000000;3.534281
1752.000000;3.233923
1751.000000;2.995408
1750.000000;2.914543
1749.000000;2.960938
1748.000000;3.113531
1747.000000;3.333332
1746.000000;3.445871
1745.000000;3.291765
1744.000000;3.178752
1743.000000;3.154706
1742.000000;3.164400
1741.000000;3.190626
1740.000000;3.226372
1739.000000;3.233446
1738.000000;3.215317
1737.000000;3.225663
1736.000000;3.285730
1735.000000;3.365448
1734.000000;3.415907
1733.000000;3.676132
1732.000000;3.772344
1731.000000;3.391599
1730.000000;3.330400
1729.000000;3.599328
1728.000000;3.739375
1727.000000;3.323280
1726.000000;3.129416
1725.000000;3.110133
1724.000000;3.219125
1723.000000;3.525300
1722.000000;3.684251
1721.000000;3.290700
1720.000000;3.147821
1719.000000;3.175211
1718.000000;3.390817
1717.000000;3.374474
1716.000000;2.988243
1715.000000;2.872084
1714.000000;2.945407
1713.000000;3.205330
1712.000000;3.441468
1711.000000;3.258135
1710.000000;3.143483
1709.000000;3.158530
1708.000000;3.313778
1707.000000;3.604329
1706.000000;3.669803
1705.000000;3.276720
1704.000000;2.978942
1703.000000;2.834913
1702.000000;2.790644
1701.000000;2.843284
1700.000000;3.020939
1699.000000;3.255330
1698.000000;3.207050
1697.000000;3.187504
1696.000000;3.262564
1695.000000;3.504620
1694.000000;4.179592
1693.000000;3.611491
1692.000000;3.439640
1691.000000;3.377820
1690.000000;3.221799
1689.000000;3.068327
1688.000000;3.048694
1687.000000;3.148104
1686.000000;3.328734
1685.000000;3.496658
1684.000000;3.378836
1683.000000;3.279141
1682.000000;3.414075
1681.000000;3.989954
1680.000000;3.656426
1679.000000;3.231989
1678.000000;3.105322
1677.000000;3.105830
1676.000000;3.112643
1675.000000;2.927485
1674.000000;2.776158
1673.000000;2.764318
1672.000000;2.915385
1671.000000;3.368686
1670.000000;3.559277
1669.000000;3.322383
1668.000000;3.459369
1667.000000;3.869380
1666.000000;3.421153
1665.000000;3.210540
1664.000000;3.162396
1663.000000;3.180905
1662.000000;3.207489
1661.000000;3.201400
1660.000000;3.157089
1659.000000;3.101182
1658.000000;3.083998
1657.000000;3.149140
1656.000000;3.208172
1655.000000;3.242505
1654.000000;3.390214
1653.000000;3.740693
1652.000000;3.851741
1651.000000;3.397081
1650.000000;3.202645
1649.000000;3.187768
1648.000000;3.123065
1647.000000;3.055669
1646.000000;3.067916
1645.000000;3.135971
1644.000000;3.216079
1643.000000;3.299486
1642.000000;3.361232
1641.000000;3.385162
1640.000000;3.441157
1639.000000;3.547317
1638.000000;3.581825
1637.000000;3.499831
1636.000000;3.362563
1635.000000;3.295812
1634.000000;3.319324
1633.000000;3.414178
1632.000000;3.415550
1631.000000;3.307852
1630.000000;3.299535
1629.000000;3.499869
1628.000000;3.981377
1627.000000;3.694287
1626.000000;3.527116
1625.000000;3.641758
1624.000000;3.350528
1623.000000;3.131805
1622.000000;3.071400
1621.000000;3.103509
1620.000000;3.222885
1619.000000;3.370992
1618.000000;3.394280
1617.000000;3.314542
1616.000000;3.239779
1615.000000;3.213699
1614.000000;3.299620
1613.000000;3.620268
1612.000000;3.558000
1611.000000;3.197917
1610.000000;3.066384
1609.000000;3.066873
1608.000000;3.160783
1607.000000;3.160798
1606.000000;3.039734
1605.000000;2.990734
1604.000000;3.026818
1603.000000;3.153128
1602.000000;3.356326
1601.000000;3.984341
1600.000000;4.183892
1599.000000;3.639665
1598.000000;3.572616
1597.000000;3.359793
1596.000000;3.175742
1595.000000;3.059541
1594.000000;3.012399
1593.000000;3.029425
1592.000000;3.069707
1591.000000;3.078027
1590.000000;3.102865
1589.000000;3.186552
1588.000000;3.267828
1587.000000;3.369097
1586.000000;3.732142
1585.000000;3.779020
1584.000000;3.307872
1583.000000;3.219213
1582.000000;3.252343
1581.000000;3.172566
1580.000000;3.022320
1579.000000;3.031243
1578.000000;3.182146
1577.000000;3.394642
1576.000000;3.469012
1575.000000;3.357398
1574.000000;3.332776
1573.000000;3.406068
1572.000000;3.289059
1571.000000;3.139316
1570.000000;3.131819
1569.000000;3.234794
1568.000000;3.207378
1567.000000;3.051586
1566.000000;2.959816
1565.000000;2.929367
1564.000000;2.971274
1563.000000;3.128512
1562.000000;3.486866
1561.000000;3.278485
1560.000000;3.097522
1559.000000;3.126785
1558.000000;2.884330
1557.000000;2.707797
1556.000000;2.691069
1555.000000;2.803920
1554.000000;2.977879
1553.000000;2.964457
1552.000000;2.849801
1551.000000;2.894953
1550.000000;3.262121
1549.000000;3.804049
1548.000000;3.301555
1547.000000;3.287837
1546.000000;3.197786
1545.000000;2.899089
1544.000000;2.784349
1543.000000;2.918672
1542.000000;3.213064
1541.000000;3.126547
1540.000000;3.057836
1539.000000;3.075158
1538.000000;3.113346
1537.000000;3.173012
1536.000000;3.200603
1535.000000;3.137210
1534.000000;3.008596
1533.000000;2.935978
1532.000000;2.975554
1531.000000;3.110146
1530.000000;3.205374
1529.000000;3.045464
1528.000000;2.859285
1527.000000;2.745210
1526.000000;2.701822
1525.000000;2.732527
1524.000000;2.826678
1523.000000;2.896860
1522.000000;2.896005
1521.000000;2.907207
1520.000000;3.005128
1519.000000;3.140933
1518.000000;3.172333
1517.000000;3.428468
1516.000000;3.110373
1515.000000;2.820499
1514.000000;2.742282
1513.000000;2.748580
1512.000000;2.786886
1511.000000;2.734756
1510.000000;2.621199
1509.000000;2.619972
1508.000000;2.796472
1507.000000;3.150930
1506.000000;3.289424
1505.000000;3.106546
1504.000000;3.028563
1503.000000;3.086719
1502.000000;3.173736
1501.000000;3.044869
1500.000000;2.890804
1499.000000;2.826326
1498.000000;2.817806
1497.000000;2.818743
1496.000000;2.827301
1495.000000;2.873232
1494.000000;2.992868
1493.000000;3.205551
1492.000000;3.329926
1491.000000;3.617130
1490.000000;3.147777
1489.000000;2.787661
1488.000000;2.719014
1487.000000;2.767907
1486.000000;2.893906
1485.000000;2.999392
1484.000000;2.986503
1483.000000;2.908297
1482.000000;2.842123
1481.000000;2.806013
1480.000000;2.806367
1479.000000;2.871507
1478.000000;3.129939
1477.000000;4.092742
1476.000000;3.153229
1475.000000;3.222931
1474.000000;2.946578
1473.000000;2.601302
1472.000000;2.447089
1471.000000;2.403730
1470.000000;2.446668
1469.000000;2.566167
1468.000000;2.857961
1467.000000;3.042830
1466.000000;2.827226
1465.000000;2.821541
1464.000000;3.285245
1463.000000;3.070855
1462.000000;2.601709
1461.000000;2.401398
1460.000000;2.301903
1459.000000;2.313009
1458.000000;2.413294
1457.000000;2.526466
1456.000000;2.538724
1455.000000;2.529668
1454.000000;2.601031
1453.000000;2.780149
1452.000000;2.993659
1451.000000;2.843606
1450.000000;2.668093
1449.000000;2.672144
1448.000000;2.955607
1447.000000;2.990922
1446.000000;2.605410
1445.000000;2.503815
1444.000000;2.531146
1443.000000;2.679283
1442.000000;3.130208
1441.000000;3.483877
1440.000000;2.916949
1439.000000;2.872279
1438.000000;3.026984
1437.000000;3.190666
1436.000000;2.825237
1435.000000;2.625016
1434.000000;2.593789
1433.000000;2.683008
1432.000000;3.123857
1431.000000;3.011631
1430.000000;2.716605
1429.000000;2.696192
1428.000000;2.814910
1427.000000;3.061017
1426.000000;3.462240
1425.000000;3.432384
1424.000000;3.199638
1423.000000;3.077608
1422.000000;2.994222
1421.000000;2.942016
1420.000000;2.956891
1419.000000;3.111553
1418.000000;3.274050
1417.000000;3.127665
1416.000000;3.055236
1415.000000;3.070338
1414.000000;3.089779
1413.000000;3.071750
1412.000000;3.053008
1411.000000;3.099636
1410.000000;3.240257
1409.000000;3.615537
1408.000000;3.994893
1407.000000;3.480126
1406.000000;3.255934
1405.000000;3.197188
1404.000000;3.250147
1403.000000;3.389184
1402.000000;3.887274
1401.000000;3.453181
1400.000000;3.079912
1399.000000;2.937196
1398.000000;2.921520
1397.000000;2.963240
1396.000000;2.945796
1395.000000;2.864376
1394.000000;2.815604
1393.000000;2.811589
1392.000000;2.860029
1391.000000;2.969432
1390.000000;3.333201
1389.000000;3.493898
1388.000000;2.996118
1387.000000;2.940198
1386.000000;3.018903
1385.000000;3.267696
1384.000000;3.437789
1383.000000;3.253402
1382.000000;3.070580
1381.000000;2.969550
1380.000000;2.964417
1379.000000;3.075965
1378.000000;3.281649
1377.000000;3.075714
1376.000000;2.848868
1375.000000;2.786224
1374.000000;2.840210
1373.000000;2.935032
1372.000000;2.973245
1371.000000;2.963160
1370.000000;2.973792
1369.000000;3.007097
1368.000000;2.978891
1367.000000;2.920398
1366.000000;2.952299
1365.000000;3.062406
1364.000000;2.882259
1363.000000;2.725669
1362.000000;2.779786
1361.000000;3.187308
1360.000000;3.581881
1359.000000;3.154939
1358.000000;3.236178
1357.000000;3.592457
1356.000000;3.172257
1355.000000;2.911757
1354.000000;2.939280
1353.000000;2.961476
1352.000000;2.818354
1351.000000;2.756999
1350.000000;2.855626
1349.000000;3.369081
1348.000000;3.269694
1347.000000;2.944666
1346.000000;2.938555
1345.000000;3.127606
1344.000000;3.027299
1343.000000;2.780075
1342.000000;2.708306
1341.000000;2.831184
1340.000000;3.237188
1339.000000;3.259550
1338.000000;3.026310
1337.000000;3.007862
1336.000000;3.025198
1335.000000;3.093712
1334.000000;3.216817
1333.000000;3.221126
1332.000000;3.124112
1331.000000;3.150978
1330.000000;3.373054
1329.000000;3.365282
1328.000000;3.105537
1327.000000;2.962913
1326.000000;2.881184
1325.000000;2.820373
1324.000000;2.750722
1323.000000;2.687417
1322.000000;2.671131
1321.000000;2.739729
1320.000000;2.937409
1319.000000;3.358757
1318.000000;4.357010
1317.000000;3.702202
1316.000000;3.270840
1315.000000;3.002164
1314.000000;2.883018
1313.000000;2.843084
1312.000000;2.816193
1311.000000;2.778230
1310.000000;2.743443
1309.000000;2.723793
1308.000000;2.740857
1307.000000;2.795736
1306.000000;2.846487
1305.000000;2.886086
1304.000000;2.982694
1303.000000;3.035162
1302.000000;2.955393
1301.000000;2.926243
1300.000000;3.138178
1299.000000;3.245024
1298.000000;2.842631
1297.000000;2.646356
1296.000000;2.618117
1295.000000;2.717998
1294.000000;2.955852
1293.000000;3.272478
1292.000000;3.486849
1291.000000;3.327667
1290.000000;3.105676
1289.000000;3.160265
1288.000000;3.343245
1287.000000;2.919510
1286.000000;2.689892
1285.000000;2.638026
1284.000000;2.723818
1283.000000;3.184669
1282.000000;3.686005
1281.000000;2.941855
1280.000000;3.040976
1279.000000;3.155041
1278.000000;2.979694
1277.000000;2.810069
1276.000000;2.780924
1275.000000;2.812873
1274.000000;2.883179
1273.000000;2.973859
1272.000000;2.997068
1271.000000;2.909100
1270.000000;2.842983
1269.000000;2.862384
1268.000000;2.930808
1267.000000;2.946661
1266.000000;2.970505
1265.000000;3.144656
1264.000000;3.553255
1263.000000;3.306800
1262.000000;3.117098
1261.000000;3.069320
1260.000000;3.099502
1259.000000;3.158710
1258.000000;3.168152
1257.000000;3.179330
1256.000000;3.254430
1255.000000;3.686383
1254.000000;3.746894
1253.000000;3.173412
1252.000000;3.062580
1251.000000;3.041893
1250.000000;3.078215
1249.000000;3.082153
1248.000000;3.033117
1247.000000;2.972936
1246.000000;2.966446
1245.000000;3.067173
1244.000000;3.312916
1243.000000;3.891385
1242.000000;3.730030
1241.000000;3.442629
1240.000000;3.375203
1239.000000;3.463205
1238.000000;3.788472
1237.000000;3.898007
1236.000000;3.610751
1235.000000;3.459282
1234.000000;3.371805
1233.000000;3.393352
1232.000000;3.682053
1231.000000;4.129581
1230.000000;3.593456
1229.000000;3.456460
1228.000000;3.378307
1227.000000;3.336303
1226.000000;3.364480
1225.000000;3.522069
1224.000000;3.468813
1223.000000;3.258149
1222.000000;3.210200
1221.000000;3.289517
1220.000000;3.609828
1219.000000;3.619787
1218.000000;3.361651
1217.000000;3.305435
1216.000000;3.221532
1215.000000;3.136659
1214.000000;3.147955
1213.000000;3.152264
1212.000000;3.074955
1211.000000;3.053206
1210.000000;3.150682
1209.000000;3.349193
1208.000000;3.407045
1207.000000;3.270095
1206.000000;3.343124
1205.000000;3.757820
1204.000000;3.416993
1203.000000;3.138944
1202.000000;3.199215
1201.000000;3.237360
1200.000000;3.251841
