Criado como novo conjunto de dados;"1909daniel.spp","-4249962.9 Secs"
cm-1;Abs
10000.000000;1.770313
9999.000000;1.766374
9998.000000;1.763538
9997.000000;1.762938
9996.000000;1.764437
9995.000000;1.766721
9994.000000;1.768000
9993.000000;1.767114
9992.000000;1.764512
9991.000000;1.762169
9990.000000;1.761967
9989.000000;1.763923
9988.000000;1.766174
9987.000000;1.766753
9986.000000;1.765118
9985.000000;1.761897
9984.000000;1.757852
9983.000000;1.753738
9982.000000;1.750648
9981.000000;1.749645
9980.000000;1.751082
9979.000000;1.754465
9978.000000;1.758696
9977.000000;1.762238
9976.000000;1.763465
9975.000000;1.761634
9974.000000;1.757708
9973.000000;1.753867
9972.000000;1.751925
9971.000000;1.752095
9970.000000;1.753155
9969.000000;1.753727
9968.000000;1.753477
9967.000000;1.753233
9966.000000;1.753691
9965.000000;1.754221
9964.000000;1.753614
9963.000000;1.751907
9962.000000;1.750444
9961.000000;1.749820
9960.000000;1.748838
9959.000000;1.746265
9958.000000;1.742917
9957.000000;1.740933
9956.000000;1.741191
9955.000000;1.742343
9954.000000;1.742450
9953.000000;1.740961
9952.000000;1.738922
9951.000000;1.737739
9950.000000;1.738002
9949.000000;1.739179
9948.000000;1.740208
9947.000000;1.740447
9946.000000;1.740010
9945.000000;1.739094
9944.000000;1.737450
9943.000000;1.734936
9942.000000;1.732226
9941.000000;1.730274
9940.000000;1.729133
9939.000000;1.727938
9938.000000;1.726225
9937.000000;1.724751
9936.000000;1.724622
9935.000000;1.725895
9934.000000;1.727361
9933.000000;1.727628
9932.000000;1.726245
9931.000000;1.723913
9930.000000;1.721884
9929.000000;1.721140
9928.000000;1.721950
9927.000000;1.723885
9926.000000;1.725898
9925.000000;1.726631
9924.000000;1.725315
9923.000000;1.722471
9922.000000;1.719311
9921.000000;1.716470
9920.000000;1.713798
9919.000000;1.711372
9918.000000;1.709948
9917.000000;1.710004
9916.000000;1.710958
9915.000000;1.711923
9914.000000;1.712760
9913.000000;1.713713
9912.000000;1.714447
9911.000000;1.714383
9910.000000;1.713658
9909.000000;1.712734
9908.000000;1.711318
9907.000000;1.708752
9906.000000;1.705544
9905.000000;1.703396
9904.000000;1.703387
9903.000000;1.704969
9902.000000;1.706943
9901.000000;1.708609
9900.000000;1.709529
9899.000000;1.709053
9898.000000;1.706936
9897.000000;1.703995
9896.000000;1.701467
9895.000000;1.699867
9894.000000;1.698834
9893.000000;1.697871
9892.000000;1.696777
9891.000000;1.695680
9890.000000;1.695113
9889.000000;1.695668
9888.000000;1.697108
9887.000000;1.698256
9886.000000;1.698235
9885.000000;1.697443
9884.000000;1.696699
9883.000000;1.695918
9882.000000;1.694408
9881.000000;1.692123
9880.000000;1.689667
9879.000000;1.687211
9878.000000;1.684365
9877.000000;1.681270
9876.000000;1.678954
9875.000000;1.678219
9874.000000;1.678747
9873.000000;1.679633
9872.000000;1.680290
9871.000000;1.680452
9870.000000;1.679888
9869.000000;1.678710
9868.000000;1.677676
9867.000000;1.677517
9866.000000;1.678047
9865.000000;1.678384
9864.000000;1.678054
9863.000000;1.677405
9862.000000;1.676844
9861.000000;1.676167
9860.000000;1.675011
9859.000000;1.673698
9858.000000;1.672985
9857.000000;1.672996
9856.000000;1.672944
9855.000000;1.672131
9854.000000;1.670980
9853.000000;1.670643
9852.000000;1.671495
9851.000000;1.672385
9850.000000;1.671800
9849.000000;1.669710
9848.000000;1.667703
9847.000000;1.667087
9846.000000;1.667448
9845.000000;1.667559
9844.000000;1.667255
9843.000000;1.667480
9842.000000;1.668496
9841.000000;1.669118
9840.000000;1.668253
9839.000000;1.666313
9838.000000;1.664221
9837.000000;1.661803
9836.000000;1.658479
9835.000000;1.655146
9834.000000;1.653871
9833.000000;1.655365
9832.000000;1.657794
9831.000000;1.658778
9830.000000;1.657891
9829.000000;1.656402
9828.000000;1.655279
9827.000000;1.654660
9826.000000;1.654772
9825.000000;1.655980
9824.000000;1.657771
9823.000000;1.658745
9822.000000;1.658070
9821.000000;1.656210
9820.000000;1.653924
9819.000000;1.651375
9818.000000;1.648631
9817.000000;1.646189
9816.000000;1.644308
9815.000000;1.642395
9814.000000;1.639823
9813.000000;1.637150
9812.000000;1.635848
9811.000000;1.636663
9810.000000;1.638618
9809.000000;1.639890
9808.000000;1.639491
9807.000000;1.637905
9806.000000;1.636196
9805.000000;1.634816
9804.000000;1.633439
9803.000000;1.631747
9802.000000;1.630080
9801.000000;1.629168
9800.000000;1.629290
9799.000000;1.629850
9798.000000;1.629852
9797.000000;1.628825
9796.000000;1.627324
9795.000000;1.626572
9794.000000;1.627492
9793.000000;1.629899
9792.000000;1.632563
9791.000000;1.634174
9790.000000;1.634336
9789.000000;1.633597
9788.000000;1.632654
9787.000000;1.631848
9786.000000;1.631291
9785.000000;1.630950
9784.000000;1.630447
9783.000000;1.629172
9782.000000;1.626931
9781.000000;1.624379
9780.000000;1.622490
9779.000000;1.621620
9778.000000;1.621274
9777.000000;1.620831
9776.000000;1.620260
9775.000000;1.619957
9774.000000;1.620070
9773.000000;1.620350
9772.000000;1.620631
9771.000000;1.621033
9770.000000;1.621454
9769.000000;1.621246
9768.000000;1.619903
9767.000000;1.617866
9766.000000;1.616051
9765.000000;1.614643
9764.000000;1.613032
9763.000000;1.610920
9762.000000;1.608679
9761.000000;1.606395
9760.000000;1.603542
9759.000000;1.600315
9758.000000;1.598392
9757.000000;1.599251
9756.000000;1.602051
9755.000000;1.604224
9754.000000;1.604234
9753.000000;1.602853
9752.000000;1.601585
9751.000000;1.600988
9750.000000;1.600918
9749.000000;1.601311
9748.000000;1.601965
9747.000000;1.602103
9746.000000;1.600980
9745.000000;1.598804
9744.000000;1.596624
9743.000000;1.595392
9742.000000;1.595344
9741.000000;1.596003
9740.000000;1.596551
9739.000000;1.596487
9738.000000;1.596141
9737.000000;1.596224
9736.000000;1.596772
9735.000000;1.597004
9734.000000;1.596423
9733.000000;1.595508
9732.000000;1.594933
9731.000000;1.594580
9730.000000;1.593806
9729.000000;1.592315
9728.000000;1.590272
9727.000000;1.587866
9726.000000;1.585366
9725.000000;1.583418
9724.000000;1.582611
9723.000000;1.582661
9722.000000;1.582536
9721.000000;1.581561
9720.000000;1.580056
9719.000000;1.578746
9718.000000;1.577946
9717.000000;1.577577
9716.000000;1.577727
9715.000000;1.578708
9714.000000;1.580356
9713.000000;1.581573
9712.000000;1.581086
9711.000000;1.578890
9710.000000;1.576556
9709.000000;1.575570
9708.000000;1.575610
9707.000000;1.575077
9706.000000;1.573274
9705.000000;1.571357
9704.000000;1.570851
9703.000000;1.571746
9702.000000;1.572584
9701.000000;1.572141
9700.000000;1.570509
9699.000000;1.568623
9698.000000;1.567267
9697.000000;1.566638
9696.000000;1.566480
9695.000000;1.566376
9694.000000;1.566024
9693.000000;1.565398
9692.000000;1.564737
9691.000000;1.564357
9690.000000;1.564336
9689.000000;1.564252
9688.000000;1.563453
9687.000000;1.561888
9686.000000;1.560442
9685.000000;1.559913
9684.000000;1.559734
9683.000000;1.558449
9682.000000;1.555684
9681.000000;1.552876
9680.000000;1.551621
9679.000000;1.552001
9678.000000;1.553017
9677.000000;1.554011
9676.000000;1.554879
9675.000000;1.555305
9674.000000;1.554820
9673.000000;1.553634
9672.000000;1.552532
9671.000000;1.551739
9670.000000;1.550587
9669.000000;1.548577
9668.000000;1.546232
9667.000000;1.544549
9666.000000;1.544003
9665.000000;1.544365
9664.000000;1.545145
9663.000000;1.545856
9662.000000;1.546069
9661.000000;1.545546
9660.000000;1.544466
9659.000000;1.543413
9658.000000;1.542916
9657.000000;1.542904
9656.000000;1.542578
9655.000000;1.540982
9654.000000;1.537984
9653.000000;1.534701
9652.000000;1.532582
9651.000000;1.532010
9650.000000;1.532048
9649.000000;1.531611
9648.000000;1.530669
9647.000000;1.530103
9646.000000;1.530525
9645.000000;1.531449
9644.000000;1.531709
9643.000000;1.530653
9642.000000;1.528859
9641.000000;1.527553
9640.000000;1.527440
9639.000000;1.528201
9638.000000;1.529017
9637.000000;1.529296
9636.000000;1.528895
9635.000000;1.527956
9634.000000;1.526739
9633.000000;1.525492
9632.000000;1.524257
9631.000000;1.522913
9630.000000;1.521431
9629.000000;1.519848
9628.000000;1.517969
9627.000000;1.515639
9626.000000;1.513439
9625.000000;1.512465
9624.000000;1.513016
9623.000000;1.514076
9622.000000;1.514622
9621.000000;1.514969
9620.000000;1.515965
9619.000000;1.517215
9618.000000;1.517223
9617.000000;1.515389
9616.000000;1.512882
9615.000000;1.511205
9614.000000;1.510644
9613.000000;1.510526
9612.000000;1.510345
9611.000000;1.510182
9610.000000;1.510342
9609.000000;1.510952
9608.000000;1.511733
9607.000000;1.512029
9606.000000;1.511356
9605.000000;1.509994
9604.000000;1.508706
9603.000000;1.507856
9602.000000;1.507207
9601.000000;1.506574
9600.000000;1.506003
9599.000000;1.505220
9598.000000;1.503662
9597.000000;1.501303
9596.000000;1.498912
9595.000000;1.497263
9594.000000;1.496475
9593.000000;1.496452
9592.000000;1.497389
9591.000000;1.499189
9590.000000;1.500848
9589.000000;1.501175
9588.000000;1.500032
9587.000000;1.498290
9586.000000;1.496709
9585.000000;1.495430
9584.000000;1.494405
9583.000000;1.493648
9582.000000;1.493053
9581.000000;1.492477
9580.000000;1.492131
9579.000000;1.492430
9578.000000;1.493268
9577.000000;1.493838
9576.000000;1.493408
9575.000000;1.492078
9574.000000;1.490583
9573.000000;1.489399
9572.000000;1.488187
9571.000000;1.486222
9570.000000;1.483374
9569.000000;1.480519
9568.000000;1.478744
9567.000000;1.478178
9566.000000;1.477920
9565.000000;1.477207
9564.000000;1.476279
9563.000000;1.475808
9562.000000;1.475905
9561.000000;1.476180
9560.000000;1.476602
9559.000000;1.477579
9558.000000;1.478957
9557.000000;1.479554
9556.000000;1.478242
9555.000000;1.475320
9554.000000;1.472400
9553.000000;1.470935
9552.000000;1.471083
9551.000000;1.471965
9550.000000;1.472787
9549.000000;1.473495
9548.000000;1.474250
9547.000000;1.474562
9546.000000;1.473499
9545.000000;1.470960
9544.000000;1.468266
9543.000000;1.467023
9542.000000;1.467522
9541.000000;1.468573
9540.000000;1.468851
9539.000000;1.468111
9538.000000;1.467017
9537.000000;1.466052
9536.000000;1.464872
9535.000000;1.462714
9534.000000;1.459439
9533.000000;1.456133
9532.000000;1.454408
9531.000000;1.454898
9530.000000;1.456569
9529.000000;1.457811
9528.000000;1.458060
9527.000000;1.457951
9526.000000;1.457985
9525.000000;1.457731
9524.000000;1.456584
9523.000000;1.454767
9522.000000;1.453145
9521.000000;1.452315
9520.000000;1.452219
9519.000000;1.452469
9518.000000;1.452721
9517.000000;1.452785
9516.000000;1.452652
9515.000000;1.452454
9514.000000;1.452345
9513.000000;1.452424
9512.000000;1.452757
9511.000000;1.453295
9510.000000;1.453694
9509.000000;1.453456
9508.000000;1.452330
9507.000000;1.450463
9506.000000;1.448166
9505.000000;1.445767
9504.000000;1.443729
9503.000000;1.442583
9502.000000;1.442451
9501.000000;1.442829
9500.000000;1.443106
9499.000000;1.443084
9498.000000;1.442813
9497.000000;1.442260
9496.000000;1.441393
9495.000000;1.440368
9494.000000;1.439359
9493.000000;1.438389
9492.000000;1.437576
9491.000000;1.437219
9490.000000;1.437272
9489.000000;1.436994
9488.000000;1.435692
9487.000000;1.433739
9486.000000;1.432283
9485.000000;1.431946
9484.000000;1.432338
9483.000000;1.432870
9482.000000;1.433445
9481.000000;1.434109
9480.000000;1.434493
9479.000000;1.434041
9478.000000;1.432653
9477.000000;1.430763
9476.000000;1.428925
9475.000000;1.427613
9474.000000;1.427163
9473.000000;1.427516
9472.000000;1.428038
9471.000000;1.427998
9470.000000;1.427357
9469.000000;1.426831
9468.000000;1.427044
9467.000000;1.427777
9466.000000;1.428217
9465.000000;1.427886
9464.000000;1.427117
9463.000000;1.426526
9462.000000;1.426193
9461.000000;1.425619
9460.000000;1.424490
9459.000000;1.423170
9458.000000;1.422220
9457.000000;1.421701
9456.000000;1.421297
9455.000000;1.420956
9454.000000;1.420839
9453.000000;1.420556
9452.000000;1.419100
9451.000000;1.416014
9450.000000;1.412350
9449.000000;1.409895
9448.000000;1.409496
9447.000000;1.410456
9446.000000;1.411568
9445.000000;1.412433
9444.000000;1.413584
9443.000000;1.415504
9442.000000;1.417709
9441.000000;1.418851
9440.000000;1.417751
9439.000000;1.414443
9438.000000;1.410249
9437.000000;1.406893
9436.000000;1.405447
9435.000000;1.405828
9434.000000;1.407014
9433.000000;1.407849
9432.000000;1.407915
9431.000000;1.407733
9430.000000;1.407931
9429.000000;1.408362
9428.000000;1.408348
9427.000000;1.407700
9426.000000;1.406995
9425.000000;1.406681
9424.000000;1.406351
9423.000000;1.405181
9422.000000;1.402831
9421.000000;1.399764
9420.000000;1.397090
9419.000000;1.396203
9418.000000;1.397929
9417.000000;1.401403
9416.000000;1.404128
9415.000000;1.404020
9414.000000;1.401457
9413.000000;1.398570
9412.000000;1.396713
9411.000000;1.395508
9410.000000;1.394264
9409.000000;1.393309
9408.000000;1.393369
9407.000000;1.394178
9406.000000;1.394423
9405.000000;1.393041
9404.000000;1.390257
9403.000000;1.387399
9402.000000;1.385865
9401.000000;1.386137
9400.000000;1.387465
9399.000000;1.388485
9398.000000;1.388320
9397.000000;1.387229
9396.000000;1.386291
9395.000000;1.386516
9394.000000;1.388014
9393.000000;1.389744
9392.000000;1.390143
9391.000000;1.388539
9390.000000;1.386014
9389.000000;1.384536
9388.000000;1.385159
9387.000000;1.387166
9386.000000;1.388848
9385.000000;1.388838
9384.000000;1.386774
9383.000000;1.383261
9382.000000;1.379589
9381.000000;1.377105
9380.000000;1.376319
9379.000000;1.376597
9378.000000;1.376913
9377.000000;1.376883
9376.000000;1.376887
9375.000000;1.377356
9374.000000;1.378239
9373.000000;1.379185
9372.000000;1.379949
9371.000000;1.380443
9370.000000;1.380421
9369.000000;1.379316
9368.000000;1.376755
9367.000000;1.373327
9366.000000;1.370503
9365.000000;1.369392
9364.000000;1.369721
9363.000000;1.370349
9362.000000;1.370658
9361.000000;1.370940
9360.000000;1.371421
9359.000000;1.371618
9358.000000;1.371019
9357.000000;1.369891
9356.000000;1.368930
9355.000000;1.368436
9354.000000;1.368243
9353.000000;1.368220
9352.000000;1.368395
9351.000000;1.368716
9350.000000;1.369036
9349.000000;1.369243
9348.000000;1.369133
9347.000000;1.368285
9346.000000;1.366428
9345.000000;1.363891
9344.000000;1.361418
9343.000000;1.359568
9342.000000;1.358445
9341.000000;1.357874
9340.000000;1.357582
9339.000000;1.357359
9338.000000;1.357329
9337.000000;1.357932
9336.000000;1.359303
9335.000000;1.360763
9334.000000;1.361335
9333.000000;1.360813
9332.000000;1.359992
9331.000000;1.359662
9330.000000;1.359650
9329.000000;1.359038
9328.000000;1.357281
9327.000000;1.354933
9326.000000;1.353225
9325.000000;1.352905
9324.000000;1.353487
9323.000000;1.353704
9322.000000;1.352753
9321.000000;1.351038
9320.000000;1.349649
9319.000000;1.349284
9318.000000;1.349753
9317.000000;1.350294
9316.000000;1.350179
9315.000000;1.349172
9314.000000;1.347615
9313.000000;1.346117
9312.000000;1.345088
9311.000000;1.344622
9310.000000;1.344711
9309.000000;1.345267
9308.000000;1.345931
9307.000000;1.346207
9306.000000;1.346031
9305.000000;1.345933
9304.000000;1.346275
9303.000000;1.346566
9302.000000;1.345988
9301.000000;1.344475
9300.000000;1.342868
9299.000000;1.342000
9298.000000;1.341927
9297.000000;1.341995
9296.000000;1.341441
9295.000000;1.340061
9294.000000;1.338534
9293.000000;1.337930
9292.000000;1.338575
9291.000000;1.339495
9290.000000;1.339362
9289.000000;1.338001
9288.000000;1.336555
9287.000000;1.336183
9286.000000;1.337013
9285.000000;1.338381
9284.000000;1.339533
9283.000000;1.339918
9282.000000;1.339270
9281.000000;1.337761
9280.000000;1.335883
9279.000000;1.333969
9278.000000;1.332064
9277.000000;1.330438
9276.000000;1.329820
9275.000000;1.330712
9274.000000;1.332605
9273.000000;1.334238
9272.000000;1.334679
9271.000000;1.333969
9270.000000;1.332787
9269.000000;1.331844
9268.000000;1.331560
9267.000000;1.331921
9266.000000;1.332381
9265.000000;1.332124
9264.000000;1.330836
9263.000000;1.329200
9262.000000;1.328263
9261.000000;1.328311
9260.000000;1.328671
9259.000000;1.328616
9258.000000;1.328150
9257.000000;1.327689
9256.000000;1.327221
9255.000000;1.326230
9254.000000;1.324434
9253.000000;1.322274
9252.000000;1.320608
9251.000000;1.320147
9250.000000;1.321128
9249.000000;1.323123
9248.000000;1.325050
9247.000000;1.325761
9246.000000;1.324972
9245.000000;1.323456
9244.000000;1.322194
9243.000000;1.321461
9242.000000;1.320782
9241.000000;1.319583
9240.000000;1.317749
9239.000000;1.315787
9238.000000;1.314576
9237.000000;1.314672
9236.000000;1.315643
9235.000000;1.316423
9234.000000;1.316591
9233.000000;1.316877
9232.000000;1.318005
9231.000000;1.319396
9230.000000;1.319661
9229.000000;1.318301
9228.000000;1.316303
9227.000000;1.314895
9226.000000;1.314268
9225.000000;1.313711
9224.000000;1.312625
9223.000000;1.311165
9222.000000;1.310011
9221.000000;1.309620
9220.000000;1.309689
9219.000000;1.309408
9218.000000;1.308362
9217.000000;1.306992
9216.000000;1.305981
9215.000000;1.305505
9214.000000;1.305448
9213.000000;1.306005
9212.000000;1.307399
9211.000000;1.309047
9210.000000;1.309714
9209.000000;1.308811
9208.000000;1.307079
9207.000000;1.305769
9206.000000;1.305539
9205.000000;1.306241
9204.000000;1.307215
9203.000000;1.307545
9202.000000;1.306573
9201.000000;1.304645
9200.000000;1.303057
9199.000000;1.302885
9198.000000;1.303984
9197.000000;1.305281
9196.000000;1.305800
9195.000000;1.305199
9194.000000;1.303627
9193.000000;1.301524
9192.000000;1.299470
9191.000000;1.297868
9190.000000;1.296798
9189.000000;1.296351
9188.000000;1.296828
9187.000000;1.298263
9186.000000;1.299945
9185.000000;1.300867
9184.000000;1.300664
9183.000000;1.299851
9182.000000;1.299189
9181.000000;1.299151
9180.000000;1.299863
9179.000000;1.301041
9178.000000;1.301842
9177.000000;1.301312
9176.000000;1.299366
9175.000000;1.297064
9174.000000;1.295635
9173.000000;1.295401
9172.000000;1.295834
9171.000000;1.296386
9170.000000;1.296874
9169.000000;1.297087
9168.000000;1.296548
9167.000000;1.295012
9166.000000;1.293004
9165.000000;1.291519
9164.000000;1.291111
9163.000000;1.291414
9162.000000;1.291595
9161.000000;1.291183
9160.000000;1.290377
9159.000000;1.289666
9158.000000;1.289351
9157.000000;1.289441
9156.000000;1.289808
9155.000000;1.290257
9154.000000;1.290511
9153.000000;1.290299
9152.000000;1.289561
9151.000000;1.288488
9150.000000;1.287351
9149.000000;1.286345
9148.000000;1.285640
9147.000000;1.285456
9146.000000;1.285886
9145.000000;1.286633
9144.000000;1.287142
9143.000000;1.287122
9142.000000;1.286791
9141.000000;1.286457
9140.000000;1.286069
9139.000000;1.285459
9138.000000;1.284932
9137.000000;1.285134
9136.000000;1.286172
9135.000000;1.287154
9134.000000;1.286940
9133.000000;1.285264
9132.000000;1.282950
9131.000000;1.281149
9130.000000;1.280555
9129.000000;1.281143
9128.000000;1.282283
9127.000000;1.283128
9126.000000;1.283216
9125.000000;1.282789
9124.000000;1.282405
9123.000000;1.282237
9122.000000;1.281963
9121.000000;1.281328
9120.000000;1.280574
9119.000000;1.280183
9118.000000;1.280314
9117.000000;1.280586
9116.000000;1.280405
9115.000000;1.279499
9114.000000;1.278237
9113.000000;1.277354
9112.000000;1.277294
9111.000000;1.277838
9110.000000;1.278423
9109.000000;1.278694
9108.000000;1.278632
9107.000000;1.278344
9106.000000;1.278002
9105.000000;1.277864
9104.000000;1.278001
9103.000000;1.278062
9102.000000;1.277669
9101.000000;1.277017
9100.000000;1.276694
9099.000000;1.276841
9098.000000;1.276882
9097.000000;1.276250
9096.000000;1.275031
9095.000000;1.273759
9094.000000;1.272874
9093.000000;1.272501
9092.000000;1.272428
9091.000000;1.272151
9090.000000;1.271323
9089.000000;1.270361
9088.000000;1.270187
9087.000000;1.271074
9086.000000;1.272101
9085.000000;1.272190
9084.000000;1.271436
9083.000000;1.270855
9082.000000;1.271000
9081.000000;1.271401
9080.000000;1.271366
9079.000000;1.270750
9078.000000;1.269769
9077.000000;1.268591
9076.000000;1.267426
9075.000000;1.266687
9074.000000;1.266727
9073.000000;1.267516
9072.000000;1.268714
9071.000000;1.269906
9070.000000;1.270674
9069.000000;1.270710
9068.000000;1.270004
9067.000000;1.268839
9066.000000;1.267500
9065.000000;1.266117
9064.000000;1.264874
9063.000000;1.264138
9062.000000;1.264133
9061.000000;1.264599
9060.000000;1.264971
9059.000000;1.264907
9058.000000;1.264494
9057.000000;1.264001
9056.000000;1.263569
9055.000000;1.263126
9054.000000;1.262479
9053.000000;1.261551
9052.000000;1.260634
9051.000000;1.260270
9050.000000;1.260660
9049.000000;1.261275
9048.000000;1.261351
9047.000000;1.260817
9046.000000;1.260428
9045.000000;1.260812
9044.000000;1.261651
9043.000000;1.262101
9042.000000;1.261861
9041.000000;1.261496
9040.000000;1.261651
9039.000000;1.262250
9038.000000;1.262596
9037.000000;1.262109
9036.000000;1.260841
9035.000000;1.259336
9034.000000;1.258179
9033.000000;1.257707
9032.000000;1.257940
9031.000000;1.258563
9030.000000;1.259000
9029.000000;1.258807
9028.000000;1.258185
9027.000000;1.257927
9026.000000;1.258582
9025.000000;1.259729
9024.000000;1.260350
9023.000000;1.259929
9022.000000;1.258875
9021.000000;1.257779
9020.000000;1.256697
9019.000000;1.255450
9018.000000;1.254273
9017.000000;1.253719
9016.000000;1.253974
9015.000000;1.254675
9014.000000;1.255407
9013.000000;1.256024
9012.000000;1.256392
9011.000000;1.256241
9010.000000;1.255491
9009.000000;1.254428
9008.000000;1.253305
9007.000000;1.252014
9006.000000;1.250427
9005.000000;1.248844
9004.000000;1.247845
9003.000000;1.247794
9002.000000;1.248681
9001.000000;1.250302
9000.000000;1.252279
8999.000000;1.253932
8998.000000;1.254474
8997.000000;1.253568
8996.000000;1.251606
8995.000000;1.249406
8994.000000;1.247709
8993.000000;1.246922
8992.000000;1.247054
8991.000000;1.247762
8990.000000;1.248586
8989.000000;1.249266
8988.000000;1.249805
8987.000000;1.250212
8986.000000;1.250386
8985.000000;1.250358
8984.000000;1.250455
8983.000000;1.250986
8982.000000;1.251775
8981.000000;1.252214
8980.000000;1.251877
8979.000000;1.250956
8978.000000;1.249989
8977.000000;1.249284
8976.000000;1.248795
8975.000000;1.248500
8974.000000;1.248543
8973.000000;1.248897
8972.000000;1.249118
8971.000000;1.248758
8970.000000;1.247936
8969.000000;1.247208
8968.000000;1.246839
8967.000000;1.246467
8966.000000;1.245621
8965.000000;1.244374
8964.000000;1.243325
8963.000000;1.243029
8962.000000;1.243549
8961.000000;1.244466
8960.000000;1.245239
8959.000000;1.245590
8958.000000;1.245590
8957.000000;1.245315
8956.000000;1.244560
8955.000000;1.243116
8954.000000;1.241351
8953.000000;1.240169
8952.000000;1.240154
8951.000000;1.240946
8950.000000;1.241657
8949.000000;1.241734
8948.000000;1.241237
8947.000000;1.240450
8946.000000;1.239561
8945.000000;1.238729
8944.000000;1.238189
8943.000000;1.238157
8942.000000;1.238668
8941.000000;1.239519
8940.000000;1.240387
8939.000000;1.241108
8938.000000;1.241814
8937.000000;1.242640
8936.000000;1.243329
8935.000000;1.243459
8934.000000;1.243141
8933.000000;1.243006
8932.000000;1.243205
8931.000000;1.242908
8930.000000;1.241345
8929.000000;1.239063
8928.000000;1.237492
8927.000000;1.237335
8926.000000;1.237988
8925.000000;1.238528
8924.000000;1.238640
8923.000000;1.238458
8922.000000;1.238177
8921.000000;1.238128
8920.000000;1.238625
8919.000000;1.239291
8918.000000;1.239014
8917.000000;1.237173
8916.000000;1.234647
8915.000000;1.233017
8914.000000;1.232962
8913.000000;1.233871
8912.000000;1.234858
8911.000000;1.235602
8910.000000;1.236164
8909.000000;1.236565
8908.000000;1.236850
8907.000000;1.237185
8906.000000;1.237586
8905.000000;1.237724
8904.000000;1.237298
8903.000000;1.236500
8902.000000;1.235838
8901.000000;1.235569
8900.000000;1.235500
8899.000000;1.235413
8898.000000;1.235504
8897.000000;1.236174
8896.000000;1.237370
8895.000000;1.238327
8894.000000;1.238224
8893.000000;1.237107
8892.000000;1.235908
8891.000000;1.235457
8890.000000;1.235681
8889.000000;1.235914
8888.000000;1.235727
8887.000000;1.235148
8886.000000;1.234247
8885.000000;1.233019
8884.000000;1.231758
8883.000000;1.231072
8882.000000;1.231240
8881.000000;1.231819
8880.000000;1.232208
8879.000000;1.232382
8878.000000;1.232767
8877.000000;1.233534
8876.000000;1.234416
8875.000000;1.235197
8874.000000;1.235935
8873.000000;1.236551
8872.000000;1.236582
8871.000000;1.235678
8870.000000;1.234176
8869.000000;1.232839
8868.000000;1.232088
8867.000000;1.231753
8866.000000;1.231558
8865.000000;1.231545
8864.000000;1.231886
8863.000000;1.232449
8862.000000;1.232772
8861.000000;1.232454
8860.000000;1.231530
8859.000000;1.230495
8858.000000;1.229966
8857.000000;1.230243
8856.000000;1.231092
8855.000000;1.231957
8854.000000;1.232479
8853.000000;1.232758
8852.000000;1.233042
8851.000000;1.233262
8850.000000;1.233039
8849.000000;1.232160
8848.000000;1.230915
8847.000000;1.229873
8846.000000;1.229433
8845.000000;1.229626
8844.000000;1.230241
8843.000000;1.230983
8842.000000;1.231541
8841.000000;1.231708
8840.000000;1.231573
8839.000000;1.231526
8838.000000;1.231885
8837.000000;1.232487
8836.000000;1.232744
8835.000000;1.232208
8834.000000;1.231059
8833.000000;1.229944
8832.000000;1.229363
8831.000000;1.229377
8830.000000;1.229840
8829.000000;1.230647
8828.000000;1.231540
8827.000000;1.231923
8826.000000;1.231280
8825.000000;1.229846
8824.000000;1.228570
8823.000000;1.228235
8822.000000;1.228729
8821.000000;1.229284
8820.000000;1.229310
8819.000000;1.228854
8818.000000;1.228316
8817.000000;1.227988
8816.000000;1.227948
8815.000000;1.228186
8814.000000;1.228630
8813.000000;1.229080
8812.000000;1.229286
8811.000000;1.229158
8810.000000;1.228885
8809.000000;1.228815
8808.000000;1.229230
8807.000000;1.230153
8806.000000;1.231263
8805.000000;1.231995
8804.000000;1.231907
8803.000000;1.231069
8802.000000;1.230098
8801.000000;1.229709
8800.000000;1.230170
8799.000000;1.231144
8798.000000;1.232036
8797.000000;1.232442
8796.000000;1.232355
8795.000000;1.232020
8794.000000;1.231678
8793.000000;1.231399
8792.000000;1.231158
8791.000000;1.231015
8790.000000;1.231162
8789.000000;1.231699
8788.000000;1.232403
8787.000000;1.232828
8786.000000;1.232720
8785.000000;1.232285
8784.000000;1.231996
8783.000000;1.232196
8782.000000;1.232921
8781.000000;1.233959
8780.000000;1.234916
8779.000000;1.235273
8778.000000;1.234623
8777.000000;1.233067
8776.000000;1.231289
8775.000000;1.230071
8774.000000;1.229676
8773.000000;1.229817
8772.000000;1.230194
8771.000000;1.230849
8770.000000;1.231865
8769.000000;1.232951
8768.000000;1.233631
8767.000000;1.233824
8766.000000;1.233959
8765.000000;1.234399
8764.000000;1.234927
8763.000000;1.234965
8762.000000;1.234260
8761.000000;1.233238
8760.000000;1.232708
8759.000000;1.233238
8758.000000;1.234730
8757.000000;1.236460
8756.000000;1.237550
8755.000000;1.237575
8754.000000;1.236828
8753.000000;1.236034
8752.000000;1.235820
8751.000000;1.236334
8750.000000;1.237161
8749.000000;1.237619
8748.000000;1.237356
8747.000000;1.236712
8746.000000;1.236314
8745.000000;1.236321
8744.000000;1.236329
8743.000000;1.236042
8742.000000;1.235692
8741.000000;1.235577
8740.000000;1.235502
8739.000000;1.235107
8738.000000;1.234595
8737.000000;1.234687
8736.000000;1.235780
8735.000000;1.237456
8734.000000;1.238888
8733.000000;1.239520
8732.000000;1.239366
8731.000000;1.238869
8730.000000;1.238529
8729.000000;1.238484
8728.000000;1.238378
8727.000000;1.237815
8726.000000;1.236933
8725.000000;1.236325
8724.000000;1.236369
8723.000000;1.236888
8722.000000;1.237532
8721.000000;1.238205
8720.000000;1.238966
8719.000000;1.239693
8718.000000;1.240091
8717.000000;1.240013
8716.000000;1.239646
8715.000000;1.239390
8714.000000;1.239585
8713.000000;1.240276
8712.000000;1.241190
8711.000000;1.241981
8710.000000;1.242466
8709.000000;1.242606
8708.000000;1.242422
8707.000000;1.242105
8706.000000;1.242060
8705.000000;1.242512
8704.000000;1.243090
8703.000000;1.243129
8702.000000;1.242466
8701.000000;1.241640
8700.000000;1.241273
8699.000000;1.241522
8698.000000;1.242142
8697.000000;1.242753
8696.000000;1.242961
8695.000000;1.242612
8694.000000;1.242079
8693.000000;1.241977
8692.000000;1.242414
8691.000000;1.242853
8690.000000;1.242873
8689.000000;1.242688
8688.000000;1.242644
8687.000000;1.242593
8686.000000;1.242204
8685.000000;1.241631
8684.000000;1.241375
8683.000000;1.241593
8682.000000;1.241973
8681.000000;1.242254
8680.000000;1.242485
8679.000000;1.242743
8678.000000;1.242932
8677.000000;1.242954
8676.000000;1.242854
8675.000000;1.242784
8674.000000;1.243032
8673.000000;1.243957
8672.000000;1.245543
8671.000000;1.247044
8670.000000;1.247477
8669.000000;1.246609
8668.000000;1.245141
8667.000000;1.243847
8666.000000;1.242900
8665.000000;1.242190
8664.000000;1.241862
8663.000000;1.242171
8662.000000;1.242983
8661.000000;1.243760
8660.000000;1.244038
8659.000000;1.243745
8658.000000;1.243142
8657.000000;1.242596
8656.000000;1.242351
8655.000000;1.242327
8654.000000;1.242192
8653.000000;1.241753
8652.000000;1.241267
8651.000000;1.241189
8650.000000;1.241645
8649.000000;1.242334
8648.000000;1.242955
8647.000000;1.243522
8646.000000;1.244153
8645.000000;1.244734
8644.000000;1.244980
8643.000000;1.244772
8642.000000;1.244229
8641.000000;1.243454
8640.000000;1.242428
8639.000000;1.241275
8638.000000;1.240468
8637.000000;1.240534
8636.000000;1.241518
8635.000000;1.242819
8634.000000;1.243640
8633.000000;1.243631
8632.000000;1.243112
8631.000000;1.242715
8630.000000;1.242812
8629.000000;1.243202
8628.000000;1.243339
8627.000000;1.242926
8626.000000;1.242254
8625.000000;1.241896
8624.000000;1.242097
8623.000000;1.242588
8622.000000;1.242971
8621.000000;1.243140
8620.000000;1.243235
8619.000000;1.243328
8618.000000;1.243317
8617.000000;1.243104
8616.000000;1.242741
8615.000000;1.242391
8614.000000;1.242184
8613.000000;1.242147
8612.000000;1.242232
8611.000000;1.242373
8610.000000;1.242525
8609.000000;1.242632
8608.000000;1.242590
8607.000000;1.242305
8606.000000;1.241842
8605.000000;1.241465
8604.000000;1.241424
8603.000000;1.241639
8602.000000;1.241633
8601.000000;1.240955
8600.000000;1.239774
8599.000000;1.238927
8598.000000;1.239146
8597.000000;1.240202
8596.000000;1.241046
8595.000000;1.240942
8594.000000;1.240209
8593.000000;1.239680
8592.000000;1.239708
8591.000000;1.240041
8590.000000;1.240401
8589.000000;1.240726
8588.000000;1.240858
8587.000000;1.240492
8586.000000;1.239616
8585.000000;1.238682
8584.000000;1.238148
8583.000000;1.238102
8582.000000;1.238418
8581.000000;1.238982
8580.000000;1.239577
8579.000000;1.239880
8578.000000;1.239831
8577.000000;1.239765
8576.000000;1.239905
8575.000000;1.239958
8574.000000;1.239520
8573.000000;1.238760
8572.000000;1.238331
8571.000000;1.238591
8570.000000;1.239175
8569.000000;1.239399
8568.000000;1.238976
8567.000000;1.238281
8566.000000;1.238010
8565.000000;1.238547
8564.000000;1.239574
8563.000000;1.240366
8562.000000;1.240507
8561.000000;1.240179
8560.000000;1.239714
8559.000000;1.239136
8558.000000;1.238372
8557.000000;1.237634
8556.000000;1.237216
8555.000000;1.236964
8554.000000;1.236385
8553.000000;1.235357
8552.000000;1.234453
8551.000000;1.234344
8550.000000;1.235029
8549.000000;1.235811
8548.000000;1.236048
8547.000000;1.235818
8546.000000;1.235784
8545.000000;1.236361
8544.000000;1.237133
8543.000000;1.237216
8542.000000;1.236259
8541.000000;1.234887
8540.000000;1.234081
8539.000000;1.234276
8538.000000;1.235184
8537.000000;1.236238
8536.000000;1.236982
8535.000000;1.237172
8534.000000;1.236819
8533.000000;1.236197
8532.000000;1.235648
8531.000000;1.235349
8530.000000;1.235340
8529.000000;1.235653
8528.000000;1.236212
8527.000000;1.236705
8526.000000;1.236795
8525.000000;1.236485
8524.000000;1.236081
8523.000000;1.235787
8522.000000;1.235495
8521.000000;1.234968
8520.000000;1.234142
8519.000000;1.233232
8518.000000;1.232637
8517.000000;1.232691
8516.000000;1.233367
8515.000000;1.234249
8514.000000;1.234914
8513.000000;1.235248
8512.000000;1.235276
8511.000000;1.234881
8510.000000;1.234006
8509.000000;1.233018
8508.000000;1.232513
8507.000000;1.232687
8506.000000;1.233179
8505.000000;1.233559
8504.000000;1.233705
8503.000000;1.233638
8502.000000;1.233340
8501.000000;1.232911
8500.000000;1.232644
8499.000000;1.232653
8498.000000;1.232603
8497.000000;1.232096
8496.000000;1.231251
8495.000000;1.230660
8494.000000;1.230715
8493.000000;1.231151
8492.000000;1.231325
8491.000000;1.230902
8490.000000;1.230200
8489.000000;1.229838
8488.000000;1.230059
8487.000000;1.230467
8486.000000;1.230495
8485.000000;1.230082
8484.000000;1.229755
8483.000000;1.230003
8482.000000;1.230707
8481.000000;1.231282
8480.000000;1.231306
8479.000000;1.230892
8478.000000;1.230441
8477.000000;1.230150
8476.000000;1.229864
8475.000000;1.229417
8474.000000;1.228974
8473.000000;1.228844
8472.000000;1.228999
8471.000000;1.228993
8470.000000;1.228515
8469.000000;1.227866
8468.000000;1.227658
8467.000000;1.228107
8466.000000;1.228828
8465.000000;1.229295
8464.000000;1.229283
8463.000000;1.228869
8462.000000;1.228274
8461.000000;1.227812
8460.000000;1.227806
8459.000000;1.228357
8458.000000;1.229233
8457.000000;1.230073
8456.000000;1.230640
8455.000000;1.230865
8454.000000;1.230787
8453.000000;1.230538
8452.000000;1.230313
8451.000000;1.230204
8450.000000;1.230096
8449.000000;1.229825
8448.000000;1.229469
8447.000000;1.229373
8446.000000;1.229818
8445.000000;1.230685
8444.000000;1.231467
8443.000000;1.231677
8442.000000;1.231237
8441.000000;1.230456
8440.000000;1.229674
8439.000000;1.229027
8438.000000;1.228537
8437.000000;1.228255
8436.000000;1.228199
8435.000000;1.228237
8434.000000;1.228218
8433.000000;1.228166
8432.000000;1.228204
8431.000000;1.228295
8430.000000;1.228237
8429.000000;1.227960
8428.000000;1.227669
8427.000000;1.227598
8426.000000;1.227679
8425.000000;1.227545
8424.000000;1.226879
8423.000000;1.225780
8422.000000;1.224770
8421.000000;1.224411
8420.000000;1.224825
8419.000000;1.225619
8418.000000;1.226305
8417.000000;1.226758
8416.000000;1.227175
8415.000000;1.227684
8414.000000;1.228154
8413.000000;1.228393
8412.000000;1.228383
8411.000000;1.228275
8410.000000;1.228247
8409.000000;1.228332
8408.000000;1.228319
8407.000000;1.227869
8406.000000;1.226874
8405.000000;1.225694
8404.000000;1.224877
8403.000000;1.224636
8402.000000;1.224711
8401.000000;1.224708
8400.000000;1.224436
8399.000000;1.223963
8398.000000;1.223554
8397.000000;1.223524
8396.000000;1.223929
8395.000000;1.224360
8394.000000;1.224323
8393.000000;1.223893
8392.000000;1.223699
8391.000000;1.224125
8390.000000;1.224822
8389.000000;1.225203
8388.000000;1.225172
8387.000000;1.225051
8386.000000;1.225005
8385.000000;1.224933
8384.000000;1.224835
8383.000000;1.224835
8382.000000;1.224811
8381.000000;1.224425
8380.000000;1.223672
8379.000000;1.223061
8378.000000;1.223000
8377.000000;1.223234
8376.000000;1.223201
8375.000000;1.222807
8374.000000;1.222524
8373.000000;1.222713
8372.000000;1.223177
8371.000000;1.223466
8370.000000;1.223410
8369.000000;1.223191
8368.000000;1.223031
8367.000000;1.223002
8366.000000;1.223071
8365.000000;1.223161
8364.000000;1.223213
8363.000000;1.223289
8362.000000;1.223586
8361.000000;1.224157
8360.000000;1.224628
8359.000000;1.224442
8358.000000;1.223496
8357.000000;1.222399
8356.000000;1.221906
8355.000000;1.222162
8354.000000;1.222638
8353.000000;1.222776
8352.000000;1.222520
8351.000000;1.222191
8350.000000;1.221996
8349.000000;1.221816
8348.000000;1.221439
8347.000000;1.220937
8346.000000;1.220724
8345.000000;1.221202
8344.000000;1.222292
8343.000000;1.223354
8342.000000;1.223694
8341.000000;1.223153
8340.000000;1.222178
8339.000000;1.221342
8338.000000;1.220899
8337.000000;1.220747
8336.000000;1.220668
8335.000000;1.220559
8334.000000;1.220501
8333.000000;1.220663
8332.000000;1.221064
8331.000000;1.221401
8330.000000;1.221241
8329.000000;1.220498
8328.000000;1.219644
8327.000000;1.219300
8326.000000;1.219648
8325.000000;1.220360
8324.000000;1.221050
8323.000000;1.221596
8322.000000;1.221979
8321.000000;1.221986
8320.000000;1.221343
8319.000000;1.220147
8318.000000;1.218977
8317.000000;1.218451
8316.000000;1.218721
8315.000000;1.219444
8314.000000;1.220164
8313.000000;1.220617
8312.000000;1.220734
8311.000000;1.220527
8310.000000;1.220080
8309.000000;1.219544
8308.000000;1.219084
8307.000000;1.218857
8306.000000;1.219051
8305.000000;1.219781
8304.000000;1.220840
8303.000000;1.221663
8302.000000;1.221761
8301.000000;1.221197
8300.000000;1.220470
8299.000000;1.219962
8298.000000;1.219651
8297.000000;1.219402
8296.000000;1.219289
8295.000000;1.219485
8294.000000;1.219919
8293.000000;1.220277
8292.000000;1.220350
8291.000000;1.220251
8290.000000;1.220222
8289.000000;1.220305
8288.000000;1.220282
8287.000000;1.219940
8286.000000;1.219302
8285.000000;1.218584
8284.000000;1.217965
8283.000000;1.217484
8282.000000;1.217197
8281.000000;1.217293
8280.000000;1.217872
8279.000000;1.218618
8278.000000;1.218889
8277.000000;1.218303
8276.000000;1.217151
8275.000000;1.216109
8274.000000;1.215566
8273.000000;1.215401
8272.000000;1.215354
8271.000000;1.215374
8270.000000;1.215526
8269.000000;1.215763
8268.000000;1.215966
8267.000000;1.216110
8266.000000;1.216186
8265.000000;1.216031
8264.000000;1.215475
8263.000000;1.214696
8262.000000;1.214211
8261.000000;1.214375
8260.000000;1.215005
8259.000000;1.215607
8258.000000;1.215882
8257.000000;1.215917
8256.000000;1.215970
8255.000000;1.216195
8254.000000;1.216517
8253.000000;1.216672
8252.000000;1.216418
8251.000000;1.215823
8250.000000;1.215294
8249.000000;1.215181
8248.000000;1.215399
8247.000000;1.215585
8246.000000;1.215582
8245.000000;1.215551
8244.000000;1.215609
8243.000000;1.215650
8242.000000;1.215622
8241.000000;1.215746
8240.000000;1.216197
8239.000000;1.216684
8238.000000;1.216610
8237.000000;1.215706
8236.000000;1.214357
8235.000000;1.213255
8234.000000;1.212812
8233.000000;1.212936
8232.000000;1.213238
8231.000000;1.213344
8230.000000;1.213054
8229.000000;1.212380
8228.000000;1.211598
8227.000000;1.211193
8226.000000;1.211531
8225.000000;1.212422
8224.000000;1.213159
8223.000000;1.213198
8222.000000;1.212762
8221.000000;1.212553
8220.000000;1.212850
8219.000000;1.213160
8218.000000;1.212861
8217.000000;1.211944
8216.000000;1.210984
8215.000000;1.210553
8214.000000;1.210864
8213.000000;1.211771
8212.000000;1.212843
8211.000000;1.213468
8210.000000;1.213189
8209.000000;1.212074
8208.000000;1.210701
8207.000000;1.209757
8206.000000;1.209644
8205.000000;1.210323
8204.000000;1.211345
8203.000000;1.212108
8202.000000;1.212254
8201.000000;1.211857
8200.000000;1.211167
8199.000000;1.210331
8198.000000;1.209503
8197.000000;1.209034
8196.000000;1.209230
8195.000000;1.209919
8194.000000;1.210559
8193.000000;1.210835
8192.000000;1.210909
8191.000000;1.211017
8190.000000;1.211124
8189.000000;1.211123
8188.000000;1.211133
8187.000000;1.211311
8186.000000;1.211519
8185.000000;1.211466
8184.000000;1.211139
8183.000000;1.210881
8182.000000;1.210980
8181.000000;1.211313
8180.000000;1.211441
8179.000000;1.211001
8178.000000;1.210008
8177.000000;1.208855
8176.000000;1.208028
8175.000000;1.207783
8174.000000;1.208069
8173.000000;1.208739
8172.000000;1.209709
8171.000000;1.210850
8170.000000;1.211857
8169.000000;1.212411
8168.000000;1.212426
8167.000000;1.212021
8166.000000;1.211332
8165.000000;1.210549
8164.000000;1.210046
8163.000000;1.210183
8162.000000;1.210843
8161.000000;1.211413
8160.000000;1.211389
8159.000000;1.210899
8158.000000;1.210499
8157.000000;1.210532
8156.000000;1.210859
8155.000000;1.211094
8154.000000;1.210904
8153.000000;1.210158
8152.000000;1.209005
8151.000000;1.207903
8150.000000;1.207372
8149.000000;1.207596
8148.000000;1.208281
8147.000000;1.208950
8146.000000;1.209297
8145.000000;1.209270
8144.000000;1.208958
8143.000000;1.208535
8142.000000;1.208218
8141.000000;1.208125
8140.000000;1.208171
8139.000000;1.208189
8138.000000;1.208160
8137.000000;1.208232
8136.000000;1.208506
8135.000000;1.208849
8134.000000;1.208972
8133.000000;1.208694
8132.000000;1.208149
8131.000000;1.207708
8130.000000;1.207626
8129.000000;1.207768
8128.000000;1.207751
8127.000000;1.207428
8126.000000;1.207124
8125.000000;1.207290
8124.000000;1.207974
8123.000000;1.208704
8122.000000;1.208917
8121.000000;1.208473
8120.000000;1.207791
8119.000000;1.207495
8118.000000;1.207862
8117.000000;1.208549
8116.000000;1.208919
8115.000000;1.208668
8114.000000;1.208040
8113.000000;1.207387
8112.000000;1.206773
8111.000000;1.206170
8110.000000;1.205822
8109.000000;1.206033
8108.000000;1.206652
8107.000000;1.207104
8106.000000;1.207024
8105.000000;1.206587
8104.000000;1.206139
8103.000000;1.205795
8102.000000;1.205572
8101.000000;1.205609
8100.000000;1.206000
8099.000000;1.206535
8098.000000;1.206885
8097.000000;1.206953
8096.000000;1.206860
8095.000000;1.206643
8094.000000;1.206204
8093.000000;1.205553
8092.000000;1.204904
8091.000000;1.204476
8090.000000;1.204315
8089.000000;1.204344
8088.000000;1.204470
8087.000000;1.204652
8086.000000;1.204897
8085.000000;1.205214
8084.000000;1.205495
8083.000000;1.205533
8082.000000;1.205230
8081.000000;1.204766
8080.000000;1.204429
8079.000000;1.204326
8078.000000;1.204354
8077.000000;1.204416
8076.000000;1.204537
8075.000000;1.204764
8074.000000;1.205087
8073.000000;1.205471
8072.000000;1.205832
8071.000000;1.205984
8070.000000;1.205731
8069.000000;1.205119
8068.000000;1.204476
8067.000000;1.204131
8066.000000;1.204117
8065.000000;1.204202
8064.000000;1.204166
8063.000000;1.203986
8062.000000;1.203780
8061.000000;1.203639
8060.000000;1.203524
8059.000000;1.203314
8058.000000;1.202973
8057.000000;1.202626
8056.000000;1.202455
8055.000000;1.202515
8054.000000;1.202689
8053.000000;1.202803
8052.000000;1.202755
8051.000000;1.202549
8050.000000;1.202281
8049.000000;1.202105
8048.000000;1.202130
8047.000000;1.202300
8046.000000;1.202412
8045.000000;1.202325
8044.000000;1.202148
8043.000000;1.202136
8042.000000;1.202404
8041.000000;1.202768
8040.000000;1.202921
8039.000000;1.202741
8038.000000;1.202397
8037.000000;1.202147
8036.000000;1.202097
8035.000000;1.202222
8034.000000;1.202542
8033.000000;1.203147
8032.000000;1.203973
8031.000000;1.204662
8030.000000;1.204779
8029.000000;1.204220
8028.000000;1.203330
8027.000000;1.202592
8026.000000;1.202225
8025.000000;1.202112
8024.000000;1.202044
8023.000000;1.201940
8022.000000;1.201812
8021.000000;1.201650
8020.000000;1.201452
8019.000000;1.201323
8018.000000;1.201388
8017.000000;1.201579
8016.000000;1.201634
8015.000000;1.201407
8014.000000;1.201061
8013.000000;1.200834
8012.000000;1.200741
8011.000000;1.200645
8010.000000;1.200533
8009.000000;1.200511
8008.000000;1.200562
8007.000000;1.200582
8006.000000;1.200676
8005.000000;1.201141
8004.000000;1.201995
8003.000000;1.202728
8002.000000;1.202747
8001.000000;1.202003
8000.000000;1.201040
7999.000000;1.200463
7998.000000;1.200503
7997.000000;1.200967
7996.000000;1.201428
7995.000000;1.201488
7994.000000;1.201068
7993.000000;1.200500
7992.000000;1.200212
7991.000000;1.200301
7990.000000;1.200491
7989.000000;1.200513
7988.000000;1.200407
7987.000000;1.200404
7986.000000;1.200597
7985.000000;1.200797
7984.000000;1.200737
7983.000000;1.200371
7982.000000;1.199977
7981.000000;1.199911
7980.000000;1.200249
7979.000000;1.200732
7978.000000;1.201075
7977.000000;1.201258
7976.000000;1.201409
7975.000000;1.201504
7974.000000;1.201338
7973.000000;1.200857
7972.000000;1.200353
7971.000000;1.200229
7970.000000;1.200590
7969.000000;1.201174
7968.000000;1.201641
7967.000000;1.201854
7966.000000;1.201838
7965.000000;1.201593
7964.000000;1.201108
7963.000000;1.200565
7962.000000;1.200317
7961.000000;1.200523
7960.000000;1.200891
7959.000000;1.200942
7958.000000;1.200528
7957.000000;1.199941
7956.000000;1.199526
7955.000000;1.199365
7954.000000;1.199383
7953.000000;1.199542
7952.000000;1.199829
7951.000000;1.200156
7950.000000;1.200393
7949.000000;1.200415
7948.000000;1.200125
7947.000000;1.199565
7946.000000;1.199062
7945.000000;1.199035
7944.000000;1.199488
7943.000000;1.199912
7942.000000;1.199884
7941.000000;1.199615
7940.000000;1.199636
7939.000000;1.200073
7938.000000;1.200557
7937.000000;1.200788
7936.000000;1.200834
7935.000000;1.200818
7934.000000;1.200627
7933.000000;1.200175
7932.000000;1.199752
7931.000000;1.199853
7930.000000;1.200632
7929.000000;1.201635
7928.000000;1.202122
7927.000000;1.201700
7926.000000;1.200720
7925.000000;1.199990
7924.000000;1.199997
7923.000000;1.200417
7922.000000;1.200524
7921.000000;1.200072
7920.000000;1.199571
7919.000000;1.199623
7918.000000;1.200190
7917.000000;1.200686
7916.000000;1.200667
7915.000000;1.200238
7914.000000;1.199820
7913.000000;1.199684
7912.000000;1.199772
7911.000000;1.199856
7910.000000;1.199796
7909.000000;1.199653
7908.000000;1.199585
7907.000000;1.199687
7906.000000;1.199927
7905.000000;1.200223
7904.000000;1.200494
7903.000000;1.200660
7902.000000;1.200671
7901.000000;1.200594
7900.000000;1.200572
7899.000000;1.200656
7898.000000;1.200724
7897.000000;1.200644
7896.000000;1.200454
7895.000000;1.200322
7894.000000;1.200331
7893.000000;1.200402
7892.000000;1.200427
7891.000000;1.200401
7890.000000;1.200392
7889.000000;1.200400
7888.000000;1.200312
7887.000000;1.200020
7886.000000;1.199593
7885.000000;1.199282
7884.000000;1.199313
7883.000000;1.199690
7882.000000;1.200220
7881.000000;1.200722
7880.000000;1.201126
7879.000000;1.201375
7878.000000;1.201342
7877.000000;1.200947
7876.000000;1.200345
7875.000000;1.199885
7874.000000;1.199845
7873.000000;1.200197
7872.000000;1.200666
7871.000000;1.200954
7870.000000;1.200923
7869.000000;1.200634
7868.000000;1.200306
7867.000000;1.200211
7866.000000;1.200472
7865.000000;1.200905
7864.000000;1.201142
7863.000000;1.201002
7862.000000;1.200695
7861.000000;1.200571
7860.000000;1.200727
7859.000000;1.200992
7858.000000;1.201245
7857.000000;1.201523
7856.000000;1.201793
7855.000000;1.201849
7854.000000;1.201595
7853.000000;1.201263
7852.000000;1.201138
7851.000000;1.201160
7850.000000;1.201033
7849.000000;1.200701
7848.000000;1.200458
7847.000000;1.200533
7846.000000;1.200778
7845.000000;1.200903
7844.000000;1.200887
7843.000000;1.200973
7842.000000;1.201276
7841.000000;1.201543
7840.000000;1.201394
7839.000000;1.200742
7838.000000;1.199924
7837.000000;1.199404
7836.000000;1.199363
7835.000000;1.199618
7834.000000;1.199909
7833.000000;1.200172
7832.000000;1.200494
7831.000000;1.200881
7830.000000;1.201200
7829.000000;1.201338
7828.000000;1.201322
7827.000000;1.201257
7826.000000;1.201212
7825.000000;1.201185
7824.000000;1.201149
7823.000000;1.201123
7822.000000;1.201227
7821.000000;1.201622
7820.000000;1.202313
7819.000000;1.203054
7818.000000;1.203521
7817.000000;1.203594
7816.000000;1.203369
7815.000000;1.202943
7814.000000;1.202329
7813.000000;1.201599
7812.000000;1.200982
7811.000000;1.200714
7810.000000;1.200852
7809.000000;1.201251
7808.000000;1.201682
7807.000000;1.201974
7806.000000;1.202134
7805.000000;1.202335
7804.000000;1.202702
7803.000000;1.203102
7802.000000;1.203264
7801.000000;1.203151
7800.000000;1.203039
7799.000000;1.203141
7798.000000;1.203307
7797.000000;1.203259
7796.000000;1.202983
7795.000000;1.202692
7794.000000;1.202464
7793.000000;1.202172
7792.000000;1.201828
7791.000000;1.201736
7790.000000;1.202164
7789.000000;1.202956
7788.000000;1.203628
7787.000000;1.203808
7786.000000;1.203483
7785.000000;1.202884
7784.000000;1.202270
7783.000000;1.201848
7782.000000;1.201754
7781.000000;1.202013
7780.000000;1.202511
7779.000000;1.203043
7778.000000;1.203401
7777.000000;1.203449
7776.000000;1.203197
7775.000000;1.202830
7774.000000;1.202606
7773.000000;1.202644
7772.000000;1.202824
7771.000000;1.202929
7770.000000;1.202892
7769.000000;1.202861
7768.000000;1.203016
7767.000000;1.203353
7766.000000;1.203674
7765.000000;1.203773
7764.000000;1.203626
7763.000000;1.203406
7762.000000;1.203343
7761.000000;1.203572
7760.000000;1.204095
7759.000000;1.204809
7758.000000;1.205515
7757.000000;1.205978
7756.000000;1.206078
7755.000000;1.205944
7754.000000;1.205828
7753.000000;1.205805
7752.000000;1.205704
7751.000000;1.205427
7750.000000;1.205188
7749.000000;1.205271
7748.000000;1.205619
7747.000000;1.205856
7746.000000;1.205738
7745.000000;1.205391
7744.000000;1.205083
7743.000000;1.204977
7742.000000;1.205151
7741.000000;1.205650
7740.000000;1.206319
7739.000000;1.206777
7738.000000;1.206784
7737.000000;1.206565
7736.000000;1.206561
7735.000000;1.206894
7734.000000;1.207250
7733.000000;1.207312
7732.000000;1.207097
7731.000000;1.206833
7730.000000;1.206652
7729.000000;1.206525
7728.000000;1.206421
7727.000000;1.206415
7726.000000;1.206641
7725.000000;1.207128
7724.000000;1.207697
7723.000000;1.208052
7722.000000;1.208039
7721.000000;1.207779
7720.000000;1.207505
7719.000000;1.207306
7718.000000;1.207152
7717.000000;1.207112
7716.000000;1.207363
7715.000000;1.207933
7714.000000;1.208557
7713.000000;1.208919
7712.000000;1.208963
7711.000000;1.208894
7710.000000;1.208900
7709.000000;1.208951
7708.000000;1.208912
7707.000000;1.208765
7706.000000;1.208680
7705.000000;1.208832
7704.000000;1.209196
7703.000000;1.209564
7702.000000;1.209771
7701.000000;1.209828
7700.000000;1.209833
7699.000000;1.209830
7698.000000;1.209829
7697.000000;1.209873
7696.000000;1.209979
7695.000000;1.210068
7694.000000;1.210082
7693.000000;1.210127
7692.000000;1.210350
7691.000000;1.210652
7690.000000;1.210689
7689.000000;1.210255
7688.000000;1.209570
7687.000000;1.209105
7686.000000;1.209144
7685.000000;1.209576
7684.000000;1.210062
7683.000000;1.210366
7682.000000;1.210540
7681.000000;1.210814
7680.000000;1.211316
7679.000000;1.211925
7678.000000;1.212425
7677.000000;1.212731
7676.000000;1.212903
7675.000000;1.212984
7674.000000;1.212954
7673.000000;1.212844
7672.000000;1.212758
7671.000000;1.212759
7670.000000;1.212821
7669.000000;1.212921
7668.000000;1.213086
7667.000000;1.213297
7666.000000;1.213447
7665.000000;1.213482
7664.000000;1.213491
7663.000000;1.213584
7662.000000;1.213727
7661.000000;1.213802
7660.000000;1.213778
7659.000000;1.213748
7658.000000;1.213796
7657.000000;1.213929
7656.000000;1.214151
7655.000000;1.214530
7654.000000;1.215113
7653.000000;1.215797
7652.000000;1.216345
7651.000000;1.216594
7650.000000;1.216630
7649.000000;1.216683
7648.000000;1.216841
7647.000000;1.216947
7646.000000;1.216823
7645.000000;1.216539
7644.000000;1.216370
7643.000000;1.216554
7642.000000;1.217129
7641.000000;1.217950
7640.000000;1.218720
7639.000000;1.219098
7638.000000;1.218953
7637.000000;1.218550
7636.000000;1.218316
7635.000000;1.218406
7634.000000;1.218612
7633.000000;1.218741
7632.000000;1.218887
7631.000000;1.219227
7630.000000;1.219700
7629.000000;1.220065
7628.000000;1.220202
7627.000000;1.220215
7626.000000;1.220252
7625.000000;1.220370
7624.000000;1.220562
7623.000000;1.220813
7622.000000;1.221065
7621.000000;1.221213
7620.000000;1.221176
7619.000000;1.220979
7618.000000;1.220753
7617.000000;1.220682
7616.000000;1.220906
7615.000000;1.221417
7614.000000;1.222034
7613.000000;1.222517
7612.000000;1.222743
7611.000000;1.222802
7610.000000;1.222905
7609.000000;1.223200
7608.000000;1.223647
7607.000000;1.224091
7606.000000;1.224464
7605.000000;1.224840
7604.000000;1.225260
7603.000000;1.225583
7602.000000;1.225634
7601.000000;1.225488
7600.000000;1.225456
7599.000000;1.225731
7598.000000;1.226174
7597.000000;1.226492
7596.000000;1.226538
7595.000000;1.226393
7594.000000;1.226260
7593.000000;1.226352
7592.000000;1.226770
7591.000000;1.227387
7590.000000;1.227899
7589.000000;1.228082
7588.000000;1.227997
7587.000000;1.227875
7586.000000;1.227847
7585.000000;1.227866
7584.000000;1.227837
7583.000000;1.227773
7582.000000;1.227809
7581.000000;1.228101
7580.000000;1.228638
7579.000000;1.229193
7578.000000;1.229544
7577.000000;1.229787
7576.000000;1.230244
7575.000000;1.230988
7574.000000;1.231664
7573.000000;1.231950
7572.000000;1.232050
7571.000000;1.232448
7570.000000;1.233220
7569.000000;1.233878
7568.000000;1.233965
7567.000000;1.233575
7566.000000;1.233183
7565.000000;1.233158
7564.000000;1.233556
7563.000000;1.234224
7562.000000;1.234885
7561.000000;1.235249
7560.000000;1.235257
7559.000000;1.235208
7558.000000;1.235482
7557.000000;1.236116
7556.000000;1.236771
7555.000000;1.237130
7554.000000;1.237197
7553.000000;1.237180
7552.000000;1.237208
7551.000000;1.237262
7550.000000;1.237330
7549.000000;1.237472
7548.000000;1.237759
7547.000000;1.238199
7546.000000;1.238733
7545.000000;1.239229
7544.000000;1.239516
7543.000000;1.239526
7542.000000;1.239448
7541.000000;1.239628
7540.000000;1.240225
7539.000000;1.241003
7538.000000;1.241561
7537.000000;1.241772
7536.000000;1.241904
7535.000000;1.242276
7534.000000;1.242890
7533.000000;1.243470
7532.000000;1.243815
7531.000000;1.244007
7530.000000;1.244241
7529.000000;1.244540
7528.000000;1.244744
7527.000000;1.244784
7526.000000;1.244879
7525.000000;1.245346
7524.000000;1.246237
7523.000000;1.247238
7522.000000;1.247973
7521.000000;1.248354
7520.000000;1.248577
7519.000000;1.248835
7518.000000;1.249127
7517.000000;1.249328
7516.000000;1.249357
7515.000000;1.249272
7514.000000;1.249216
7513.000000;1.249300
7512.000000;1.249521
7511.000000;1.249808
7510.000000;1.250140
7509.000000;1.250565
7508.000000;1.251069
7507.000000;1.251538
7506.000000;1.251925
7505.000000;1.252348
7504.000000;1.252889
7503.000000;1.253366
7502.000000;1.253569
7501.000000;1.253637
7500.000000;1.254082
7499.000000;1.255114
7498.000000;1.256239
7497.000000;1.256782
7496.000000;1.256576
7495.000000;1.256138
7494.000000;1.256105
7493.000000;1.256662
7492.000000;1.257487
7491.000000;1.258126
7490.000000;1.258390
7489.000000;1.258467
7488.000000;1.258658
7487.000000;1.259055
7486.000000;1.259513
7485.000000;1.259933
7484.000000;1.260403
7483.000000;1.260983
7482.000000;1.261501
7481.000000;1.261734
7480.000000;1.261744
7479.000000;1.261828
7478.000000;1.262164
7477.000000;1.262652
7476.000000;1.263156
7475.000000;1.263697
7474.000000;1.264348
7473.000000;1.265051
7472.000000;1.265694
7471.000000;1.266278
7470.000000;1.266881
7469.000000;1.267472
7468.000000;1.267862
7467.000000;1.267905
7466.000000;1.267688
7465.000000;1.267496
7464.000000;1.267602
7463.000000;1.268086
7462.000000;1.268812
7461.000000;1.269542
7460.000000;1.270109
7459.000000;1.270530
7458.000000;1.270975
7457.000000;1.271575
7456.000000;1.272246
7455.000000;1.272738
7454.000000;1.272905
7453.000000;1.272885
7452.000000;1.272972
7451.000000;1.273323
7450.000000;1.273858
7449.000000;1.274388
7448.000000;1.274777
7447.000000;1.274998
7446.000000;1.275161
7445.000000;1.275483
7444.000000;1.276108
7443.000000;1.276884
7442.000000;1.277400
7441.000000;1.277362
7440.000000;1.276916
7439.000000;1.276537
7438.000000;1.276637
7437.000000;1.277295
7436.000000;1.278286
7435.000000;1.279269
7434.000000;1.279983
7433.000000;1.280373
7432.000000;1.280587
7431.000000;1.280821
7430.000000;1.281165
7429.000000;1.281589
7428.000000;1.282047
7427.000000;1.282553
7426.000000;1.283140
7425.000000;1.283745
7424.000000;1.284191
7423.000000;1.284349
7422.000000;1.284287
7421.000000;1.284203
7420.000000;1.284203
7419.000000;1.284201
7418.000000;1.284113
7417.000000;1.284071
7416.000000;1.284351
7415.000000;1.285115
7414.000000;1.286270
7413.000000;1.287564
7412.000000;1.288719
7411.000000;1.289494
7410.000000;1.289791
7409.000000;1.289722
7408.000000;1.289488
7407.000000;1.289192
7406.000000;1.288879
7405.000000;1.288742
7404.000000;1.289080
7403.000000;1.289936
7402.000000;1.290875
7401.000000;1.291337
7400.000000;1.291175
7399.000000;1.290738
7398.000000;1.290516
7397.000000;1.290780
7396.000000;1.291445
7395.000000;1.292186
7394.000000;1.292766
7393.000000;1.293226
7392.000000;1.293706
7391.000000;1.294179
7390.000000;1.294523
7389.000000;1.294798
7388.000000;1.295175
7387.000000;1.295596
7386.000000;1.295819
7385.000000;1.295791
7384.000000;1.295676
7383.000000;1.295556
7382.000000;1.295397
7381.000000;1.295362
7380.000000;1.295822
7379.000000;1.296789
7378.000000;1.297692
7377.000000;1.297956
7376.000000;1.297661
7375.000000;1.297510
7374.000000;1.298144
7373.000000;1.299547
7372.000000;1.301119
7371.000000;1.302117
7370.000000;1.302082
7369.000000;1.301245
7368.000000;1.300452
7367.000000;1.300382
7366.000000;1.301014
7365.000000;1.301981
7364.000000;1.303027
7363.000000;1.304016
7362.000000;1.304801
7361.000000;1.305260
7360.000000;1.305390
7359.000000;1.305236
7358.000000;1.304861
7357.000000;1.304462
7356.000000;1.304388
7355.000000;1.304876
7354.000000;1.305750
7353.000000;1.306628
7352.000000;1.307311
7351.000000;1.307708
7350.000000;1.307565
7349.000000;1.306777
7348.000000;1.305866
7347.000000;1.305623
7346.000000;1.306192
7345.000000;1.306970
7344.000000;1.307403
7343.000000;1.307391
7342.000000;1.306988
7341.000000;1.306281
7340.000000;1.305848
7339.000000;1.306656
7338.000000;1.308956
7337.000000;1.311809
7336.000000;1.314038
7335.000000;1.315246
7334.000000;1.315765
7333.000000;1.315973
7332.000000;1.315931
7331.000000;1.315545
7330.000000;1.314718
7329.000000;1.313463
7328.000000;1.312292
7327.000000;1.312283
7326.000000;1.313931
7325.000000;1.316359
7324.000000;1.318399
7323.000000;1.319874
7322.000000;1.321363
7321.000000;1.323105
7320.000000;1.324708
7319.000000;1.325721
7318.000000;1.325992
7317.000000;1.325707
7316.000000;1.325410
7315.000000;1.325780
7314.000000;1.326907
7313.000000;1.327858
7312.000000;1.327645
7311.000000;1.326634
7310.000000;1.326207
7309.000000;1.326915
7308.000000;1.327917
7307.000000;1.328508
7306.000000;1.329260
7305.000000;1.330973
7304.000000;1.333389
7303.000000;1.335650
7302.000000;1.337224
7301.000000;1.337997
7300.000000;1.338055
7299.000000;1.337878
7298.000000;1.338277
7297.000000;1.339518
7296.000000;1.340789
7295.000000;1.341061
7294.000000;1.340528
7293.000000;1.340546
7292.000000;1.341905
7291.000000;1.343998
7290.000000;1.345815
7289.000000;1.346938
7288.000000;1.347579
7287.000000;1.348255
7286.000000;1.349489
7285.000000;1.351423
7284.000000;1.353633
7283.000000;1.355494
7282.000000;1.356750
7281.000000;1.357719
7280.000000;1.358823
7279.000000;1.360133
7278.000000;1.361455
7277.000000;1.362616
7276.000000;1.363557
7275.000000;1.364366
7274.000000;1.365301
7273.000000;1.366648
7272.000000;1.368471
7271.000000;1.370503
7270.000000;1.372304
7269.000000;1.373573
7268.000000;1.374380
7267.000000;1.375117
7266.000000;1.376162
7265.000000;1.377546
7264.000000;1.379016
7263.000000;1.380442
7262.000000;1.381994
7261.000000;1.383883
7260.000000;1.386050
7259.000000;1.388213
7258.000000;1.390067
7257.000000;1.391375
7256.000000;1.392080
7255.000000;1.392436
7254.000000;1.392922
7253.000000;1.394017
7252.000000;1.395960
7251.000000;1.398602
7250.000000;1.401595
7249.000000;1.404570
7248.000000;1.407148
7247.000000;1.409062
7246.000000;1.410227
7245.000000;1.410644
7244.000000;1.410433
7243.000000;1.410275
7242.000000;1.411518
7241.000000;1.415038
7240.000000;1.420130
7239.000000;1.425211
7238.000000;1.429199
7237.000000;1.431937
7236.000000;1.433757
7235.000000;1.434846
7234.000000;1.435145
7233.000000;1.434992
7232.000000;1.435601
7231.000000;1.438275
7230.000000;1.443097
7229.000000;1.448765
7228.000000;1.453744
7227.000000;1.457417
7226.000000;1.460293
7225.000000;1.463243
7224.000000;1.466585
7223.000000;1.470018
7222.000000;1.473149
7221.000000;1.475811
7220.000000;1.478249
7219.000000;1.481142
7218.000000;1.485065
7217.000000;1.489778
7216.000000;1.494407
7215.000000;1.498360
7214.000000;1.501755
7213.000000;1.504981
7212.000000;1.508195
7211.000000;1.511454
7210.000000;1.515034
7209.000000;1.519108
7208.000000;1.523259
7207.000000;1.526776
7206.000000;1.529482
7205.000000;1.532002
7204.000000;1.535213
7203.000000;1.539563
7202.000000;1.544860
7201.000000;1.550485
7200.000000;1.555742
7199.000000;1.560174
7198.000000;1.563705
7197.000000;1.566660
7196.000000;1.569722
7195.000000;1.573702
7194.000000;1.578992
7193.000000;1.585062
7192.000000;1.590775
7191.000000;1.595452
7190.000000;1.599460
7189.000000;1.603614
7188.000000;1.608307
7187.000000;1.613342
7186.000000;1.618389
7185.000000;1.623305
7184.000000;1.628022
7183.000000;1.632401
7182.000000;1.636392
7181.000000;1.640320
7180.000000;1.644776
7179.000000;1.650192
7178.000000;1.656524
7177.000000;1.663152
7176.000000;1.669240
7175.000000;1.674517
7174.000000;1.679494
7173.000000;1.684680
7172.000000;1.689856
7171.000000;1.694448
7170.000000;1.698382
7169.000000;1.702233
7168.000000;1.706738
7167.000000;1.712235
7166.000000;1.718554
7165.000000;1.725229
7164.000000;1.731711
7163.000000;1.737636
7162.000000;1.743100
7161.000000;1.748642
7160.000000;1.754738
7159.000000;1.761315
7158.000000;1.767942
7157.000000;1.774270
7156.000000;1.780072
7155.000000;1.785244
7154.000000;1.789974
7153.000000;1.794750
7152.000000;1.800041
7151.000000;1.805878
7150.000000;1.811941
7149.000000;1.818000
7148.000000;1.823941
7147.000000;1.829400
7146.000000;1.833900
7145.000000;1.837492
7144.000000;1.841025
7143.000000;1.845577
7142.000000;1.851587
7141.000000;1.858504
7140.000000;1.865233
7139.000000;1.871103
7138.000000;1.876473
7137.000000;1.882138
7136.000000;1.888197
7135.000000;1.893950
7134.000000;1.899024
7133.000000;1.904111
7132.000000;1.910158
7131.000000;1.917066
7130.000000;1.923781
7129.000000;1.929547
7128.000000;1.934563
7127.000000;1.939422
7126.000000;1.944388
7125.000000;1.949322
7124.000000;1.953969
7123.000000;1.958193
7122.000000;1.962205
7121.000000;1.966411
7120.000000;1.970730
7119.000000;1.974365
7118.000000;1.976897
7117.000000;1.979396
7116.000000;1.983501
7115.000000;1.989393
7114.000000;1.995655
7113.000000;2.001067
7112.000000;2.005597
7111.000000;2.009684
7110.000000;2.013439
7109.000000;2.016879
7108.000000;2.020270
7107.000000;2.023774
7106.000000;2.027328
7105.000000;2.031359
7104.000000;2.036676
7103.000000;2.042999
7102.000000;2.048563
7101.000000;2.052112
7100.000000;2.054606
7099.000000;2.058013
7098.000000;2.062802
7097.000000;2.067619
7096.000000;2.071296
7095.000000;2.074234
7094.000000;2.077591
7093.000000;2.081851
7092.000000;2.086619
7091.000000;2.091331
7090.000000;2.095671
7089.000000;2.099465
7088.000000;2.102538
7087.000000;2.104771
7086.000000;2.106322
7085.000000;2.107811
7084.000000;2.110000
7083.000000;2.113137
7082.000000;2.116858
7081.000000;2.120823
7080.000000;2.124984
7079.000000;2.129075
7078.000000;2.132370
7077.000000;2.134342
7076.000000;2.135344
7075.000000;2.136315
7074.000000;2.137970
7073.000000;2.140541
7072.000000;2.143844
7071.000000;2.147152
7070.000000;2.149497
7069.000000;2.150643
7068.000000;2.151543
7067.000000;2.153440
7066.000000;2.156780
7065.000000;2.161284
7064.000000;2.166506
7063.000000;2.171779
7062.000000;2.176135
7061.000000;2.178989
7060.000000;2.180571
7059.000000;2.181247
7058.000000;2.181049
7057.000000;2.180457
7056.000000;2.180908
7055.000000;2.183429
7054.000000;2.187041
7053.000000;2.189523
7052.000000;2.189869
7051.000000;2.189168
7050.000000;2.189111
7049.000000;2.190615
7048.000000;2.193718
7047.000000;2.197701
7046.000000;2.201202
7045.000000;2.203202
7044.000000;2.204029
7043.000000;2.204507
7042.000000;2.204343
7041.000000;2.202636
7040.000000;2.199887
7039.000000;2.198005
7038.000000;2.198016
7037.000000;2.199130
7036.000000;2.200524
7035.000000;2.202649
7034.000000;2.205825
7033.000000;2.208820
7032.000000;2.210271
7031.000000;2.210818
7030.000000;2.212360
7029.000000;2.215559
7028.000000;2.219310
7027.000000;2.222526
7026.000000;2.225178
7025.000000;2.227271
7024.000000;2.228030
7023.000000;2.226857
7022.000000;2.224521
7021.000000;2.222698
7020.000000;2.222470
7019.000000;2.223529
7018.000000;2.224786
7017.000000;2.225649
7016.000000;2.226519
7015.000000;2.227929
7014.000000;2.229575
7013.000000;2.230710
7012.000000;2.231315
7011.000000;2.232118
7010.000000;2.233266
7009.000000;2.233935
7008.000000;2.233844
7007.000000;2.234321
7006.000000;2.236862
7005.000000;2.241068
7004.000000;2.244813
7003.000000;2.246272
7002.000000;2.245164
7001.000000;2.242346
7000.000000;2.239024
6999.000000;2.236311
6998.000000;2.234709
6997.000000;2.233879
6996.000000;2.233575
6995.000000;2.234558
6994.000000;2.237670
6993.000000;2.242070
6992.000000;2.245290
6991.000000;2.245601
6990.000000;2.243747
6989.000000;2.241874
6988.000000;2.241503
6987.000000;2.242795
6986.000000;2.244913
6985.000000;2.246695
6984.000000;2.247373
6983.000000;2.247023
6982.000000;2.246177
6981.000000;2.245137
6980.000000;2.244143
6979.000000;2.243989
6978.000000;2.245534
6977.000000;2.248280
6976.000000;2.250267
6975.000000;2.250128
6974.000000;2.248803
6973.000000;2.248495
6972.000000;2.250385
6971.000000;2.253823
6970.000000;2.257160
6969.000000;2.258737
6968.000000;2.257633
6967.000000;2.254401
6966.000000;2.251015
6965.000000;2.249330
6964.000000;2.249367
6963.000000;2.249438
6962.000000;2.248097
6961.000000;2.245710
6960.000000;2.243933
6959.000000;2.243980
6958.000000;2.245470
6957.000000;2.246826
6956.000000;2.246881
6955.000000;2.246086
6954.000000;2.245776
6953.000000;2.246357
6952.000000;2.246853
6951.000000;2.246429
6950.000000;2.245629
6949.000000;2.245494
6948.000000;2.246193
6947.000000;2.247361
6946.000000;2.249135
6945.000000;2.251615
6944.000000;2.253635
6943.000000;2.253597
6942.000000;2.251807
6941.000000;2.250489
6940.000000;2.250870
6939.000000;2.251522
6938.000000;2.250476
6937.000000;2.248097
6936.000000;2.246503
6935.000000;2.246584
6934.000000;2.246916
6933.000000;2.245810
6932.000000;2.243611
6931.000000;2.242408
6930.000000;2.243706
6929.000000;2.246692
6928.000000;2.248873
6927.000000;2.248613
6926.000000;2.246781
6925.000000;2.245436
6924.000000;2.245266
6923.000000;2.245138
6922.000000;2.244111
6921.000000;2.242803
6920.000000;2.242299
6919.000000;2.242775
6918.000000;2.244046
6917.000000;2.246496
6916.000000;2.250156
6915.000000;2.253385
6914.000000;2.254012
6913.000000;2.251862
6912.000000;2.248878
6911.000000;2.246738
6910.000000;2.245624
6909.000000;2.245197
6908.000000;2.245269
6907.000000;2.245080
6906.000000;2.243400
6905.000000;2.240286
6904.000000;2.237638
6903.000000;2.236891
6902.000000;2.237012
6901.000000;2.235960
6900.000000;2.233685
6899.000000;2.232312
6898.000000;2.233387
6897.000000;2.235907
6896.000000;2.237307
6895.000000;2.236014
6894.000000;2.232913
6893.000000;2.230522
6892.000000;2.230825
6891.000000;2.233616
6890.000000;2.236761
6889.000000;2.238169
6888.000000;2.237384
6887.000000;2.235273
6886.000000;2.232871
6885.000000;2.230991
6884.000000;2.230318
6883.000000;2.231031
6882.000000;2.232463
6881.000000;2.233736
6880.000000;2.234607
6879.000000;2.235157
6878.000000;2.234909
6877.000000;2.233117
6876.000000;2.230003
6875.000000;2.226934
6874.000000;2.225189
6873.000000;2.225024
6872.000000;2.225860
6871.000000;2.226728
6870.000000;2.226533
6869.000000;2.224697
6868.000000;2.221841
6867.000000;2.219289
6866.000000;2.217679
6865.000000;2.216547
6864.000000;2.215578
6863.000000;2.215551
6862.000000;2.217340
6861.000000;2.220536
6860.000000;2.223783
6859.000000;2.226045
6858.000000;2.226831
6857.000000;2.225625
6856.000000;2.222249
6855.000000;2.217973
6854.000000;2.215113
6853.000000;2.214867
6852.000000;2.215978
6851.000000;2.216113
6850.000000;2.214456
6849.000000;2.212342
6848.000000;2.211401
6847.000000;2.211802
6846.000000;2.212573
6845.000000;2.212965
6844.000000;2.212907
6843.000000;2.212380
6842.000000;2.211186
6841.000000;2.209522
6840.000000;2.208034
6839.000000;2.206951
6838.000000;2.205656
6837.000000;2.203596
6836.000000;2.201347
6835.000000;2.200089
6834.000000;2.200116
6833.000000;2.200467
6832.000000;2.200072
6831.000000;2.198789
6830.000000;2.197170
6829.000000;2.195749
6828.000000;2.194784
6827.000000;2.194303
6826.000000;2.194043
6825.000000;2.193526
6824.000000;2.192356
6823.000000;2.190362
6822.000000;2.187557
6821.000000;2.184392
6820.000000;2.181951
6819.000000;2.181238
6818.000000;2.181986
6817.000000;2.182587
6816.000000;2.181698
6815.000000;2.179504
6814.000000;2.176976
6813.000000;2.174547
6812.000000;2.172166
6811.000000;2.170144
6810.000000;2.169027
6809.000000;2.168670
6808.000000;2.168136
6807.000000;2.166670
6806.000000;2.164344
6805.000000;2.161650
6804.000000;2.158973
6803.000000;2.156601
6802.000000;2.154797
6801.000000;2.153488
6800.000000;2.152131
6799.000000;2.150195
6798.000000;2.147714
6797.000000;2.145257
6796.000000;2.143437
6795.000000;2.142449
6794.000000;2.141949
6793.000000;2.141343
6792.000000;2.140262
6791.000000;2.138705
6790.000000;2.136695
6789.000000;2.134099
6788.000000;2.131039
6787.000000;2.128014
6786.000000;2.125205
6785.000000;2.122133
6784.000000;2.118550
6783.000000;2.115375
6782.000000;2.113934
6781.000000;2.114225
6780.000000;2.114615
6779.000000;2.113546
6778.000000;2.110983
6777.000000;2.107899
6776.000000;2.105004
6775.000000;2.102552
6774.000000;2.100839
6773.000000;2.100022
6772.000000;2.099565
6771.000000;2.098479
6770.000000;2.096285
6769.000000;2.093449
6768.000000;2.090803
6767.000000;2.088868
6766.000000;2.087707
6765.000000;2.087025
6764.000000;2.086213
6763.000000;2.084573
6762.000000;2.081744
6761.000000;2.077936
6760.000000;2.073796
6759.000000;2.070116
6758.000000;2.067422
6757.000000;2.065554
6756.000000;2.063675
6755.000000;2.061030
6754.000000;2.057789
6753.000000;2.054957
6752.000000;2.053349
6751.000000;2.052817
6750.000000;2.052495
6749.000000;2.051579
6748.000000;2.049780
6747.000000;2.047299
6746.000000;2.044617
6745.000000;2.042239
6744.000000;2.040433
6743.000000;2.039112
6742.000000;2.037943
6741.000000;2.036500
6740.000000;2.034425
6739.000000;2.031695
6738.000000;2.028796
6737.000000;2.026384
6736.000000;2.024636
6735.000000;2.023069
6734.000000;2.021214
6733.000000;2.019265
6732.000000;2.017766
6731.000000;2.016722
6730.000000;2.015422
6729.000000;2.013233
6728.000000;2.010282
6727.000000;2.007187
6726.000000;2.004354
6725.000000;2.001733
6724.000000;1.999091
6723.000000;1.996297
6722.000000;1.993421
6721.000000;1.990763
6720.000000;1.988712
6719.000000;1.987334
6718.000000;1.986109
6717.000000;1.984291
6716.000000;1.981624
6715.000000;1.978469
6714.000000;1.975362
6713.000000;1.972622
6712.000000;1.970413
6711.000000;1.968812
6710.000000;1.967561
6709.000000;1.966002
6708.000000;1.963761
6707.000000;1.961198
6706.000000;1.958904
6705.000000;1.956903
6704.000000;1.954691
6703.000000;1.952111
6702.000000;1.949747
6701.000000;1.948246
6700.000000;1.947565
6699.000000;1.947124
6698.000000;1.946405
6697.000000;1.945145
6696.000000;1.943216
6695.000000;1.940713
6694.000000;1.938066
6693.000000;1.935668
6692.000000;1.933371
6691.000000;1.930683
6690.000000;1.927564
6689.000000;1.924668
6688.000000;1.922641
6687.000000;1.921364
6686.000000;1.920109
6685.000000;1.918304
6684.000000;1.915952
6683.000000;1.913438
6682.000000;1.911169
6681.000000;1.909354
6680.000000;1.907876
6679.000000;1.906314
6678.000000;1.904265
6677.000000;1.901750
6676.000000;1.899192
6675.000000;1.896944
6674.000000;1.894985
6673.000000;1.893125
6672.000000;1.891322
6671.000000;1.889597
6670.000000;1.887795
6669.000000;1.885737
6668.000000;1.883591
6667.000000;1.881799
6666.000000;1.880502
6665.000000;1.879265
6664.000000;1.877498
6663.000000;1.875014
6662.000000;1.872041
6661.000000;1.868880
6660.000000;1.865797
6659.000000;1.863094
6658.000000;1.860978
6657.000000;1.859337
6656.000000;1.857853
6655.000000;1.856348
6654.000000;1.854835
6653.000000;1.853245
6652.000000;1.851414
6651.000000;1.849411
6650.000000;1.847600
6649.000000;1.846184
6648.000000;1.844880
6647.000000;1.843261
6646.000000;1.841254
6645.000000;1.839111
6644.000000;1.836971
6643.000000;1.834722
6642.000000;1.832251
6641.000000;1.829643
6640.000000;1.827094
6639.000000;1.824764
6638.000000;1.822737
6637.000000;1.821000
6636.000000;1.819426
6635.000000;1.817842
6634.000000;1.816144
6633.000000;1.814315
6632.000000;1.812377
6631.000000;1.810401
6630.000000;1.808499
6629.000000;1.806744
6628.000000;1.805109
6627.000000;1.803551
6626.000000;1.802043
6625.000000;1.800464
6624.000000;1.798602
6623.000000;1.796459
6622.000000;1.794423
6621.000000;1.792872
6620.000000;1.791625
6619.000000;1.790094
6618.000000;1.788046
6617.000000;1.785946
6616.000000;1.784379
6615.000000;1.783340
6614.000000;1.782283
6613.000000;1.780752
6612.000000;1.778742
6611.000000;1.776494
6610.000000;1.774199
6609.000000;1.771988
6608.000000;1.769975
6607.000000;1.768201
6606.000000;1.766576
6605.000000;1.764982
6604.000000;1.763386
6603.000000;1.761797
6602.000000;1.760183
6601.000000;1.758523
6600.000000;1.756897
6599.000000;1.755399
6598.000000;1.753949
6597.000000;1.752283
6596.000000;1.750212
6595.000000;1.747843
6594.000000;1.745522
6593.000000;1.743556
6592.000000;1.742014
6591.000000;1.740728
6590.000000;1.739446
6589.000000;1.738009
6588.000000;1.736439
6587.000000;1.734874
6586.000000;1.733417
6585.000000;1.732076
6584.000000;1.730818
6583.000000;1.729581
6582.000000;1.728190
6581.000000;1.726398
6580.000000;1.724166
6579.000000;1.721814
6578.000000;1.719747
6577.000000;1.718061
6576.000000;1.716566
6575.000000;1.715115
6574.000000;1.713730
6573.000000;1.712398
6572.000000;1.711001
6571.000000;1.709510
6570.000000;1.708046
6569.000000;1.706649
6568.000000;1.705191
6567.000000;1.703641
6566.000000;1.702219
6565.000000;1.701069
6564.000000;1.699984
6563.000000;1.698679
6562.000000;1.697230
6561.000000;1.695946
6560.000000;1.694844
6559.000000;1.693574
6558.000000;1.691921
6557.000000;1.690103
6556.000000;1.688448
6555.000000;1.686949
6554.000000;1.685328
6553.000000;1.683423
6552.000000;1.681351
6551.000000;1.679351
6550.000000;1.677643
6549.000000;1.676376
6548.000000;1.675510
6547.000000;1.674682
6546.000000;1.673359
6545.000000;1.671330
6544.000000;1.669021
6543.000000;1.667164
6542.000000;1.666062
6541.000000;1.665277
6540.000000;1.664143
6539.000000;1.662521
6538.000000;1.660875
6537.000000;1.659646
6536.000000;1.658767
6535.000000;1.657831
6534.000000;1.656547
6533.000000;1.654900
6532.000000;1.653051
6531.000000;1.651260
6530.000000;1.649815
6529.000000;1.648795
6528.000000;1.647926
6527.000000;1.646799
6526.000000;1.645240
6525.000000;1.643406
6524.000000;1.641577
6523.000000;1.639990
6522.000000;1.638800
6521.000000;1.637985
6520.000000;1.637253
6519.000000;1.636223
6518.000000;1.634754
6517.000000;1.633023
6516.000000;1.631298
6515.000000;1.629763
6514.000000;1.628525
6513.000000;1.627596
6512.000000;1.626817
6511.000000;1.625915
6510.000000;1.624742
6509.000000;1.623354
6508.000000;1.621839
6507.000000;1.620207
6506.000000;1.618487
6505.000000;1.616814
6504.000000;1.615327
6503.000000;1.614065
6502.000000;1.613016
6501.000000;1.612182
6500.000000;1.611504
6499.000000;1.610808
6498.000000;1.609918
6497.000000;1.608794
6496.000000;1.607485
6495.000000;1.606027
6494.000000;1.604442
6493.000000;1.602828
6492.000000;1.601352
6491.000000;1.600124
6490.000000;1.599075
6489.000000;1.597966
6488.000000;1.596565
6487.000000;1.594894
6486.000000;1.593283
6485.000000;1.592111
6484.000000;1.591459
6483.000000;1.591050
6482.000000;1.590502
6481.000000;1.589582
6480.000000;1.588272
6479.000000;1.586719
6478.000000;1.585159
6477.000000;1.583796
6476.000000;1.582681
6475.000000;1.581745
6474.000000;1.580909
6473.000000;1.580091
6472.000000;1.579130
6471.000000;1.577893
6470.000000;1.576485
6469.000000;1.575199
6468.000000;1.574168
6467.000000;1.573208
6466.000000;1.572094
6465.000000;1.570854
6464.000000;1.569651
6463.000000;1.568488
6462.000000;1.567226
6461.000000;1.565867
6460.000000;1.564648
6459.000000;1.563785
6458.000000;1.563247
6457.000000;1.562771
6456.000000;1.562078
6455.000000;1.561051
6454.000000;1.559811
6453.000000;1.558639
6452.000000;1.557752
6451.000000;1.557122
6450.000000;1.556530
6449.000000;1.555780
6448.000000;1.554810
6447.000000;1.553643
6446.000000;1.552309
6445.000000;1.550857
6444.000000;1.549375
6443.000000;1.547963
6442.000000;1.546712
6441.000000;1.545704
6440.000000;1.544958
6439.000000;1.544354
6438.000000;1.543659
6437.000000;1.542710
6436.000000;1.541573
6435.000000;1.540472
6434.000000;1.539544
6433.000000;1.538707
6432.000000;1.537787
6431.000000;1.536738
6430.000000;1.535679
6429.000000;1.534722
6428.000000;1.533841
6427.000000;1.532936
6426.000000;1.531980
6425.000000;1.531014
6424.000000;1.530063
6423.000000;1.529140
6422.000000;1.528320
6421.000000;1.527706
6420.000000;1.527250
6419.000000;1.526711
6418.000000;1.525859
6417.000000;1.524705
6416.000000;1.523476
6415.000000;1.522384
6414.000000;1.521463
6413.000000;1.520598
6412.000000;1.519674
6411.000000;1.518708
6410.000000;1.517830
6409.000000;1.517140
6408.000000;1.516562
6407.000000;1.515899
6406.000000;1.515059
6405.000000;1.514158
6404.000000;1.513349
6403.000000;1.512592
6402.000000;1.511683
6401.000000;1.510507
6400.000000;1.509197
6399.000000;1.508015
6398.000000;1.507097
6397.000000;1.506359
6396.000000;1.505618
6395.000000;1.504758
6394.000000;1.503789
6393.000000;1.502789
6392.000000;1.501839
6391.000000;1.501005
6390.000000;1.500335
6389.000000;1.499807
6388.000000;1.499300
6387.000000;1.498672
6386.000000;1.497887
6385.000000;1.497031
6384.000000;1.496206
6383.000000;1.495429
6382.000000;1.494668
6381.000000;1.493928
6380.000000;1.493228
6379.000000;1.492524
6378.000000;1.491717
6377.000000;1.490770
6376.000000;1.489782
6375.000000;1.488906
6374.000000;1.488208
6373.000000;1.487624
6372.000000;1.487067
6371.000000;1.486528
6370.000000;1.486042
6369.000000;1.485581
6368.000000;1.485039
6367.000000;1.484355
6366.000000;1.483592
6365.000000;1.482851
6364.000000;1.482140
6363.000000;1.481381
6362.000000;1.480522
6361.000000;1.479593
6360.000000;1.478680
6359.000000;1.477881
6358.000000;1.477296
6357.000000;1.476946
6356.000000;1.476683
6355.000000;1.476245
6354.000000;1.475476
6353.000000;1.474474
6352.000000;1.473499
6351.000000;1.472734
6350.000000;1.472149
6349.000000;1.471577
6348.000000;1.470895
6347.000000;1.470124
6346.000000;1.469371
6345.000000;1.468691
6344.000000;1.468035
6343.000000;1.467340
6342.000000;1.466625
6341.000000;1.465934
6340.000000;1.465254
6339.000000;1.464527
6338.000000;1.463764
6337.000000;1.463038
6336.000000;1.462374
6335.000000;1.461737
6334.000000;1.461145
6333.000000;1.460682
6332.000000;1.460338
6331.000000;1.459934
6330.000000;1.459323
6329.000000;1.458601
6328.000000;1.458000
6327.000000;1.457577
6326.000000;1.457143
6325.000000;1.456517
6324.000000;1.455728
6323.000000;1.454906
6322.000000;1.454084
6321.000000;1.453212
6320.000000;1.452325
6319.000000;1.451584
6318.000000;1.451126
6317.000000;1.450925
6316.000000;1.450817
6315.000000;1.450602
6314.000000;1.450135
6313.000000;1.449393
6312.000000;1.448490
6311.000000;1.447613
6310.000000;1.446867
6309.000000;1.446219
6308.000000;1.445600
6307.000000;1.445031
6306.000000;1.444578
6305.000000;1.444207
6304.000000;1.443787
6303.000000;1.443233
6302.000000;1.442591
6301.000000;1.441942
6300.000000;1.441304
6299.000000;1.440677
6298.000000;1.440131
6297.000000;1.439749
6296.000000;1.439490
6295.000000;1.439189
6294.000000;1.438693
6293.000000;1.437984
6292.000000;1.437161
6291.000000;1.436356
6290.000000;1.435676
6289.000000;1.435188
6288.000000;1.434901
6287.000000;1.434755
6286.000000;1.434617
6285.000000;1.434330
6284.000000;1.433797
6283.000000;1.433077
6282.000000;1.432349
6281.000000;1.431764
6280.000000;1.431333
6279.000000;1.430972
6278.000000;1.430627
6277.000000;1.430290
6276.000000;1.429922
6275.000000;1.429420
6274.000000;1.428717
6273.000000;1.427866
6272.000000;1.427022
6271.000000;1.426328
6270.000000;1.425814
6269.000000;1.425398
6268.000000;1.424992
6267.000000;1.424608
6266.000000;1.424340
6265.000000;1.424210
6264.000000;1.424051
6263.000000;1.423624
6262.000000;1.422849
6261.000000;1.421895
6260.000000;1.421039
6259.000000;1.420448
6258.000000;1.420082
6257.000000;1.419784
6256.000000;1.419446
6255.000000;1.419094
6254.000000;1.418803
6253.000000;1.418530
6252.000000;1.418128
6251.000000;1.417551
6250.000000;1.416981
6249.000000;1.416626
6248.000000;1.416426
6247.000000;1.416096
6246.000000;1.415465
6245.000000;1.414676
6244.000000;1.413986
6243.000000;1.413503
6242.000000;1.413161
6241.000000;1.412891
6240.000000;1.412666
6239.000000;1.412444
6238.000000;1.412162
6237.000000;1.411808
6236.000000;1.411430
6235.000000;1.411049
6234.000000;1.410653
6233.000000;1.410268
6232.000000;1.409963
6231.000000;1.409732
6230.000000;1.409437
6229.000000;1.408938
6228.000000;1.408288
6227.000000;1.407718
6226.000000;1.407417
6225.000000;1.407330
6224.000000;1.407210
6223.000000;1.406849
6222.000000;1.406246
6221.000000;1.405548
6220.000000;1.404878
6219.000000;1.404249
6218.000000;1.403661
6217.000000;1.403195
6216.000000;1.402963
6215.000000;1.402944
6214.000000;1.402927
6213.000000;1.402673
6212.000000;1.402130
6211.000000;1.401446
6210.000000;1.400792
6209.000000;1.400217
6208.000000;1.399713
6207.000000;1.399317
6206.000000;1.399073
6205.000000;1.398915
6204.000000;1.398690
6203.000000;1.398318
6202.000000;1.397867
6201.000000;1.397448
6200.000000;1.397094
6199.000000;1.396780
6198.000000;1.396490
6197.000000;1.396222
6196.000000;1.395950
6195.000000;1.395652
6194.000000;1.395334
6193.000000;1.395015
6192.000000;1.394687
6191.000000;1.394321
6190.000000;1.393902
6189.000000;1.393434
6188.000000;1.392934
6187.000000;1.392462
6186.000000;1.392098
6185.000000;1.391861
6184.000000;1.391665
6183.000000;1.391406
6182.000000;1.391066
6181.000000;1.390696
6180.000000;1.390332
6179.000000;1.389969
6178.000000;1.389611
6177.000000;1.389294
6176.000000;1.389054
6175.000000;1.388895
6174.000000;1.388775
6173.000000;1.388605
6172.000000;1.388291
6171.000000;1.387836
6170.000000;1.387360
6169.000000;1.386985
6168.000000;1.386710
6167.000000;1.386450
6166.000000;1.386152
6165.000000;1.385829
6164.000000;1.385511
6163.000000;1.385236
6162.000000;1.385054
6161.000000;1.384960
6160.000000;1.384847
6159.000000;1.384603
6158.000000;1.384257
6157.000000;1.383931
6156.000000;1.383640
6155.000000;1.383253
6154.000000;1.382679
6153.000000;1.382017
6152.000000;1.381459
6151.000000;1.381106
6150.000000;1.380918
6149.000000;1.380792
6148.000000;1.380605
6147.000000;1.380257
6146.000000;1.379733
6145.000000;1.379144
6144.000000;1.378661
6143.000000;1.378381
6142.000000;1.378277
6141.000000;1.378236
6140.000000;1.378134
6139.000000;1.377893
6138.000000;1.377520
6137.000000;1.377100
6136.000000;1.376731
6135.000000;1.376474
6134.000000;1.376341
6133.000000;1.376299
6132.000000;1.376285
6131.000000;1.376215
6130.000000;1.376036
6129.000000;1.375757
6128.000000;1.375435
6127.000000;1.375119
6126.000000;1.374829
6125.000000;1.374571
6124.000000;1.374346
6123.000000;1.374149
6122.000000;1.373949
6121.000000;1.373690
6120.000000;1.373341
6119.000000;1.372926
6118.000000;1.372507
6117.000000;1.372129
6116.000000;1.371804
6115.000000;1.371546
6114.000000;1.371364
6113.000000;1.371209
6112.000000;1.370974
6111.000000;1.370603
6110.000000;1.370177
6109.000000;1.369837
6108.000000;1.369637
6107.000000;1.369520
6106.000000;1.369419
6105.000000;1.369315
6104.000000;1.369191
6103.000000;1.369012
6102.000000;1.368762
6101.000000;1.368489
6100.000000;1.368269
6099.000000;1.368153
6098.000000;1.368132
6097.000000;1.368139
6096.000000;1.368086
6095.000000;1.367942
6094.000000;1.367766
6093.000000;1.367627
6092.000000;1.367501
6091.000000;1.367283
6090.000000;1.366926
6089.000000;1.366503
6088.000000;1.366117
6087.000000;1.365800
6086.000000;1.365526
6085.000000;1.365275
6084.000000;1.365054
6083.000000;1.364854
6082.000000;1.364650
6081.000000;1.364439
6080.000000;1.364270
6079.000000;1.364202
6078.000000;1.364223
6077.000000;1.364204
6076.000000;1.363976
6075.000000;1.363491
6074.000000;1.362900
6073.000000;1.362425
6072.000000;1.362164
6071.000000;1.362027
6070.000000;1.361866
6069.000000;1.361622
6068.000000;1.361345
6067.000000;1.361110
6066.000000;1.360949
6065.000000;1.360847
6064.000000;1.360769
6063.000000;1.360702
6062.000000;1.360662
6061.000000;1.360656
6060.000000;1.360626
6059.000000;1.360475
6058.000000;1.360147
6057.000000;1.359691
6056.000000;1.359236
6055.000000;1.358923
6054.000000;1.358815
6053.000000;1.358852
6052.000000;1.358885
6051.000000;1.358789
6050.000000;1.358559
6049.000000;1.358283
6048.000000;1.358044
6047.000000;1.357862
6046.000000;1.357730
6045.000000;1.357631
6044.000000;1.357533
6043.000000;1.357399
6042.000000;1.357243
6041.000000;1.357145
6040.000000;1.357173
6039.000000;1.357287
6038.000000;1.357355
6037.000000;1.357263
6036.000000;1.357017
6035.000000;1.356719
6034.000000;1.356460
6033.000000;1.356263
6032.000000;1.356112
6031.000000;1.356005
6030.000000;1.355934
6029.000000;1.355846
6028.000000;1.355682
6027.000000;1.355462
6026.000000;1.355273
6025.000000;1.355161
6024.000000;1.355074
6023.000000;1.354961
6022.000000;1.354861
6021.000000;1.354859
6020.000000;1.354964
6019.000000;1.355095
6018.000000;1.355152
6017.000000;1.355068
6016.000000;1.354827
6015.000000;1.354483
6014.000000;1.354152
6013.000000;1.353934
6012.000000;1.353849
6011.000000;1.353859
6010.000000;1.353934
6009.000000;1.354043
6008.000000;1.354116
6007.000000;1.354068
6006.000000;1.353865
6005.000000;1.353532
6004.000000;1.353113
6003.000000;1.352689
6002.000000;1.352384
6001.000000;1.352297
6000.000000;1.352390
5999.000000;1.352506
5998.000000;1.352492
5997.000000;1.352306
5996.000000;1.352031
5995.000000;1.351828
5994.000000;1.351839
5993.000000;1.352044
5992.000000;1.352244
5991.000000;1.352254
5990.000000;1.352108
5989.000000;1.351984
5988.000000;1.351947
5987.000000;1.351888
5986.000000;1.351720
5985.000000;1.351540
5984.000000;1.351501
5983.000000;1.351636
5982.000000;1.351853
5981.000000;1.352051
5980.000000;1.352160
5979.000000;1.352109
5978.000000;1.351873
5977.000000;1.351548
5976.000000;1.351317
5975.000000;1.351310
5974.000000;1.351492
5973.000000;1.351698
5972.000000;1.351764
5971.000000;1.351654
5970.000000;1.351475
5969.000000;1.351374
5968.000000;1.351397
5967.000000;1.351474
5966.000000;1.351516
5965.000000;1.351498
5964.000000;1.351438
5963.000000;1.351352
5962.000000;1.351246
5961.000000;1.351123
5960.000000;1.350972
5959.000000;1.350775
5958.000000;1.350564
5957.000000;1.350414
5956.000000;1.350376
5955.000000;1.350436
5954.000000;1.350562
5953.000000;1.350740
5952.000000;1.350935
5951.000000;1.351072
5950.000000;1.351103
5949.000000;1.351071
5948.000000;1.351043
5947.000000;1.351006
5946.000000;1.350885
5945.000000;1.350672
5944.000000;1.350467
5943.000000;1.350392
5942.000000;1.350473
5941.000000;1.350651
5940.000000;1.350852
5939.000000;1.351047
5938.000000;1.351233
5937.000000;1.351394
5936.000000;1.351458
5935.000000;1.351344
5934.000000;1.351075
5933.000000;1.350823
5932.000000;1.350773
5931.000000;1.350926
5930.000000;1.351088
5929.000000;1.351091
5928.000000;1.350980
5927.000000;1.350920
5926.000000;1.350961
5925.000000;1.350993
5924.000000;1.350922
5923.000000;1.350820
5922.000000;1.350838
5921.000000;1.351046
5920.000000;1.351386
5919.000000;1.351760
5918.000000;1.352077
5917.000000;1.352255
5916.000000;1.352260
5915.000000;1.352154
5914.000000;1.352060
5913.000000;1.352058
5912.000000;1.352144
5911.000000;1.352284
5910.000000;1.352456
5909.000000;1.352627
5908.000000;1.352756
5907.000000;1.352842
5906.000000;1.352918
5905.000000;1.352987
5904.000000;1.353015
5903.000000;1.352989
5902.000000;1.352961
5901.000000;1.352982
5900.000000;1.353054
5899.000000;1.353161
5898.000000;1.353323
5897.000000;1.353559
5896.000000;1.353826
5895.000000;1.354034
5894.000000;1.354115
5893.000000;1.354066
5892.000000;1.353938
5891.000000;1.353810
5890.000000;1.353736
5889.000000;1.353705
5888.000000;1.353669
5887.000000;1.353643
5886.000000;1.353708
5885.000000;1.353895
5884.000000;1.354126
5883.000000;1.354311
5882.000000;1.354453
5881.000000;1.354613
5880.000000;1.354809
5879.000000;1.355012
5878.000000;1.355201
5877.000000;1.355356
5876.000000;1.355418
5875.000000;1.355340
5874.000000;1.355172
5873.000000;1.355038
5872.000000;1.355039
5871.000000;1.355195
5870.000000;1.355483
5869.000000;1.355849
5868.000000;1.356216
5867.000000;1.356525
5866.000000;1.356793
5865.000000;1.357056
5864.000000;1.357279
5863.000000;1.357393
5862.000000;1.357413
5861.000000;1.357452
5860.000000;1.357594
5859.000000;1.357811
5858.000000;1.358034
5857.000000;1.358245
5856.000000;1.358469
5855.000000;1.358709
5854.000000;1.358931
5853.000000;1.359109
5852.000000;1.359245
5851.000000;1.359381
5850.000000;1.359564
5849.000000;1.359804
5848.000000;1.360058
5847.000000;1.360286
5846.000000;1.360502
5845.000000;1.360736
5844.000000;1.360956
5843.000000;1.361071
5842.000000;1.361058
5841.000000;1.361028
5840.000000;1.361146
5839.000000;1.361475
5838.000000;1.361934
5837.000000;1.362375
5836.000000;1.362689
5835.000000;1.362849
5834.000000;1.362900
5833.000000;1.362935
5832.000000;1.363054
5831.000000;1.363326
5830.000000;1.363727
5829.000000;1.364156
5828.000000;1.364522
5827.000000;1.364842
5826.000000;1.365204
5825.000000;1.365645
5824.000000;1.366101
5823.000000;1.366500
5822.000000;1.366851
5821.000000;1.367205
5820.000000;1.367558
5819.000000;1.367838
5818.000000;1.367987
5817.000000;1.368014
5816.000000;1.367991
5815.000000;1.368012
5814.000000;1.368141
5813.000000;1.368378
5812.000000;1.368674
5811.000000;1.369001
5810.000000;1.369384
5809.000000;1.369854
5808.000000;1.370392
5807.000000;1.370956
5806.000000;1.371513
5805.000000;1.372025
5804.000000;1.372435
5803.000000;1.372725
5802.000000;1.372975
5801.000000;1.373294
5800.000000;1.373704
5799.000000;1.374117
5798.000000;1.374437
5797.000000;1.374654
5796.000000;1.374856
5795.000000;1.375156
5794.000000;1.375612
5793.000000;1.376160
5792.000000;1.376664
5791.000000;1.377039
5790.000000;1.377329
5789.000000;1.377634
5788.000000;1.377992
5787.000000;1.378360
5786.000000;1.378690
5785.000000;1.378986
5784.000000;1.379293
5783.000000;1.379668
5782.000000;1.380144
5781.000000;1.380694
5780.000000;1.381246
5779.000000;1.381750
5778.000000;1.382215
5777.000000;1.382661
5776.000000;1.383088
5775.000000;1.383515
5774.000000;1.384001
5773.000000;1.384569
5772.000000;1.385149
5771.000000;1.385644
5770.000000;1.386047
5769.000000;1.386443
5768.000000;1.386891
5767.000000;1.387368
5766.000000;1.387817
5765.000000;1.388226
5764.000000;1.388651
5763.000000;1.389175
5762.000000;1.389823
5761.000000;1.390501
5760.000000;1.391067
5759.000000;1.391477
5758.000000;1.391837
5757.000000;1.392277
5756.000000;1.392821
5755.000000;1.393412
5754.000000;1.394001
5753.000000;1.394578
5752.000000;1.395133
5751.000000;1.395658
5750.000000;1.396155
5749.000000;1.396615
5748.000000;1.397036
5747.000000;1.397492
5746.000000;1.398110
5745.000000;1.398915
5744.000000;1.399747
5743.000000;1.400414
5742.000000;1.400905
5741.000000;1.401356
5740.000000;1.401867
5739.000000;1.402428
5738.000000;1.403008
5737.000000;1.403612
5736.000000;1.404234
5735.000000;1.404850
5734.000000;1.405464
5733.000000;1.406116
5732.000000;1.406816
5731.000000;1.407514
5730.000000;1.408156
5729.000000;1.408719
5728.000000;1.409218
5727.000000;1.409718
5726.000000;1.410309
5725.000000;1.411025
5724.000000;1.411790
5723.000000;1.412518
5722.000000;1.413225
5721.000000;1.413978
5720.000000;1.414758
5719.000000;1.415464
5718.000000;1.416074
5717.000000;1.416689
5716.000000;1.417396
5715.000000;1.418159
5714.000000;1.418874
5713.000000;1.419493
5712.000000;1.420048
5711.000000;1.420590
5710.000000;1.421149
5709.000000;1.421738
5708.000000;1.422372
5707.000000;1.423079
5706.000000;1.423870
5705.000000;1.424707
5704.000000;1.425520
5703.000000;1.426290
5702.000000;1.427087
5701.000000;1.427960
5700.000000;1.428855
5699.000000;1.429654
5698.000000;1.430311
5697.000000;1.430903
5696.000000;1.431534
5695.000000;1.432257
5694.000000;1.433063
5693.000000;1.433899
5692.000000;1.434697
5691.000000;1.435436
5690.000000;1.436166
5689.000000;1.436957
5688.000000;1.437823
5687.000000;1.438735
5686.000000;1.439679
5685.000000;1.440625
5684.000000;1.441496
5683.000000;1.442223
5682.000000;1.442851
5681.000000;1.443534
5680.000000;1.444394
5679.000000;1.445414
5678.000000;1.446460
5677.000000;1.447400
5676.000000;1.448206
5675.000000;1.448947
5674.000000;1.449686
5673.000000;1.450384
5672.000000;1.450958
5671.000000;1.451432
5670.000000;1.451956
5669.000000;1.452636
5668.000000;1.453416
5667.000000;1.454179
5666.000000;1.454892
5665.000000;1.455596
5664.000000;1.456305
5663.000000;1.456998
5662.000000;1.457672
5661.000000;1.458334
5660.000000;1.458983
5659.000000;1.459653
5658.000000;1.460415
5657.000000;1.461274
5656.000000;1.462108
5655.000000;1.462809
5654.000000;1.463420
5653.000000;1.464065
5652.000000;1.464807
5651.000000;1.465654
5650.000000;1.466634
5649.000000;1.467723
5648.000000;1.468753
5647.000000;1.469561
5646.000000;1.470183
5645.000000;1.470782
5644.000000;1.471398
5643.000000;1.471935
5642.000000;1.472380
5641.000000;1.472855
5640.000000;1.473418
5639.000000;1.473982
5638.000000;1.474482
5637.000000;1.474991
5636.000000;1.475588
5635.000000;1.476213
5634.000000;1.476741
5633.000000;1.477147
5632.000000;1.477537
5631.000000;1.478056
5630.000000;1.478765
5629.000000;1.479576
5628.000000;1.480288
5627.000000;1.480765
5626.000000;1.481092
5625.000000;1.481472
5624.000000;1.481990
5623.000000;1.482573
5622.000000;1.483184
5621.000000;1.483893
5620.000000;1.484718
5619.000000;1.485502
5618.000000;1.486061
5617.000000;1.486376
5616.000000;1.486571
5615.000000;1.486749
5614.000000;1.486941
5613.000000;1.487172
5612.000000;1.487476
5611.000000;1.487865
5610.000000;1.488302
5609.000000;1.488720
5608.000000;1.489065
5607.000000;1.489354
5606.000000;1.489694
5605.000000;1.490170
5604.000000;1.490719
5603.000000;1.491168
5602.000000;1.491433
5601.000000;1.491608
5600.000000;1.491845
5599.000000;1.492188
5598.000000;1.492571
5597.000000;1.492910
5596.000000;1.493179
5595.000000;1.493406
5594.000000;1.493645
5593.000000;1.493922
5592.000000;1.494207
5591.000000;1.494465
5590.000000;1.494716
5589.000000;1.494997
5588.000000;1.495287
5587.000000;1.495538
5586.000000;1.495768
5585.000000;1.496050
5584.000000;1.496397
5583.000000;1.496735
5582.000000;1.497008
5581.000000;1.497229
5580.000000;1.497434
5579.000000;1.497631
5578.000000;1.497807
5577.000000;1.497921
5576.000000;1.497909
5575.000000;1.497774
5574.000000;1.497656
5573.000000;1.497718
5572.000000;1.497970
5571.000000;1.498296
5570.000000;1.498613
5569.000000;1.498904
5568.000000;1.499090
5567.000000;1.499067
5566.000000;1.498895
5565.000000;1.498814
5564.000000;1.498961
5563.000000;1.499197
5562.000000;1.499293
5561.000000;1.499204
5560.000000;1.499042
5559.000000;1.498900
5558.000000;1.498793
5557.000000;1.498718
5556.000000;1.498676
5555.000000;1.498644
5554.000000;1.498609
5553.000000;1.498606
5552.000000;1.498684
5551.000000;1.498848
5550.000000;1.499067
5549.000000;1.499316
5548.000000;1.499570
5547.000000;1.499793
5546.000000;1.499958
5545.000000;1.500051
5544.000000;1.500066
5543.000000;1.500013
5542.000000;1.499941
5541.000000;1.499890
5540.000000;1.499846
5539.000000;1.499760
5538.000000;1.499625
5537.000000;1.499502
5536.000000;1.499459
5535.000000;1.499514
5534.000000;1.499621
5533.000000;1.499714
5532.000000;1.499746
5531.000000;1.499734
5530.000000;1.499727
5529.000000;1.499745
5528.000000;1.499772
5527.000000;1.499811
5526.000000;1.499899
5525.000000;1.500050
5524.000000;1.500180
5523.000000;1.500201
5522.000000;1.500137
5521.000000;1.500093
5520.000000;1.500152
5519.000000;1.500331
5518.000000;1.500608
5517.000000;1.500939
5516.000000;1.501245
5515.000000;1.501460
5514.000000;1.501573
5513.000000;1.501572
5512.000000;1.501450
5511.000000;1.501291
5510.000000;1.501250
5509.000000;1.501361
5508.000000;1.501492
5507.000000;1.501549
5506.000000;1.501644
5505.000000;1.501917
5504.000000;1.502262
5503.000000;1.502435
5502.000000;1.502369
5501.000000;1.502209
5500.000000;1.502124
5499.000000;1.502128
5498.000000;1.502114
5497.000000;1.502058
5496.000000;1.502076
5495.000000;1.502316
5494.000000;1.502755
5493.000000;1.503200
5492.000000;1.503495
5491.000000;1.503652
5490.000000;1.503803
5489.000000;1.504024
5488.000000;1.504278
5487.000000;1.504519
5486.000000;1.504760
5485.000000;1.504996
5484.000000;1.505155
5483.000000;1.505251
5482.000000;1.505497
5481.000000;1.506002
5480.000000;1.506610
5479.000000;1.507145
5478.000000;1.507586
5477.000000;1.507870
5476.000000;1.507793
5475.000000;1.507453
5474.000000;1.507366
5473.000000;1.507817
5472.000000;1.508513
5471.000000;1.509062
5470.000000;1.509434
5469.000000;1.509835
5468.000000;1.510394
5467.000000;1.511107
5466.000000;1.511920
5465.000000;1.512732
5464.000000;1.513375
5463.000000;1.513771
5462.000000;1.514034
5461.000000;1.514265
5460.000000;1.514493
5459.000000;1.514878
5458.000000;1.515612
5457.000000;1.516572
5456.000000;1.517390
5455.000000;1.517927
5454.000000;1.518362
5453.000000;1.518859
5452.000000;1.519382
5451.000000;1.519871
5450.000000;1.520384
5449.000000;1.520963
5448.000000;1.521634
5447.000000;1.522418
5446.000000;1.523212
5445.000000;1.523898
5444.000000;1.524550
5443.000000;1.525370
5442.000000;1.526411
5441.000000;1.527457
5440.000000;1.528311
5439.000000;1.529085
5438.000000;1.530031
5437.000000;1.531180
5436.000000;1.532299
5435.000000;1.533273
5434.000000;1.534232
5433.000000;1.535267
5432.000000;1.536400
5431.000000;1.537686
5430.000000;1.539003
5429.000000;1.540165
5428.000000;1.541327
5427.000000;1.542792
5426.000000;1.544587
5425.000000;1.546472
5424.000000;1.548143
5423.000000;1.549433
5422.000000;1.550394
5421.000000;1.551240
5420.000000;1.552120
5419.000000;1.553084
5418.000000;1.554258
5417.000000;1.555806
5416.000000;1.557710
5415.000000;1.559717
5414.000000;1.561695
5413.000000;1.563862
5412.000000;1.566386
5411.000000;1.569108
5410.000000;1.571801
5409.000000;1.574395
5408.000000;1.576901
5407.000000;1.579329
5406.000000;1.581770
5405.000000;1.584309
5404.000000;1.586935
5403.000000;1.589591
5402.000000;1.592154
5401.000000;1.594631
5400.000000;1.597172
5399.000000;1.599793
5398.000000;1.602489
5397.000000;1.605380
5396.000000;1.608549
5395.000000;1.611856
5394.000000;1.615146
5393.000000;1.618602
5392.000000;1.622399
5391.000000;1.626317
5390.000000;1.630102
5389.000000;1.633830
5388.000000;1.637714
5387.000000;1.641746
5386.000000;1.645738
5385.000000;1.649579
5384.000000;1.653396
5383.000000;1.657362
5382.000000;1.661522
5381.000000;1.665964
5380.000000;1.670841
5379.000000;1.676106
5378.000000;1.681453
5377.000000;1.686699
5376.000000;1.692067
5375.000000;1.697819
5374.000000;1.703885
5373.000000;1.710118
5372.000000;1.716473
5371.000000;1.722957
5370.000000;1.729653
5369.000000;1.736654
5368.000000;1.743838
5367.000000;1.750875
5366.000000;1.757628
5365.000000;1.764379
5364.000000;1.771586
5363.000000;1.779362
5362.000000;1.787404
5361.000000;1.795519
5360.000000;1.803795
5359.000000;1.812275
5358.000000;1.820871
5357.000000;1.829646
5356.000000;1.838837
5355.000000;1.848451
5354.000000;1.858197
5353.000000;1.867915
5352.000000;1.877790
5351.000000;1.888039
5350.000000;1.898675
5349.000000;1.909583
5348.000000;1.920682
5347.000000;1.931938
5346.000000;1.943366
5345.000000;1.955138
5344.000000;1.967548
5343.000000;1.980549
5342.000000;1.993690
5341.000000;2.006883
5340.000000;2.020328
5339.000000;2.033965
5338.000000;2.047751
5337.000000;2.061904
5336.000000;2.076551
5335.000000;2.091580
5334.000000;2.106803
5333.000000;2.121981
5332.000000;2.137078
5331.000000;2.152545
5330.000000;2.169040
5329.000000;2.186761
5328.000000;2.204998
5327.000000;2.222606
5326.000000;2.239084
5325.000000;2.254848
5324.000000;2.270520
5323.000000;2.286568
5322.000000;2.303423
5321.000000;2.321199
5320.000000;2.339152
5319.000000;2.356113
5318.000000;2.371801
5317.000000;2.387172
5316.000000;2.403177
5315.000000;2.419689
5314.000000;2.435945
5313.000000;2.451430
5312.000000;2.466226
5311.000000;2.480826
5310.000000;2.495608
5309.000000;2.510185
5308.000000;2.523526
5307.000000;2.535200
5306.000000;2.546032
5305.000000;2.556931
5304.000000;2.567662
5303.000000;2.577419
5302.000000;2.586079
5301.000000;2.594076
5300.000000;2.601510
5299.000000;2.608367
5298.000000;2.615289
5297.000000;2.622930
5296.000000;2.630550
5295.000000;2.636477
5294.000000;2.640120
5293.000000;2.642298
5292.000000;2.643620
5291.000000;2.643875
5290.000000;2.643427
5289.000000;2.643911
5288.000000;2.646700
5287.000000;2.651378
5286.000000;2.656144
5285.000000;2.659453
5284.000000;2.661199
5283.000000;2.662294
5282.000000;2.663461
5281.000000;2.664865
5280.000000;2.666807
5279.000000;2.670006
5278.000000;2.674544
5277.000000;2.678918
5276.000000;2.681097
5275.000000;2.680749
5274.000000;2.679485
5273.000000;2.678615
5272.000000;2.677884
5271.000000;2.676826
5270.000000;2.675921
5269.000000;2.675740
5268.000000;2.676036
5267.000000;2.676365
5266.000000;2.676766
5265.000000;2.677117
5264.000000;2.676751
5263.000000;2.675430
5262.000000;2.674006
5261.000000;2.673473
5260.000000;2.674123
5259.000000;2.676012
5258.000000;2.679198
5257.000000;2.682606
5256.000000;2.683833
5255.000000;2.681759
5254.000000;2.678532
5253.000000;2.677201
5252.000000;2.678180
5251.000000;2.679467
5250.000000;2.679116
5249.000000;2.676564
5248.000000;2.672583
5247.000000;2.668879
5246.000000;2.667345
5245.000000;2.668696
5244.000000;2.671735
5243.000000;2.674378
5242.000000;2.675590
5241.000000;2.676034
5240.000000;2.677040
5239.000000;2.679389
5238.000000;2.682608
5237.000000;2.684894
5236.000000;2.684531
5235.000000;2.682056
5234.000000;2.680010
5233.000000;2.680071
5232.000000;2.681359
5231.000000;2.682057
5230.000000;2.681731
5229.000000;2.681271
5228.000000;2.681116
5227.000000;2.680589
5226.000000;2.679157
5225.000000;2.677605
5224.000000;2.677611
5223.000000;2.680328
5222.000000;2.685187
5221.000000;2.689848
5220.000000;2.691745
5219.000000;2.690237
5218.000000;2.686958
5217.000000;2.683816
5216.000000;2.681545
5215.000000;2.680308
5214.000000;2.680518
5213.000000;2.682363
5212.000000;2.685041
5211.000000;2.687244
5210.000000;2.688189
5209.000000;2.687694
5208.000000;2.685858
5207.000000;2.683491
5206.000000;2.682135
5205.000000;2.682712
5204.000000;2.684629
5203.000000;2.686748
5202.000000;2.688400
5201.000000;2.688980
5200.000000;2.687744
5199.000000;2.685086
5198.000000;2.683174
5197.000000;2.683993
5196.000000;2.686924
5195.000000;2.688968
5194.000000;2.687586
5193.000000;2.683016
5192.000000;2.677879
5191.000000;2.675157
5190.000000;2.676304
5189.000000;2.680404
5188.000000;2.684932
5187.000000;2.687880
5186.000000;2.689039
5185.000000;2.688984
5184.000000;2.687768
5183.000000;2.685396
5182.000000;2.682774
5181.000000;2.681112
5180.000000;2.680587
5179.000000;2.680303
5178.000000;2.679432
5177.000000;2.678014
5176.000000;2.676907
5175.000000;2.677236
5174.000000;2.679404
5173.000000;2.682259
5172.000000;2.683864
5171.000000;2.683537
5170.000000;2.682349
5169.000000;2.681193
5168.000000;2.679566
5167.000000;2.677067
5166.000000;2.674794
5165.000000;2.674039
5164.000000;2.674600
5163.000000;2.675565
5162.000000;2.677049
5161.000000;2.679782
5160.000000;2.683492
5159.000000;2.687083
5158.000000;2.690062
5157.000000;2.692446
5156.000000;2.693599
5155.000000;2.692594
5154.000000;2.689713
5153.000000;2.686261
5152.000000;2.682839
5151.000000;2.679259
5150.000000;2.676067
5149.000000;2.674680
5148.000000;2.675682
5147.000000;2.677902
5146.000000;2.679660
5145.000000;2.680249
5144.000000;2.680165
5143.000000;2.680461
5142.000000;2.681869
5141.000000;2.684074
5140.000000;2.685779
5139.000000;2.685893
5138.000000;2.684640
5137.000000;2.682996
5136.000000;2.681442
5135.000000;2.680117
5134.000000;2.679629
5133.000000;2.680495
5132.000000;2.682084
5131.000000;2.683132
5130.000000;2.683153
5129.000000;2.682637
5128.000000;2.682196
5127.000000;2.682405
5126.000000;2.683955
5125.000000;2.686600
5124.000000;2.688260
5123.000000;2.686761
5122.000000;2.682632
5121.000000;2.678632
5120.000000;2.676512
5119.000000;2.675769
5118.000000;2.675592
5117.000000;2.676227
5116.000000;2.677669
5115.000000;2.678595
5114.000000;2.677945
5113.000000;2.676594
5112.000000;2.676126
5111.000000;2.676629
5110.000000;2.676854
5109.000000;2.676182
5108.000000;2.675339
5107.000000;2.675204
5106.000000;2.675704
5105.000000;2.676076
5104.000000;2.675831
5103.000000;2.675276
5102.000000;2.675209
5101.000000;2.676156
5100.000000;2.677760
5099.000000;2.678918
5098.000000;2.678770
5097.000000;2.677630
5096.000000;2.676805
5095.000000;2.677527
5094.000000;2.679867
5093.000000;2.682400
5092.000000;2.683239
5091.000000;2.681905
5090.000000;2.680056
5089.000000;2.679895
5088.000000;2.681921
5087.000000;2.684578
5086.000000;2.686044
5085.000000;2.685936
5084.000000;2.685192
5083.000000;2.684853
5082.000000;2.685122
5081.000000;2.685141
5080.000000;2.683518
5079.000000;2.679616
5078.000000;2.674685
5077.000000;2.671270
5076.000000;2.671138
5075.000000;2.673994
5074.000000;2.678069
5073.000000;2.681631
5072.000000;2.683902
5071.000000;2.684608
5070.000000;2.683254
5069.000000;2.679516
5068.000000;2.674286
5067.000000;2.669699
5066.000000;2.667610
5065.000000;2.668082
5064.000000;2.669607
5063.000000;2.670688
5062.000000;2.670818
5061.000000;2.670174
5060.000000;2.669247
5059.000000;2.668989
5058.000000;2.670440
5057.000000;2.673644
5056.000000;2.677220
5055.000000;2.679510
5054.000000;2.679839
5053.000000;2.678309
5052.000000;2.675071
5051.000000;2.670674
5050.000000;2.666450
5049.000000;2.663563
5048.000000;2.662050
5047.000000;2.661404
5046.000000;2.661599
5045.000000;2.662659
5044.000000;2.663639
5043.000000;2.663291
5042.000000;2.661752
5041.000000;2.660493
5040.000000;2.660384
5039.000000;2.660733
5038.000000;2.660496
5037.000000;2.659664
5036.000000;2.659137
5035.000000;2.659690
5034.000000;2.661232
5033.000000;2.662609
5032.000000;2.662228
5031.000000;2.659651
5030.000000;2.656587
5029.000000;2.655538
5028.000000;2.657347
5027.000000;2.660577
5026.000000;2.663187
5025.000000;2.664096
5024.000000;2.663083
5023.000000;2.660402
5022.000000;2.657197
5021.000000;2.655286
5020.000000;2.655432
5019.000000;2.656196
5018.000000;2.655383
5017.000000;2.652618
5016.000000;2.649639
5015.000000;2.648020
5014.000000;2.647435
5013.000000;2.646384
5012.000000;2.644063
5011.000000;2.641150
5010.000000;2.639020
5009.000000;2.638628
5008.000000;2.639941
5007.000000;2.641826
5006.000000;2.642440
5005.000000;2.640538
5004.000000;2.637040
5003.000000;2.634711
5002.000000;2.635472
5001.000000;2.638059
5000.000000;2.638913
4999.000000;2.636012
4998.000000;2.631182
4997.000000;2.627896
4996.000000;2.627554
4995.000000;2.628608
4994.000000;2.628766
4993.000000;2.627333
4992.000000;2.625391
4991.000000;2.624346
4990.000000;2.624607
4989.000000;2.625439
4988.000000;2.625960
4987.000000;2.626244
4986.000000;2.627009
4985.000000;2.628054
4984.000000;2.627748
4983.000000;2.624824
4982.000000;2.620300
4981.000000;2.616560
4980.000000;2.614660
4979.000000;2.613474
4978.000000;2.611507
4977.000000;2.608806
4976.000000;2.606617
4975.000000;2.605670
4974.000000;2.605248
4973.000000;2.604003
4972.000000;2.601601
4971.000000;2.599409
4970.000000;2.599399
4969.000000;2.602162
4968.000000;2.605983
4967.000000;2.608061
4966.000000;2.606940
4965.000000;2.603616
4964.000000;2.600317
4963.000000;2.598477
4962.000000;2.597911
4961.000000;2.597414
4960.000000;2.596026
4959.000000;2.593746
4958.000000;2.591041
4957.000000;2.588039
4956.000000;2.584645
4955.000000;2.581444
4954.000000;2.579661
4953.000000;2.579766
4952.000000;2.580609
4951.000000;2.580467
4950.000000;2.578706
4949.000000;2.575924
4948.000000;2.572869
4947.000000;2.569885
4946.000000;2.567293
4945.000000;2.565471
4944.000000;2.564441
4943.000000;2.563809
4942.000000;2.563078
4941.000000;2.561666
4940.000000;2.558955
4939.000000;2.555002
4938.000000;2.551090
4937.000000;2.548820
4936.000000;2.548529
4935.000000;2.548981
4934.000000;2.548674
4933.000000;2.547177
4932.000000;2.545238
4931.000000;2.544002
4930.000000;2.544023
4929.000000;2.544456
4928.000000;2.543469
4927.000000;2.540187
4926.000000;2.535954
4925.000000;2.532865
4924.000000;2.531258
4923.000000;2.529545
4922.000000;2.526564
4921.000000;2.523098
4920.000000;2.520639
4919.000000;2.519633
4918.000000;2.519485
4917.000000;2.519385
4916.000000;2.518353
4915.000000;2.515267
4914.000000;2.509974
4913.000000;2.504182
4912.000000;2.500250
4911.000000;2.498935
4910.000000;2.498801
4909.000000;2.497854
4908.000000;2.495275
4907.000000;2.491546
4906.000000;2.487485
4905.000000;2.483493
4904.000000;2.479520
4903.000000;2.475482
4902.000000;2.471665
4901.000000;2.468641
4900.000000;2.466651
4899.000000;2.465204
4898.000000;2.463586
4897.000000;2.461713
4896.000000;2.460122
4895.000000;2.459093
4894.000000;2.458159
4893.000000;2.456517
4892.000000;2.453708
4891.000000;2.449861
4890.000000;2.445594
4889.000000;2.441796
4888.000000;2.439141
4887.000000;2.437515
4886.000000;2.436067
4885.000000;2.434117
4884.000000;2.431828
4883.000000;2.429632
4882.000000;2.427302
4881.000000;2.424096
4880.000000;2.419862
4879.000000;2.415577
4878.000000;2.412439
4877.000000;2.410633
4876.000000;2.409242
4875.000000;2.407296
4874.000000;2.404721
4873.000000;2.402271
4872.000000;2.400651
4871.000000;2.399772
4870.000000;2.398795
4869.000000;2.396874
4868.000000;2.393910
4867.000000;2.390569
4866.000000;2.387533
4865.000000;2.384847
4864.000000;2.382090
4863.000000;2.378989
4862.000000;2.375622
4861.000000;2.372116
4860.000000;2.368469
4859.000000;2.364737
4858.000000;2.361220
4857.000000;2.358263
4856.000000;2.355926
4855.000000;2.353912
4854.000000;2.351737
4853.000000;2.349007
4852.000000;2.345670
4851.000000;2.342049
4850.000000;2.338537
4849.000000;2.335275
4848.000000;2.332214
4847.000000;2.329400
4846.000000;2.327020
4845.000000;2.325105
4844.000000;2.323342
4843.000000;2.321254
4842.000000;2.318527
4841.000000;2.315228
4840.000000;2.311846
4839.000000;2.309019
4838.000000;2.306958
4837.000000;2.305090
4836.000000;2.302571
4835.000000;2.299233
4834.000000;2.295731
4833.000000;2.292677
4832.000000;2.289935
4831.000000;2.287002
4830.000000;2.283798
4829.000000;2.280670
4828.000000;2.277757
4827.000000;2.274725
4826.000000;2.271195
4825.000000;2.267176
4824.000000;2.263061
4823.000000;2.259449
4822.000000;2.256975
4821.000000;2.255967
4820.000000;2.256002
4819.000000;2.255887
4818.000000;2.254352
4817.000000;2.250950
4816.000000;2.246344
4815.000000;2.241784
4814.000000;2.238246
4813.000000;2.235830
4812.000000;2.233826
4811.000000;2.231391
4810.000000;2.228372
4809.000000;2.225333
4808.000000;2.222827
4807.000000;2.220772
4806.000000;2.218640
4805.000000;2.216133
4804.000000;2.213369
4803.000000;2.210484
4802.000000;2.207453
4801.000000;2.204395
4800.000000;2.201611
4799.000000;2.199088
4798.000000;2.196260
4797.000000;2.192684
4796.000000;2.188784
4795.000000;2.185466
4794.000000;2.183055
4793.000000;2.180964
4792.000000;2.178428
4791.000000;2.175199
4790.000000;2.171479
4789.000000;2.167642
4788.000000;2.164227
4787.000000;2.161749
4786.000000;2.160117
4785.000000;2.158449
4784.000000;2.155858
4783.000000;2.152371
4782.000000;2.148812
4781.000000;2.145888
4780.000000;2.143625
4779.000000;2.141540
4778.000000;2.139057
4777.000000;2.135865
4776.000000;2.132220
4775.000000;2.128918
4774.000000;2.126661
4773.000000;2.125377
4772.000000;2.124288
4771.000000;2.122629
4770.000000;2.120190
4769.000000;2.117288
4768.000000;2.114379
4767.000000;2.111635
4766.000000;2.108757
4765.000000;2.105345
4764.000000;2.101608
4763.000000;2.098450
4762.000000;2.096524
4761.000000;2.095344
4760.000000;2.093756
4759.000000;2.091244
4758.000000;2.088300
4757.000000;2.085505
4756.000000;2.082813
4755.000000;2.079961
4754.000000;2.077085
4753.000000;2.074564
4752.000000;2.072479
4751.000000;2.070531
4750.000000;2.068344
4749.000000;2.065673
4748.000000;2.062536
4747.000000;2.059361
4746.000000;2.056803
4745.000000;2.055124
4744.000000;2.053794
4743.000000;2.051912
4742.000000;2.049059
4741.000000;2.045641
4740.000000;2.042420
4739.000000;2.039812
4738.000000;2.037582
4737.000000;2.035155
4736.000000;2.032268
4735.000000;2.029291
4734.000000;2.026788
4733.000000;2.024855
4732.000000;2.023088
4731.000000;2.021186
4730.000000;2.019251
4729.000000;2.017406
4728.000000;2.015465
4727.000000;2.013215
4726.000000;2.010792
4725.000000;2.008481
4724.000000;2.006290
4723.000000;2.003980
4722.000000;2.001442
4721.000000;1.998797
4720.000000;1.996187
4719.000000;1.993698
4718.000000;1.991474
4717.000000;1.989631
4716.000000;1.987994
4715.000000;1.986103
4714.000000;1.983651
4713.000000;1.980831
4712.000000;1.978164
4711.000000;1.975973
4710.000000;1.974086
4709.000000;1.972048
4708.000000;1.969607
4707.000000;1.966950
4706.000000;1.964465
4705.000000;1.962359
4704.000000;1.960582
4703.000000;1.958983
4702.000000;1.957414
4701.000000;1.955726
4700.000000;1.953854
4699.000000;1.951920
4698.000000;1.950086
4697.000000;1.948297
4696.000000;1.946344
4695.000000;1.944170
4694.000000;1.941946
4693.000000;1.939795
4692.000000;1.937669
4691.000000;1.935531
4690.000000;1.933467
4689.000000;1.931582
4688.000000;1.929979
4687.000000;1.928860
4686.000000;1.928349
4685.000000;1.928079
4684.000000;1.927273
4683.000000;1.925493
4682.000000;1.923132
4681.000000;1.920899
4680.000000;1.919032
4679.000000;1.917257
4678.000000;1.915332
4677.000000;1.913330
4676.000000;1.911432
4675.000000;1.909744
4674.000000;1.908305
4673.000000;1.907029
4672.000000;1.905622
4671.000000;1.903807
4670.000000;1.901672
4669.000000;1.899641
4668.000000;1.898035
4667.000000;1.896785
4666.000000;1.895597
4665.000000;1.894257
4664.000000;1.892748
4663.000000;1.891163
4662.000000;1.889564
4661.000000;1.887931
4660.000000;1.886251
4659.000000;1.884624
4658.000000;1.883149
4657.000000;1.881681
4656.000000;1.879892
4655.000000;1.877730
4654.000000;1.875661
4653.000000;1.874259
4652.000000;1.873617
4651.000000;1.873294
4650.000000;1.872778
4649.000000;1.871832
4648.000000;1.870445
4647.000000;1.868719
4646.000000;1.866857
4645.000000;1.865116
4644.000000;1.863660
4643.000000;1.862463
4642.000000;1.861351
4641.000000;1.860115
4640.000000;1.858696
4639.000000;1.857324
4638.000000;1.856320
4637.000000;1.855635
4636.000000;1.854719
4635.000000;1.853077
4634.000000;1.850891
4633.000000;1.848860
4632.000000;1.847456
4631.000000;1.846561
4630.000000;1.845791
4629.000000;1.844936
4628.000000;1.844004
4627.000000;1.843020
4626.000000;1.841920
4625.000000;1.840560
4624.000000;1.838829
4623.000000;1.836822
4622.000000;1.834890
4621.000000;1.833363
4620.000000;1.832246
4619.000000;1.831309
4618.000000;1.830421
4617.000000;1.829613
4616.000000;1.828839
4615.000000;1.827922
4614.000000;1.826796
4613.000000;1.825602
4612.000000;1.824481
4611.000000;1.823459
4610.000000;1.822563
4609.000000;1.821830
4608.000000;1.821088
4607.000000;1.819995
4606.000000;1.818483
4605.000000;1.816977
4604.000000;1.815950
4603.000000;1.815371
4602.000000;1.814819
4601.000000;1.814033
4600.000000;1.813131
4599.000000;1.812303
4598.000000;1.811546
4597.000000;1.810751
4596.000000;1.809865
4595.000000;1.808854
4594.000000;1.807632
4593.000000;1.806155
4592.000000;1.804565
4591.000000;1.803128
4590.000000;1.802010
4589.000000;1.801155
4588.000000;1.800400
4587.000000;1.799662
4586.000000;1.798972
4585.000000;1.798336
4584.000000;1.797664
4583.000000;1.796894
4582.000000;1.796127
4581.000000;1.795517
4580.000000;1.795008
4579.000000;1.794351
4578.000000;1.793424
4577.000000;1.792438
4576.000000;1.791684
4575.000000;1.791168
4574.000000;1.790620
4573.000000;1.789834
4572.000000;1.788844
4571.000000;1.787769
4570.000000;1.786654
4569.000000;1.785545
4568.000000;1.784590
4567.000000;1.783901
4566.000000;1.783374
4565.000000;1.782783
4564.000000;1.782030
4563.000000;1.781207
4562.000000;1.780408
4561.000000;1.779623
4560.000000;1.778848
4559.000000;1.778154
4558.000000;1.777561
4557.000000;1.776973
4556.000000;1.776358
4555.000000;1.775850
4554.000000;1.775512
4553.000000;1.775110
4552.000000;1.774365
4551.000000;1.773406
4550.000000;1.772707
4549.000000;1.772502
4548.000000;1.772472
4547.000000;1.772101
4546.000000;1.771169
4545.000000;1.769830
4544.000000;1.768428
4543.000000;1.767366
4542.000000;1.766954
4541.000000;1.767129
4540.000000;1.767411
4539.000000;1.767344
4538.000000;1.766917
4537.000000;1.766409
4536.000000;1.765945
4535.000000;1.765435
4534.000000;1.764859
4533.000000;1.764328
4532.000000;1.763846
4531.000000;1.763288
4530.000000;1.762679
4529.000000;1.762265
4528.000000;1.762190
4527.000000;1.762269
4526.000000;1.762159
4525.000000;1.761674
4524.000000;1.760863
4523.000000;1.759954
4522.000000;1.759291
4521.000000;1.759148
4520.000000;1.759451
4519.000000;1.759771
4518.000000;1.759753
4517.000000;1.759463
4516.000000;1.759180
4515.000000;1.758893
4514.000000;1.758267
4513.000000;1.757181
4512.000000;1.756103
4511.000000;1.755694
4510.000000;1.756056
4509.000000;1.756569
4508.000000;1.756576
4507.000000;1.756098
4506.000000;1.755687
4505.000000;1.755694
4504.000000;1.755976
4503.000000;1.756291
4502.000000;1.756633
4501.000000;1.757007
4500.000000;1.757190
4499.000000;1.757021
4498.000000;1.756744
4497.000000;1.756704
4496.000000;1.756827
4495.000000;1.756734
4494.000000;1.756367
4493.000000;1.756133
4492.000000;1.756364
4491.000000;1.756927
4490.000000;1.757479
4489.000000;1.757842
4488.000000;1.758007
4487.000000;1.757993
4486.000000;1.757879
4485.000000;1.757813
4484.000000;1.757838
4483.000000;1.757860
4482.000000;1.757887
4481.000000;1.758109
4480.000000;1.758588
4479.000000;1.759062
4478.000000;1.759241
4477.000000;1.759190
4476.000000;1.759213
4475.000000;1.759488
4474.000000;1.760008
4473.000000;1.760729
4472.000000;1.761527
4471.000000;1.762076
4470.000000;1.762069
4469.000000;1.761585
4468.000000;1.761017
4467.000000;1.760648
4466.000000;1.760503
4465.000000;1.760651
4464.000000;1.761317
4463.000000;1.762502
4462.000000;1.763723
4461.000000;1.764417
4460.000000;1.764568
4459.000000;1.764685
4458.000000;1.765146
4457.000000;1.765767
4456.000000;1.766123
4455.000000;1.766118
4454.000000;1.766085
4453.000000;1.766369
4452.000000;1.766997
4451.000000;1.767756
4450.000000;1.768454
4449.000000;1.769039
4448.000000;1.769558
4447.000000;1.770129
4446.000000;1.770913
4445.000000;1.771971
4444.000000;1.773132
4443.000000;1.774088
4442.000000;1.774690
4441.000000;1.775097
4440.000000;1.775611
4439.000000;1.776379
4438.000000;1.777280
4437.000000;1.778072
4436.000000;1.778602
4435.000000;1.778882
4434.000000;1.779027
4433.000000;1.779171
4432.000000;1.779463
4431.000000;1.780045
4430.000000;1.780974
4429.000000;1.782169
4428.000000;1.783518
4427.000000;1.784976
4426.000000;1.786436
4425.000000;1.787567
4424.000000;1.788021
4423.000000;1.787928
4422.000000;1.788002
4421.000000;1.788952
4420.000000;1.790841
4419.000000;1.793081
4418.000000;1.794934
4417.000000;1.795937
4416.000000;1.796088
4415.000000;1.795843
4414.000000;1.795839
4413.000000;1.796321
4412.000000;1.796878
4411.000000;1.796978
4410.000000;1.796730
4409.000000;1.796807
4408.000000;1.797632
4407.000000;1.798940
4406.000000;1.800266
4405.000000;1.801546
4404.000000;1.803017
4403.000000;1.804695
4402.000000;1.806242
4401.000000;1.807361
4400.000000;1.808133
4399.000000;1.808920
4398.000000;1.810036
4397.000000;1.811551
4396.000000;1.813273
4395.000000;1.814851
4394.000000;1.815952
4393.000000;1.816473
4392.000000;1.816681
4391.000000;1.817062
4390.000000;1.817861
4389.000000;1.818741
4388.000000;1.819166
4387.000000;1.819192
4386.000000;1.819574
4385.000000;1.820853
4384.000000;1.822583
4383.000000;1.823799
4382.000000;1.824103
4381.000000;1.823915
4380.000000;1.823736
4379.000000;1.823693
4378.000000;1.823912
4377.000000;1.824850
4376.000000;1.826836
4375.000000;1.829469
4374.000000;1.831790
4373.000000;1.833150
4372.000000;1.833808
4371.000000;1.834595
4370.000000;1.835955
4369.000000;1.837337
4368.000000;1.837688
4367.000000;1.836693
4366.000000;1.835333
4365.000000;1.834934
4364.000000;1.835839
4363.000000;1.837268
4362.000000;1.838346
4361.000000;1.838870
4360.000000;1.839128
4359.000000;1.839427
4358.000000;1.839973
4357.000000;1.840837
4356.000000;1.841813
4355.000000;1.842578
4354.000000;1.843166
4353.000000;1.844044
4352.000000;1.845589
4351.000000;1.847674
4350.000000;1.849833
4349.000000;1.851639
4348.000000;1.852867
4347.000000;1.853561
4346.000000;1.854075
4345.000000;1.854798
4344.000000;1.855731
4343.000000;1.856570
4342.000000;1.857215
4341.000000;1.857880
4340.000000;1.858633
4339.000000;1.859252
4338.000000;1.859673
4337.000000;1.860154
4336.000000;1.860787
4335.000000;1.861295
4334.000000;1.861561
4333.000000;1.861979
4332.000000;1.862972
4331.000000;1.864426
4330.000000;1.865829
4329.000000;1.866703
4328.000000;1.866747
4327.000000;1.865961
4326.000000;1.864958
4325.000000;1.864707
4324.000000;1.865550
4323.000000;1.866789
4322.000000;1.867628
4321.000000;1.868219
4320.000000;1.869416
4319.000000;1.871612
4318.000000;1.874068
4317.000000;1.875554
4316.000000;1.875538
4315.000000;1.874682
4314.000000;1.874209
4313.000000;1.874688
4312.000000;1.875486
4311.000000;1.875747
4310.000000;1.875691
4309.000000;1.876203
4308.000000;1.877089
4307.000000;1.876817
4306.000000;1.874685
4305.000000;1.872358
4304.000000;1.872126
4303.000000;1.874034
4302.000000;1.875625
4301.000000;1.874496
4300.000000;1.870536
4299.000000;1.865723
4298.000000;1.862474
4297.000000;1.862166
4296.000000;1.864499
4295.000000;1.867875
4294.000000;1.870606
4293.000000;1.871868
4292.000000;1.871540
4291.000000;1.869871
4290.000000;1.868036
4289.000000;1.868292
4288.000000;1.872136
4287.000000;1.878089
4286.000000;1.882444
4285.000000;1.883007
4284.000000;1.881288
4283.000000;1.880151
4282.000000;1.880333
4281.000000;1.880207
4280.000000;1.878314
4279.000000;1.875163
4278.000000;1.872374
4277.000000;1.870602
4276.000000;1.868967
4275.000000;1.866499
4274.000000;1.863636
4273.000000;1.861835
4272.000000;1.861653
4271.000000;1.861793
4270.000000;1.860339
4269.000000;1.856637
4268.000000;1.851755
4267.000000;1.847314
4266.000000;1.844313
4265.000000;1.843012
4264.000000;1.843150
4263.000000;1.843846
4262.000000;1.843955
4261.000000;1.843240
4260.000000;1.842784
4259.000000;1.843732
4258.000000;1.845824
4257.000000;1.847019
4256.000000;1.844612
4255.000000;1.837482
4254.000000;1.827749
4253.000000;1.819680
4252.000000;1.816069
4251.000000;1.815239
4250.000000;1.812186
4249.000000;1.803836
4248.000000;1.792927
4247.000000;1.784778
4246.000000;1.781812
4245.000000;1.781816
4244.000000;1.780809
4243.000000;1.777305
4242.000000;1.773227
4241.000000;1.770827
4240.000000;1.769610
4239.000000;1.766541
4238.000000;1.758928
4237.000000;1.746757
4236.000000;1.732560
4235.000000;1.719809
4234.000000;1.711333
4233.000000;1.707739
4232.000000;1.706270
4231.000000;1.702286
4230.000000;1.693746
4229.000000;1.683916
4228.000000;1.677893
4227.000000;1.676455
4226.000000;1.674262
4225.000000;1.664779
4224.000000;1.646699
4223.000000;1.624320
4222.000000;1.603384
4221.000000;1.588365
4220.000000;1.581080
4219.000000;1.578747
4218.000000;1.574100
4217.000000;1.560356
4216.000000;1.536892
4215.000000;1.508643
4214.000000;1.480139
4213.000000;1.452467
4212.000000;1.425579
4211.000000;1.399820
4210.000000;1.373905
4209.000000;1.343855
4208.000000;1.306523
4207.000000;1.263160
4206.000000;1.217597
4205.000000;1.172709
4204.000000;1.129420
4203.000000;1.085717
4202.000000;1.035431
4201.000000;0.973448
4200.000000;0.907128
4199.000000;0.859324
4198.000000;0.851886
4197.000000;0.887129
4196.000000;0.949447
4195.000000;1.018412
4194.000000;1.082137
4193.000000;1.139315
4192.000000;1.191956
4191.000000;1.241977
4190.000000;1.292295
4189.000000;1.345114
4188.000000;1.397895
4187.000000;1.444550
4186.000000;1.481708
4185.000000;1.511252
4184.000000;1.536568
4183.000000;1.559489
4182.000000;1.581709
4181.000000;1.606745
4180.000000;1.638319
4179.000000;1.676779
4178.000000;1.717736
4177.000000;1.753931
4176.000000;1.780844
4175.000000;1.800918
4174.000000;1.819304
4173.000000;1.837561
4172.000000;1.853006
4171.000000;1.863558
4170.000000;1.871940
4169.000000;1.884163
4168.000000;1.904452
4167.000000;1.931342
4166.000000;1.957635
4165.000000;1.974895
4164.000000;1.980538
4163.000000;1.981142
4162.000000;1.986767
4161.000000;2.002720
4160.000000;2.027974
4159.000000;2.059078
4158.000000;2.092888
4157.000000;2.125365
4156.000000;2.151948
4155.000000;2.172328
4154.000000;2.191076
4153.000000;2.210893
4152.000000;2.226711
4151.000000;2.230813
4150.000000;2.224567
4149.000000;2.216676
4148.000000;2.213172
4147.000000;2.216310
4146.000000;2.228348
4145.000000;2.249874
4144.000000;2.275181
4143.000000;2.295955
4142.000000;2.311552
4141.000000;2.330650
4140.000000;2.361752
4139.000000;2.401026
4138.000000;2.428107
4137.000000;2.423747
4136.000000;2.396135
4135.000000;2.372449
4134.000000;2.370765
4133.000000;2.388987
4132.000000;2.410295
4131.000000;2.420831
4130.000000;2.422869
4129.000000;2.425280
4128.000000;2.431314
4127.000000;2.440692
4126.000000;2.454310
4125.000000;2.471769
4124.000000;2.487272
4123.000000;2.492721
4122.000000;2.486166
4121.000000;2.472801
4120.000000;2.458592
4119.000000;2.449214
4118.000000;2.452624
4117.000000;2.473948
4116.000000;2.505919
4115.000000;2.530611
4114.000000;2.538734
4113.000000;2.539642
4112.000000;2.543847
4111.000000;2.548609
4110.000000;2.546379
4109.000000;2.543018
4108.000000;2.556314
4107.000000;2.595486
4106.000000;2.650677
4105.000000;2.697947
4104.000000;2.718580
4103.000000;2.717262
4102.000000;2.704442
4101.000000;2.680538
4100.000000;2.651930
4099.000000;2.634639
4098.000000;2.639619
4097.000000;2.662646
4096.000000;2.686829
4095.000000;2.697604
4094.000000;2.695900
4093.000000;2.693922
4092.000000;2.698033
4091.000000;2.699951
4090.000000;2.690823
4089.000000;2.677430
4088.000000;2.676715
4087.000000;2.700352
4086.000000;2.741536
4085.000000;2.775133
4084.000000;2.784768
4083.000000;2.780938
4082.000000;2.776674
4081.000000;2.769105
4080.000000;2.750497
4079.000000;2.726896
4078.000000;2.712197
4077.000000;2.710286
4076.000000;2.716991
4075.000000;2.730107
4074.000000;2.749269
4073.000000;2.774681
4072.000000;2.805306
4071.000000;2.833212
4070.000000;2.844410
4069.000000;2.829547
4068.000000;2.795468
4067.000000;2.762415
4066.000000;2.748613
4065.000000;2.758853
4064.000000;2.784957
4063.000000;2.813728
4062.000000;2.831801
4061.000000;2.826381
4060.000000;2.797853
4059.000000;2.768170
4058.000000;2.759488
4057.000000;2.774439
4056.000000;2.797152
4055.000000;2.810211
4054.000000;2.811644
4053.000000;2.813969
4052.000000;2.829283
4051.000000;2.860215
4050.000000;2.900681
4049.000000;2.934519
4048.000000;2.945225
4047.000000;2.930335
4046.000000;2.902060
4045.000000;2.873656
4044.000000;2.846129
4043.000000;2.819825
4042.000000;2.804374
4041.000000;2.807025
4040.000000;2.825067
4039.000000;2.853392
4038.000000;2.894347
4037.000000;2.951450
4036.000000;3.010822
4035.000000;3.046382
4034.000000;3.058233
4033.000000;3.074138
4032.000000;3.103899
4031.000000;3.130555
4030.000000;3.146510
4029.000000;3.153044
4028.000000;3.148813
4027.000000;3.133140
4026.000000;3.084775
4025.000000;2.998764
4024.000000;2.923573
4023.000000;2.899969
4022.000000;2.931004
4021.000000;2.994625
4020.000000;3.061275
4019.000000;3.115666
4018.000000;3.156330
4017.000000;3.171576
4016.000000;3.148896
4015.000000;3.098320
4014.000000;3.045817
4013.000000;3.014703
4012.000000;3.010169
4011.000000;3.025703
4010.000000;3.055546
4009.000000;3.091720
4008.000000;3.113114
4007.000000;3.095260
4006.000000;3.053962
4005.000000;3.037350
4004.000000;3.060556
4003.000000;3.087527
4002.000000;3.093685
4001.000000;3.114201
4000.000000;3.171057
3999.000000;3.245444
3998.000000;3.301051
3997.000000;3.303379
3996.000000;3.271540
3995.000000;3.243965
3994.000000;3.215189
3993.000000;3.180162
3992.000000;3.147223
3991.000000;3.121090
3990.000000;3.107203
3989.000000;3.101688
3988.000000;3.095153
3987.000000;3.091763
3986.000000;3.098921
3985.000000;3.117236
3984.000000;3.139454
3983.000000;3.152041
3982.000000;3.145342
3981.000000;3.122564
3980.000000;3.102123
3979.000000;3.108865
3978.000000;3.157565
3977.000000;3.246016
3976.000000;3.350686
3975.000000;3.418508
3974.000000;3.409921
3973.000000;3.369575
3972.000000;3.358771
3971.000000;3.375297
3970.000000;3.360770
3969.000000;3.295474
3968.000000;3.236042
3967.000000;3.227396
3966.000000;3.271751
3965.000000;3.333175
3964.000000;3.369275
3963.000000;3.367495
3962.000000;3.348083
3961.000000;3.342690
3960.000000;3.353683
3959.000000;3.336229
3958.000000;3.288974
3957.000000;3.277826
3956.000000;3.344264
3955.000000;3.474763
3954.000000;3.588977
3953.000000;3.642112
3952.000000;3.680500
3951.000000;3.699118
3950.000000;3.661219
3949.000000;3.585856
3948.000000;3.540259
3947.000000;3.566346
3946.000000;3.640291
3945.000000;3.708283
3944.000000;3.734312
3943.000000;3.707587
3942.000000;3.631590
3941.000000;3.560732
3940.000000;3.545256
3939.000000;3.576715
3938.000000;3.641680
3937.000000;3.727174
3936.000000;3.780408
3935.000000;3.787561
3934.000000;3.781176
3933.000000;3.761253
3932.000000;3.719133
3931.000000;3.651771
3930.000000;3.574276
3929.000000;3.533456
3928.000000;3.571123
3927.000000;3.676410
3926.000000;3.797453
3925.000000;3.878723
3924.000000;3.847291
3923.000000;3.711158
3922.000000;3.607276
3921.000000;3.615765
3920.000000;3.747652
3919.000000;3.978568
3918.000000;4.462005
3917.000000;4.338962
3916.000000;3.779814
3915.000000;3.649405
3914.000000;3.608145
3913.000000;3.552003
3912.000000;3.471180
3911.000000;3.445115
3910.000000;3.495055
3909.000000;3.599861
3908.000000;3.705887
3907.000000;3.782370
3906.000000;3.819225
3905.000000;3.769193
3904.000000;3.653424
3903.000000;3.575016
3902.000000;3.577460
3901.000000;3.637475
3900.000000;3.755928
3899.000000;3.984897
3898.000000;4.238917
3897.000000;4.069868
3896.000000;3.796391
3895.000000;3.712385
3894.000000;3.776938
3893.000000;4.016852
3892.000000;4.388614
3891.000000;4.077495
3890.000000;3.882980
3889.000000;3.621421
3888.000000;3.570458
3887.000000;3.746415
3886.000000;4.121854
3885.000000;3.988368
3884.000000;3.890272
3883.000000;4.031293
3882.000000;4.150302
3881.000000;4.302130
3880.000000;4.191505
3879.000000;3.976442
3878.000000;4.006450
3877.000000;4.000116
3876.000000;3.795222
3875.000000;3.579732
3874.000000;3.453720
3873.000000;3.508596
3872.000000;3.703174
3871.000000;3.819175
3870.000000;3.914540
3869.000000;3.930592
3868.000000;3.739673
3867.000000;3.827514
3866.000000;4.125478
3865.000000;4.082228
3864.000000;3.722644
3863.000000;3.642566
3862.000000;3.757513
3861.000000;4.187036
3860.000000;4.083269
3859.000000;3.718483
3858.000000;3.635309
3857.000000;3.667224
3856.000000;3.820255
3855.000000;4.148094
3854.000000;4.498376
3853.000000;3.980166
3852.000000;3.708804
3851.000000;3.581228
3850.000000;3.500293
3849.000000;3.478356
3848.000000;3.529048
3847.000000;3.649314
3846.000000;3.815743
3845.000000;4.052198
3844.000000;4.514838
3843.000000;4.447444
3842.000000;4.152416
3841.000000;3.968670
3840.000000;4.109486
3839.000000;4.373319
3838.000000;3.669376
3837.000000;3.498971
3836.000000;3.559009
3835.000000;3.584657
3834.000000;3.478833
3833.000000;3.444601
3832.000000;3.507164
3831.000000;3.584780
3830.000000;3.692442
3829.000000;3.835772
3828.000000;3.998423
3827.000000;4.037623
3826.000000;3.935279
3825.000000;3.962798
3824.000000;4.013362
3823.000000;3.903532
3822.000000;3.816782
3821.000000;3.733752
3820.000000;3.636362
3819.000000;3.620555
3818.000000;3.750336
3817.000000;3.750782
3816.000000;3.549330
3815.000000;3.441942
3814.000000;3.423062
3813.000000;3.444301
3812.000000;3.540634
3811.000000;3.339357
3810.000000;3.235643
3809.000000;3.221161
3808.000000;3.236434
3807.000000;3.387676
3806.000000;3.361362
3805.000000;3.152998
3804.000000;3.127266
3803.000000;3.226686
3802.000000;3.587713
3801.000000;3.714146
3800.000000;3.651110
3799.000000;3.921083
3798.000000;4.129706
3797.000000;3.789428
3796.000000;3.618134
3795.000000;3.724466
3794.000000;3.795873
3793.000000;3.733919
3792.000000;3.884849
3791.000000;4.276822
3790.000000;3.903103
3789.000000;3.732456
3788.000000;3.737541
3787.000000;3.816643
3786.000000;3.930778
3785.000000;4.040945
3784.000000;3.841592
3783.000000;3.498846
3782.000000;3.385350
3781.000000;3.453909
3780.000000;3.681459
3779.000000;4.101994
3778.000000;4.315918
3777.000000;4.025696
3776.000000;3.827707
3775.000000;3.749329
3774.000000;3.790847
3773.000000;3.948350
3772.000000;3.910609
3771.000000;3.582305
3770.000000;3.317214
3769.000000;3.212829
3768.000000;3.264468
3767.000000;3.407638
3766.000000;3.565270
3765.000000;3.693524
3764.000000;3.770375
3763.000000;3.833820
3762.000000;3.881634
3761.000000;3.853349
3760.000000;3.841992
3759.000000;4.003666
3758.000000;3.783188
3757.000000;3.492363
3756.000000;3.405100
3755.000000;3.481550
3754.000000;3.749478
3753.000000;4.060450
3752.000000;4.087318
3751.000000;3.908668
3750.000000;3.728375
3749.000000;3.693663
3748.000000;3.860044
3747.000000;3.926015
3746.000000;3.644690
3745.000000;3.493036
3744.000000;3.484167
3743.000000;3.597035
3742.000000;3.900893
3741.000000;3.935566
3740.000000;3.804496
3739.000000;3.946165
3738.000000;3.957206
3737.000000;3.754458
3736.000000;3.529899
3735.000000;3.286628
3734.000000;3.153325
3733.000000;3.154963
3732.000000;3.337095
3731.000000;3.657126
3730.000000;3.635902
3729.000000;3.597470
3728.000000;3.703708
3727.000000;3.822576
3726.000000;3.955927
3725.000000;4.053523
3724.000000;4.068706
3723.000000;4.008183
3722.000000;3.958711
3721.000000;3.943374
3720.000000;3.907742
3719.000000;3.830878
3718.000000;3.771973
3717.000000;3.765006
3716.000000;3.837119
3715.000000;3.937514
3714.000000;3.776235
3713.000000;3.572796
3712.000000;3.533581
3711.000000;3.598275
3710.000000;3.402723
3709.000000;3.295343
3708.000000;3.377470
3707.000000;3.673237
3706.000000;4.062752
3705.000000;3.723427
3704.000000;3.554813
3703.000000;3.524500
3702.000000;3.667737
3701.000000;4.107868
3700.000000;4.002805
3699.000000;3.901229
3698.000000;4.146103
3697.000000;4.218729
3696.000000;4.164340
3695.000000;4.256451
3694.000000;4.199272
3693.000000;3.680006
3692.000000;3.300982
3691.000000;3.070524
3690.000000;2.943624
3689.000000;2.967643
3688.000000;3.208312
3687.000000;3.440124
3686.000000;3.401136
3685.000000;3.399774
3684.000000;3.425330
3683.000000;3.472566
3682.000000;3.528117
3681.000000;3.564800
3680.000000;3.588609
3679.000000;3.615085
3678.000000;3.698384
3677.000000;3.933531
3676.000000;3.980942
3675.000000;3.686990
3674.000000;3.511559
3673.000000;3.471278
3672.000000;3.466775
3671.000000;3.599485
3670.000000;3.402194
3669.000000;3.482961
3668.000000;4.001448
3667.000000;3.879554
3666.000000;3.741136
3665.000000;3.888318
3664.000000;4.028413
3663.000000;3.884992
3662.000000;3.708456
3661.000000;3.563426
3660.000000;3.535735
3659.000000;3.557798
3658.000000;3.388305
3657.000000;3.207218
3656.000000;3.143721
3655.000000;3.273360
3654.000000;3.714283
3653.000000;3.774787
3652.000000;3.533543
3651.000000;3.571814
3650.000000;3.684709
3649.000000;3.909954
3648.000000;4.068387
3647.000000;3.791265
3646.000000;3.591283
3645.000000;3.563424
3644.000000;3.624001
3643.000000;3.789692
3642.000000;4.435064
3641.000000;4.040183
3640.000000;3.660925
3639.000000;3.654244
3638.000000;3.815661
3637.000000;3.783995
3636.000000;3.633845
3635.000000;3.635688
3634.000000;3.788378
3633.000000;3.871460
3632.000000;3.734783
3631.000000;3.807190
3630.000000;4.023294
3629.000000;4.290391
3628.000000;4.129908
3627.000000;3.758537
3626.000000;3.713364
3625.000000;3.895293
3624.000000;4.121062
3623.000000;4.222222
3622.000000;4.191390
3621.000000;3.987728
3620.000000;3.844973
3619.000000;3.796487
3618.000000;3.972590
3617.000000;4.553432
3616.000000;4.467827
3615.000000;4.233818
3614.000000;4.146263
3613.000000;3.948594
3612.000000;3.879902
3611.000000;3.928991
3610.000000;3.933876
3609.000000;3.863173
3608.000000;3.806415
3607.000000;3.720843
3606.000000;3.652828
3605.000000;3.667956
3604.000000;3.968936
3603.000000;4.574969
3602.000000;3.980371
3601.000000;3.985075
3600.000000;4.416433
3599.000000;4.294662
3598.000000;4.047749
3597.000000;3.989078
3596.000000;3.931009
3595.000000;3.870904
3594.000000;3.869215
3593.000000;4.128532
3592.000000;4.481928
3591.000000;4.147333
3590.000000;4.096533
3589.000000;4.152156
3588.000000;4.067799
3587.000000;3.948044
3586.000000;3.885374
3585.000000;3.949471
3584.000000;3.746385
3583.000000;3.547526
3582.000000;3.563160
3581.000000;3.628931
3580.000000;3.590159
3579.000000;3.587811
3578.000000;3.774234
3577.000000;4.289208
3576.000000;4.196235
3575.000000;3.910221
3574.000000;3.931018
3573.000000;4.117573
3572.000000;4.163011
3571.000000;4.091338
3570.000000;4.187793
3569.000000;4.318308
3568.000000;4.318537
3567.000000;4.164916
3566.000000;3.979502
3565.000000;3.886575
3564.000000;3.915465
3563.000000;4.128372
3562.000000;4.105691
3561.000000;3.791116
3560.000000;3.615485
3559.000000;3.518740
3558.000000;3.509469
3557.000000;3.599714
3556.000000;3.890282
3555.000000;4.311889
3554.000000;4.337602
3553.000000;4.386909
3552.000000;3.851094
3551.000000;3.718391
3550.000000;3.944630
3549.000000;4.282428
3548.000000;4.644321
3547.000000;5.249117
3546.000000;4.826622
3545.000000;4.733146
3544.000000;4.619108
3543.000000;4.224720
3542.000000;4.314297
3541.000000;4.319157
3540.000000;3.981817
3539.000000;4.036765
3538.000000;4.257418
3537.000000;4.162405
3536.000000;4.038184
3535.000000;4.079026
3534.000000;4.114156
3533.000000;3.855893
3532.000000;3.644578
3531.000000;3.573718
3530.000000;3.598537
3529.000000;3.702808
3528.000000;3.889824
3527.000000;4.210636
3526.000000;4.483569
3525.000000;4.214940
3524.000000;3.936622
3523.000000;3.747381
3522.000000;3.662683
3521.000000;3.667520
3520.000000;3.704143
3519.000000;3.802180
3518.000000;3.964555
3517.000000;3.810021
3516.000000;3.610583
3515.000000;3.622771
3514.000000;3.737620
3513.000000;3.734681
3512.000000;3.686807
3511.000000;3.699983
3510.000000;3.657582
3509.000000;3.541348
3508.000000;3.477044
3507.000000;3.489474
3506.000000;3.512966
3505.000000;3.505198
3504.000000;3.481108
3503.000000;3.463941
3502.000000;3.460506
3501.000000;3.447875
3500.000000;3.427013
3499.000000;3.427436
3498.000000;3.481528
3497.000000;3.612759
3496.000000;3.922672
3495.000000;4.173295
3494.000000;3.844288
3493.000000;3.714449
3492.000000;3.647468
3491.000000;3.587531
3490.000000;3.605911
3489.000000;3.682247
3488.000000;3.675869
3487.000000;3.608151
3486.000000;3.580720
3485.000000;3.523426
3484.000000;3.496836
3483.000000;3.613042
3482.000000;3.861082
3481.000000;3.736144
3480.000000;3.511093
3479.000000;3.500463
3478.000000;3.546924
3477.000000;3.474287
3476.000000;3.388880
3475.000000;3.345315
3474.000000;3.309571
3473.000000;3.302982
3472.000000;3.354363
3471.000000;3.465235
3470.000000;3.626914
3469.000000;3.737405
3468.000000;3.589991
3467.000000;3.390598
3466.000000;3.299828
3465.000000;3.324595
3464.000000;3.426497
3463.000000;3.544760
3462.000000;3.623655
3461.000000;3.569961
3460.000000;3.465731
3459.000000;3.475711
3458.000000;3.626194
3457.000000;3.643317
3456.000000;3.449561
3455.000000;3.318977
3454.000000;3.292513
3453.000000;3.426422
3452.000000;3.614358
3451.000000;3.550945
3450.000000;3.528453
3449.000000;3.598434
3448.000000;3.576848
3447.000000;3.567210
3446.000000;3.660272
3445.000000;3.639512
3444.000000;3.498997
3443.000000;3.422467
3442.000000;3.378522
3441.000000;3.332495
3440.000000;3.326756
3439.000000;3.444425
3438.000000;3.761517
3437.000000;4.410077
3436.000000;4.221387
3435.000000;3.724239
3434.000000;3.494599
3433.000000;3.481348
3432.000000;3.908935
3431.000000;4.288229
3430.000000;4.062842
3429.000000;4.219797
3428.000000;3.789509
3427.000000;3.722565
3426.000000;3.955636
3425.000000;3.895678
3424.000000;3.792334
3423.000000;3.826779
3422.000000;4.051188
3421.000000;4.598282
3420.000000;3.844427
3419.000000;3.476684
3418.000000;3.314603
3417.000000;3.242557
3416.000000;3.260831
3415.000000;3.336444
3414.000000;3.446446
3413.000000;3.545263
3412.000000;3.605981
3411.000000;3.632593
3410.000000;3.646898
3409.000000;3.562290
3408.000000;3.412886
3407.000000;3.335779
3406.000000;3.343035
3405.000000;3.391556
3404.000000;3.411184
3403.000000;3.348728
3402.000000;3.276066
3401.000000;3.269624
3400.000000;3.357137
3399.000000;3.486853
3398.000000;3.529962
3397.000000;3.515768
3396.000000;3.619189
3395.000000;3.732591
3394.000000;3.506205
3393.000000;3.291402
3392.000000;3.229763
3391.000000;3.291675
3390.000000;3.549164
3389.000000;3.970165
3388.000000;3.783598
3387.000000;3.738325
3386.000000;4.102206
3385.000000;4.277390
3384.000000;3.903917
3383.000000;3.931159
3382.000000;4.102971
3381.000000;3.793762
3380.000000;3.546671
3379.000000;3.398311
3378.000000;3.293346
3377.000000;3.272558
3376.000000;3.370594
3375.000000;3.580698
3374.000000;3.694886
3373.000000;3.593740
3372.000000;3.541163
3371.000000;3.542306
3370.000000;3.505936
3369.000000;3.436738
3368.000000;3.389372
3367.000000;3.374557
3366.000000;3.416372
3365.000000;3.516528
3364.000000;3.509574
3363.000000;3.386357
3362.000000;3.322506
3361.000000;3.353871
3360.000000;3.480800
3359.000000;3.607644
3358.000000;3.592010
3357.000000;3.569075
3356.000000;3.653830
3355.000000;4.032780
3354.000000;4.233485
3353.000000;3.805965
3352.000000;3.731335
3351.000000;3.753524
3350.000000;3.776242
3349.000000;3.759060
3348.000000;3.884593
3347.000000;4.183009
3346.000000;3.804521
3345.000000;3.615792
3344.000000;3.717665
3343.000000;3.847943
3342.000000;3.888526
3341.000000;4.044150
3340.000000;4.410657
3339.000000;4.181493
3338.000000;3.792248
3337.000000;3.677773
3336.000000;3.727631
3335.000000;3.907036
3334.000000;3.999435
3333.000000;3.716143
3332.000000;3.499855
3331.000000;3.404455
3330.000000;3.370237
3329.000000;3.384898
3328.000000;3.453925
3327.000000;3.684883
3326.000000;4.061304
3325.000000;3.825657
3324.000000;3.570210
3323.000000;3.486764
3322.000000;3.429420
3321.000000;3.448407
3320.000000;3.444849
3319.000000;3.415170
3318.000000;3.386787
3317.000000;3.491471
3316.000000;4.030628
3315.000000;3.623752
3314.000000;3.282384
3313.000000;3.290809
3312.000000;3.519796
3311.000000;3.629000
3310.000000;3.427868
3309.000000;3.460374
3308.000000;3.657533
3307.000000;3.815613
3306.000000;3.826115
3305.000000;3.659020
3304.000000;3.582165
3303.000000;3.657477
3302.000000;3.716720
3301.000000;3.669429
3300.000000;3.537790
3299.000000;3.367370
3298.000000;3.277927
3297.000000;3.307934
3296.000000;3.464121
3295.000000;3.731929
3294.000000;3.936163
3293.000000;3.812461
3292.000000;3.545684
3291.000000;3.336790
3290.000000;3.227480
3289.000000;3.226324
3288.000000;3.319640
3287.000000;3.390578
3286.000000;3.373631
3285.000000;3.404589
3284.000000;3.519610
3283.000000;3.651957
3282.000000;3.691933
3281.000000;3.549911
3280.000000;3.354573
3279.000000;3.258181
3278.000000;3.277916
3277.000000;3.489730
3276.000000;3.961770
3275.000000;3.776882
3274.000000;3.597601
3273.000000;3.610150
3272.000000;3.419039
3271.000000;3.226929
3270.000000;3.152778
3269.000000;3.152772
3268.000000;3.211385
3267.000000;3.288918
3266.000000;3.334688
3265.000000;3.359076
3264.000000;3.430373
3263.000000;3.786588
3262.000000;3.933209
3261.000000;3.534765
3260.000000;3.449179
3259.000000;3.483327
3258.000000;3.544933
3257.000000;3.581718
3256.000000;3.532937
3255.000000;3.535350
3254.000000;3.618546
3253.000000;3.582275
3252.000000;3.464633
3251.000000;3.435549
3250.000000;3.511213
3249.000000;3.717200
3248.000000;3.831186
3247.000000;3.678521
3246.000000;3.594009
3245.000000;3.635032
3244.000000;3.729335
3243.000000;3.708271
3242.000000;3.667075
3241.000000;3.724182
3240.000000;3.647305
3239.000000;3.422343
3238.000000;3.304848
3237.000000;3.393652
3236.000000;3.586430
3235.000000;3.520468
3234.000000;3.371164
3233.000000;3.249949
3232.000000;3.192616
3231.000000;3.218530
3230.000000;3.188701
3229.000000;3.100767
3228.000000;3.056993
3227.000000;3.097407
3226.000000;3.211406
3225.000000;3.488075
3224.000000;3.798736
3223.000000;3.489249
3222.000000;3.365325
3221.000000;3.607979
3220.000000;3.718657
3219.000000;3.346198
3218.000000;3.292292
3217.000000;3.410554
3216.000000;3.580956
3215.000000;3.933158
3214.000000;3.986429
3213.000000;3.651303
3212.000000;3.582244
3211.000000;3.967082
3210.000000;3.938125
3209.000000;3.586502
3208.000000;3.507918
3207.000000;3.494789
3206.000000;3.421915
3205.000000;3.360650
3204.000000;3.317132
3203.000000;3.531630
3202.000000;3.946146
3201.000000;3.354385
3200.000000;3.200394
3199.000000;3.301102
3198.000000;3.496426
3197.000000;3.614509
3196.000000;3.443024
3195.000000;3.349363
3194.000000;3.362332
3193.000000;3.649601
3192.000000;3.939828
3191.000000;3.436451
3190.000000;3.181834
3189.000000;3.092800
3188.000000;3.096750
3187.000000;3.130203
3186.000000;3.122921
3185.000000;3.110221
3184.000000;3.136174
3183.000000;3.237765
3182.000000;3.468417
3181.000000;3.598953
3180.000000;3.386665
3179.000000;3.281283
3178.000000;3.307663
3177.000000;3.355428
3176.000000;3.344355
3175.000000;3.293190
3174.000000;3.272475
3173.000000;3.307066
3172.000000;3.435621
3171.000000;3.649559
3170.000000;3.666886
3169.000000;3.547318
3168.000000;3.526557
3167.000000;3.469993
3166.000000;3.392655
3165.000000;3.421466
3164.000000;3.527269
3163.000000;3.572033
3162.000000;3.648441
3161.000000;3.958573
3160.000000;3.845950
3159.000000;3.621396
3158.000000;3.601036
3157.000000;3.491952
3156.000000;3.416308
3155.000000;3.409295
3154.000000;3.402621
3153.000000;3.392953
3152.000000;3.377146
3151.000000;3.393890
3150.000000;3.505707
3149.000000;3.710193
3148.000000;3.631908
3147.000000;3.435882
3146.000000;3.394273
3145.000000;3.543850
3144.000000;3.828655
3143.000000;3.832664
3142.000000;4.074044
3141.000000;3.998374
3140.000000;3.521870
3139.000000;3.406383
3138.000000;3.394176
3137.000000;3.373692
3136.000000;3.310141
3135.000000;3.256065
3134.000000;3.270059
3133.000000;3.351747
3132.000000;3.503072
3131.000000;3.832080
3130.000000;4.186176
3129.000000;3.799275
3128.000000;3.610306
3127.000000;3.561880
3126.000000;3.543676
3125.000000;3.567711
3124.000000;3.588432
3123.000000;3.644707
3122.000000;3.911466
3121.000000;4.092358
3120.000000;3.811424
3119.000000;3.595218
3118.000000;3.460596
3117.000000;3.459172
3116.000000;3.736865
3115.000000;3.904901
3114.000000;3.502499
3113.000000;3.349154
3112.000000;3.385830
3111.000000;3.533610
3110.000000;3.424629
3109.000000;3.251153
3108.000000;3.304059
3107.000000;3.499010
3106.000000;3.543100
3105.000000;3.449045
3104.000000;3.437193
3103.000000;3.393740
3102.000000;3.273483
3101.000000;3.168299
3100.000000;3.146735
3099.000000;3.208650
3098.000000;3.307797
3097.000000;3.462531
3096.000000;3.827048
3095.000000;4.070575
3094.000000;4.001568
3093.000000;4.388071
3092.000000;3.996441
3091.000000;3.668513
3090.000000;3.552815
3089.000000;3.500218
3088.000000;3.514025
3087.000000;3.537067
3086.000000;3.624816
3085.000000;3.728666
3084.000000;3.651118
3083.000000;3.580811
3082.000000;3.728168
3081.000000;3.881211
3080.000000;3.716524
3079.000000;3.878780
3078.000000;4.089838
3077.000000;3.577155
3076.000000;3.354857
3075.000000;3.308988
3074.000000;3.343849
3073.000000;3.485062
3072.000000;3.709842
3071.000000;3.749236
3070.000000;3.708126
3069.000000;3.705127
3068.000000;3.663955
3067.000000;3.606399
3066.000000;3.488017
3065.000000;3.370215
3064.000000;3.329731
3063.000000;3.340566
3062.000000;3.484215
3061.000000;3.757407
3060.000000;3.475908
3059.000000;3.253062
3058.000000;3.252321
3057.000000;3.425261
3056.000000;3.806808
3055.000000;3.681475
3054.000000;3.478530
3053.000000;3.373092
3052.000000;3.186980
3051.000000;3.079512
3050.000000;3.088192
3049.000000;3.188858
3048.000000;3.401111
3047.000000;3.771056
3046.000000;3.720100
3045.000000;3.439627
3044.000000;3.323668
3043.000000;3.302061
3042.000000;3.412466
3041.000000;3.651414
3040.000000;3.711510
3039.000000;3.593794
3038.000000;3.658696
3037.000000;3.775069
3036.000000;3.886571
3035.000000;3.799621
3034.000000;3.397423
3033.000000;3.199110
3032.000000;3.186778
3031.000000;3.304869
3030.000000;3.579260
3029.000000;3.984751
3028.000000;3.722566
3027.000000;3.433538
3026.000000;3.347076
3025.000000;3.268752
3024.000000;3.247920
3023.000000;3.298290
3022.000000;3.506818
3021.000000;4.017581
3020.000000;3.649954
3019.000000;3.403236
3018.000000;3.412965
3017.000000;3.459349
3016.000000;3.520750
3015.000000;3.615754
3014.000000;3.763559
3013.000000;3.658369
3012.000000;3.398856
3011.000000;3.240800
3010.000000;3.207237
3009.000000;3.383968
3008.000000;3.571527
3007.000000;3.396651
3006.000000;3.412589
3005.000000;3.507027
3004.000000;3.451351
3003.000000;3.432489
3002.000000;3.403674
3001.000000;3.357413
3000.000000;3.365809
2999.000000;3.453206
2998.000000;3.566229
2997.000000;3.554734
2996.000000;3.452471
2995.000000;3.397407
2994.000000;3.382403
2993.000000;3.383658
2992.000000;3.424692
2991.000000;3.382388
2990.000000;3.227734
2989.000000;3.154633
2988.000000;3.207258
2987.000000;3.333935
2986.000000;3.442763
2985.000000;3.492082
2984.000000;3.512456
2983.000000;3.548754
2982.000000;3.576277
2981.000000;3.509004
2980.000000;3.426791
2979.000000;3.430932
2978.000000;3.505064
2977.000000;3.539608
2976.000000;3.547749
2975.000000;3.559727
2974.000000;3.507970
2973.000000;3.447810
2972.000000;3.421804
2971.000000;3.489593
2970.000000;3.675258
2969.000000;3.820839
2968.000000;3.802190
2967.000000;3.585067
2966.000000;3.389809
2965.000000;3.319612
2964.000000;3.311640
2963.000000;3.307715
2962.000000;3.302324
2961.000000;3.326454
2960.000000;3.400524
2959.000000;3.632308
2958.000000;3.659628
2957.000000;3.298917
2956.000000;3.137835
2955.000000;3.113666
2954.000000;3.184216
2953.000000;3.366951
2952.000000;3.609532
2951.000000;3.573608
2950.000000;3.368482
2949.000000;3.215434
2948.000000;3.137444
2947.000000;3.160784
2946.000000;3.319560
2945.000000;3.800723
2944.000000;3.904781
2943.000000;3.518635
2942.000000;3.428427
2941.000000;3.378824
2940.000000;3.430768
2939.000000;3.649378
2938.000000;3.640321
2937.000000;3.442340
2936.000000;3.361229
2935.000000;3.405499
2934.000000;3.572796
2933.000000;3.643763
2932.000000;3.560052
2931.000000;3.693480
2930.000000;3.922819
2929.000000;3.714297
2928.000000;3.789472
2927.000000;3.734609
2926.000000;3.413106
2925.000000;3.360121
2924.000000;3.615450
2923.000000;4.014577
2922.000000;3.751122
2921.000000;3.565651
2920.000000;3.374946
2919.000000;3.248285
2918.000000;3.230455
2917.000000;3.263435
2916.000000;3.393054
2915.000000;3.624366
2914.000000;3.624876
2913.000000;3.470535
2912.000000;3.382357
2911.000000;3.351414
2910.000000;3.407393
2909.000000;3.666443
2908.000000;4.131732
2907.000000;3.794840
2906.000000;3.776565
2905.000000;3.959655
2904.000000;3.755452
2903.000000;3.596108
2902.000000;3.683787
2901.000000;3.977531
2900.000000;3.685520
2899.000000;3.461083
2898.000000;3.465738
2897.000000;3.688182
2896.000000;3.767779
2895.000000;3.469916
2894.000000;3.368991
2893.000000;3.389862
2892.000000;3.496253
2891.000000;3.541607
2890.000000;3.462749
2889.000000;3.410636
2888.000000;3.448431
2887.000000;3.734604
2886.000000;3.683451
2885.000000;3.347480
2884.000000;3.248183
2883.000000;3.276937
2882.000000;3.347804
2881.000000;3.412907
2880.000000;3.466974
2879.000000;3.545328
2878.000000;3.671084
2877.000000;3.642172
2876.000000;3.529487
2875.000000;3.513245
2874.000000;3.542032
2873.000000;3.472956
2872.000000;3.267842
2871.000000;3.147058
2870.000000;3.173943
2869.000000;3.265773
2868.000000;3.288596
2867.000000;3.310746
2866.000000;3.486874
2865.000000;3.692411
2864.000000;3.554826
2863.000000;3.421697
2862.000000;3.424908
2861.000000;3.480510
2860.000000;3.470022
2859.000000;3.369250
2858.000000;3.296993
2857.000000;3.320921
2856.000000;3.453518
2855.000000;3.476459
2854.000000;3.292532
2853.000000;3.227243
2852.000000;3.324622
2851.000000;3.707901
2850.000000;4.626190
2849.000000;4.107276
2848.000000;3.898919
2847.000000;3.516825
2846.000000;3.346403
2845.000000;3.329539
2844.000000;3.406150
2843.000000;3.635388
2842.000000;3.910133
2841.000000;3.897860
2840.000000;3.840288
2839.000000;4.019934
2838.000000;4.127094
2837.000000;3.863213
2836.000000;3.722359
2835.000000;3.771272
2834.000000;3.814204
2833.000000;3.713383
2832.000000;3.569107
2831.000000;3.444010
2830.000000;3.379080
2829.000000;3.460518
2828.000000;3.603593
2827.000000;3.466095
2826.000000;3.305278
2825.000000;3.220513
2824.000000;3.202831
2823.000000;3.295026
2822.000000;3.510163
2821.000000;3.873460
2820.000000;4.229832
2819.000000;3.880118
2818.000000;3.563233
2817.000000;3.414747
2816.000000;3.381604
2815.000000;3.429698
2814.000000;3.426681
2813.000000;3.349021
2812.000000;3.300432
2811.000000;3.311604
2810.000000;3.387557
2809.000000;3.629713
2808.000000;3.977131
2807.000000;3.641060
2806.000000;3.440144
2805.000000;3.483983
2804.000000;3.694067
2803.000000;3.952025
2802.000000;3.810291
2801.000000;3.586490
2800.000000;3.475056
2799.000000;3.432621
2798.000000;3.385583
2797.000000;3.350355
2796.000000;3.368058
2795.000000;3.464272
2794.000000;3.559759
2793.000000;3.457747
2792.000000;3.371306
2791.000000;3.426280
2790.000000;3.723894
2789.000000;4.154466
2788.000000;3.799291
2787.000000;3.634263
2786.000000;3.620035
2785.000000;3.629523
2784.000000;3.568296
2783.000000;3.480641
2782.000000;3.492310
2781.000000;3.608322
2780.000000;3.602515
2779.000000;3.431885
2778.000000;3.318279
2777.000000;3.281325
2776.000000;3.318486
2775.000000;3.398864
2774.000000;3.481098
2773.000000;3.541557
2772.000000;3.727472
2771.000000;4.139736
2770.000000;3.845370
2769.000000;3.594084
2768.000000;3.400770
2767.000000;3.294681
2766.000000;3.305972
2765.000000;3.528411
2764.000000;4.046052
2763.000000;3.731892
2762.000000;3.574125
2761.000000;3.758049
2760.000000;4.334164
2759.000000;4.762968
2758.000000;4.164108
2757.000000;3.864686
2756.000000;3.611883
2755.000000;3.460866
2754.000000;3.391487
2753.000000;3.409539
2752.000000;3.526993
2751.000000;3.725386
2750.000000;3.747706
2749.000000;3.618968
2748.000000;3.502504
2747.000000;3.380815
2746.000000;3.292233
2745.000000;3.306202
2744.000000;3.436416
2743.000000;3.778127
2742.000000;4.375279
2741.000000;3.750649
2740.000000;3.512852
2739.000000;3.434027
2738.000000;3.411499
2737.000000;3.408794
2736.000000;3.424249
2735.000000;3.567145
2734.000000;3.815949
2733.000000;3.859554
2732.000000;3.866374
2731.000000;3.841104
2730.000000;3.695045
2729.000000;3.646053
2728.000000;3.548682
2727.000000;3.368850
2726.000000;3.242202
2725.000000;3.202372
2724.000000;3.234202
2723.000000;3.269469
2722.000000;3.274432
2721.000000;3.315608
2720.000000;3.474635
2719.000000;3.849659
2718.000000;3.884311
2717.000000;3.733222
2716.000000;3.752136
2715.000000;3.552241
2714.000000;3.396493
2713.000000;3.479031
2712.000000;3.581678
2711.000000;3.325269
2710.000000;3.184032
2709.000000;3.200758
2708.000000;3.325767
2707.000000;3.513461
2706.000000;3.632699
2705.000000;3.726148
2704.000000;3.878240
2703.000000;3.704163
2702.000000;3.465934
2701.000000;3.421558
2700.000000;3.542649
2699.000000;3.810385
2698.000000;4.161442
2697.000000;4.129386
2696.000000;3.860545
2695.000000;3.724657
2694.000000;3.663977
2693.000000;3.602605
2692.000000;3.500739
2691.000000;3.393783
2690.000000;3.350230
2689.000000;3.398846
2688.000000;3.518237
2687.000000;3.617091
2686.000000;3.600504
2685.000000;3.576444
2684.000000;3.660135
2683.000000;3.698451
2682.000000;3.615569
2681.000000;3.626227
2680.000000;3.728153
2679.000000;3.805284
2678.000000;3.821431
2677.000000;3.971415
2676.000000;4.091876
2675.000000;3.791629
2674.000000;3.620130
2673.000000;3.581734
2672.000000;3.536093
2671.000000;3.428499
2670.000000;3.344902
2669.000000;3.406812
2668.000000;3.786018
2667.000000;4.062180
2666.000000;3.703628
2665.000000;3.628421
2664.000000;3.795546
2663.000000;4.434340
2662.000000;3.948437
2661.000000;3.716531
2660.000000;3.707732
2659.000000;3.700481
2658.000000;3.728896
2657.000000;3.681471
2656.000000;3.513633
2655.000000;3.473287
2654.000000;3.646360
2653.000000;3.594601
2652.000000;3.370902
2651.000000;3.323022
2650.000000;3.381756
2649.000000;3.520086
2648.000000;3.627714
2647.000000;3.621070
2646.000000;3.631439
2645.000000;3.762913
2644.000000;4.107525
2643.000000;4.439783
2642.000000;4.022136
2641.000000;3.681615
2640.000000;3.545464
2639.000000;3.567315
2638.000000;3.695493
2637.000000;3.877676
2636.000000;4.101041
2635.000000;4.028327
2634.000000;3.806243
2633.000000;3.824365
2632.000000;3.950624
2631.000000;3.885932
2630.000000;3.742551
2629.000000;3.560507
2628.000000;3.449884
2627.000000;3.449387
2626.000000;3.540419
2625.000000;3.695813
2624.000000;3.838225
2623.000000;3.958966
2622.000000;4.025744
2621.000000;3.883864
2620.000000;3.716990
2619.000000;3.690611
2618.000000;3.759787
2617.000000;3.722409
2616.000000;3.625688
2615.000000;3.649422
2614.000000;3.870893
2613.000000;3.798716
2612.000000;3.587404
2611.000000;3.647283
2610.000000;3.888158
2609.000000;3.641238
2608.000000;3.491803
2607.000000;3.570306
2606.000000;3.861327
2605.000000;3.881162
2604.000000;3.515535
2603.000000;3.312679
2602.000000;3.232472
2601.000000;3.278016
2600.000000;3.613769
2599.000000;3.980638
2598.000000;3.505359
2597.000000;3.364615
2596.000000;3.311312
2595.000000;3.298036
2594.000000;3.357750
2593.000000;3.516070
2592.000000;3.783494
2591.000000;4.170742
2590.000000;4.783312
2589.000000;4.290592
2588.000000;4.024196
2587.000000;3.814695
2586.000000;3.587375
2585.000000;3.497419
2584.000000;3.593522
2583.000000;3.844800
2582.000000;3.906993
2581.000000;3.802844
2580.000000;3.630403
2579.000000;3.493700
2578.000000;3.441933
2577.000000;3.449876
2576.000000;3.522668
2575.000000;3.640468
2574.000000;3.645488
2573.000000;3.518336
2572.000000;3.377502
2571.000000;3.282821
2570.000000;3.261181
2569.000000;3.293424
2568.000000;3.366909
2567.000000;3.493212
2566.000000;3.753538
2565.000000;3.882364
2564.000000;3.623434
2563.000000;3.462362
2562.000000;3.395297
2561.000000;3.365720
2560.000000;3.352128
2559.000000;3.358628
2558.000000;3.388821
2557.000000;3.421033
2556.000000;3.457961
2555.000000;3.577487
2554.000000;3.833306
2553.000000;3.917865
2552.000000;3.754256
2551.000000;3.587678
2550.000000;3.493525
2549.000000;3.497092
2548.000000;3.884082
2547.000000;4.114273
2546.000000;3.465869
2545.000000;3.421258
2544.000000;3.564286
2543.000000;3.921966
2542.000000;4.002143
2541.000000;3.795557
2540.000000;3.732799
2539.000000;3.834979
2538.000000;3.979491
2537.000000;3.760540
2536.000000;3.681583
2535.000000;3.562304
2534.000000;3.402422
2533.000000;3.416908
2532.000000;3.761155
2531.000000;3.843544
2530.000000;3.407024
2529.000000;3.281755
2528.000000;3.337910
2527.000000;3.586162
2526.000000;4.005094
2525.000000;3.745335
2524.000000;3.442406
2523.000000;3.314921
2522.000000;3.355299
2521.000000;3.556554
2520.000000;3.765468
2519.000000;3.748937
2518.000000;3.845543
2517.000000;4.233381
2516.000000;3.835922
2515.000000;3.490931
2514.000000;3.401474
2513.000000;3.403129
2512.000000;3.523881
2511.000000;3.777602
2510.000000;3.721079
2509.000000;3.542345
2508.000000;3.489738
2507.000000;3.470209
2506.000000;3.430648
2505.000000;3.401607
2504.000000;3.437244
2503.000000;3.549642
2502.000000;3.726962
2501.000000;3.941625
2500.000000;3.817972
2499.000000;3.582741
2498.000000;3.467261
2497.000000;3.432790
2496.000000;3.451605
2495.000000;3.499884
2494.000000;3.553811
2493.000000;3.556532
2492.000000;3.510615
2491.000000;3.509359
2490.000000;3.647142
2489.000000;3.951561
2488.000000;3.702412
2487.000000;3.421002
2486.000000;3.365468
2485.000000;3.455956
2484.000000;3.765658
2483.000000;3.663163
2482.000000;3.427524
2481.000000;3.378132
2480.000000;3.404766
2479.000000;3.448888
2478.000000;3.437226
2477.000000;3.400284
2476.000000;3.443341
2475.000000;3.654018
2474.000000;3.807284
2473.000000;3.629127
2472.000000;3.652529
2471.000000;3.967008
2470.000000;4.117750
2469.000000;3.712900
2468.000000;3.626616
2467.000000;3.626235
2466.000000;3.580582
2465.000000;3.525759
2464.000000;3.511749
2463.000000;3.443016
2462.000000;3.394484
2461.000000;3.478440
2460.000000;3.733316
2459.000000;3.994141
2458.000000;3.783260
2457.000000;3.552267
2456.000000;3.444182
2455.000000;3.435950
2454.000000;3.527289
2453.000000;3.898420
2452.000000;3.998765
2451.000000;3.564642
2450.000000;3.485436
2449.000000;3.604471
2448.000000;3.631602
2447.000000;3.467387
2446.000000;3.339156
2445.000000;3.282432
2444.000000;3.311197
2443.000000;3.407127
2442.000000;3.497011
2441.000000;3.584989
2440.000000;3.725305
2439.000000;3.811934
2438.000000;3.816715
2437.000000;3.740275
2436.000000;3.909544
2435.000000;4.080390
2434.000000;3.544264
2433.000000;3.332771
2432.000000;3.334289
2431.000000;3.473584
2430.000000;3.820697
2429.000000;3.959045
2428.000000;3.679982
2427.000000;3.566415
2426.000000;3.551177
2425.000000;3.586533
2424.000000;3.670599
2423.000000;3.797390
2422.000000;4.026922
2421.000000;4.450157
2420.000000;4.411777
2419.000000;3.809845
2418.000000;3.569009
2417.000000;3.583663
2416.000000;3.965361
2415.000000;3.874833
2414.000000;3.483215
2413.000000;3.473591
2412.000000;3.759152
2411.000000;4.201500
2410.000000;3.679384
2409.000000;3.499065
2408.000000;3.450076
2407.000000;3.388977
2406.000000;3.347337
2405.000000;3.427697
2404.000000;3.664042
2403.000000;4.000363
2402.000000;4.220164
2401.000000;4.069391
2400.000000;3.849357
2399.000000;3.815820
2398.000000;4.200438
2397.000000;4.313455
2396.000000;3.954787
2395.000000;3.737435
2394.000000;3.682059
2393.000000;3.896126
2392.000000;4.073415
2391.000000;3.949597
2390.000000;3.935846
2389.000000;3.924079
2388.000000;4.092550
2387.000000;3.827057
2386.000000;3.607410
2385.000000;3.611904
2384.000000;3.772097
2383.000000;4.014832
2382.000000;3.898567
2381.000000;3.745321
2380.000000;3.774456
2379.000000;3.671734
2378.000000;3.481963
2377.000000;3.413826
2376.000000;3.464031
2375.000000;3.589724
2374.000000;3.680775
2373.000000;3.669339
2372.000000;3.682290
2371.000000;3.829465
2370.000000;4.322979
2369.000000;4.386317
2368.000000;4.136895
2367.000000;4.116307
2366.000000;3.977584
2365.000000;3.833079
2364.000000;3.769045
2363.000000;3.591771
2362.000000;3.381821
2361.000000;3.286425
2360.000000;3.324960
2359.000000;3.538197
2358.000000;4.047768
2357.000000;3.974844
2356.000000;3.676442
2355.000000;3.976215
2354.000000;4.126737
2353.000000;3.674249
2352.000000;3.544123
2351.000000;3.554021
2350.000000;3.585161
2349.000000;3.535107
2348.000000;3.391720
2347.000000;3.303613
2346.000000;3.519157
2345.000000;3.626307
2344.000000;3.325728
2343.000000;3.234652
2342.000000;3.301051
2341.000000;3.533048
2340.000000;3.737260
2339.000000;3.579656
2338.000000;3.532227
2337.000000;3.563480
2336.000000;3.595753
2335.000000;3.568977
2334.000000;3.495314
2333.000000;3.425809
2332.000000;3.467687
2331.000000;3.711231
2330.000000;4.027025
2329.000000;3.804289
2328.000000;4.192284
2327.000000;4.126449
2326.000000;3.597429
2325.000000;3.509082
2324.000000;3.606161
2323.000000;4.027404
2322.000000;4.561456
2321.000000;4.491710
2320.000000;3.903810
2319.000000;3.705582
2318.000000;3.818419
2317.000000;4.348906
2316.000000;3.940204
2315.000000;3.781424
2314.000000;3.854385
2313.000000;3.965246
2312.000000;3.941371
2311.000000;3.779696
2310.000000;3.699540
2309.000000;3.855368
2308.000000;4.189081
2307.000000;3.711380
2306.000000;3.551774
2305.000000;3.487482
2304.000000;3.436226
2303.000000;3.429365
2302.000000;3.535259
2301.000000;3.747631
2300.000000;4.254119
2299.000000;4.559570
2298.000000;3.958817
2297.000000;3.690146
2296.000000;3.584001
2295.000000;3.610174
2294.000000;3.675249
2293.000000;3.632641
2292.000000;3.479243
2291.000000;3.353288
2290.000000;3.309294
2289.000000;3.345043
2288.000000;3.439597
2287.000000;3.509384
2286.000000;3.462625
2285.000000;3.440127
2284.000000;3.526113
2283.000000;3.668413
2282.000000;3.625327
2281.000000;3.499787
2280.000000;3.453163
2279.000000;3.477987
2278.000000;3.558154
2277.000000;3.690866
2276.000000;3.698385
2275.000000;3.488814
2274.000000;3.364974
2273.000000;3.394629
2272.000000;3.594366
2271.000000;3.593538
2270.000000;3.446000
2269.000000;3.462129
2268.000000;3.537957
2267.000000;3.525776
2266.000000;3.465278
2265.000000;3.430039
2264.000000;3.416511
2263.000000;3.448851
2262.000000;3.555638
2261.000000;3.745937
2260.000000;3.741063
2259.000000;3.578443
2258.000000;3.594682
2257.000000;3.921262
2256.000000;4.435905
2255.000000;3.740280
2254.000000;3.650007
2253.000000;3.597253
2252.000000;3.530488
2251.000000;3.475777
2250.000000;3.468827
2249.000000;3.481453
2248.000000;3.486237
2247.000000;3.480449
2246.000000;3.484057
2245.000000;3.478082
2244.000000;3.483754
2243.000000;3.501240
2242.000000;3.462422
2241.000000;3.415718
2240.000000;3.473393
2239.000000;3.683575
2238.000000;4.193384
2237.000000;3.936614
2236.000000;3.590851
2235.000000;3.452935
2234.000000;3.436994
2233.000000;3.518075
2232.000000;3.653993
2231.000000;3.685509
2230.000000;3.672136
2229.000000;3.743185
2228.000000;3.901818
2227.000000;4.120217
2226.000000;4.022349
2225.000000;3.753045
2224.000000;3.656502
2223.000000;3.738294
2222.000000;4.036246
2221.000000;3.880201
2220.000000;3.544172
2219.000000;3.420655
2218.000000;3.386379
2217.000000;3.438625
2216.000000;3.555762
2215.000000;3.953162
2214.000000;3.963031
2213.000000;3.707385
2212.000000;3.804150
2211.000000;4.409051
2210.000000;3.782415
2209.000000;3.560572
2208.000000;3.575124
2207.000000;3.745414
2206.000000;4.391805
2205.000000;3.985774
2204.000000;3.707397
2203.000000;3.689564
2202.000000;3.772728
2201.000000;3.683209
2200.000000;3.503713
2199.000000;3.425224
2198.000000;3.437340
2197.000000;3.499917
2196.000000;3.583999
2195.000000;3.736730
2194.000000;3.911883
2193.000000;3.733678
2192.000000;3.565387
2191.000000;3.562773
2190.000000;3.652751
2189.000000;3.996258
2188.000000;4.396922
2187.000000;4.047121
2186.000000;3.983090
2185.000000;4.066749
2184.000000;4.069567
2183.000000;3.969199
2182.000000;3.866497
2181.000000;3.822361
2180.000000;3.788050
2179.000000;3.640974
2178.000000;3.541815
2177.000000;3.550076
2176.000000;3.596878
2175.000000;3.655866
2174.000000;3.713654
2173.000000;3.685090
2172.000000;3.679677
2171.000000;3.799804
2170.000000;3.810871
2169.000000;3.618642
2168.000000;3.564157
2167.000000;3.616370
2166.000000;3.966585
2165.000000;4.240914
2164.000000;3.681099
2163.000000;3.454513
2162.000000;3.384846
2161.000000;3.429218
2160.000000;3.526275
2159.000000;3.604615
2158.000000;3.720131
2157.000000;4.004668
2156.000000;4.204405
2155.000000;4.164481
2154.000000;5.614109
2153.000000;4.075129
2152.000000;3.866016
2151.000000;3.898217
2150.000000;4.123909
2149.000000;4.269023
2148.000000;4.035806
2147.000000;3.784189
2146.000000;3.629136
2145.000000;3.608172
2144.000000;3.686758
2143.000000;3.812278
2142.000000;4.118878
2141.000000;4.050294
2140.000000;3.666607
2139.000000;3.553831
2138.000000;3.558670
2137.000000;3.668109
2136.000000;3.820679
2135.000000;3.913335
2134.000000;3.860442
2133.000000;3.747219
2132.000000;3.645542
2131.000000;3.569774
2130.000000;3.549844
2129.000000;3.619974
2128.000000;3.772130
2127.000000;3.892478
2126.000000;3.857705
2125.000000;3.794519
2124.000000;3.775473
2123.000000;3.771631
2122.000000;3.785514
2121.000000;3.873694
2120.000000;4.003313
2119.000000;3.984413
2118.000000;3.867909
2117.000000;3.744984
2116.000000;3.703620
2115.000000;3.847196
2114.000000;4.143160
2113.000000;4.258450
2112.000000;4.259385
2111.000000;3.863284
2110.000000;3.588262
2109.000000;3.491500
2108.000000;3.486930
2107.000000;3.559366
2106.000000;3.662967
2105.000000;3.738430
2104.000000;3.729717
2103.000000;3.632059
2102.000000;3.557238
2101.000000;3.597882
2100.000000;3.878859
2099.000000;4.074295
2098.000000;3.645091
2097.000000;3.580566
2096.000000;3.787406
2095.000000;4.512659
2094.000000;3.980833
2093.000000;3.821824
2092.000000;3.699743
2091.000000;3.637827
2090.000000;3.744253
2089.000000;3.966723
2088.000000;3.822699
2087.000000;3.721315
2086.000000;3.806315
2085.000000;3.845909
2084.000000;3.735860
2083.000000;3.658163
2082.000000;3.909985
2081.000000;4.133264
2080.000000;3.641868
2079.000000;3.487337
2078.000000;3.561868
2077.000000;3.753836
2076.000000;3.812253
2075.000000;3.900627
2074.000000;4.166315
2073.000000;4.193593
2072.000000;4.001786
2071.000000;3.830125
2070.000000;3.765978
2069.000000;3.762148
2068.000000;3.759729
2067.000000;3.745681
2066.000000;3.763154
2065.000000;3.750469
2064.000000;3.571415
2063.000000;3.399025
2062.000000;3.346999
2061.000000;3.415314
2060.000000;3.735930
2059.000000;4.067889
2058.000000;3.745256
2057.000000;3.689921
2056.000000;3.712963
2055.000000;3.752506
2054.000000;3.846229
2053.000000;3.862759
2052.000000;3.843462
2051.000000;4.079088
2050.000000;4.417352
2049.000000;3.907608
2048.000000;3.778568
2047.000000;3.947593
2046.000000;4.327368
2045.000000;3.764127
2044.000000;3.581915
2043.000000;3.544930
2042.000000;3.578846
2041.000000;3.656598
2040.000000;3.724608
2039.000000;3.704294
2038.000000;3.633203
2037.000000;3.555375
2036.000000;3.505440
2035.000000;3.502955
2034.000000;3.560682
2033.000000;3.658889
2032.000000;3.730195
2031.000000;3.804230
2030.000000;3.804545
2029.000000;3.672600
2028.000000;3.607986
2027.000000;3.665287
2026.000000;3.837611
2025.000000;4.116742
2024.000000;4.090385
2023.000000;3.934920
2022.000000;3.929057
2021.000000;4.109835
2020.000000;4.839573
2019.000000;4.085358
2018.000000;3.983250
2017.000000;4.304034
2016.000000;4.281921
2015.000000;3.832985
2014.000000;3.780835
2013.000000;3.929578
2012.000000;4.054188
2011.000000;3.944444
2010.000000;3.869806
2009.000000;3.830590
2008.000000;3.846491
2007.000000;4.267945
2006.000000;4.180590
2005.000000;3.644523
2004.000000;3.504383
2003.000000;3.456456
2002.000000;3.521036
2001.000000;3.640068
2000.000000;3.692661
1999.000000;3.716851
1998.000000;3.831937
1997.000000;3.983451
1996.000000;4.358007
1995.000000;4.192955
1994.000000;3.984235
1993.000000;4.065066
1992.000000;4.282867
1991.000000;3.902786
1990.000000;3.750676
1989.000000;3.859058
1988.000000;4.260925
1987.000000;4.127665
1986.000000;4.070128
1985.000000;4.290713
1984.000000;4.675723
1983.000000;4.406464
1982.000000;4.027819
1981.000000;3.876442
1980.000000;3.887116
1979.000000;3.985237
1978.000000;4.002768
1977.000000;4.279937
1976.000000;4.552994
1975.000000;4.136751
1974.000000;3.997270
1973.000000;3.948531
1972.000000;3.994241
1971.000000;4.273313
1970.000000;4.392621
1969.000000;4.106772
1968.000000;4.051146
1967.000000;4.086717
1966.000000;4.691334
1965.000000;3.970538
1964.000000;3.598239
1963.000000;3.459108
1962.000000;3.432691
1961.000000;3.466529
1960.000000;3.535981
1959.000000;3.628685
1958.000000;3.696231
1957.000000;3.681503
1956.000000;3.626562
1955.000000;3.612703
1954.000000;3.705336
1953.000000;3.917672
1952.000000;3.898257
1951.000000;3.726597
1950.000000;3.705302
1949.000000;4.017270
1948.000000;4.330088
1947.000000;3.914036
1946.000000;3.809196
1945.000000;3.835560
1944.000000;3.935731
1943.000000;4.345471
1942.000000;3.970816
1941.000000;3.673526
1940.000000;3.612329
1939.000000;3.712483
1938.000000;4.104907
1937.000000;3.957974
1936.000000;3.651667
1935.000000;3.616184
1934.000000;3.814246
1933.000000;4.306187
1932.000000;4.622054
1931.000000;4.705845
1930.000000;4.185122
1929.000000;3.957516
1928.000000;3.840695
1927.000000;3.804238
1926.000000;3.962859
1925.000000;4.382942
1924.000000;4.101549
1923.000000;4.211310
1922.000000;4.387994
1921.000000;3.952518
1920.000000;3.876948
1919.000000;3.881532
1918.000000;3.775970
1917.000000;3.709616
1916.000000;3.766790
1915.000000;3.896985
1914.000000;3.950113
1913.000000;3.914767
1912.000000;3.971036
1911.000000;4.100585
1910.000000;3.952944
1909.000000;3.723802
1908.000000;3.599691
1907.000000;3.599975
1906.000000;3.745311
1905.000000;4.112836
1904.000000;4.204885
1903.000000;3.940540
1902.000000;4.055229
1901.000000;4.179178
1900.000000;4.058311
1899.000000;4.167191
1898.000000;4.299331
1897.000000;4.296802
1896.000000;4.105424
1895.000000;3.814206
1894.000000;3.700202
1893.000000;3.699018
1892.000000;3.737995
1891.000000;3.781209
1890.000000;3.803651
1889.000000;3.768808
1888.000000;3.690848
1887.000000;3.645047
1886.000000;3.697998
1885.000000;3.821224
1884.000000;3.796927
1883.000000;3.725258
1882.000000;3.749039
1881.000000;3.796911
1880.000000;3.737638
1879.000000;3.602824
1878.000000;3.522721
1877.000000;3.695843
1876.000000;4.082141
1875.000000;3.778851
1874.000000;3.740087
1873.000000;3.844472
1872.000000;3.818816
1871.000000;3.649378
1870.000000;3.516140
1869.000000;3.500401
1868.000000;3.678363
1867.000000;3.938121
1866.000000;3.725063
1865.000000;3.577103
1864.000000;3.630697
1863.000000;3.798653
1862.000000;4.518531
1861.000000;4.047957
1860.000000;3.672819
1859.000000;3.581082
1858.000000;3.647434
1857.000000;3.928828
1856.000000;3.987344
1855.000000;3.725549
1854.000000;3.681773
1853.000000;3.775094
1852.000000;3.746087
1851.000000;3.598036
1850.000000;3.593649
1849.000000;3.822429
1848.000000;4.304155
1847.000000;4.193602
1846.000000;4.225384
1845.000000;4.125764
1844.000000;3.752554
1843.000000;3.620313
1842.000000;3.627731
1841.000000;3.714820
1840.000000;3.793155
1839.000000;3.940723
1838.000000;4.649053
1837.000000;4.579304
1836.000000;4.063069
1835.000000;3.803649
1834.000000;3.675945
1833.000000;3.696208
1832.000000;3.856466
1831.000000;4.214465
1830.000000;4.097056
1829.000000;4.143738
1828.000000;4.096028
1827.000000;3.767282
1826.000000;3.644554
1825.000000;3.672678
1824.000000;3.819649
1823.000000;4.098272
1822.000000;4.229027
1821.000000;4.055648
1820.000000;4.129015
1819.000000;4.117362
1818.000000;4.025745
1817.000000;4.029625
1816.000000;4.082412
1815.000000;4.183450
1814.000000;4.459618
1813.000000;4.479447
1812.000000;4.260460
1811.000000;4.129279
1810.000000;3.955452
1809.000000;3.803975
1808.000000;3.711481
1807.000000;3.713417
1806.000000;3.830941
1805.000000;4.020254
1804.000000;3.982414
1803.000000;3.756231
1802.000000;3.608618
1801.000000;3.582440
1800.000000;3.748377
1799.000000;3.975963
1798.000000;3.763247
1797.000000;3.721637
1796.000000;3.825373
1795.000000;3.976345
1794.000000;4.271112
1793.000000;4.253510
1792.000000;3.837845
1791.000000;3.720123
1790.000000;3.748421
1789.000000;3.877049
1788.000000;3.935504
1787.000000;3.900836
1786.000000;3.914818
1785.000000;4.037236
1784.000000;4.183508
1783.000000;4.187979
1782.000000;4.976485
1781.000000;4.246031
1780.000000;4.002270
1779.000000;4.184907
1778.000000;4.760350
1777.000000;4.169425
1776.000000;3.826313
1775.000000;3.637747
1774.000000;3.530022
1773.000000;3.532978
1772.000000;3.671024
1771.000000;3.921973
1770.000000;4.115390
1769.000000;4.041782
1768.000000;3.961010
1767.000000;3.874889
1766.000000;3.791399
1765.000000;3.849323
1764.000000;4.065123
1763.000000;4.308251
1762.000000;4.328261
1761.000000;4.143534
1760.000000;4.009374
1759.000000;3.980613
1758.000000;4.065127
1757.000000;4.484598
1756.000000;4.325592
1755.000000;4.059912
1754.000000;4.036068
1753.000000;4.093280
1752.000000;4.275652
1751.000000;5.034338
1750.000000;4.538357
1749.000000;4.471926
1748.000000;4.389927
1747.000000;3.887113
1746.000000;3.751451
1745.000000;3.863991
1744.000000;4.317587
1743.000000;4.216060
1742.000000;3.806578
1741.000000;3.671934
1740.000000;3.665218
1739.000000;3.795987
1738.000000;4.042295
1737.000000;4.348717
1736.000000;4.503708
1735.000000;4.408583
1734.000000;4.218103
1733.000000;4.063856
1732.000000;4.036429
1731.000000;4.343586
1730.000000;4.324100
1729.000000;4.024980
1728.000000;3.959433
1727.000000;4.024913
1726.000000;4.243216
1725.000000;4.143537
1724.000000;3.962560
1723.000000;4.010253
1722.000000;4.309438
1721.000000;4.246524
1720.000000;4.028940
1719.000000;4.017087
1718.000000;4.148358
1717.000000;4.463058
1716.000000;4.837164
1715.000000;4.222456
1714.000000;3.942924
1713.000000;3.850351
1712.000000;3.898725
1711.000000;4.089936
1710.000000;4.152011
1709.000000;4.014367
1708.000000;3.993483
1707.000000;4.055574
1706.000000;4.406640
1705.000000;4.524249
1704.000000;4.172126
1703.000000;4.099733
1702.000000;4.157557
1701.000000;4.497792
1700.000000;4.606001
1699.000000;4.141592
1698.000000;3.988454
1697.000000;4.042240
1696.000000;4.066048
1695.000000;3.939961
1694.000000;3.882341
1693.000000;3.894047
1692.000000;4.149594
1691.000000;4.660352
1690.000000;3.974894
1689.000000;3.970950
1688.000000;4.205636
1687.000000;4.407250
1686.000000;4.369584
1685.000000;4.077581
1684.000000;3.931512
1683.000000;3.946765
1682.000000;4.041805
1681.000000;4.285544
1680.000000;4.103138
1679.000000;3.853188
1678.000000;3.817777
1677.000000;3.874822
1676.000000;4.015435
1675.000000;4.139679
1674.000000;4.100171
1673.000000;3.951585
1672.000000;3.807040
1671.000000;3.758662
1670.000000;3.897612
1669.000000;4.175025
1668.000000;4.084057
1667.000000;3.958694
1666.000000;3.965751
1665.000000;4.069953
1664.000000;3.951318
1663.000000;3.704603
1662.000000;3.611155
1661.000000;3.612458
1660.000000;3.670995
1659.000000;3.953768
1658.000000;4.192981
1657.000000;3.919265
1656.000000;4.033148
1655.000000;4.410254
1654.000000;3.902730
1653.000000;3.712426
1652.000000;3.881244
1651.000000;4.423878
1650.000000;4.046343
1649.000000;3.690104
1648.000000;3.660251
1647.000000;3.752440
1646.000000;3.823603
1645.000000;3.848839
1644.000000;3.885223
1643.000000;4.000907
1642.000000;4.001709
1641.000000;3.731424
1640.000000;3.623768
1639.000000;3.766736
1638.000000;4.200011
1637.000000;3.934690
1636.000000;3.770760
1635.000000;3.742870
1634.000000;3.690141
1633.000000;3.685823
1632.000000;3.705352
1631.000000;3.725210
1630.000000;3.865416
1629.000000;4.296845
1628.000000;4.112860
1627.000000;3.886633
1626.000000;3.970627
1625.000000;3.990147
1624.000000;3.878047
1623.000000;3.882282
1622.000000;3.982467
1621.000000;3.880387
1620.000000;3.724766
1619.000000;3.641873
1618.000000;3.617449
1617.000000;3.661347
1616.000000;3.694243
1615.000000;3.701493
1614.000000;3.680672
1613.000000;3.584186
1612.000000;3.520249
1611.000000;3.583225
1610.000000;3.797217
1609.000000;4.305307
1608.000000;4.825976
1607.000000;4.248886
1606.000000;4.095769
1605.000000;3.979095
1604.000000;3.960103
1603.000000;4.027348
1602.000000;4.566068
1601.000000;4.340650
1600.000000;3.729189
1599.000000;3.525467
1598.000000;3.430795
1597.000000;3.428763
1596.000000;3.513656
1595.000000;3.770753
1594.000000;4.093964
1593.000000;3.800453
1592.000000;3.652530
1591.000000;3.669376
1590.000000;3.723318
1589.000000;3.811891
1588.000000;3.947960
1587.000000;4.089420
1586.000000;4.088446
1585.000000;3.995408
1584.000000;3.956898
1583.000000;3.993081
1582.000000;3.997996
1581.000000;4.143348
1580.000000;4.517272
1579.000000;4.127222
1578.000000;3.829397
1577.000000;3.725211
1576.000000;3.755958
1575.000000;3.894868
1574.000000;4.019718
1573.000000;4.032494
1572.000000;4.053310
1571.000000;4.185222
1570.000000;4.037728
1569.000000;3.895861
1568.000000;3.964047
1567.000000;3.978657
1566.000000;3.862836
1565.000000;3.844650
1564.000000;3.950003
1563.000000;4.068549
1562.000000;4.140934
1561.000000;4.138623
1560.000000;4.278688
1559.000000;4.742851
1558.000000;4.249102
1557.000000;4.183574
1556.000000;4.412682
1555.000000;4.465230
1554.000000;4.284497
1553.000000;4.403661
1552.000000;4.504967
1551.000000;4.371968
1550.000000;4.314106
1549.000000;4.275381
1548.000000;4.221256
1547.000000;4.030544
1546.000000;3.929112
1545.000000;4.008111
1544.000000;4.206076
1543.000000;4.210856
1542.000000;4.059846
1541.000000;4.257265
1540.000000;4.378380
1539.000000;4.000925
1538.000000;3.832413
1537.000000;3.783893
1536.000000;3.796921
1535.000000;3.906910
1534.000000;4.139476
1533.000000;4.067659
1532.000000;3.930492
1531.000000;3.958304
1530.000000;4.061243
1529.000000;4.105713
1528.000000;4.040135
1527.000000;3.938447
1526.000000;3.841773
1525.000000;3.789246
1524.000000;3.843395
1523.000000;4.168851
1522.000000;4.127174
1521.000000;3.864453
1520.000000;3.872979
1519.000000;3.893406
1518.000000;3.818622
1517.000000;3.751776
1516.000000;3.806621
1515.000000;3.995902
1514.000000;4.179112
1513.000000;4.081248
1512.000000;4.014259
1511.000000;4.164351
1510.000000;4.285460
1509.000000;4.080912
1508.000000;3.857831
1507.000000;3.790155
1506.000000;3.849350
1505.000000;4.019126
1504.000000;4.116719
1503.000000;3.872289
1502.000000;3.788033
1501.000000;3.853144
1500.000000;3.948472
1499.000000;4.048154
1498.000000;4.243849
1497.000000;4.203409
1496.000000;3.910229
1495.000000;3.858404
1494.000000;4.167500
1493.000000;4.429830
1492.000000;4.110435
1491.000000;4.134535
1490.000000;4.584901
1489.000000;4.364155
1488.000000;3.950904
1487.000000;3.852602
1486.000000;3.929530
1485.000000;4.139245
1484.000000;4.147970
1483.000000;3.977197
1482.000000;3.945807
1481.000000;4.082007
1480.000000;4.227524
1479.000000;4.173807
1478.000000;4.137491
1477.000000;4.166151
1476.000000;4.194986
1475.000000;4.197195
1474.000000;4.163134
1473.000000;4.081520
1472.000000;4.002768
1471.000000;3.986893
1470.000000;4.041686
1469.000000;4.060394
1468.000000;4.102558
1467.000000;4.421579
1466.000000;4.622977
1465.000000;4.522841
1464.000000;4.747619
1463.000000;4.471559
1462.000000;4.290256
1461.000000;4.217482
1460.000000;4.142852
1459.000000;4.089409
1458.000000;4.101186
1457.000000;4.161045
1456.000000;4.322168
1455.000000;5.086540
1454.000000;4.091998
1453.000000;3.737355
1452.000000;3.577770
1451.000000;3.500744
1450.000000;3.572463
1449.000000;3.727583
1448.000000;3.701668
1447.000000;3.645972
1446.000000;3.852962
1445.000000;3.858361
1444.000000;3.520168
1443.000000;3.420543
1442.000000;3.534978
1441.000000;3.926714
1440.000000;3.948533
1439.000000;3.765542
1438.000000;3.869944
1437.000000;4.064424
1436.000000;4.322780
1435.000000;4.075402
1434.000000;3.811528
1433.000000;3.739862
1432.000000;3.899330
1431.000000;4.079420
1430.000000;3.835885
1429.000000;3.753019
1428.000000;3.831927
1427.000000;3.965145
1426.000000;4.165874
1425.000000;4.455462
1424.000000;4.396700
1423.000000;4.232207
1422.000000;4.238254
1421.000000;4.043581
1420.000000;3.888086
1419.000000;3.924232
1418.000000;4.113346
1417.000000;4.364484
1416.000000;4.527697
1415.000000;4.281795
1414.000000;4.006760
1413.000000;4.052413
1412.000000;4.125476
1411.000000;4.120819
1410.000000;4.215992
1409.000000;4.165516
1408.000000;4.242485
1407.000000;4.002733
1406.000000;3.726589
1405.000000;3.684003
1404.000000;3.803588
1403.000000;3.828541
1402.000000;3.735492
1401.000000;3.773371
1400.000000;4.104780
1399.000000;4.908673
1398.000000;4.138530
1397.000000;3.924363
1396.000000;3.929300
1395.000000;4.010975
1394.000000;4.136824
1393.000000;4.152478
1392.000000;4.024835
1391.000000;3.929597
1390.000000;3.987182
1389.000000;4.043848
1388.000000;3.996992
1387.000000;3.907528
1386.000000;3.777532
1385.000000;3.655182
1384.000000;3.589404
1383.000000;3.597376
1382.000000;3.675201
1381.000000;3.821993
1380.000000;3.981961
1379.000000;4.128788
1378.000000;4.531915
1377.000000;4.587653
1376.000000;4.243496
1375.000000;4.260546
1374.000000;4.264268
1373.000000;4.195775
1372.000000;4.485804
1371.000000;4.657186
1370.000000;4.326979
1369.000000;4.472620
1368.000000;4.896826
1367.000000;4.768951
1366.000000;4.192912
1365.000000;3.908837
1364.000000;3.849917
1363.000000;3.925706
1362.000000;4.097663
1361.000000;4.233654
1360.000000;4.128278
1359.000000;3.834889
1358.000000;3.672339
1357.000000;3.633172
1356.000000;3.766302
1355.000000;4.215609
1354.000000;3.866879
1353.000000;3.607102
1352.000000;3.608103
1351.000000;3.752268
1350.000000;4.091639
1349.000000;3.796878
1348.000000;3.561508
1347.000000;3.546757
1346.000000;3.662598
1345.000000;4.075569
1344.000000;4.350237
1343.000000;4.035722
1342.000000;4.290056
1341.000000;4.132066
1340.000000;3.671053
1339.000000;3.513973
1338.000000;3.489632
1337.000000;3.583117
1336.000000;3.788502
1335.000000;3.871418
1334.000000;3.737666
1333.000000;3.689448
1332.000000;3.797166
1331.000000;4.124980
1330.000000;4.511425
1329.000000;4.486907
1328.000000;4.438242
1327.000000;4.262634
1326.000000;4.133416
1325.000000;4.047959
1324.000000;4.060049
1323.000000;4.176929
1322.000000;4.094653
1321.000000;3.904496
1320.000000;3.921407
1319.000000;4.148176
1318.000000;4.071406
1317.000000;3.927504
1316.000000;3.960217
1315.000000;4.157429
1314.000000;4.537465
1313.000000;4.328309
1312.000000;4.077441
1311.000000;3.967345
1310.000000;3.819992
1309.000000;3.689007
1308.000000;3.666737
1307.000000;3.823969
1306.000000;4.348309
1305.000000;4.534792
1304.000000;4.156358
1303.000000;4.166064
1302.000000;4.126283
1301.000000;3.979034
1300.000000;3.985775
1299.000000;4.049806
1298.000000;4.026081
1297.000000;4.111867
1296.000000;3.938453
1295.000000;3.732395
1294.000000;3.720747
1293.000000;3.823266
1292.000000;3.986325
1291.000000;4.198211
1290.000000;4.332779
1289.000000;4.283950
1288.000000;4.266406
1287.000000;4.055210
1286.000000;3.924260
1285.000000;4.041852
1284.000000;4.430969
1283.000000;4.806205
1282.000000;4.308599
1281.000000;3.981051
1280.000000;3.826796
1279.000000;3.830938
1278.000000;3.943179
1277.000000;3.980688
1276.000000;3.956851
1275.000000;4.102293
1274.000000;4.662223
1273.000000;4.913172
1272.000000;4.694590
1271.000000;4.254873
1270.000000;3.921411
1269.000000;3.762752
1268.000000;3.816870
1267.000000;4.274205
1266.000000;4.204095
1265.000000;3.900587
1264.000000;4.087892
1263.000000;4.288400
1262.000000;3.907296
1261.000000;3.803557
1260.000000;3.768257
1259.000000;3.660737
1258.000000;3.669905
1257.000000;4.058921
1256.000000;4.236337
1255.000000;3.707231
1254.000000;3.635456
1253.000000;3.641363
1252.000000;3.744818
1251.000000;4.332995
1250.000000;4.083849
1249.000000;3.644559
1248.000000;3.615199
1247.000000;3.727460
1246.000000;3.901998
1245.000000;4.211106
1244.000000;4.125685
1243.000000;3.808526
1242.000000;3.694910
1241.000000;3.696549
1240.000000;3.749072
1239.000000;3.859484
1238.000000;3.974736
1237.000000;4.002353
1236.000000;4.042581
1235.000000;4.108090
1234.000000;4.301451
1233.000000;4.770219
1232.000000;4.332710
1231.000000;4.221286
1230.000000;4.454005
1229.000000;4.236599
1228.000000;4.054763
1227.000000;3.998489
1226.000000;3.877645
1225.000000;3.791696
1224.000000;3.801601
1223.000000;3.835333
1222.000000;3.887685
1221.000000;4.018723
1220.000000;4.169624
1219.000000;4.259224
1218.000000;3.927562
1217.000000;3.658075
1216.000000;3.587838
1215.000000;3.715027
1214.000000;4.158887
1213.000000;4.322100
1212.000000;4.116171
1211.000000;4.047429
1210.000000;3.935973
1209.000000;3.901658
1208.000000;3.900793
1207.000000;3.800218
1206.000000;3.561277
1205.000000;3.385401
1204.000000;3.326977
1203.000000;3.381116
1202.000000;3.467775
1201.000000;3.558276
1200.000000;3.702977
