Criado como novo conjunto de dados;"e2410_daniel_v2.spp","21243.3 Secs"
cm-1;Abs
10000.000000;0.519321
9999.000000;0.518825
9998.000000;0.517993
9997.000000;0.516906
9996.000000;0.515905
9995.000000;0.515268
9994.000000;0.515006
9993.000000;0.514781
9992.000000;0.514345
9991.000000;0.513789
9990.000000;0.513336
9989.000000;0.512964
9988.000000;0.512506
9987.000000;0.511950
9986.000000;0.511408
9985.000000;0.510865
9984.000000;0.510232
9983.000000;0.509594
9982.000000;0.509144
9981.000000;0.508872
9980.000000;0.508563
9979.000000;0.508120
9978.000000;0.507671
9977.000000;0.507337
9976.000000;0.507081
9975.000000;0.506828
9974.000000;0.506523
9973.000000;0.506058
9972.000000;0.505326
9971.000000;0.504406
9970.000000;0.503536
9969.000000;0.502873
9968.000000;0.502409
9967.000000;0.502118
9966.000000;0.501979
9965.000000;0.501839
9964.000000;0.501444
9963.000000;0.500702
9962.000000;0.499792
9961.000000;0.498948
9960.000000;0.498267
9959.000000;0.497751
9958.000000;0.497392
9957.000000;0.497117
9956.000000;0.496769
9955.000000;0.496247
9954.000000;0.495609
9953.000000;0.495003
9952.000000;0.494516
9951.000000;0.494131
9950.000000;0.493767
9949.000000;0.493344
9948.000000;0.492848
9947.000000;0.492320
9946.000000;0.491777
9945.000000;0.491175
9944.000000;0.490504
9943.000000;0.489857
9942.000000;0.489327
9941.000000;0.488907
9940.000000;0.488544
9939.000000;0.488234
9938.000000;0.487959
9937.000000;0.487612
9936.000000;0.487100
9935.000000;0.486485
9934.000000;0.485911
9933.000000;0.485444
9932.000000;0.485086
9931.000000;0.484880
9930.000000;0.484841
9929.000000;0.484815
9928.000000;0.484550
9927.000000;0.483943
9926.000000;0.483125
9925.000000;0.482307
9924.000000;0.481630
9923.000000;0.481128
9922.000000;0.480740
9921.000000;0.480339
9920.000000;0.479828
9919.000000;0.479232
9918.000000;0.478639
9917.000000;0.478095
9916.000000;0.477592
9915.000000;0.477093
9914.000000;0.476532
9913.000000;0.475869
9912.000000;0.475210
9911.000000;0.474770
9910.000000;0.474619
9909.000000;0.474540
9908.000000;0.474238
9907.000000;0.473629
9906.000000;0.472816
9905.000000;0.471905
9904.000000;0.470979
9903.000000;0.470198
9902.000000;0.469738
9901.000000;0.469606
9900.000000;0.469614
9899.000000;0.469514
9898.000000;0.469135
9897.000000;0.468448
9896.000000;0.467608
9895.000000;0.466865
9894.000000;0.466352
9893.000000;0.465970
9892.000000;0.465551
9891.000000;0.465049
9890.000000;0.464531
9889.000000;0.464056
9888.000000;0.463669
9887.000000;0.463383
9886.000000;0.463106
9885.000000;0.462682
9884.000000;0.462108
9883.000000;0.461585
9882.000000;0.461236
9881.000000;0.460912
9880.000000;0.460417
9879.000000;0.459790
9878.000000;0.459209
9877.000000;0.458738
9876.000000;0.458322
9875.000000;0.457934
9874.000000;0.457525
9873.000000;0.456956
9872.000000;0.456178
9871.000000;0.455396
9870.000000;0.454855
9869.000000;0.454540
9868.000000;0.454259
9867.000000;0.453946
9866.000000;0.453646
9865.000000;0.453281
9864.000000;0.452706
9863.000000;0.451983
9862.000000;0.451361
9861.000000;0.450953
9860.000000;0.450641
9859.000000;0.450307
9858.000000;0.449955
9857.000000;0.449576
9856.000000;0.449115
9855.000000;0.448623
9854.000000;0.448235
9853.000000;0.447955
9852.000000;0.447609
9851.000000;0.447078
9850.000000;0.446421
9849.000000;0.445724
9848.000000;0.444985
9847.000000;0.444235
9846.000000;0.443603
9845.000000;0.443188
9844.000000;0.442949
9843.000000;0.442786
9842.000000;0.442632
9841.000000;0.442420
9840.000000;0.442049
9839.000000;0.441475
9838.000000;0.440761
9837.000000;0.439996
9836.000000;0.439208
9835.000000;0.438392
9834.000000;0.437582
9833.000000;0.436871
9832.000000;0.436386
9831.000000;0.436196
9830.000000;0.436193
9829.000000;0.436082
9828.000000;0.435600
9827.000000;0.434767
9826.000000;0.433866
9825.000000;0.433187
9824.000000;0.432839
9823.000000;0.432740
9822.000000;0.432698
9821.000000;0.432523
9820.000000;0.432145
9819.000000;0.431651
9818.000000;0.431128
9817.000000;0.430538
9816.000000;0.429791
9815.000000;0.428937
9814.000000;0.428162
9813.000000;0.427610
9812.000000;0.427277
9811.000000;0.427068
9810.000000;0.426885
9809.000000;0.426668
9808.000000;0.426403
9807.000000;0.426103
9806.000000;0.425753
9805.000000;0.425325
9804.000000;0.424851
9803.000000;0.424397
9802.000000;0.423954
9801.000000;0.423446
9800.000000;0.422881
9799.000000;0.422384
9798.000000;0.422000
9797.000000;0.421602
9796.000000;0.421104
9795.000000;0.420611
9794.000000;0.420236
9793.000000;0.419882
9792.000000;0.419381
9791.000000;0.418743
9790.000000;0.418121
9789.000000;0.417582
9788.000000;0.417090
9787.000000;0.416643
9786.000000;0.416254
9785.000000;0.415834
9784.000000;0.415273
9783.000000;0.414620
9782.000000;0.414037
9781.000000;0.413578
9780.000000;0.413162
9779.000000;0.412721
9778.000000;0.412228
9777.000000;0.411634
9776.000000;0.410935
9775.000000;0.410288
9774.000000;0.409888
9773.000000;0.409720
9772.000000;0.409556
9771.000000;0.409219
9770.000000;0.408713
9769.000000;0.408134
9768.000000;0.407572
9767.000000;0.407130
9766.000000;0.406877
9765.000000;0.406734
9764.000000;0.406500
9763.000000;0.406029
9762.000000;0.405312
9761.000000;0.404462
9760.000000;0.403698
9759.000000;0.403279
9758.000000;0.403263
9757.000000;0.403368
9756.000000;0.403214
9755.000000;0.402714
9754.000000;0.402101
9753.000000;0.401585
9752.000000;0.401180
9751.000000;0.400857
9750.000000;0.400638
9749.000000;0.400455
9748.000000;0.400111
9747.000000;0.399491
9746.000000;0.398727
9745.000000;0.398036
9744.000000;0.397495
9743.000000;0.397039
9742.000000;0.396613
9741.000000;0.396211
9740.000000;0.395805
9739.000000;0.395328
9738.000000;0.394725
9737.000000;0.394011
9736.000000;0.393286
9735.000000;0.392695
9734.000000;0.392317
9733.000000;0.392071
9732.000000;0.391778
9731.000000;0.391326
9730.000000;0.390768
9729.000000;0.390260
9728.000000;0.389921
9727.000000;0.389732
9726.000000;0.389521
9725.000000;0.389112
9724.000000;0.388513
9723.000000;0.387936
9722.000000;0.387559
9721.000000;0.387318
9720.000000;0.386990
9719.000000;0.386437
9718.000000;0.385694
9717.000000;0.384884
9716.000000;0.384166
9715.000000;0.383688
9714.000000;0.383480
9713.000000;0.383357
9712.000000;0.383043
9711.000000;0.382447
9710.000000;0.381729
9709.000000;0.381105
9708.000000;0.380623
9707.000000;0.380173
9706.000000;0.379654
9705.000000;0.379098
9704.000000;0.378641
9703.000000;0.378372
9702.000000;0.378232
9701.000000;0.378083
9700.000000;0.377859
9699.000000;0.377591
9698.000000;0.377290
9697.000000;0.376916
9696.000000;0.376477
9695.000000;0.376054
9694.000000;0.375663
9693.000000;0.375218
9692.000000;0.374675
9691.000000;0.374114
9690.000000;0.373602
9689.000000;0.373090
9688.000000;0.372551
9687.000000;0.372085
9686.000000;0.371755
9685.000000;0.371433
9684.000000;0.370952
9683.000000;0.370350
9682.000000;0.369808
9681.000000;0.369400
9680.000000;0.369055
9679.000000;0.368718
9678.000000;0.368391
9677.000000;0.368051
9676.000000;0.367652
9675.000000;0.367213
9674.000000;0.366796
9673.000000;0.366400
9672.000000;0.365993
9671.000000;0.365600
9670.000000;0.365267
9669.000000;0.364974
9668.000000;0.364671
9667.000000;0.364347
9666.000000;0.363977
9665.000000;0.363442
9664.000000;0.362671
9663.000000;0.361801
9662.000000;0.361080
9661.000000;0.360627
9660.000000;0.360387
9659.000000;0.360277
9658.000000;0.360215
9657.000000;0.360059
9656.000000;0.359674
9655.000000;0.359074
9654.000000;0.358407
9653.000000;0.357785
9652.000000;0.357245
9651.000000;0.356814
9650.000000;0.356489
9649.000000;0.356163
9648.000000;0.355732
9647.000000;0.355243
9646.000000;0.354804
9645.000000;0.354365
9644.000000;0.353776
9643.000000;0.353054
9642.000000;0.352428
9641.000000;0.352059
9640.000000;0.351852
9639.000000;0.351612
9638.000000;0.351269
9637.000000;0.350879
9636.000000;0.350504
9635.000000;0.350154
9634.000000;0.349792
9633.000000;0.349360
9632.000000;0.348842
9631.000000;0.348317
9630.000000;0.347883
9629.000000;0.347559
9628.000000;0.347304
9627.000000;0.347101
9626.000000;0.346929
9625.000000;0.346679
9624.000000;0.346226
9623.000000;0.345603
9622.000000;0.344983
9621.000000;0.344481
9620.000000;0.344053
9619.000000;0.343608
9618.000000;0.343136
9617.000000;0.342678
9616.000000;0.342274
9615.000000;0.341949
9614.000000;0.341685
9613.000000;0.341378
9612.000000;0.340917
9611.000000;0.340315
9610.000000;0.339719
9609.000000;0.339245
9608.000000;0.338872
9607.000000;0.338510
9606.000000;0.338113
9605.000000;0.337701
9604.000000;0.337313
9603.000000;0.336966
9602.000000;0.336627
9601.000000;0.336246
9600.000000;0.335839
9599.000000;0.335494
9598.000000;0.335255
9597.000000;0.335025
9596.000000;0.334662
9595.000000;0.334127
9594.000000;0.333489
9593.000000;0.332831
9592.000000;0.332233
9591.000000;0.331803
9590.000000;0.331610
9589.000000;0.331567
9588.000000;0.331477
9587.000000;0.331208
9586.000000;0.330765
9585.000000;0.330231
9584.000000;0.329694
9583.000000;0.329242
9582.000000;0.328921
9581.000000;0.328687
9580.000000;0.328454
9579.000000;0.328161
9578.000000;0.327777
9577.000000;0.327266
9576.000000;0.326646
9575.000000;0.326037
9574.000000;0.325554
9573.000000;0.325172
9572.000000;0.324785
9571.000000;0.324371
9570.000000;0.324001
9569.000000;0.323684
9568.000000;0.323338
9567.000000;0.322911
9566.000000;0.322434
9565.000000;0.321945
9564.000000;0.321458
9563.000000;0.321039
9562.000000;0.320791
9561.000000;0.320711
9560.000000;0.320642
9559.000000;0.320425
9558.000000;0.320054
9557.000000;0.319636
9556.000000;0.319249
9555.000000;0.318887
9554.000000;0.318487
9553.000000;0.317954
9552.000000;0.317210
9551.000000;0.316286
9550.000000;0.315366
9549.000000;0.314706
9548.000000;0.314462
9547.000000;0.314559
9546.000000;0.314731
9545.000000;0.314700
9544.000000;0.314364
9543.000000;0.313815
9542.000000;0.313222
9541.000000;0.312703
9540.000000;0.312293
9539.000000;0.311957
9538.000000;0.311599
9537.000000;0.311120
9536.000000;0.310535
9535.000000;0.309985
9534.000000;0.309611
9533.000000;0.309427
9532.000000;0.309350
9531.000000;0.309294
9530.000000;0.309198
9529.000000;0.308998
9528.000000;0.308656
9527.000000;0.308198
9526.000000;0.307683
9525.000000;0.307171
9524.000000;0.306717
9523.000000;0.306366
9522.000000;0.306087
9521.000000;0.305775
9520.000000;0.305361
9519.000000;0.304881
9518.000000;0.304416
9517.000000;0.303992
9516.000000;0.303593
9515.000000;0.303200
9514.000000;0.302803
9513.000000;0.302407
9512.000000;0.302069
9511.000000;0.301856
9510.000000;0.301727
9509.000000;0.301529
9508.000000;0.301171
9507.000000;0.300733
9506.000000;0.300352
9505.000000;0.300060
9504.000000;0.299796
9503.000000;0.299524
9502.000000;0.299226
9501.000000;0.298856
9500.000000;0.298372
9499.000000;0.297799
9498.000000;0.297194
9497.000000;0.296568
9496.000000;0.295929
9495.000000;0.295335
9494.000000;0.294867
9493.000000;0.294555
9492.000000;0.294382
9491.000000;0.294306
9490.000000;0.294236
9489.000000;0.294043
9488.000000;0.293659
9487.000000;0.293136
9486.000000;0.292569
9485.000000;0.292034
9484.000000;0.291612
9483.000000;0.291377
9482.000000;0.291271
9481.000000;0.291093
9480.000000;0.290691
9479.000000;0.290110
9478.000000;0.289481
9477.000000;0.288866
9476.000000;0.288291
9475.000000;0.287820
9474.000000;0.287470
9473.000000;0.287159
9472.000000;0.286864
9471.000000;0.286735
9470.000000;0.286887
9469.000000;0.287132
9468.000000;0.287108
9467.000000;0.286673
9466.000000;0.286007
9465.000000;0.285347
9464.000000;0.284760
9463.000000;0.284206
9462.000000;0.283672
9461.000000;0.283174
9460.000000;0.282736
9459.000000;0.282407
9458.000000;0.282210
9457.000000;0.282058
9456.000000;0.281791
9455.000000;0.281364
9454.000000;0.280910
9453.000000;0.280574
9452.000000;0.280358
9451.000000;0.280160
9450.000000;0.279917
9449.000000;0.279637
9448.000000;0.279324
9447.000000;0.278937
9446.000000;0.278449
9445.000000;0.277914
9444.000000;0.277455
9443.000000;0.277149
9442.000000;0.276953
9441.000000;0.276755
9440.000000;0.276492
9439.000000;0.276167
9438.000000;0.275786
9437.000000;0.275349
9436.000000;0.274917
9435.000000;0.274583
9434.000000;0.274351
9433.000000;0.274113
9432.000000;0.273798
9431.000000;0.273465
9430.000000;0.273207
9429.000000;0.273025
9428.000000;0.272854
9427.000000;0.272643
9426.000000;0.272360
9425.000000;0.271967
9424.000000;0.271470
9423.000000;0.270929
9422.000000;0.270393
9421.000000;0.269865
9420.000000;0.269382
9419.000000;0.269025
9418.000000;0.268801
9417.000000;0.268586
9416.000000;0.268258
9415.000000;0.267820
9414.000000;0.267333
9413.000000;0.266826
9412.000000;0.266332
9411.000000;0.265949
9410.000000;0.265749
9409.000000;0.265664
9408.000000;0.265545
9407.000000;0.265285
9406.000000;0.264845
9405.000000;0.264258
9404.000000;0.263673
9403.000000;0.263291
9402.000000;0.263166
9401.000000;0.263123
9400.000000;0.262976
9399.000000;0.262737
9398.000000;0.262529
9397.000000;0.262364
9396.000000;0.262143
9395.000000;0.261820
9394.000000;0.261429
9393.000000;0.260995
9392.000000;0.260526
9391.000000;0.260069
9390.000000;0.259686
9389.000000;0.259389
9388.000000;0.259157
9387.000000;0.258978
9386.000000;0.258812
9385.000000;0.258578
9384.000000;0.258269
9383.000000;0.257984
9382.000000;0.257779
9381.000000;0.257550
9380.000000;0.257188
9379.000000;0.256745
9378.000000;0.256327
9377.000000;0.255901
9376.000000;0.255376
9375.000000;0.254816
9374.000000;0.254389
9373.000000;0.254136
9372.000000;0.253940
9371.000000;0.253728
9370.000000;0.253535
9369.000000;0.253377
9368.000000;0.253184
9367.000000;0.252919
9366.000000;0.252612
9365.000000;0.252275
9364.000000;0.251864
9363.000000;0.251367
9362.000000;0.250839
9361.000000;0.250338
9360.000000;0.249905
9359.000000;0.249602
9358.000000;0.249460
9357.000000;0.249398
9356.000000;0.249282
9355.000000;0.249080
9354.000000;0.248848
9353.000000;0.248583
9352.000000;0.248205
9351.000000;0.247717
9350.000000;0.247250
9349.000000;0.246914
9348.000000;0.246670
9347.000000;0.246419
9346.000000;0.246130
9345.000000;0.245823
9344.000000;0.245489
9343.000000;0.245082
9342.000000;0.244594
9341.000000;0.244092
9340.000000;0.243689
9339.000000;0.243465
9338.000000;0.243390
9337.000000;0.243337
9336.000000;0.243202
9335.000000;0.242975
9334.000000;0.242700
9333.000000;0.242392
9332.000000;0.242048
9331.000000;0.241692
9330.000000;0.241352
9329.000000;0.241017
9328.000000;0.240663
9327.000000;0.240301
9326.000000;0.239940
9325.000000;0.239571
9324.000000;0.239211
9323.000000;0.238931
9322.000000;0.238773
9321.000000;0.238667
9320.000000;0.238516
9319.000000;0.238292
9318.000000;0.238020
9317.000000;0.237702
9316.000000;0.237360
9315.000000;0.237084
9314.000000;0.236934
9313.000000;0.236830
9312.000000;0.236613
9311.000000;0.236203
9310.000000;0.235642
9309.000000;0.235031
9308.000000;0.234497
9307.000000;0.234166
9306.000000;0.234047
9305.000000;0.233971
9304.000000;0.233761
9303.000000;0.233436
9302.000000;0.233150
9301.000000;0.232955
9300.000000;0.232743
9299.000000;0.232422
9298.000000;0.232032
9297.000000;0.231660
9296.000000;0.231360
9295.000000;0.231160
9294.000000;0.231063
9293.000000;0.231003
9292.000000;0.230870
9291.000000;0.230612
9290.000000;0.230272
9289.000000;0.229923
9288.000000;0.229614
9287.000000;0.229367
9286.000000;0.229163
9285.000000;0.228918
9284.000000;0.228541
9283.000000;0.228035
9282.000000;0.227505
9281.000000;0.227074
9280.000000;0.226816
9279.000000;0.226742
9278.000000;0.226783
9277.000000;0.226809
9276.000000;0.226727
9275.000000;0.226558
9274.000000;0.226349
9273.000000;0.226033
9272.000000;0.225491
9271.000000;0.224750
9270.000000;0.224025
9269.000000;0.223516
9268.000000;0.223242
9267.000000;0.223089
9266.000000;0.222968
9265.000000;0.222862
9264.000000;0.222758
9263.000000;0.222610
9262.000000;0.222383
9261.000000;0.222126
9260.000000;0.221929
9259.000000;0.221808
9258.000000;0.221647
9257.000000;0.221323
9256.000000;0.220883
9255.000000;0.220495
9254.000000;0.220225
9253.000000;0.219944
9252.000000;0.219536
9251.000000;0.219092
9250.000000;0.218795
9249.000000;0.218672
9248.000000;0.218555
9247.000000;0.218284
9246.000000;0.217875
9245.000000;0.217474
9244.000000;0.217231
9243.000000;0.217184
9242.000000;0.217218
9241.000000;0.217122
9240.000000;0.216769
9239.000000;0.216222
9238.000000;0.215656
9237.000000;0.215197
9236.000000;0.214861
9235.000000;0.214612
9234.000000;0.214407
9233.000000;0.214202
9232.000000;0.213980
9231.000000;0.213755
9230.000000;0.213552
9229.000000;0.213372
9228.000000;0.213230
9227.000000;0.213149
9226.000000;0.213101
9225.000000;0.212992
9224.000000;0.212764
9223.000000;0.212455
9222.000000;0.212125
9221.000000;0.211776
9220.000000;0.211416
9219.000000;0.211132
9218.000000;0.211000
9217.000000;0.210970
9216.000000;0.210896
9215.000000;0.210689
9214.000000;0.210366
9213.000000;0.209987
9212.000000;0.209619
9211.000000;0.209321
9210.000000;0.209096
9209.000000;0.208886
9208.000000;0.208643
9207.000000;0.208393
9206.000000;0.208169
9205.000000;0.207948
9204.000000;0.207706
9203.000000;0.207484
9202.000000;0.207327
9201.000000;0.207194
9200.000000;0.206992
9199.000000;0.206691
9198.000000;0.206331
9197.000000;0.205968
9196.000000;0.205660
9195.000000;0.205451
9194.000000;0.205296
9193.000000;0.205046
9192.000000;0.204616
9191.000000;0.204114
9190.000000;0.203736
9189.000000;0.203532
9188.000000;0.203392
9187.000000;0.203213
9186.000000;0.203001
9185.000000;0.202799
9184.000000;0.202624
9183.000000;0.202484
9182.000000;0.202374
9181.000000;0.202257
9180.000000;0.202099
9179.000000;0.201927
9178.000000;0.201785
9177.000000;0.201625
9176.000000;0.201327
9175.000000;0.200839
9174.000000;0.200265
9173.000000;0.199791
9172.000000;0.199548
9171.000000;0.199524
9170.000000;0.199562
9169.000000;0.199463
9168.000000;0.199151
9167.000000;0.198736
9166.000000;0.198397
9165.000000;0.198215
9164.000000;0.198135
9163.000000;0.198058
9162.000000;0.197922
9161.000000;0.197715
9160.000000;0.197468
9159.000000;0.197224
9158.000000;0.196995
9157.000000;0.196740
9156.000000;0.196434
9155.000000;0.196109
9154.000000;0.195820
9153.000000;0.195602
9152.000000;0.195480
9151.000000;0.195461
9150.000000;0.195471
9149.000000;0.195371
9148.000000;0.195097
9147.000000;0.194748
9146.000000;0.194460
9145.000000;0.194259
9144.000000;0.194081
9143.000000;0.193884
9142.000000;0.193665
9141.000000;0.193414
9140.000000;0.193118
9139.000000;0.192789
9138.000000;0.192435
9137.000000;0.192040
9136.000000;0.191625
9135.000000;0.191273
9134.000000;0.191033
9133.000000;0.190860
9132.000000;0.190705
9131.000000;0.190606
9130.000000;0.190612
9129.000000;0.190639
9128.000000;0.190533
9127.000000;0.190255
9126.000000;0.189911
9125.000000;0.189615
9124.000000;0.189393
9123.000000;0.189219
9122.000000;0.189067
9121.000000;0.188901
9120.000000;0.188685
9119.000000;0.188408
9118.000000;0.188095
9117.000000;0.187774
9116.000000;0.187467
9115.000000;0.187198
9114.000000;0.186971
9113.000000;0.186770
9112.000000;0.186593
9111.000000;0.186460
9110.000000;0.186374
9109.000000;0.186293
9108.000000;0.186191
9107.000000;0.186079
9106.000000;0.185954
9105.000000;0.185763
9104.000000;0.185484
9103.000000;0.185180
9102.000000;0.184941
9101.000000;0.184797
9100.000000;0.184718
9099.000000;0.184660
9098.000000;0.184571
9097.000000;0.184393
9096.000000;0.184125
9095.000000;0.183830
9094.000000;0.183562
9093.000000;0.183316
9092.000000;0.183089
9091.000000;0.182915
9090.000000;0.182808
9089.000000;0.182714
9088.000000;0.182584
9087.000000;0.182412
9086.000000;0.182183
9085.000000;0.181858
9084.000000;0.181474
9083.000000;0.181162
9082.000000;0.180988
9081.000000;0.180863
9080.000000;0.180682
9079.000000;0.180488
9078.000000;0.180393
9077.000000;0.180391
9076.000000;0.180363
9075.000000;0.180229
9074.000000;0.180005
9073.000000;0.179730
9072.000000;0.179429
9071.000000;0.179130
9070.000000;0.178871
9069.000000;0.178661
9068.000000;0.178487
9067.000000;0.178322
9066.000000;0.178115
9065.000000;0.177829
9064.000000;0.177539
9063.000000;0.177384
9062.000000;0.177385
9061.000000;0.177374
9060.000000;0.177198
9059.000000;0.176908
9058.000000;0.176655
9057.000000;0.176470
9056.000000;0.176291
9055.000000;0.176117
9054.000000;0.176014
9053.000000;0.175960
9052.000000;0.175825
9051.000000;0.175526
9050.000000;0.175108
9049.000000;0.174678
9048.000000;0.174329
9047.000000;0.174109
9046.000000;0.173992
9045.000000;0.173876
9044.000000;0.173687
9043.000000;0.173463
9042.000000;0.173289
9041.000000;0.173169
9040.000000;0.173052
9039.000000;0.172949
9038.000000;0.172910
9037.000000;0.172912
9036.000000;0.172847
9035.000000;0.172663
9034.000000;0.172419
9033.000000;0.172200
9032.000000;0.172026
9031.000000;0.171882
9030.000000;0.171751
9029.000000;0.171611
9028.000000;0.171422
9027.000000;0.171157
9026.000000;0.170835
9025.000000;0.170512
9024.000000;0.170237
9023.000000;0.170017
9022.000000;0.169809
9021.000000;0.169591
9020.000000;0.169397
9019.000000;0.169263
9018.000000;0.169133
9017.000000;0.168911
9016.000000;0.168604
9015.000000;0.168330
9014.000000;0.168166
9013.000000;0.168070
9012.000000;0.167985
9011.000000;0.167926
9010.000000;0.167894
9009.000000;0.167815
9008.000000;0.167641
9007.000000;0.167430
9006.000000;0.167250
9005.000000;0.167075
9004.000000;0.166856
9003.000000;0.166639
9002.000000;0.166492
9001.000000;0.166385
9000.000000;0.166241
8999.000000;0.166052
8998.000000;0.165868
8997.000000;0.165693
8996.000000;0.165488
8995.000000;0.165263
8994.000000;0.165054
8993.000000;0.164849
8992.000000;0.164619
8991.000000;0.164395
8990.000000;0.164227
8989.000000;0.164085
8988.000000;0.163887
8987.000000;0.163621
8986.000000;0.163364
8985.000000;0.163184
8984.000000;0.163095
8983.000000;0.163095
8982.000000;0.163171
8981.000000;0.163258
8980.000000;0.163264
8979.000000;0.163142
8978.000000;0.162920
8977.000000;0.162664
8976.000000;0.162427
8975.000000;0.162220
8974.000000;0.162014
8973.000000;0.161785
8972.000000;0.161571
8971.000000;0.161443
8970.000000;0.161394
8969.000000;0.161327
8968.000000;0.161171
8967.000000;0.160951
8966.000000;0.160704
8965.000000;0.160421
8964.000000;0.160118
8963.000000;0.159876
8962.000000;0.159749
8961.000000;0.159680
8960.000000;0.159600
8959.000000;0.159508
8958.000000;0.159407
8957.000000;0.159231
8956.000000;0.158945
8955.000000;0.158646
8954.000000;0.158448
8953.000000;0.158345
8952.000000;0.158254
8951.000000;0.158164
8950.000000;0.158114
8949.000000;0.158082
8948.000000;0.158004
8947.000000;0.157877
8946.000000;0.157748
8945.000000;0.157635
8944.000000;0.157522
8943.000000;0.157418
8942.000000;0.157311
8941.000000;0.157127
8940.000000;0.156823
8939.000000;0.156497
8938.000000;0.156296
8937.000000;0.156227
8936.000000;0.156164
8935.000000;0.156022
8934.000000;0.155832
8933.000000;0.155631
8932.000000;0.155399
8931.000000;0.155123
8930.000000;0.154862
8929.000000;0.154693
8928.000000;0.154647
8927.000000;0.154692
8926.000000;0.154752
8925.000000;0.154735
8924.000000;0.154590
8923.000000;0.154324
8922.000000;0.153989
8921.000000;0.153661
8920.000000;0.153445
8919.000000;0.153422
8918.000000;0.153540
8917.000000;0.153623
8916.000000;0.153547
8915.000000;0.153353
8914.000000;0.153144
8913.000000;0.152940
8912.000000;0.152710
8911.000000;0.152500
8910.000000;0.152402
8909.000000;0.152429
8908.000000;0.152503
8907.000000;0.152533
8906.000000;0.152467
8905.000000;0.152277
8904.000000;0.151995
8903.000000;0.151728
8902.000000;0.151575
8901.000000;0.151528
8900.000000;0.151509
8899.000000;0.151467
8898.000000;0.151384
8897.000000;0.151222
8896.000000;0.150963
8895.000000;0.150670
8894.000000;0.150442
8893.000000;0.150302
8892.000000;0.150179
8891.000000;0.149992
8890.000000;0.149736
8889.000000;0.149508
8888.000000;0.149477
8887.000000;0.149747
8886.000000;0.150198
8885.000000;0.150513
8884.000000;0.150456
8883.000000;0.150079
8882.000000;0.149635
8881.000000;0.149314
8880.000000;0.149153
8879.000000;0.149108
8878.000000;0.149108
8877.000000;0.149064
8876.000000;0.148910
8875.000000;0.148663
8874.000000;0.148392
8873.000000;0.148172
8872.000000;0.148064
8871.000000;0.148097
8870.000000;0.148199
8869.000000;0.148232
8868.000000;0.148132
8867.000000;0.147975
8866.000000;0.147841
8865.000000;0.147704
8864.000000;0.147521
8863.000000;0.147342
8862.000000;0.147244
8861.000000;0.147209
8860.000000;0.147163
8859.000000;0.147086
8858.000000;0.146975
8857.000000;0.146784
8856.000000;0.146501
8855.000000;0.146254
8854.000000;0.146231
8853.000000;0.146468
8852.000000;0.146813
8851.000000;0.147062
8850.000000;0.147077
8849.000000;0.146844
8848.000000;0.146492
8847.000000;0.146234
8846.000000;0.146192
8845.000000;0.146294
8844.000000;0.146393
8843.000000;0.146415
8842.000000;0.146342
8841.000000;0.146152
8840.000000;0.145877
8839.000000;0.145668
8838.000000;0.145652
8837.000000;0.145757
8836.000000;0.145814
8835.000000;0.145780
8834.000000;0.145744
8833.000000;0.145750
8832.000000;0.145745
8831.000000;0.145694
8830.000000;0.145616
8829.000000;0.145511
8828.000000;0.145364
8827.000000;0.145229
8826.000000;0.145188
8825.000000;0.145236
8824.000000;0.145300
8823.000000;0.145372
8822.000000;0.145508
8821.000000;0.145690
8820.000000;0.145804
8819.000000;0.145794
8818.000000;0.145738
8817.000000;0.145748
8816.000000;0.145889
8815.000000;0.146192
8814.000000;0.146626
8813.000000;0.147037
8812.000000;0.147212
8811.000000;0.147071
8810.000000;0.146744
8809.000000;0.146426
8808.000000;0.146206
8807.000000;0.146063
8806.000000;0.145960
8805.000000;0.145896
8804.000000;0.145900
8803.000000;0.146001
8802.000000;0.146176
8801.000000;0.146330
8800.000000;0.146380
8799.000000;0.146355
8798.000000;0.146345
8797.000000;0.146388
8796.000000;0.146461
8795.000000;0.146570
8794.000000;0.146759
8793.000000;0.147001
8792.000000;0.147168
8791.000000;0.147154
8790.000000;0.146986
8789.000000;0.146778
8788.000000;0.146630
8787.000000;0.146597
8786.000000;0.146700
8785.000000;0.146926
8784.000000;0.147203
8783.000000;0.147429
8782.000000;0.147524
8781.000000;0.147474
8780.000000;0.147345
8779.000000;0.147242
8778.000000;0.147240
8777.000000;0.147351
8776.000000;0.147540
8775.000000;0.147766
8774.000000;0.147983
8773.000000;0.148147
8772.000000;0.148248
8771.000000;0.148312
8770.000000;0.148366
8769.000000;0.148417
8768.000000;0.148487
8767.000000;0.148613
8766.000000;0.148784
8765.000000;0.148917
8764.000000;0.148952
8763.000000;0.148937
8762.000000;0.148967
8761.000000;0.149076
8760.000000;0.149213
8759.000000;0.149324
8758.000000;0.149412
8757.000000;0.149523
8756.000000;0.149699
8755.000000;0.149933
8754.000000;0.150153
8753.000000;0.150286
8752.000000;0.150329
8751.000000;0.150357
8750.000000;0.150436
8749.000000;0.150584
8748.000000;0.150788
8747.000000;0.151013
8746.000000;0.151200
8745.000000;0.151305
8744.000000;0.151367
8743.000000;0.151475
8742.000000;0.151662
8741.000000;0.151880
8740.000000;0.152070
8739.000000;0.152190
8738.000000;0.152210
8737.000000;0.152158
8736.000000;0.152172
8735.000000;0.152386
8734.000000;0.152741
8733.000000;0.153027
8732.000000;0.153128
8731.000000;0.153130
8730.000000;0.153154
8729.000000;0.153223
8728.000000;0.153332
8727.000000;0.153508
8726.000000;0.153711
8725.000000;0.153822
8724.000000;0.153811
8723.000000;0.153808
8722.000000;0.153925
8721.000000;0.154117
8720.000000;0.154303
8719.000000;0.154500
8718.000000;0.154738
8717.000000;0.154949
8716.000000;0.155062
8715.000000;0.155108
8714.000000;0.155125
8713.000000;0.155054
8712.000000;0.154859
8711.000000;0.154653
8710.000000;0.154573
8709.000000;0.154603
8708.000000;0.154661
8707.000000;0.154763
8706.000000;0.154975
8705.000000;0.155246
8704.000000;0.155452
8703.000000;0.155569
8702.000000;0.155666
8701.000000;0.155778
8700.000000;0.155895
8699.000000;0.156045
8698.000000;0.156261
8697.000000;0.156484
8696.000000;0.156620
8695.000000;0.156668
8694.000000;0.156689
8693.000000;0.156673
8692.000000;0.156564
8691.000000;0.156382
8690.000000;0.156228
8689.000000;0.156167
8688.000000;0.156214
8687.000000;0.156381
8686.000000;0.156645
8685.000000;0.156896
8684.000000;0.157029
8683.000000;0.157069
8682.000000;0.157117
8681.000000;0.157189
8680.000000;0.157212
8679.000000;0.157154
8678.000000;0.157052
8677.000000;0.156937
8676.000000;0.156816
8675.000000;0.156714
8674.000000;0.156640
8673.000000;0.156551
8672.000000;0.156426
8671.000000;0.156346
8670.000000;0.156399
8669.000000;0.156543
8668.000000;0.156668
8667.000000;0.156743
8666.000000;0.156802
8665.000000;0.156824
8664.000000;0.156749
8663.000000;0.156595
8662.000000;0.156438
8661.000000;0.156289
8660.000000;0.156095
8659.000000;0.155858
8658.000000;0.155657
8657.000000;0.155550
8656.000000;0.155551
8655.000000;0.155664
8654.000000;0.155855
8653.000000;0.156004
8652.000000;0.155984
8651.000000;0.155804
8650.000000;0.155581
8649.000000;0.155395
8648.000000;0.155259
8647.000000;0.155184
8646.000000;0.155184
8645.000000;0.155215
8644.000000;0.155199
8643.000000;0.155110
8642.000000;0.154984
8641.000000;0.154854
8640.000000;0.154759
8639.000000;0.154754
8638.000000;0.154826
8637.000000;0.154841
8636.000000;0.154682
8635.000000;0.154416
8634.000000;0.154201
8633.000000;0.154072
8632.000000;0.153931
8631.000000;0.153727
8630.000000;0.153536
8629.000000;0.153434
8628.000000;0.153402
8627.000000;0.153371
8626.000000;0.153289
8625.000000;0.153134
8624.000000;0.152953
8623.000000;0.152853
8622.000000;0.152900
8621.000000;0.153001
8620.000000;0.152994
8619.000000;0.152824
8618.000000;0.152578
8617.000000;0.152351
8616.000000;0.152174
8615.000000;0.152052
8614.000000;0.151989
8613.000000;0.151958
8612.000000;0.151925
8611.000000;0.151876
8610.000000;0.151786
8609.000000;0.151600
8608.000000;0.151306
8607.000000;0.151001
8606.000000;0.150788
8605.000000;0.150658
8604.000000;0.150539
8603.000000;0.150430
8602.000000;0.150376
8601.000000;0.150350
8600.000000;0.150280
8599.000000;0.150167
8598.000000;0.150073
8597.000000;0.150008
8596.000000;0.149927
8595.000000;0.149806
8594.000000;0.149651
8593.000000;0.149434
8592.000000;0.149150
8591.000000;0.148889
8590.000000;0.148744
8589.000000;0.148682
8588.000000;0.148601
8587.000000;0.148491
8586.000000;0.148419
8585.000000;0.148366
8584.000000;0.148246
8583.000000;0.148057
8582.000000;0.147893
8581.000000;0.147766
8580.000000;0.147570
8579.000000;0.147276
8578.000000;0.147027
8577.000000;0.146964
8576.000000;0.147047
8575.000000;0.147111
8574.000000;0.147049
8573.000000;0.146869
8572.000000;0.146645
8571.000000;0.146441
8570.000000;0.146262
8569.000000;0.146051
8568.000000;0.145775
8567.000000;0.145507
8566.000000;0.145370
8565.000000;0.145395
8564.000000;0.145473
8563.000000;0.145478
8562.000000;0.145371
8561.000000;0.145185
8560.000000;0.144968
8559.000000;0.144754
8558.000000;0.144551
8557.000000;0.144343
8556.000000;0.144116
8555.000000;0.143885
8554.000000;0.143673
8553.000000;0.143470
8552.000000;0.143262
8551.000000;0.143058
8550.000000;0.142869
8549.000000;0.142682
8548.000000;0.142509
8547.000000;0.142410
8546.000000;0.142415
8545.000000;0.142451
8544.000000;0.142403
8543.000000;0.142235
8542.000000;0.141998
8541.000000;0.141764
8540.000000;0.141584
8539.000000;0.141491
8538.000000;0.141464
8537.000000;0.141411
8536.000000;0.141258
8535.000000;0.141028
8534.000000;0.140787
8533.000000;0.140560
8532.000000;0.140341
8531.000000;0.140153
8530.000000;0.140021
8529.000000;0.139913
8528.000000;0.139783
8527.000000;0.139638
8526.000000;0.139501
8525.000000;0.139369
8524.000000;0.139239
8523.000000;0.139152
8522.000000;0.139130
8521.000000;0.139108
8520.000000;0.139007
8519.000000;0.138837
8518.000000;0.138649
8517.000000;0.138439
8516.000000;0.138185
8515.000000;0.137926
8514.000000;0.137730
8513.000000;0.137601
8512.000000;0.137490
8511.000000;0.137377
8510.000000;0.137264
8509.000000;0.137136
8508.000000;0.136996
8507.000000;0.136874
8506.000000;0.136759
8505.000000;0.136572
8504.000000;0.136300
8503.000000;0.136072
8502.000000;0.136014
8501.000000;0.136067
8500.000000;0.136070
8499.000000;0.135959
8498.000000;0.135787
8497.000000;0.135590
8496.000000;0.135365
8495.000000;0.135150
8494.000000;0.134999
8493.000000;0.134887
8492.000000;0.134747
8491.000000;0.134584
8490.000000;0.134437
8489.000000;0.134275
8488.000000;0.134041
8487.000000;0.133783
8486.000000;0.133611
8485.000000;0.133538
8484.000000;0.133466
8483.000000;0.133336
8482.000000;0.133180
8481.000000;0.133023
8480.000000;0.132854
8479.000000;0.132689
8478.000000;0.132558
8477.000000;0.132432
8476.000000;0.132252
8475.000000;0.132035
8474.000000;0.131855
8473.000000;0.131726
8472.000000;0.131612
8471.000000;0.131523
8470.000000;0.131498
8469.000000;0.131489
8468.000000;0.131393
8467.000000;0.131199
8466.000000;0.130998
8465.000000;0.130845
8464.000000;0.130706
8463.000000;0.130566
8462.000000;0.130454
8461.000000;0.130359
8460.000000;0.130221
8459.000000;0.130043
8458.000000;0.129911
8457.000000;0.129857
8456.000000;0.129804
8455.000000;0.129669
8454.000000;0.129449
8453.000000;0.129195
8452.000000;0.128969
8451.000000;0.128834
8450.000000;0.128816
8449.000000;0.128824
8448.000000;0.128717
8447.000000;0.128466
8446.000000;0.128186
8445.000000;0.128004
8444.000000;0.127944
8443.000000;0.127952
8442.000000;0.127955
8441.000000;0.127875
8440.000000;0.127676
8439.000000;0.127426
8438.000000;0.127242
8437.000000;0.127154
8436.000000;0.127094
8435.000000;0.127007
8434.000000;0.126901
8433.000000;0.126782
8432.000000;0.126617
8431.000000;0.126396
8430.000000;0.126160
8429.000000;0.125952
8428.000000;0.125784
8427.000000;0.125661
8426.000000;0.125572
8425.000000;0.125468
8424.000000;0.125307
8423.000000;0.125121
8422.000000;0.124986
8421.000000;0.124913
8420.000000;0.124853
8419.000000;0.124785
8418.000000;0.124726
8417.000000;0.124652
8416.000000;0.124508
8415.000000;0.124315
8414.000000;0.124163
8413.000000;0.124086
8412.000000;0.124018
8411.000000;0.123903
8410.000000;0.123771
8409.000000;0.123667
8408.000000;0.123577
8407.000000;0.123459
8406.000000;0.123297
8405.000000;0.123103
8404.000000;0.122894
8403.000000;0.122697
8402.000000;0.122529
8401.000000;0.122369
8400.000000;0.122205
8399.000000;0.122084
8398.000000;0.122057
8397.000000;0.122075
8396.000000;0.122007
8395.000000;0.121781
8394.000000;0.121448
8393.000000;0.121104
8392.000000;0.120823
8391.000000;0.120655
8390.000000;0.120613
8389.000000;0.120625
8388.000000;0.120568
8387.000000;0.120381
8386.000000;0.120112
8385.000000;0.119842
8384.000000;0.119624
8383.000000;0.119502
8382.000000;0.119499
8381.000000;0.119573
8380.000000;0.119616
8379.000000;0.119547
8378.000000;0.119358
8377.000000;0.119083
8376.000000;0.118764
8375.000000;0.118462
8374.000000;0.118239
8373.000000;0.118108
8372.000000;0.118028
8371.000000;0.117954
8370.000000;0.117861
8369.000000;0.117729
8368.000000;0.117550
8367.000000;0.117357
8366.000000;0.117192
8365.000000;0.117056
8364.000000;0.116923
8363.000000;0.116803
8362.000000;0.116721
8361.000000;0.116665
8360.000000;0.116585
8359.000000;0.116474
8358.000000;0.116364
8357.000000;0.116261
8356.000000;0.116126
8355.000000;0.115928
8354.000000;0.115679
8353.000000;0.115406
8352.000000;0.115142
8351.000000;0.114928
8350.000000;0.114783
8349.000000;0.114665
8348.000000;0.114520
8347.000000;0.114357
8346.000000;0.114225
8345.000000;0.114122
8344.000000;0.113999
8343.000000;0.113835
8342.000000;0.113657
8341.000000;0.113473
8340.000000;0.113258
8339.000000;0.113012
8338.000000;0.112784
8337.000000;0.112611
8336.000000;0.112477
8335.000000;0.112347
8334.000000;0.112202
8333.000000;0.112031
8332.000000;0.111847
8331.000000;0.111692
8330.000000;0.111597
8329.000000;0.111509
8328.000000;0.111332
8327.000000;0.111045
8326.000000;0.110742
8325.000000;0.110538
8324.000000;0.110458
8323.000000;0.110442
8322.000000;0.110408
8321.000000;0.110312
8320.000000;0.110147
8319.000000;0.109920
8318.000000;0.109640
8317.000000;0.109331
8316.000000;0.109059
8315.000000;0.108896
8314.000000;0.108831
8313.000000;0.108758
8312.000000;0.108588
8311.000000;0.108353
8310.000000;0.108152
8309.000000;0.108019
8308.000000;0.107887
8307.000000;0.107677
8306.000000;0.107381
8305.000000;0.107069
8304.000000;0.106844
8303.000000;0.106770
8302.000000;0.106802
8301.000000;0.106817
8300.000000;0.106713
8299.000000;0.106480
8298.000000;0.106163
8297.000000;0.105810
8296.000000;0.105500
8295.000000;0.105345
8294.000000;0.105375
8293.000000;0.105461
8292.000000;0.105427
8291.000000;0.105216
8290.000000;0.104917
8289.000000;0.104643
8288.000000;0.104448
8287.000000;0.104340
8286.000000;0.104292
8285.000000;0.104241
8284.000000;0.104119
8283.000000;0.103902
8282.000000;0.103613
8281.000000;0.103290
8280.000000;0.102989
8279.000000;0.102770
8278.000000;0.102646
8277.000000;0.102571
8276.000000;0.102500
8275.000000;0.102434
8274.000000;0.102365
8273.000000;0.102243
8272.000000;0.102042
8271.000000;0.101807
8270.000000;0.101588
8269.000000;0.101367
8268.000000;0.101125
8267.000000;0.100910
8266.000000;0.100773
8265.000000;0.100675
8264.000000;0.100528
8263.000000;0.100314
8262.000000;0.100087
8261.000000;0.099885
8260.000000;0.099702
8259.000000;0.099522
8258.000000;0.099314
8257.000000;0.099044
8256.000000;0.098738
8255.000000;0.098510
8254.000000;0.098436
8253.000000;0.098443
8252.000000;0.098397
8251.000000;0.098256
8250.000000;0.098079
8249.000000;0.097910
8248.000000;0.097752
8247.000000;0.097624
8246.000000;0.097540
8245.000000;0.097440
8244.000000;0.097247
8243.000000;0.096977
8242.000000;0.096708
8241.000000;0.096472
8240.000000;0.096240
8239.000000;0.096010
8238.000000;0.095822
8237.000000;0.095676
8236.000000;0.095533
8235.000000;0.095376
8234.000000;0.095219
8233.000000;0.095049
8232.000000;0.094843
8231.000000;0.094632
8230.000000;0.094467
8229.000000;0.094327
8228.000000;0.094150
8227.000000;0.093933
8226.000000;0.093739
8225.000000;0.093575
8224.000000;0.093382
8223.000000;0.093133
8222.000000;0.092882
8221.000000;0.092686
8220.000000;0.092542
8219.000000;0.092426
8218.000000;0.092327
8217.000000;0.092225
8216.000000;0.092079
8215.000000;0.091874
8214.000000;0.091630
8213.000000;0.091372
8212.000000;0.091132
8211.000000;0.090941
8210.000000;0.090787
8209.000000;0.090605
8208.000000;0.090361
8207.000000;0.090130
8206.000000;0.090001
8205.000000;0.089942
8204.000000;0.089837
8203.000000;0.089650
8202.000000;0.089457
8201.000000;0.089311
8200.000000;0.089167
8199.000000;0.088961
8198.000000;0.088697
8197.000000;0.088419
8196.000000;0.088156
8195.000000;0.087926
8194.000000;0.087736
8193.000000;0.087575
8192.000000;0.087425
8191.000000;0.087298
8190.000000;0.087213
8189.000000;0.087146
8188.000000;0.087052
8187.000000;0.086930
8186.000000;0.086802
8185.000000;0.086641
8184.000000;0.086393
8183.000000;0.086078
8182.000000;0.085793
8181.000000;0.085602
8180.000000;0.085475
8179.000000;0.085346
8178.000000;0.085196
8177.000000;0.085035
8176.000000;0.084866
8175.000000;0.084686
8174.000000;0.084504
8173.000000;0.084333
8172.000000;0.084179
8171.000000;0.084037
8170.000000;0.083888
8169.000000;0.083718
8168.000000;0.083544
8167.000000;0.083398
8166.000000;0.083283
8165.000000;0.083156
8164.000000;0.083001
8163.000000;0.082853
8162.000000;0.082720
8161.000000;0.082539
8160.000000;0.082272
8159.000000;0.081993
8158.000000;0.081800
8157.000000;0.081669
8156.000000;0.081487
8155.000000;0.081219
8154.000000;0.080948
8153.000000;0.080758
8152.000000;0.080649
8151.000000;0.080569
8150.000000;0.080470
8149.000000;0.080313
8148.000000;0.080085
8147.000000;0.079829
8146.000000;0.079607
8145.000000;0.079435
8144.000000;0.079291
8143.000000;0.079158
8142.000000;0.079018
8141.000000;0.078830
8140.000000;0.078575
8139.000000;0.078311
8138.000000;0.078112
8137.000000;0.077973
8136.000000;0.077828
8135.000000;0.077658
8134.000000;0.077490
8133.000000;0.077322
8132.000000;0.077119
8131.000000;0.076889
8130.000000;0.076683
8129.000000;0.076519
8128.000000;0.076361
8127.000000;0.076198
8126.000000;0.076059
8125.000000;0.075945
8124.000000;0.075809
8123.000000;0.075631
8122.000000;0.075435
8121.000000;0.075231
8120.000000;0.074985
8119.000000;0.074694
8118.000000;0.074414
8117.000000;0.074205
8116.000000;0.074058
8115.000000;0.073928
8114.000000;0.073782
8113.000000;0.073611
8112.000000;0.073422
8111.000000;0.073228
8110.000000;0.073034
8109.000000;0.072824
8108.000000;0.072605
8107.000000;0.072425
8106.000000;0.072329
8105.000000;0.072286
8104.000000;0.072208
8103.000000;0.072037
8102.000000;0.071784
8101.000000;0.071494
8100.000000;0.071215
8099.000000;0.070991
8098.000000;0.070844
8097.000000;0.070749
8096.000000;0.070650
8095.000000;0.070508
8094.000000;0.070313
8093.000000;0.070065
8092.000000;0.069785
8091.000000;0.069511
8090.000000;0.069277
8089.000000;0.069084
8088.000000;0.068922
8087.000000;0.068790
8086.000000;0.068678
8085.000000;0.068548
8084.000000;0.068393
8083.000000;0.068261
8082.000000;0.068190
8081.000000;0.068132
8080.000000;0.067995
8079.000000;0.067737
8078.000000;0.067398
8077.000000;0.067054
8076.000000;0.066773
8075.000000;0.066605
8074.000000;0.066539
8073.000000;0.066500
8072.000000;0.066403
8071.000000;0.066206
8070.000000;0.065915
8069.000000;0.065564
8068.000000;0.065224
8067.000000;0.064977
8066.000000;0.064830
8065.000000;0.064701
8064.000000;0.064531
8063.000000;0.064358
8062.000000;0.064239
8061.000000;0.064152
8060.000000;0.064037
8059.000000;0.063888
8058.000000;0.063731
8057.000000;0.063555
8056.000000;0.063342
8055.000000;0.063124
8054.000000;0.062931
8053.000000;0.062722
8052.000000;0.062445
8051.000000;0.062138
8050.000000;0.061894
8049.000000;0.061744
8048.000000;0.061651
8047.000000;0.061578
8046.000000;0.061487
8045.000000;0.061302
8044.000000;0.060979
8043.000000;0.060616
8042.000000;0.060374
8041.000000;0.060290
8040.000000;0.060239
8039.000000;0.060091
8038.000000;0.059839
8037.000000;0.059553
8036.000000;0.059294
8035.000000;0.059085
8034.000000;0.058922
8033.000000;0.058775
8032.000000;0.058624
8031.000000;0.058491
8030.000000;0.058395
8029.000000;0.058289
8028.000000;0.058108
8027.000000;0.057869
8026.000000;0.057649
8025.000000;0.057478
8024.000000;0.057311
8023.000000;0.057121
8022.000000;0.056940
8021.000000;0.056785
8020.000000;0.056618
8019.000000;0.056408
8018.000000;0.056174
8017.000000;0.055952
8016.000000;0.055740
8015.000000;0.055518
8014.000000;0.055281
8013.000000;0.055047
8012.000000;0.054842
8011.000000;0.054688
8010.000000;0.054575
8009.000000;0.054456
8008.000000;0.054299
8007.000000;0.054121
8006.000000;0.053950
8005.000000;0.053773
8004.000000;0.053554
8003.000000;0.053292
8002.000000;0.053023
8001.000000;0.052772
8000.000000;0.052551
7999.000000;0.052374
7998.000000;0.052237
7997.000000;0.052096
7996.000000;0.051911
7995.000000;0.051692
7994.000000;0.051489
7993.000000;0.051322
7992.000000;0.051171
7991.000000;0.050997
7990.000000;0.050778
7989.000000;0.050519
7988.000000;0.050270
7987.000000;0.050085
7986.000000;0.049951
7985.000000;0.049785
7984.000000;0.049547
7983.000000;0.049293
7982.000000;0.049081
7981.000000;0.048883
7980.000000;0.048646
7979.000000;0.048396
7978.000000;0.048206
7977.000000;0.048095
7976.000000;0.048014
7975.000000;0.047913
7974.000000;0.047765
7973.000000;0.047546
7972.000000;0.047273
7971.000000;0.047023
7970.000000;0.046860
7969.000000;0.046753
7968.000000;0.046628
7967.000000;0.046465
7966.000000;0.046289
7965.000000;0.046098
7964.000000;0.045866
7963.000000;0.045617
7962.000000;0.045404
7961.000000;0.045236
7960.000000;0.045073
7959.000000;0.044887
7958.000000;0.044679
7957.000000;0.044448
7956.000000;0.044212
7955.000000;0.044023
7954.000000;0.043914
7953.000000;0.043832
7952.000000;0.043689
7951.000000;0.043472
7950.000000;0.043234
7949.000000;0.043007
7948.000000;0.042782
7947.000000;0.042554
7946.000000;0.042331
7945.000000;0.042096
7944.000000;0.041825
7943.000000;0.041554
7942.000000;0.041348
7941.000000;0.041230
7940.000000;0.041158
7939.000000;0.041084
7938.000000;0.040980
7937.000000;0.040821
7936.000000;0.040597
7935.000000;0.040336
7934.000000;0.040072
7933.000000;0.039809
7932.000000;0.039550
7931.000000;0.039323
7930.000000;0.039139
7929.000000;0.038965
7928.000000;0.038786
7927.000000;0.038649
7926.000000;0.038590
7925.000000;0.038542
7924.000000;0.038412
7923.000000;0.038213
7922.000000;0.038043
7921.000000;0.037938
7920.000000;0.037836
7919.000000;0.037667
7918.000000;0.037424
7917.000000;0.037146
7916.000000;0.036886
7915.000000;0.036685
7914.000000;0.036522
7913.000000;0.036317
7912.000000;0.036040
7911.000000;0.035782
7910.000000;0.035643
7909.000000;0.035588
7908.000000;0.035479
7907.000000;0.035253
7906.000000;0.034968
7905.000000;0.034697
7904.000000;0.034449
7903.000000;0.034224
7902.000000;0.034043
7901.000000;0.033914
7900.000000;0.033806
7899.000000;0.033693
7898.000000;0.033567
7897.000000;0.033423
7896.000000;0.033261
7895.000000;0.033097
7894.000000;0.032943
7893.000000;0.032783
7892.000000;0.032610
7891.000000;0.032459
7890.000000;0.032348
7889.000000;0.032227
7888.000000;0.032031
7887.000000;0.031783
7886.000000;0.031565
7885.000000;0.031411
7884.000000;0.031273
7883.000000;0.031092
7882.000000;0.030850
7881.000000;0.030566
7880.000000;0.030296
7879.000000;0.030114
7878.000000;0.030037
7877.000000;0.029990
7876.000000;0.029891
7875.000000;0.029746
7874.000000;0.029599
7873.000000;0.029439
7872.000000;0.029224
7871.000000;0.028979
7870.000000;0.028770
7869.000000;0.028609
7868.000000;0.028445
7867.000000;0.028251
7866.000000;0.028052
7865.000000;0.027876
7864.000000;0.027733
7863.000000;0.027633
7862.000000;0.027554
7861.000000;0.027422
7860.000000;0.027193
7859.000000;0.026942
7858.000000;0.026771
7857.000000;0.026670
7856.000000;0.026531
7855.000000;0.026309
7854.000000;0.026068
7853.000000;0.025873
7852.000000;0.025722
7851.000000;0.025602
7850.000000;0.025512
7849.000000;0.025425
7848.000000;0.025295
7847.000000;0.025122
7846.000000;0.024948
7845.000000;0.024784
7844.000000;0.024600
7843.000000;0.024404
7842.000000;0.024247
7841.000000;0.024145
7840.000000;0.024054
7839.000000;0.023938
7838.000000;0.023807
7837.000000;0.023667
7836.000000;0.023499
7835.000000;0.023293
7834.000000;0.023069
7833.000000;0.022846
7832.000000;0.022633
7831.000000;0.022458
7830.000000;0.022354
7829.000000;0.022307
7828.000000;0.022260
7827.000000;0.022182
7826.000000;0.022079
7825.000000;0.021952
7824.000000;0.021783
7823.000000;0.021576
7822.000000;0.021368
7821.000000;0.021180
7820.000000;0.021011
7819.000000;0.020866
7818.000000;0.020747
7817.000000;0.020621
7816.000000;0.020443
7815.000000;0.020204
7814.000000;0.019939
7813.000000;0.019692
7812.000000;0.019505
7811.000000;0.019419
7810.000000;0.019418
7809.000000;0.019412
7808.000000;0.019309
7807.000000;0.019116
7806.000000;0.018905
7805.000000;0.018716
7804.000000;0.018555
7803.000000;0.018448
7802.000000;0.018418
7801.000000;0.018410
7800.000000;0.018329
7799.000000;0.018150
7798.000000;0.017939
7797.000000;0.017757
7796.000000;0.017605
7795.000000;0.017461
7794.000000;0.017322
7793.000000;0.017184
7792.000000;0.017044
7791.000000;0.016918
7790.000000;0.016812
7789.000000;0.016697
7788.000000;0.016547
7787.000000;0.016390
7786.000000;0.016268
7785.000000;0.016159
7784.000000;0.016007
7783.000000;0.015825
7782.000000;0.015679
7781.000000;0.015582
7780.000000;0.015478
7779.000000;0.015334
7778.000000;0.015187
7777.000000;0.015068
7776.000000;0.014968
7775.000000;0.014874
7774.000000;0.014795
7773.000000;0.014718
7772.000000;0.014603
7771.000000;0.014440
7770.000000;0.014277
7769.000000;0.014167
7768.000000;0.014117
7767.000000;0.014097
7766.000000;0.014058
7765.000000;0.013957
7764.000000;0.013789
7763.000000;0.013603
7762.000000;0.013453
7761.000000;0.013332
7760.000000;0.013205
7759.000000;0.013067
7758.000000;0.012942
7757.000000;0.012835
7756.000000;0.012744
7755.000000;0.012677
7754.000000;0.012628
7753.000000;0.012534
7752.000000;0.012348
7751.000000;0.012121
7750.000000;0.011960
7749.000000;0.011890
7748.000000;0.011843
7747.000000;0.011755
7746.000000;0.011639
7745.000000;0.011523
7744.000000;0.011411
7743.000000;0.011298
7742.000000;0.011184
7741.000000;0.011054
7740.000000;0.010889
7739.000000;0.010705
7738.000000;0.010543
7737.000000;0.010420
7736.000000;0.010327
7735.000000;0.010271
7734.000000;0.010261
7733.000000;0.010272
7732.000000;0.010253
7731.000000;0.010175
7730.000000;0.010051
7729.000000;0.009912
7728.000000;0.009796
7727.000000;0.009734
7726.000000;0.009712
7725.000000;0.009667
7724.000000;0.009566
7723.000000;0.009464
7722.000000;0.009430
7721.000000;0.009452
7720.000000;0.009463
7719.000000;0.009424
7718.000000;0.009337
7717.000000;0.009201
7716.000000;0.009022
7715.000000;0.008863
7714.000000;0.008782
7713.000000;0.008752
7712.000000;0.008688
7711.000000;0.008558
7710.000000;0.008400
7709.000000;0.008254
7708.000000;0.008143
7707.000000;0.008095
7706.000000;0.008118
7705.000000;0.008149
7704.000000;0.008116
7703.000000;0.008029
7702.000000;0.007951
7701.000000;0.007898
7700.000000;0.007845
7699.000000;0.007799
7698.000000;0.007796
7697.000000;0.007804
7696.000000;0.007739
7695.000000;0.007575
7694.000000;0.007386
7693.000000;0.007252
7692.000000;0.007193
7691.000000;0.007198
7690.000000;0.007239
7689.000000;0.007250
7688.000000;0.007169
7687.000000;0.007007
7686.000000;0.006843
7685.000000;0.006729
7684.000000;0.006664
7683.000000;0.006642
7682.000000;0.006665
7681.000000;0.006717
7680.000000;0.006760
7679.000000;0.006788
7678.000000;0.006814
7677.000000;0.006825
7676.000000;0.006787
7675.000000;0.006706
7674.000000;0.006616
7673.000000;0.006529
7672.000000;0.006445
7671.000000;0.006398
7670.000000;0.006427
7669.000000;0.006494
7668.000000;0.006521
7667.000000;0.006490
7666.000000;0.006452
7665.000000;0.006430
7664.000000;0.006397
7663.000000;0.006336
7662.000000;0.006268
7661.000000;0.006201
7660.000000;0.006130
7659.000000;0.006090
7658.000000;0.006130
7657.000000;0.006235
7656.000000;0.006318
7655.000000;0.006334
7654.000000;0.006314
7653.000000;0.006296
7652.000000;0.006277
7651.000000;0.006254
7650.000000;0.006245
7649.000000;0.006244
7648.000000;0.006212
7647.000000;0.006131
7646.000000;0.006031
7645.000000;0.005947
7644.000000;0.005901
7643.000000;0.005917
7642.000000;0.005996
7641.000000;0.006087
7640.000000;0.006122
7639.000000;0.006102
7638.000000;0.006092
7637.000000;0.006116
7636.000000;0.006128
7635.000000;0.006098
7634.000000;0.006070
7633.000000;0.006101
7632.000000;0.006192
7631.000000;0.006290
7630.000000;0.006344
7629.000000;0.006322
7628.000000;0.006242
7627.000000;0.006168
7626.000000;0.006169
7625.000000;0.006255
7624.000000;0.006381
7623.000000;0.006497
7622.000000;0.006577
7621.000000;0.006615
7620.000000;0.006633
7619.000000;0.006679
7618.000000;0.006763
7617.000000;0.006824
7616.000000;0.006806
7615.000000;0.006744
7614.000000;0.006726
7613.000000;0.006775
7612.000000;0.006848
7611.000000;0.006915
7610.000000;0.006983
7609.000000;0.007043
7608.000000;0.007070
7607.000000;0.007070
7606.000000;0.007083
7605.000000;0.007127
7604.000000;0.007194
7603.000000;0.007286
7602.000000;0.007403
7601.000000;0.007494
7600.000000;0.007502
7599.000000;0.007450
7598.000000;0.007428
7597.000000;0.007491
7596.000000;0.007617
7595.000000;0.007775
7594.000000;0.007950
7593.000000;0.008118
7592.000000;0.008243
7591.000000;0.008316
7590.000000;0.008359
7589.000000;0.008393
7588.000000;0.008439
7587.000000;0.008538
7586.000000;0.008712
7585.000000;0.008915
7584.000000;0.009083
7583.000000;0.009200
7582.000000;0.009286
7581.000000;0.009338
7580.000000;0.009348
7579.000000;0.009357
7578.000000;0.009419
7577.000000;0.009535
7576.000000;0.009669
7575.000000;0.009821
7574.000000;0.009999
7573.000000;0.010158
7572.000000;0.010244
7571.000000;0.010292
7570.000000;0.010394
7569.000000;0.010572
7568.000000;0.010760
7567.000000;0.010907
7566.000000;0.011019
7565.000000;0.011110
7564.000000;0.011182
7563.000000;0.011265
7562.000000;0.011392
7561.000000;0.011541
7560.000000;0.011662
7559.000000;0.011763
7558.000000;0.011893
7557.000000;0.012056
7556.000000;0.012213
7555.000000;0.012368
7554.000000;0.012562
7553.000000;0.012780
7552.000000;0.012950
7551.000000;0.013053
7550.000000;0.013150
7549.000000;0.013291
7548.000000;0.013466
7547.000000;0.013654
7546.000000;0.013847
7545.000000;0.014015
7544.000000;0.014132
7543.000000;0.014232
7542.000000;0.014381
7541.000000;0.014579
7540.000000;0.014772
7539.000000;0.014941
7538.000000;0.015112
7537.000000;0.015276
7536.000000;0.015397
7535.000000;0.015508
7534.000000;0.015706
7533.000000;0.016022
7532.000000;0.016368
7531.000000;0.016643
7530.000000;0.016824
7529.000000;0.016939
7528.000000;0.017030
7527.000000;0.017154
7526.000000;0.017347
7525.000000;0.017569
7524.000000;0.017747
7523.000000;0.017873
7522.000000;0.018009
7521.000000;0.018186
7520.000000;0.018381
7519.000000;0.018587
7518.000000;0.018828
7517.000000;0.019090
7516.000000;0.019321
7515.000000;0.019518
7514.000000;0.019738
7513.000000;0.020011
7512.000000;0.020302
7511.000000;0.020572
7510.000000;0.020814
7509.000000;0.021009
7508.000000;0.021135
7507.000000;0.021242
7506.000000;0.021417
7505.000000;0.021676
7504.000000;0.021971
7503.000000;0.022197
7502.000000;0.022405
7501.000000;0.022626
7500.000000;0.022849
7499.000000;0.023066
7498.000000;0.023291
7497.000000;0.023514
7496.000000;0.023714
7495.000000;0.023922
7494.000000;0.024195
7493.000000;0.024523
7492.000000;0.024827
7491.000000;0.025076
7490.000000;0.025307
7489.000000;0.025548
7488.000000;0.025794
7487.000000;0.026071
7486.000000;0.026403
7485.000000;0.026733
7484.000000;0.026949
7483.000000;0.027055
7482.000000;0.027185
7481.000000;0.027432
7480.000000;0.027739
7479.000000;0.028005
7478.000000;0.028206
7477.000000;0.028361
7476.000000;0.028481
7475.000000;0.028586
7474.000000;0.028736
7473.000000;0.028966
7472.000000;0.029238
7471.000000;0.029500
7470.000000;0.029742
7469.000000;0.029982
7468.000000;0.030243
7467.000000;0.030551
7466.000000;0.030908
7465.000000;0.031249
7464.000000;0.031501
7463.000000;0.031665
7462.000000;0.031819
7461.000000;0.032020
7460.000000;0.032266
7459.000000;0.032548
7458.000000;0.032869
7457.000000;0.033194
7456.000000;0.033472
7455.000000;0.033706
7454.000000;0.033946
7453.000000;0.034193
7452.000000;0.034405
7451.000000;0.034588
7450.000000;0.034796
7449.000000;0.035045
7448.000000;0.035298
7447.000000;0.035555
7446.000000;0.035851
7445.000000;0.036167
7444.000000;0.036440
7443.000000;0.036664
7442.000000;0.036899
7441.000000;0.037165
7440.000000;0.037424
7439.000000;0.037674
7438.000000;0.037953
7437.000000;0.038238
7436.000000;0.038438
7435.000000;0.038530
7434.000000;0.038616
7433.000000;0.038801
7432.000000;0.039090
7431.000000;0.039440
7430.000000;0.039815
7429.000000;0.040175
7428.000000;0.040496
7427.000000;0.040830
7426.000000;0.041252
7425.000000;0.041719
7424.000000;0.042102
7423.000000;0.042396
7422.000000;0.042752
7421.000000;0.043253
7420.000000;0.043783
7419.000000;0.044184
7418.000000;0.044423
7417.000000;0.044556
7416.000000;0.044624
7415.000000;0.044637
7414.000000;0.044625
7413.000000;0.044664
7412.000000;0.044870
7411.000000;0.045334
7410.000000;0.045973
7409.000000;0.046506
7408.000000;0.046736
7407.000000;0.046828
7406.000000;0.047082
7405.000000;0.047543
7404.000000;0.048019
7403.000000;0.048407
7402.000000;0.048824
7401.000000;0.049456
7400.000000;0.050332
7399.000000;0.051274
7398.000000;0.052051
7397.000000;0.052581
7396.000000;0.053015
7395.000000;0.053550
7394.000000;0.054113
7393.000000;0.054412
7392.000000;0.054330
7391.000000;0.054136
7390.000000;0.054236
7389.000000;0.054865
7388.000000;0.056079
7387.000000;0.057840
7386.000000;0.059767
7385.000000;0.061024
7384.000000;0.061115
7383.000000;0.060770
7382.000000;0.061346
7381.000000;0.063084
7380.000000;0.064563
7379.000000;0.064368
7378.000000;0.062801
7377.000000;0.061420
7376.000000;0.061300
7375.000000;0.062209
7374.000000;0.063167
7373.000000;0.063410
7372.000000;0.062865
7371.000000;0.062036
7370.000000;0.061640
7369.000000;0.062145
7368.000000;0.063432
7367.000000;0.064955
7366.000000;0.066149
7365.000000;0.066507
7364.000000;0.065867
7363.000000;0.065010
7362.000000;0.065358
7361.000000;0.067393
7360.000000;0.069773
7359.000000;0.070765
7358.000000;0.070275
7357.000000;0.069892
7356.000000;0.070975
7355.000000;0.073411
7354.000000;0.076106
7353.000000;0.078128
7352.000000;0.079369
7351.000000;0.080589
7350.000000;0.082672
7349.000000;0.085405
7348.000000;0.087391
7347.000000;0.087633
7346.000000;0.086772
7345.000000;0.085974
7344.000000;0.085101
7343.000000;0.083206
7342.000000;0.080628
7341.000000;0.079127
7340.000000;0.079453
7339.000000;0.080209
7338.000000;0.079743
7337.000000;0.078180
7336.000000;0.077032
7335.000000;0.077658
7334.000000;0.080282
7333.000000;0.083685
7332.000000;0.085759
7331.000000;0.085433
7330.000000;0.084095
7329.000000;0.083988
7328.000000;0.085197
7327.000000;0.085365
7326.000000;0.082871
7325.000000;0.079122
7324.000000;0.076793
7323.000000;0.076643
7322.000000;0.077250
7321.000000;0.077442
7320.000000;0.077671
7319.000000;0.079032
7318.000000;0.081957
7317.000000;0.085726
7316.000000;0.088766
7315.000000;0.089901
7314.000000;0.089857
7313.000000;0.090809
7312.000000;0.093675
7311.000000;0.096578
7310.000000;0.096951
7309.000000;0.094725
7308.000000;0.092440
7307.000000;0.092362
7306.000000;0.094357
7305.000000;0.096690
7304.000000;0.097831
7303.000000;0.097294
7302.000000;0.095914
7301.000000;0.095551
7300.000000;0.097414
7299.000000;0.100218
7298.000000;0.101175
7297.000000;0.099305
7296.000000;0.096686
7295.000000;0.095851
7294.000000;0.096877
7293.000000;0.097799
7292.000000;0.097295
7291.000000;0.096001
7290.000000;0.095302
7289.000000;0.095758
7288.000000;0.096937
7287.000000;0.098157
7286.000000;0.098949
7285.000000;0.099321
7284.000000;0.099715
7283.000000;0.100533
7282.000000;0.101735
7281.000000;0.102995
7280.000000;0.104168
7279.000000;0.105390
7278.000000;0.106737
7277.000000;0.108045
7276.000000;0.109238
7275.000000;0.110559
7274.000000;0.112263
7273.000000;0.114183
7272.000000;0.115819
7271.000000;0.116881
7270.000000;0.117655
7269.000000;0.118764
7268.000000;0.120522
7267.000000;0.122610
7266.000000;0.124480
7265.000000;0.126026
7264.000000;0.127670
7263.000000;0.129690
7262.000000;0.131728
7261.000000;0.133257
7260.000000;0.134400
7259.000000;0.135794
7258.000000;0.137681
7257.000000;0.139805
7256.000000;0.142265
7255.000000;0.145705
7254.000000;0.150423
7253.000000;0.155535
7252.000000;0.159492
7251.000000;0.161804
7250.000000;0.163789
7249.000000;0.167102
7248.000000;0.171616
7247.000000;0.175426
7246.000000;0.177287
7245.000000;0.178409
7244.000000;0.181066
7243.000000;0.185683
7242.000000;0.190014
7241.000000;0.191704
7240.000000;0.191293
7239.000000;0.191729
7238.000000;0.194926
7237.000000;0.199772
7236.000000;0.203704
7235.000000;0.205596
7234.000000;0.206789
7233.000000;0.209193
7232.000000;0.212758
7231.000000;0.215518
7230.000000;0.215989
7229.000000;0.214882
7228.000000;0.214365
7227.000000;0.216068
7226.000000;0.219860
7225.000000;0.224210
7224.000000;0.227594
7223.000000;0.229748
7222.000000;0.231638
7221.000000;0.234296
7220.000000;0.237808
7219.000000;0.241425
7218.000000;0.244461
7217.000000;0.247019
7216.000000;0.249763
7215.000000;0.253052
7214.000000;0.256616
7213.000000;0.260142
7212.000000;0.263811
7211.000000;0.268025
7210.000000;0.272778
7209.000000;0.277535
7208.000000;0.281836
7207.000000;0.285808
7206.000000;0.289908
7205.000000;0.294216
7204.000000;0.298248
7203.000000;0.301526
7202.000000;0.304165
7201.000000;0.306817
7200.000000;0.310088
7199.000000;0.314022
7198.000000;0.318235
7197.000000;0.322480
7196.000000;0.327005
7195.000000;0.332211
7194.000000;0.338169
7193.000000;0.344583
7192.000000;0.351141
7191.000000;0.357598
7190.000000;0.363722
7189.000000;0.369668
7188.000000;0.376099
7187.000000;0.383268
7186.000000;0.390103
7185.000000;0.395084
7184.000000;0.398159
7183.000000;0.401049
7182.000000;0.405297
7181.000000;0.410611
7180.000000;0.415652
7179.000000;0.419936
7178.000000;0.424199
7177.000000;0.429211
7176.000000;0.435105
7175.000000;0.441777
7174.000000;0.449213
7173.000000;0.457189
7172.000000;0.465279
7171.000000;0.473101
7170.000000;0.480332
7169.000000;0.486863
7168.000000;0.493077
7167.000000;0.499497
7166.000000;0.505808
7165.000000;0.510824
7164.000000;0.514001
7163.000000;0.516557
7162.000000;0.520251
7161.000000;0.525278
7160.000000;0.530247
7159.000000;0.534320
7158.000000;0.538295
7157.000000;0.543321
7156.000000;0.549542
7155.000000;0.556250
7154.000000;0.562859
7153.000000;0.569472
7152.000000;0.576677
7151.000000;0.584832
7150.000000;0.593500
7149.000000;0.601614
7148.000000;0.608470
7147.000000;0.614632
7146.000000;0.621390
7145.000000;0.629139
7144.000000;0.636714
7143.000000;0.642745
7142.000000;0.647386
7141.000000;0.652051
7140.000000;0.657572
7139.000000;0.663294
7138.000000;0.668158
7137.000000;0.672086
7136.000000;0.675961
7135.000000;0.680478
7134.000000;0.685523
7133.000000;0.690717
7132.000000;0.696095
7131.000000;0.702038
7130.000000;0.708823
7129.000000;0.716423
7128.000000;0.724496
7127.000000;0.732357
7126.000000;0.739373
7125.000000;0.745777
7124.000000;0.752668
7123.000000;0.760598
7122.000000;0.768383
7121.000000;0.774177
7120.000000;0.777808
7119.000000;0.781133
7118.000000;0.785745
7117.000000;0.791171
7116.000000;0.795861
7115.000000;0.799361
7114.000000;0.802724
7113.000000;0.807083
7112.000000;0.812625
7111.000000;0.818841
7110.000000;0.825008
7109.000000;0.830567
7108.000000;0.835604
7107.000000;0.840728
7106.000000;0.846234
7105.000000;0.851626
7104.000000;0.856272
7103.000000;0.860355
7102.000000;0.864756
7101.000000;0.870012
7100.000000;0.875710
7099.000000;0.880954
7098.000000;0.885239
7097.000000;0.888871
7096.000000;0.892632
7095.000000;0.897016
7094.000000;0.901713
7093.000000;0.905954
7092.000000;0.909425
7091.000000;0.912569
7090.000000;0.915889
7089.000000;0.919410
7088.000000;0.923042
7087.000000;0.926960
7086.000000;0.931219
7085.000000;0.935405
7084.000000;0.939123
7083.000000;0.942608
7082.000000;0.946404
7081.000000;0.950495
7080.000000;0.954325
7079.000000;0.957680
7078.000000;0.961006
7077.000000;0.964697
7076.000000;0.968517
7075.000000;0.971973
7074.000000;0.975011
7073.000000;0.978045
7072.000000;0.981350
7071.000000;0.984648
7070.000000;0.987383
7069.000000;0.989405
7068.000000;0.991244
7067.000000;0.993476
7066.000000;0.996007
7065.000000;0.998355
7064.000000;1.000443
7063.000000;1.002628
7062.000000;1.005053
7061.000000;1.007518
7060.000000;1.010040
7059.000000;1.012966
7058.000000;1.016271
7057.000000;1.019329
7056.000000;1.021778
7055.000000;1.024101
7054.000000;1.026863
7053.000000;1.029851
7052.000000;1.032450
7051.000000;1.034459
7050.000000;1.036081
7049.000000;1.037476
7048.000000;1.038818
7047.000000;1.040439
7046.000000;1.042413
7045.000000;1.044328
7044.000000;1.045881
7043.000000;1.047338
7042.000000;1.049010
7041.000000;1.050638
7040.000000;1.051818
7039.000000;1.052737
7038.000000;1.053964
7037.000000;1.055695
7036.000000;1.057674
7035.000000;1.059614
7034.000000;1.061271
7033.000000;1.062428
7032.000000;1.063205
7031.000000;1.064152
7030.000000;1.065615
7029.000000;1.067304
7028.000000;1.068819
7027.000000;1.070229
7026.000000;1.071709
7025.000000;1.073013
7024.000000;1.073863
7023.000000;1.074517
7022.000000;1.075362
7021.000000;1.076211
7020.000000;1.076617
7019.000000;1.076658
7018.000000;1.076837
7017.000000;1.077384
7016.000000;1.078177
7015.000000;1.079196
7014.000000;1.080509
7013.000000;1.081917
7012.000000;1.083038
7011.000000;1.083713
7010.000000;1.084049
7009.000000;1.084221
7008.000000;1.084523
7007.000000;1.085331
7006.000000;1.086653
7005.000000;1.087914
7004.000000;1.088560
7003.000000;1.088671
7002.000000;1.088717
7001.000000;1.088988
7000.000000;1.089568
6999.000000;1.090488
6998.000000;1.091531
6997.000000;1.092204
6996.000000;1.092308
6995.000000;1.092270
6994.000000;1.092558
6993.000000;1.093064
6992.000000;1.093397
6991.000000;1.093433
6990.000000;1.093249
6989.000000;1.092940
6988.000000;1.092852
6987.000000;1.093499
6986.000000;1.094813
6985.000000;1.095930
6984.000000;1.096202
6983.000000;1.096002
6982.000000;1.096013
6981.000000;1.096193
6980.000000;1.096058
6979.000000;1.095614
6978.000000;1.095347
6977.000000;1.095476
6976.000000;1.095771
6975.000000;1.095969
6974.000000;1.095920
6973.000000;1.095490
6972.000000;1.094771
6971.000000;1.094164
6970.000000;1.093889
6969.000000;1.093697
6968.000000;1.093401
6967.000000;1.093250
6966.000000;1.093369
6965.000000;1.093261
6964.000000;1.092444
6963.000000;1.091227
6962.000000;1.090284
6961.000000;1.089746
6960.000000;1.089323
6959.000000;1.089033
6958.000000;1.089188
6957.000000;1.089746
6956.000000;1.090227
6955.000000;1.090254
6954.000000;1.089783
6953.000000;1.088903
6952.000000;1.087808
6951.000000;1.086873
6950.000000;1.086346
6949.000000;1.086028
6948.000000;1.085550
6947.000000;1.084834
6946.000000;1.084057
6945.000000;1.083379
6944.000000;1.082926
6943.000000;1.082769
6942.000000;1.082663
6941.000000;1.082106
6940.000000;1.080932
6939.000000;1.079553
6938.000000;1.078398
6937.000000;1.077457
6936.000000;1.076619
6935.000000;1.076017
6934.000000;1.075753
6933.000000;1.075641
6932.000000;1.075519
6931.000000;1.075454
6930.000000;1.075358
6929.000000;1.074841
6928.000000;1.073826
6927.000000;1.072858
6926.000000;1.072396
6925.000000;1.072250
6924.000000;1.072023
6923.000000;1.071611
6922.000000;1.070907
6921.000000;1.069622
6920.000000;1.067934
6919.000000;1.066717
6918.000000;1.066495
6917.000000;1.066568
6916.000000;1.065828
6915.000000;1.064128
6914.000000;1.062256
6913.000000;1.060858
6912.000000;1.060010
6911.000000;1.059536
6910.000000;1.059154
6909.000000;1.058461
6908.000000;1.057335
6907.000000;1.056170
6906.000000;1.055315
6905.000000;1.054561
6904.000000;1.053615
6903.000000;1.052707
6902.000000;1.052223
6901.000000;1.052043
6900.000000;1.051734
6899.000000;1.051162
6898.000000;1.050445
6897.000000;1.049592
6896.000000;1.048647
6895.000000;1.047894
6894.000000;1.047430
6893.000000;1.046806
6892.000000;1.045595
6891.000000;1.044085
6890.000000;1.042939
6889.000000;1.042352
6888.000000;1.041993
6887.000000;1.041554
6886.000000;1.040900
6885.000000;1.039913
6884.000000;1.038637
6883.000000;1.037401
6882.000000;1.036449
6881.000000;1.035623
6880.000000;1.034718
6879.000000;1.033893
6878.000000;1.033366
6877.000000;1.032966
6876.000000;1.032338
6875.000000;1.031355
6874.000000;1.030044
6873.000000;1.028423
6872.000000;1.026743
6871.000000;1.025511
6870.000000;1.024878
6869.000000;1.024323
6868.000000;1.023337
6867.000000;1.022099
6866.000000;1.021068
6865.000000;1.020244
6864.000000;1.019321
6863.000000;1.018260
6862.000000;1.017233
6861.000000;1.016229
6860.000000;1.015143
6859.000000;1.014074
6858.000000;1.013122
6857.000000;1.012095
6856.000000;1.010792
6855.000000;1.009363
6854.000000;1.008019
6853.000000;1.006635
6852.000000;1.005021
6851.000000;1.003356
6850.000000;1.001945
6849.000000;1.000758
6848.000000;0.999573
6847.000000;0.998384
6846.000000;0.997272
6845.000000;0.996068
6844.000000;0.994513
6843.000000;0.992589
6842.000000;0.990451
6841.000000;0.988241
6840.000000;0.986179
6839.000000;0.984561
6838.000000;0.983371
6837.000000;0.982182
6836.000000;0.980707
6835.000000;0.979125
6834.000000;0.977582
6833.000000;0.975787
6832.000000;0.973494
6831.000000;0.971010
6830.000000;0.968787
6829.000000;0.966791
6828.000000;0.964698
6827.000000;0.962452
6826.000000;0.960240
6825.000000;0.958116
6824.000000;0.956002
6823.000000;0.953867
6822.000000;0.951642
6821.000000;0.949192
6820.000000;0.946630
6819.000000;0.944337
6818.000000;0.942429
6817.000000;0.940516
6816.000000;0.938273
6815.000000;0.935917
6814.000000;0.933728
6813.000000;0.931499
6812.000000;0.928899
6811.000000;0.926084
6810.000000;0.923481
6809.000000;0.921177
6808.000000;0.918922
6807.000000;0.916562
6806.000000;0.914071
6805.000000;0.911378
6804.000000;0.908516
6803.000000;0.905794
6802.000000;0.903448
6801.000000;0.901271
6800.000000;0.898866
6799.000000;0.896114
6798.000000;0.893143
6797.000000;0.890076
6796.000000;0.887079
6795.000000;0.884425
6794.000000;0.882187
6793.000000;0.880013
6792.000000;0.877485
6791.000000;0.874539
6790.000000;0.871364
6789.000000;0.868152
6788.000000;0.865140
6787.000000;0.862565
6786.000000;0.860310
6785.000000;0.857860
6784.000000;0.854912
6783.000000;0.851743
6782.000000;0.848736
6781.000000;0.845859
6780.000000;0.842926
6779.000000;0.840028
6778.000000;0.837329
6777.000000;0.834711
6776.000000;0.831961
6775.000000;0.829118
6774.000000;0.826285
6773.000000;0.823341
6772.000000;0.820185
6771.000000;0.817018
6770.000000;0.814065
6769.000000;0.811212
6768.000000;0.808255
6767.000000;0.805284
6766.000000;0.802513
6765.000000;0.799880
6764.000000;0.797162
6763.000000;0.794334
6762.000000;0.791538
6761.000000;0.788816
6760.000000;0.786117
6759.000000;0.783430
6758.000000;0.780699
6757.000000;0.777788
6756.000000;0.774729
6755.000000;0.771764
6754.000000;0.768949
6753.000000;0.765990
6752.000000;0.762713
6751.000000;0.759425
6750.000000;0.756489
6749.000000;0.753800
6748.000000;0.750988
6747.000000;0.747954
6746.000000;0.744868
6745.000000;0.741834
6744.000000;0.738854
6743.000000;0.735977
6742.000000;0.733197
6741.000000;0.730341
6740.000000;0.727337
6739.000000;0.724425
6738.000000;0.721830
6737.000000;0.719387
6736.000000;0.716766
6735.000000;0.713913
6734.000000;0.710976
6733.000000;0.707968
6732.000000;0.704819
6731.000000;0.701643
6730.000000;0.698650
6729.000000;0.695870
6728.000000;0.693198
6727.000000;0.690607
6726.000000;0.688072
6725.000000;0.685418
6724.000000;0.682502
6723.000000;0.679439
6722.000000;0.676424
6721.000000;0.673443
6720.000000;0.670419
6719.000000;0.667444
6718.000000;0.664639
6717.000000;0.661924
6716.000000;0.659093
6715.000000;0.656148
6714.000000;0.653259
6713.000000;0.650451
6712.000000;0.647614
6711.000000;0.644828
6710.000000;0.642127
6709.000000;0.639465
6708.000000;0.636822
6707.000000;0.634168
6706.000000;0.631516
6705.000000;0.628739
6704.000000;0.625810
6703.000000;0.622947
6702.000000;0.620343
6701.000000;0.617843
6700.000000;0.615134
6699.000000;0.612177
6698.000000;0.609203
6697.000000;0.606369
6696.000000;0.603646
6695.000000;0.601000
6694.000000;0.598440
6693.000000;0.595910
6692.000000;0.593330
6691.000000;0.590727
6690.000000;0.588178
6689.000000;0.585668
6688.000000;0.583122
6687.000000;0.580531
6686.000000;0.577903
6685.000000;0.575194
6684.000000;0.572405
6683.000000;0.569675
6682.000000;0.567109
6681.000000;0.564624
6680.000000;0.562080
6679.000000;0.559474
6678.000000;0.556862
6677.000000;0.554204
6676.000000;0.551453
6675.000000;0.548702
6674.000000;0.546073
6673.000000;0.543536
6672.000000;0.540986
6671.000000;0.538403
6670.000000;0.535814
6669.000000;0.533185
6668.000000;0.530515
6667.000000;0.527925
6666.000000;0.525503
6665.000000;0.523143
6664.000000;0.520662
6663.000000;0.518007
6662.000000;0.515231
6661.000000;0.512399
6660.000000;0.509632
6659.000000;0.507103
6658.000000;0.504832
6657.000000;0.502600
6656.000000;0.500205
6655.000000;0.497724
6654.000000;0.495336
6653.000000;0.493033
6652.000000;0.490678
6651.000000;0.488244
6650.000000;0.485806
6649.000000;0.483366
6648.000000;0.480879
6647.000000;0.478387
6646.000000;0.475961
6645.000000;0.473561
6644.000000;0.471114
6643.000000;0.468669
6642.000000;0.466339
6641.000000;0.464124
6640.000000;0.461946
6639.000000;0.459775
6638.000000;0.457603
6637.000000;0.455339
6636.000000;0.452897
6635.000000;0.450354
6634.000000;0.447884
6633.000000;0.445560
6632.000000;0.443332
6631.000000;0.441136
6630.000000;0.438915
6629.000000;0.436594
6628.000000;0.434161
6627.000000;0.431710
6626.000000;0.429328
6625.000000;0.426988
6624.000000;0.424667
6623.000000;0.422445
6622.000000;0.420380
6621.000000;0.418360
6620.000000;0.416216
6619.000000;0.413932
6618.000000;0.411619
6617.000000;0.409349
6616.000000;0.407133
6615.000000;0.404984
6614.000000;0.402883
6613.000000;0.400738
6612.000000;0.398483
6611.000000;0.396174
6610.000000;0.393893
6609.000000;0.391633
6608.000000;0.389375
6607.000000;0.387193
6606.000000;0.385142
6605.000000;0.383140
6604.000000;0.381069
6603.000000;0.378942
6602.000000;0.376844
6601.000000;0.374779
6600.000000;0.372704
6599.000000;0.370637
6598.000000;0.368604
6597.000000;0.366531
6596.000000;0.364337
6595.000000;0.362082
6594.000000;0.359909
6593.000000;0.357866
6592.000000;0.355899
6591.000000;0.353966
6590.000000;0.352048
6589.000000;0.350074
6588.000000;0.347978
6587.000000;0.345799
6586.000000;0.343656
6585.000000;0.341622
6584.000000;0.339690
6583.000000;0.337818
6582.000000;0.335918
6581.000000;0.333899
6580.000000;0.331777
6579.000000;0.329687
6578.000000;0.327712
6577.000000;0.325779
6576.000000;0.323796
6575.000000;0.321801
6574.000000;0.319869
6573.000000;0.317959
6572.000000;0.315994
6571.000000;0.314006
6570.000000;0.312080
6569.000000;0.310213
6568.000000;0.308359
6567.000000;0.306544
6566.000000;0.304805
6565.000000;0.303058
6564.000000;0.301189
6563.000000;0.299224
6562.000000;0.297302
6561.000000;0.295481
6560.000000;0.293694
6559.000000;0.291877
6558.000000;0.290030
6557.000000;0.288150
6556.000000;0.286216
6555.000000;0.284257
6554.000000;0.282349
6553.000000;0.280540
6552.000000;0.278817
6551.000000;0.277133
6550.000000;0.275434
6549.000000;0.273682
6548.000000;0.271898
6547.000000;0.270140
6546.000000;0.268422
6545.000000;0.266690
6544.000000;0.264920
6543.000000;0.263165
6542.000000;0.261458
6541.000000;0.259745
6540.000000;0.257976
6539.000000;0.256190
6538.000000;0.254440
6537.000000;0.252716
6536.000000;0.251005
6535.000000;0.249342
6534.000000;0.247724
6533.000000;0.246060
6532.000000;0.244287
6531.000000;0.242464
6530.000000;0.240685
6529.000000;0.238954
6528.000000;0.237247
6527.000000;0.235604
6526.000000;0.234063
6525.000000;0.232569
6524.000000;0.231044
6523.000000;0.229485
6522.000000;0.227906
6521.000000;0.226263
6520.000000;0.224519
6519.000000;0.222735
6518.000000;0.221013
6517.000000;0.219375
6516.000000;0.217795
6515.000000;0.216266
6514.000000;0.214763
6513.000000;0.213216
6512.000000;0.211608
6511.000000;0.210032
6510.000000;0.208570
6509.000000;0.207149
6508.000000;0.205646
6507.000000;0.204049
6506.000000;0.202442
6505.000000;0.200861
6504.000000;0.199292
6503.000000;0.197764
6502.000000;0.196314
6501.000000;0.194900
6500.000000;0.193427
6499.000000;0.191870
6498.000000;0.190266
6497.000000;0.188644
6496.000000;0.187025
6495.000000;0.185468
6494.000000;0.184026
6493.000000;0.182664
6492.000000;0.181303
6491.000000;0.179907
6490.000000;0.178482
6489.000000;0.177012
6488.000000;0.175481
6487.000000;0.173931
6486.000000;0.172419
6485.000000;0.170955
6484.000000;0.169523
6483.000000;0.168125
6482.000000;0.166757
6481.000000;0.165387
6480.000000;0.164000
6479.000000;0.162632
6478.000000;0.161291
6477.000000;0.159911
6476.000000;0.158454
6475.000000;0.156988
6474.000000;0.155588
6473.000000;0.154223
6472.000000;0.152812
6471.000000;0.151355
6470.000000;0.149923
6469.000000;0.148563
6468.000000;0.147285
6467.000000;0.146080
6466.000000;0.144893
6465.000000;0.143615
6464.000000;0.142189
6463.000000;0.140694
6462.000000;0.139248
6461.000000;0.137879
6460.000000;0.136540
6459.000000;0.135212
6458.000000;0.133902
6457.000000;0.132601
6456.000000;0.131309
6455.000000;0.130064
6454.000000;0.128883
6453.000000;0.127706
6452.000000;0.126465
6451.000000;0.125178
6450.000000;0.123908
6449.000000;0.122682
6448.000000;0.121485
6447.000000;0.120292
6446.000000;0.119055
6445.000000;0.117718
6444.000000;0.116319
6443.000000;0.115007
6442.000000;0.113870
6441.000000;0.112817
6440.000000;0.111688
6439.000000;0.110431
6438.000000;0.109101
6437.000000;0.107754
6436.000000;0.106436
6435.000000;0.105206
6434.000000;0.104070
6433.000000;0.102926
6432.000000;0.101683
6431.000000;0.100388
6430.000000;0.099160
6429.000000;0.098026
6428.000000;0.096924
6427.000000;0.095813
6426.000000;0.094700
6425.000000;0.093575
6424.000000;0.092431
6423.000000;0.091290
6422.000000;0.090163
6421.000000;0.089003
6420.000000;0.087776
6419.000000;0.086538
6418.000000;0.085360
6417.000000;0.084217
6416.000000;0.083045
6415.000000;0.081857
6414.000000;0.080725
6413.000000;0.079671
6412.000000;0.078651
6411.000000;0.077639
6410.000000;0.076629
6409.000000;0.075591
6408.000000;0.074489
6407.000000;0.073343
6406.000000;0.072212
6405.000000;0.071126
6404.000000;0.070090
6403.000000;0.069104
6402.000000;0.068135
6401.000000;0.067102
6400.000000;0.065973
6399.000000;0.064831
6398.000000;0.063766
6397.000000;0.062761
6396.000000;0.061735
6395.000000;0.060669
6394.000000;0.059591
6393.000000;0.058503
6392.000000;0.057400
6391.000000;0.056329
6390.000000;0.055332
6389.000000;0.054371
6388.000000;0.053380
6387.000000;0.052370
6386.000000;0.051397
6385.000000;0.050452
6384.000000;0.049472
6383.000000;0.048440
6382.000000;0.047385
6381.000000;0.046325
6380.000000;0.045267
6379.000000;0.044243
6378.000000;0.043282
6377.000000;0.042356
6376.000000;0.041427
6375.000000;0.040516
6374.000000;0.039647
6373.000000;0.038774
6372.000000;0.037833
6371.000000;0.036852
6370.000000;0.035896
6369.000000;0.034958
6368.000000;0.033983
6367.000000;0.032976
6366.000000;0.031997
6365.000000;0.031059
6364.000000;0.030120
6363.000000;0.029168
6362.000000;0.028230
6361.000000;0.027307
6360.000000;0.026380
6359.000000;0.025465
6358.000000;0.024587
6357.000000;0.023725
6356.000000;0.022840
6355.000000;0.021946
6354.000000;0.021082
6353.000000;0.020228
6352.000000;0.019323
6351.000000;0.018370
6350.000000;0.017433
6349.000000;0.016548
6348.000000;0.015687
6347.000000;0.014825
6346.000000;0.013966
6345.000000;0.013109
6344.000000;0.012248
6343.000000;0.011400
6342.000000;0.010585
6341.000000;0.009786
6340.000000;0.008971
6339.000000;0.008139
6338.000000;0.007295
6337.000000;0.006416
6336.000000;0.005488
6335.000000;0.004568
6334.000000;0.003726
6333.000000;0.002954
6332.000000;0.002181
6331.000000;0.001368
6330.000000;0.000518
6329.000000;-0.000362
6328.000000;-0.001266
6327.000000;-0.002151
6326.000000;-0.002972
6325.000000;-0.003749
6324.000000;-0.004531
6323.000000;-0.005319
6322.000000;-0.006084
6321.000000;-0.006838
6320.000000;-0.007622
6319.000000;-0.008440
6318.000000;-0.009251
6317.000000;-0.010036
6316.000000;-0.010814
6315.000000;-0.011595
6314.000000;-0.012375
6313.000000;-0.013162
6312.000000;-0.013958
6311.000000;-0.014732
6310.000000;-0.015453
6309.000000;-0.016154
6308.000000;-0.016887
6307.000000;-0.017647
6306.000000;-0.018384
6305.000000;-0.019084
6304.000000;-0.019792
6303.000000;-0.020547
6302.000000;-0.021336
6301.000000;-0.022121
6300.000000;-0.022874
6299.000000;-0.023591
6298.000000;-0.024298
6297.000000;-0.025038
6296.000000;-0.025813
6295.000000;-0.026572
6294.000000;-0.027279
6293.000000;-0.027966
6292.000000;-0.028689
6291.000000;-0.029441
6290.000000;-0.030174
6289.000000;-0.030866
6288.000000;-0.031531
6287.000000;-0.032184
6286.000000;-0.032838
6285.000000;-0.033512
6284.000000;-0.034211
6283.000000;-0.034905
6282.000000;-0.035585
6281.000000;-0.036292
6280.000000;-0.037050
6279.000000;-0.037808
6278.000000;-0.038505
6277.000000;-0.039160
6276.000000;-0.039833
6275.000000;-0.040536
6274.000000;-0.041229
6273.000000;-0.041897
6272.000000;-0.042555
6271.000000;-0.043209
6270.000000;-0.043847
6269.000000;-0.044479
6268.000000;-0.045126
6267.000000;-0.045784
6266.000000;-0.046439
6265.000000;-0.047093
6264.000000;-0.047746
6263.000000;-0.048369
6262.000000;-0.048952
6261.000000;-0.049541
6260.000000;-0.050188
6259.000000;-0.050878
6258.000000;-0.051552
6257.000000;-0.052195
6256.000000;-0.052834
6255.000000;-0.053481
6254.000000;-0.054123
6253.000000;-0.054754
6252.000000;-0.055383
6251.000000;-0.056003
6250.000000;-0.056608
6249.000000;-0.057223
6248.000000;-0.057866
6247.000000;-0.058514
6246.000000;-0.059129
6245.000000;-0.059709
6244.000000;-0.060274
6243.000000;-0.060827
6242.000000;-0.061377
6241.000000;-0.061961
6240.000000;-0.062602
6239.000000;-0.063269
6238.000000;-0.063911
6237.000000;-0.064519
6236.000000;-0.065101
6235.000000;-0.065652
6234.000000;-0.066179
6233.000000;-0.066726
6232.000000;-0.067318
6231.000000;-0.067919
6230.000000;-0.068485
6229.000000;-0.069041
6228.000000;-0.069631
6227.000000;-0.070239
6226.000000;-0.070817
6225.000000;-0.071373
6224.000000;-0.071959
6223.000000;-0.072589
6222.000000;-0.073219
6221.000000;-0.073809
6220.000000;-0.074359
6219.000000;-0.074881
6218.000000;-0.075395
6217.000000;-0.075928
6216.000000;-0.076487
6215.000000;-0.077032
6214.000000;-0.077533
6213.000000;-0.078021
6212.000000;-0.078554
6211.000000;-0.079145
6210.000000;-0.079759
6209.000000;-0.080360
6208.000000;-0.080925
6207.000000;-0.081427
6206.000000;-0.081867
6205.000000;-0.082294
6204.000000;-0.082769
6203.000000;-0.083301
6202.000000;-0.083878
6201.000000;-0.084500
6200.000000;-0.085161
6199.000000;-0.085806
6198.000000;-0.086374
6197.000000;-0.086868
6196.000000;-0.087342
6195.000000;-0.087825
6194.000000;-0.088308
6193.000000;-0.088790
6192.000000;-0.089281
6191.000000;-0.089787
6190.000000;-0.090303
6189.000000;-0.090837
6188.000000;-0.091374
6187.000000;-0.091876
6186.000000;-0.092328
6185.000000;-0.092785
6184.000000;-0.093305
6183.000000;-0.093871
6182.000000;-0.094414
6181.000000;-0.094904
6180.000000;-0.095364
6179.000000;-0.095824
6178.000000;-0.096293
6177.000000;-0.096785
6176.000000;-0.097302
6175.000000;-0.097821
6174.000000;-0.098312
6173.000000;-0.098779
6172.000000;-0.099242
6171.000000;-0.099707
6170.000000;-0.100171
6169.000000;-0.100646
6168.000000;-0.101136
6167.000000;-0.101628
6166.000000;-0.102109
6165.000000;-0.102589
6164.000000;-0.103070
6163.000000;-0.103531
6162.000000;-0.103968
6161.000000;-0.104422
6160.000000;-0.104919
6159.000000;-0.105422
6158.000000;-0.105889
6157.000000;-0.106332
6156.000000;-0.106791
6155.000000;-0.107265
6154.000000;-0.107732
6153.000000;-0.108196
6152.000000;-0.108673
6151.000000;-0.109159
6150.000000;-0.109636
6149.000000;-0.110115
6148.000000;-0.110599
6147.000000;-0.111059
6146.000000;-0.111474
6145.000000;-0.111882
6144.000000;-0.112338
6143.000000;-0.112837
6142.000000;-0.113326
6141.000000;-0.113774
6140.000000;-0.114187
6139.000000;-0.114580
6138.000000;-0.114967
6137.000000;-0.115360
6136.000000;-0.115750
6135.000000;-0.116121
6134.000000;-0.116490
6133.000000;-0.116907
6132.000000;-0.117377
6131.000000;-0.117831
6130.000000;-0.118218
6129.000000;-0.118577
6128.000000;-0.118975
6127.000000;-0.119418
6126.000000;-0.119865
6125.000000;-0.120300
6124.000000;-0.120730
6123.000000;-0.121143
6122.000000;-0.121521
6121.000000;-0.121885
6120.000000;-0.122278
6119.000000;-0.122714
6118.000000;-0.123181
6117.000000;-0.123666
6116.000000;-0.124138
6115.000000;-0.124550
6114.000000;-0.124898
6113.000000;-0.125245
6112.000000;-0.125646
6111.000000;-0.126078
6110.000000;-0.126496
6109.000000;-0.126893
6108.000000;-0.127285
6107.000000;-0.127657
6106.000000;-0.128002
6105.000000;-0.128355
6104.000000;-0.128744
6103.000000;-0.129139
6102.000000;-0.129501
6101.000000;-0.129853
6100.000000;-0.130242
6099.000000;-0.130665
6098.000000;-0.131082
6097.000000;-0.131490
6096.000000;-0.131909
6095.000000;-0.132328
6094.000000;-0.132720
6093.000000;-0.133099
6092.000000;-0.133495
6091.000000;-0.133894
6090.000000;-0.134253
6089.000000;-0.134564
6088.000000;-0.134857
6087.000000;-0.135155
6086.000000;-0.135470
6085.000000;-0.135820
6084.000000;-0.136202
6083.000000;-0.136579
6082.000000;-0.136927
6081.000000;-0.137273
6080.000000;-0.137645
6079.000000;-0.138013
6078.000000;-0.138340
6077.000000;-0.138643
6076.000000;-0.138973
6075.000000;-0.139331
6074.000000;-0.139688
6073.000000;-0.140050
6072.000000;-0.140454
6071.000000;-0.140899
6070.000000;-0.141346
6069.000000;-0.141760
6068.000000;-0.142126
6067.000000;-0.142436
6066.000000;-0.142709
6065.000000;-0.143003
6064.000000;-0.143359
6063.000000;-0.143744
6062.000000;-0.144099
6061.000000;-0.144415
6060.000000;-0.144722
6059.000000;-0.145032
6058.000000;-0.145338
6057.000000;-0.145651
6056.000000;-0.145981
6055.000000;-0.146301
6054.000000;-0.146585
6053.000000;-0.146859
6052.000000;-0.147160
6051.000000;-0.147471
6050.000000;-0.147753
6049.000000;-0.148012
6048.000000;-0.148286
6047.000000;-0.148589
6046.000000;-0.148905
6045.000000;-0.149230
6044.000000;-0.149564
6043.000000;-0.149883
6042.000000;-0.150165
6041.000000;-0.150440
6040.000000;-0.150750
6039.000000;-0.151090
6038.000000;-0.151418
6037.000000;-0.151724
6036.000000;-0.152027
6035.000000;-0.152329
6034.000000;-0.152623
6033.000000;-0.152917
6032.000000;-0.153222
6031.000000;-0.153516
6030.000000;-0.153776
6029.000000;-0.154025
6028.000000;-0.154302
6027.000000;-0.154603
6026.000000;-0.154896
6025.000000;-0.155181
6024.000000;-0.155473
6023.000000;-0.155754
6022.000000;-0.155988
6021.000000;-0.156183
6020.000000;-0.156387
6019.000000;-0.156626
6018.000000;-0.156882
6017.000000;-0.157132
6016.000000;-0.157370
6015.000000;-0.157598
6014.000000;-0.157824
6013.000000;-0.158071
6012.000000;-0.158342
6011.000000;-0.158609
6010.000000;-0.158856
6009.000000;-0.159116
6008.000000;-0.159415
6007.000000;-0.159719
6006.000000;-0.159972
6005.000000;-0.160171
6004.000000;-0.160365
6003.000000;-0.160588
6002.000000;-0.160831
6001.000000;-0.161074
6000.000000;-0.161300
5999.000000;-0.161492
5998.000000;-0.161662
5997.000000;-0.161856
5996.000000;-0.162101
5995.000000;-0.162366
5994.000000;-0.162605
5993.000000;-0.162827
5992.000000;-0.163069
5991.000000;-0.163336
5990.000000;-0.163604
5989.000000;-0.163862
5988.000000;-0.164109
5987.000000;-0.164329
5986.000000;-0.164508
5985.000000;-0.164671
5984.000000;-0.164843
5983.000000;-0.165018
5982.000000;-0.165176
5981.000000;-0.165338
5980.000000;-0.165535
5979.000000;-0.165762
5978.000000;-0.165989
5977.000000;-0.166219
5976.000000;-0.166462
5975.000000;-0.166699
5974.000000;-0.166893
5973.000000;-0.167049
5972.000000;-0.167202
5971.000000;-0.167372
5970.000000;-0.167556
5969.000000;-0.167757
5968.000000;-0.167970
5967.000000;-0.168173
5966.000000;-0.168345
5965.000000;-0.168499
5964.000000;-0.168649
5963.000000;-0.168789
5962.000000;-0.168921
5961.000000;-0.169079
5960.000000;-0.169285
5959.000000;-0.169506
5958.000000;-0.169697
5957.000000;-0.169860
5956.000000;-0.170021
5955.000000;-0.170176
5954.000000;-0.170305
5953.000000;-0.170419
5952.000000;-0.170539
5951.000000;-0.170659
5950.000000;-0.170768
5949.000000;-0.170891
5948.000000;-0.171047
5947.000000;-0.171210
5946.000000;-0.171335
5945.000000;-0.171420
5944.000000;-0.171501
5943.000000;-0.171594
5942.000000;-0.171689
5941.000000;-0.171780
5940.000000;-0.171867
5939.000000;-0.171941
5938.000000;-0.172008
5937.000000;-0.172102
5936.000000;-0.172250
5935.000000;-0.172428
5934.000000;-0.172601
5933.000000;-0.172762
5932.000000;-0.172918
5931.000000;-0.173051
5930.000000;-0.173147
5929.000000;-0.173231
5928.000000;-0.173337
5927.000000;-0.173447
5926.000000;-0.173527
5925.000000;-0.173582
5924.000000;-0.173642
5923.000000;-0.173723
5922.000000;-0.173818
5921.000000;-0.173926
5920.000000;-0.174031
5919.000000;-0.174100
5918.000000;-0.174128
5917.000000;-0.174170
5916.000000;-0.174272
5915.000000;-0.174419
5914.000000;-0.174570
5913.000000;-0.174719
5912.000000;-0.174873
5911.000000;-0.175008
5910.000000;-0.175097
5909.000000;-0.175165
5908.000000;-0.175250
5907.000000;-0.175339
5906.000000;-0.175392
5905.000000;-0.175413
5904.000000;-0.175438
5903.000000;-0.175481
5902.000000;-0.175532
5901.000000;-0.175593
5900.000000;-0.175666
5899.000000;-0.175730
5898.000000;-0.175762
5897.000000;-0.175779
5896.000000;-0.175809
5895.000000;-0.175845
5894.000000;-0.175872
5893.000000;-0.175908
5892.000000;-0.175973
5891.000000;-0.176037
5890.000000;-0.176066
5889.000000;-0.176082
5888.000000;-0.176134
5887.000000;-0.176217
5886.000000;-0.176280
5885.000000;-0.176296
5884.000000;-0.176290
5883.000000;-0.176291
5882.000000;-0.176317
5881.000000;-0.176375
5880.000000;-0.176448
5879.000000;-0.176492
5878.000000;-0.176481
5877.000000;-0.176450
5876.000000;-0.176453
5875.000000;-0.176497
5874.000000;-0.176551
5873.000000;-0.176588
5872.000000;-0.176591
5871.000000;-0.176550
5870.000000;-0.176473
5869.000000;-0.176403
5868.000000;-0.176372
5867.000000;-0.176358
5866.000000;-0.176327
5865.000000;-0.176285
5864.000000;-0.176254
5863.000000;-0.176237
5862.000000;-0.176226
5861.000000;-0.176236
5860.000000;-0.176272
5859.000000;-0.176291
5858.000000;-0.176246
5857.000000;-0.176149
5856.000000;-0.176051
5855.000000;-0.175983
5854.000000;-0.175945
5853.000000;-0.175925
5852.000000;-0.175901
5851.000000;-0.175840
5850.000000;-0.175741
5849.000000;-0.175650
5848.000000;-0.175601
5847.000000;-0.175571
5846.000000;-0.175515
5845.000000;-0.175429
5844.000000;-0.175332
5843.000000;-0.175227
5842.000000;-0.175114
5841.000000;-0.175014
5840.000000;-0.174935
5839.000000;-0.174855
5838.000000;-0.174749
5837.000000;-0.174624
5836.000000;-0.174486
5835.000000;-0.174315
5834.000000;-0.174111
5833.000000;-0.173935
5832.000000;-0.173834
5831.000000;-0.173778
5830.000000;-0.173700
5829.000000;-0.173579
5828.000000;-0.173438
5827.000000;-0.173290
5826.000000;-0.173138
5825.000000;-0.172990
5824.000000;-0.172835
5823.000000;-0.172639
5822.000000;-0.172393
5821.000000;-0.172157
5820.000000;-0.171991
5819.000000;-0.171880
5818.000000;-0.171762
5817.000000;-0.171610
5816.000000;-0.171439
5815.000000;-0.171263
5814.000000;-0.171087
5813.000000;-0.170922
5812.000000;-0.170764
5811.000000;-0.170584
5810.000000;-0.170370
5809.000000;-0.170155
5808.000000;-0.169965
5807.000000;-0.169789
5806.000000;-0.169609
5805.000000;-0.169441
5804.000000;-0.169284
5803.000000;-0.169096
5802.000000;-0.168848
5801.000000;-0.168577
5800.000000;-0.168331
5799.000000;-0.168100
5798.000000;-0.167857
5797.000000;-0.167618
5796.000000;-0.167406
5795.000000;-0.167199
5794.000000;-0.166951
5793.000000;-0.166666
5792.000000;-0.166379
5791.000000;-0.166102
5790.000000;-0.165837
5789.000000;-0.165597
5788.000000;-0.165386
5787.000000;-0.165163
5786.000000;-0.164892
5785.000000;-0.164582
5784.000000;-0.164254
5783.000000;-0.163895
5782.000000;-0.163507
5781.000000;-0.163144
5780.000000;-0.162857
5779.000000;-0.162617
5778.000000;-0.162357
5777.000000;-0.162060
5776.000000;-0.161750
5775.000000;-0.161434
5774.000000;-0.161108
5773.000000;-0.160788
5772.000000;-0.160484
5771.000000;-0.160167
5770.000000;-0.159808
5769.000000;-0.159428
5768.000000;-0.159065
5767.000000;-0.158725
5766.000000;-0.158400
5765.000000;-0.158095
5764.000000;-0.157794
5763.000000;-0.157439
5762.000000;-0.156992
5761.000000;-0.156500
5760.000000;-0.156035
5759.000000;-0.155612
5758.000000;-0.155207
5757.000000;-0.154825
5756.000000;-0.154479
5755.000000;-0.154132
5754.000000;-0.153736
5753.000000;-0.153291
5752.000000;-0.152832
5751.000000;-0.152370
5750.000000;-0.151904
5749.000000;-0.151457
5748.000000;-0.151043
5747.000000;-0.150633
5746.000000;-0.150192
5745.000000;-0.149738
5744.000000;-0.149300
5743.000000;-0.148865
5742.000000;-0.148405
5741.000000;-0.147935
5740.000000;-0.147477
5739.000000;-0.147006
5738.000000;-0.146497
5737.000000;-0.145976
5736.000000;-0.145491
5735.000000;-0.145035
5734.000000;-0.144568
5733.000000;-0.144082
5732.000000;-0.143592
5731.000000;-0.143084
5730.000000;-0.142534
5729.000000;-0.141953
5728.000000;-0.141379
5727.000000;-0.140826
5726.000000;-0.140288
5725.000000;-0.139765
5724.000000;-0.139242
5723.000000;-0.138677
5722.000000;-0.138057
5721.000000;-0.137431
5720.000000;-0.136856
5719.000000;-0.136333
5718.000000;-0.135830
5717.000000;-0.135327
5716.000000;-0.134791
5715.000000;-0.134171
5714.000000;-0.133467
5713.000000;-0.132763
5712.000000;-0.132138
5711.000000;-0.131574
5710.000000;-0.131002
5709.000000;-0.130413
5708.000000;-0.129836
5707.000000;-0.129275
5706.000000;-0.128703
5705.000000;-0.128121
5704.000000;-0.127515
5703.000000;-0.126854
5702.000000;-0.126130
5701.000000;-0.125397
5700.000000;-0.124738
5699.000000;-0.124150
5698.000000;-0.123569
5697.000000;-0.122953
5696.000000;-0.122296
5695.000000;-0.121589
5694.000000;-0.120834
5693.000000;-0.120084
5692.000000;-0.119400
5691.000000;-0.118783
5690.000000;-0.118197
5689.000000;-0.117631
5688.000000;-0.117081
5687.000000;-0.116510
5686.000000;-0.115879
5685.000000;-0.115197
5684.000000;-0.114498
5683.000000;-0.113785
5682.000000;-0.113051
5681.000000;-0.112322
5680.000000;-0.111633
5679.000000;-0.110974
5678.000000;-0.110322
5677.000000;-0.109692
5676.000000;-0.109093
5675.000000;-0.108487
5674.000000;-0.107827
5673.000000;-0.107129
5672.000000;-0.106441
5671.000000;-0.105773
5670.000000;-0.105107
5669.000000;-0.104436
5668.000000;-0.103754
5667.000000;-0.103036
5666.000000;-0.102277
5665.000000;-0.101535
5664.000000;-0.100872
5663.000000;-0.100288
5662.000000;-0.099737
5661.000000;-0.099189
5660.000000;-0.098639
5659.000000;-0.098081
5658.000000;-0.097509
5657.000000;-0.096933
5656.000000;-0.096348
5655.000000;-0.095729
5654.000000;-0.095078
5653.000000;-0.094439
5652.000000;-0.093830
5651.000000;-0.093216
5650.000000;-0.092575
5649.000000;-0.091942
5648.000000;-0.091345
5647.000000;-0.090744
5646.000000;-0.090096
5645.000000;-0.089431
5644.000000;-0.088807
5643.000000;-0.088237
5642.000000;-0.087704
5641.000000;-0.087205
5640.000000;-0.086738
5639.000000;-0.086273
5638.000000;-0.085790
5637.000000;-0.085307
5636.000000;-0.084829
5635.000000;-0.084316
5634.000000;-0.083753
5633.000000;-0.083195
5632.000000;-0.082691
5631.000000;-0.082226
5630.000000;-0.081768
5629.000000;-0.081330
5628.000000;-0.080918
5627.000000;-0.080482
5626.000000;-0.079988
5625.000000;-0.079476
5624.000000;-0.079014
5623.000000;-0.078612
5622.000000;-0.078250
5621.000000;-0.077921
5620.000000;-0.077602
5619.000000;-0.077246
5618.000000;-0.076848
5617.000000;-0.076467
5616.000000;-0.076133
5615.000000;-0.075790
5614.000000;-0.075400
5613.000000;-0.075022
5612.000000;-0.074727
5611.000000;-0.074490
5610.000000;-0.074233
5609.000000;-0.073917
5608.000000;-0.073555
5607.000000;-0.073162
5606.000000;-0.072770
5605.000000;-0.072428
5604.000000;-0.072155
5603.000000;-0.071915
5602.000000;-0.071684
5601.000000;-0.071481
5600.000000;-0.071313
5599.000000;-0.071136
5598.000000;-0.070927
5597.000000;-0.070718
5596.000000;-0.070532
5595.000000;-0.070349
5594.000000;-0.070169
5593.000000;-0.070039
5592.000000;-0.069959
5591.000000;-0.069860
5590.000000;-0.069705
5589.000000;-0.069545
5588.000000;-0.069421
5587.000000;-0.069301
5586.000000;-0.069158
5585.000000;-0.069042
5584.000000;-0.068990
5583.000000;-0.068954
5582.000000;-0.068873
5581.000000;-0.068745
5580.000000;-0.068593
5579.000000;-0.068422
5578.000000;-0.068271
5577.000000;-0.068196
5576.000000;-0.068176
5575.000000;-0.068113
5574.000000;-0.067988
5573.000000;-0.067908
5572.000000;-0.067943
5571.000000;-0.068009
5570.000000;-0.068013
5569.000000;-0.067996
5568.000000;-0.068033
5567.000000;-0.068087
5566.000000;-0.068087
5565.000000;-0.068067
5564.000000;-0.068106
5563.000000;-0.068195
5562.000000;-0.068258
5561.000000;-0.068254
5560.000000;-0.068187
5559.000000;-0.068035
5558.000000;-0.067780
5557.000000;-0.067482
5556.000000;-0.067239
5555.000000;-0.067095
5554.000000;-0.067028
5553.000000;-0.067022
5552.000000;-0.067091
5551.000000;-0.067239
5550.000000;-0.067454
5549.000000;-0.067713
5548.000000;-0.067967
5547.000000;-0.068164
5546.000000;-0.068310
5545.000000;-0.068464
5544.000000;-0.068618
5543.000000;-0.068662
5542.000000;-0.068512
5541.000000;-0.068243
5540.000000;-0.068006
5539.000000;-0.067852
5538.000000;-0.067757
5537.000000;-0.067764
5536.000000;-0.067978
5535.000000;-0.068411
5534.000000;-0.068912
5533.000000;-0.069293
5532.000000;-0.069474
5531.000000;-0.069493
5530.000000;-0.069454
5529.000000;-0.069430
5528.000000;-0.069358
5527.000000;-0.069108
5526.000000;-0.068673
5525.000000;-0.068227
5524.000000;-0.067950
5523.000000;-0.067816
5522.000000;-0.067705
5521.000000;-0.067650
5520.000000;-0.067779
5519.000000;-0.068052
5518.000000;-0.068218
5517.000000;-0.068128
5516.000000;-0.067970
5515.000000;-0.067982
5514.000000;-0.068057
5513.000000;-0.067830
5512.000000;-0.067178
5511.000000;-0.066385
5510.000000;-0.065801
5509.000000;-0.065504
5508.000000;-0.065435
5507.000000;-0.065723
5506.000000;-0.066533
5505.000000;-0.067588
5504.000000;-0.068188
5503.000000;-0.067811
5502.000000;-0.066662
5501.000000;-0.065421
5500.000000;-0.064351
5499.000000;-0.063013
5498.000000;-0.061042
5497.000000;-0.058857
5496.000000;-0.057253
5495.000000;-0.056438
5494.000000;-0.056029
5493.000000;-0.055944
5492.000000;-0.056708
5491.000000;-0.058586
5490.000000;-0.060968
5489.000000;-0.063039
5488.000000;-0.064635
5487.000000;-0.065993
5486.000000;-0.066840
5485.000000;-0.066383
5484.000000;-0.064475
5483.000000;-0.062009
5482.000000;-0.059758
5481.000000;-0.057564
5480.000000;-0.055132
5479.000000;-0.053045
5478.000000;-0.052141
5477.000000;-0.052284
5476.000000;-0.052717
5475.000000;-0.053341
5474.000000;-0.054647
5473.000000;-0.056444
5472.000000;-0.057610
5471.000000;-0.057174
5470.000000;-0.055244
5469.000000;-0.052838
5468.000000;-0.050902
5467.000000;-0.049657
5466.000000;-0.048785
5465.000000;-0.048035
5464.000000;-0.047624
5463.000000;-0.047926
5462.000000;-0.048859
5461.000000;-0.049933
5460.000000;-0.050832
5459.000000;-0.051573
5458.000000;-0.052094
5457.000000;-0.051979
5456.000000;-0.050651
5455.000000;-0.047957
5454.000000;-0.044558
5453.000000;-0.041354
5452.000000;-0.038465
5451.000000;-0.035083
5450.000000;-0.030905
5449.000000;-0.027216
5448.000000;-0.025515
5447.000000;-0.025502
5446.000000;-0.025591
5445.000000;-0.025119
5444.000000;-0.024909
5443.000000;-0.025620
5442.000000;-0.026604
5441.000000;-0.026835
5440.000000;-0.026148
5439.000000;-0.024937
5438.000000;-0.023326
5437.000000;-0.021251
5436.000000;-0.018820
5435.000000;-0.016402
5434.000000;-0.014606
5433.000000;-0.014075
5432.000000;-0.014938
5431.000000;-0.016430
5430.000000;-0.017620
5429.000000;-0.018586
5428.000000;-0.020258
5427.000000;-0.023038
5426.000000;-0.026042
5425.000000;-0.027723
5424.000000;-0.026956
5423.000000;-0.023776
5422.000000;-0.019162
5421.000000;-0.013845
5420.000000;-0.007670
5419.000000;-0.000423
5418.000000;0.006991
5417.000000;0.013018
5416.000000;0.017162
5415.000000;0.020106
5414.000000;0.021976
5413.000000;0.021741
5412.000000;0.018988
5411.000000;0.015167
5410.000000;0.012145
5409.000000;0.010415
5408.000000;0.009493
5407.000000;0.009361
5406.000000;0.010621
5405.000000;0.013386
5404.000000;0.017263
5403.000000;0.022161
5402.000000;0.027924
5401.000000;0.033879
5400.000000;0.039413
5399.000000;0.044566
5398.000000;0.049438
5397.000000;0.053529
5396.000000;0.056595
5395.000000;0.059310
5394.000000;0.062254
5393.000000;0.064987
5392.000000;0.066974
5391.000000;0.068879
5390.000000;0.071761
5389.000000;0.075522
5388.000000;0.079371
5387.000000;0.083496
5386.000000;0.088717
5385.000000;0.094641
5384.000000;0.100075
5383.000000;0.105075
5382.000000;0.110873
5381.000000;0.117686
5380.000000;0.124200
5379.000000;0.129548
5378.000000;0.134263
5377.000000;0.138672
5376.000000;0.142081
5375.000000;0.144302
5374.000000;0.146609
5373.000000;0.150365
5372.000000;0.155602
5371.000000;0.161702
5370.000000;0.168564
5369.000000;0.176367
5368.000000;0.184688
5367.000000;0.192879
5366.000000;0.200910
5365.000000;0.209182
5364.000000;0.218058
5363.000000;0.227779
5362.000000;0.238401
5361.000000;0.249646
5360.000000;0.261277
5359.000000;0.273676
5358.000000;0.287122
5357.000000;0.300712
5356.000000;0.313247
5355.000000;0.325200
5354.000000;0.338224
5353.000000;0.352422
5352.000000;0.365949
5351.000000;0.377991
5350.000000;0.390367
5349.000000;0.405013
5348.000000;0.421285
5347.000000;0.437164
5346.000000;0.452168
5345.000000;0.467201
5344.000000;0.482312
5343.000000;0.496589
5342.000000;0.510019
5341.000000;0.523744
5340.000000;0.538529
5339.000000;0.554044
5338.000000;0.569642
5337.000000;0.585228
5336.000000;0.601004
5335.000000;0.617327
5334.000000;0.635006
5333.000000;0.654697
5332.000000;0.675827
5331.000000;0.696886
5330.000000;0.717058
5329.000000;0.736917
5328.000000;0.757355
5327.000000;0.778416
5326.000000;0.799756
5325.000000;0.821479
5324.000000;0.844057
5323.000000;0.867931
5322.000000;0.893256
5321.000000;0.919540
5320.000000;0.945819
5319.000000;0.971884
5318.000000;0.998864
5317.000000;1.027841
5316.000000;1.058211
5315.000000;1.088497
5314.000000;1.118268
5313.000000;1.147844
5312.000000;1.176923
5311.000000;1.205093
5310.000000;1.233019
5309.000000;1.261406
5308.000000;1.289548
5307.000000;1.316610
5306.000000;1.343293
5305.000000;1.370246
5304.000000;1.396272
5303.000000;1.420244
5302.000000;1.443273
5301.000000;1.466840
5300.000000;1.490598
5299.000000;1.513775
5298.000000;1.536611
5297.000000;1.558704
5296.000000;1.578503
5295.000000;1.596367
5294.000000;1.614715
5293.000000;1.633289
5292.000000;1.648409
5291.000000;1.658938
5290.000000;1.668535
5289.000000;1.679556
5288.000000;1.689935
5287.000000;1.698435
5286.000000;1.707121
5285.000000;1.716232
5284.000000;1.722657
5283.000000;1.726015
5282.000000;1.729834
5281.000000;1.734569
5280.000000;1.736650
5279.000000;1.736488
5278.000000;1.739659
5277.000000;1.747625
5276.000000;1.754978
5275.000000;1.758538
5274.000000;1.761824
5273.000000;1.766709
5272.000000;1.769207
5271.000000;1.767804
5270.000000;1.767779
5269.000000;1.772713
5268.000000;1.778799
5267.000000;1.781590
5266.000000;1.782374
5265.000000;1.783653
5264.000000;1.784070
5263.000000;1.782368
5262.000000;1.781090
5261.000000;1.781839
5260.000000;1.782095
5259.000000;1.780221
5258.000000;1.778666
5257.000000;1.779162
5256.000000;1.780016
5255.000000;1.780339
5254.000000;1.782162
5253.000000;1.785903
5252.000000;1.788614
5251.000000;1.788990
5250.000000;1.788824
5249.000000;1.788162
5248.000000;1.784758
5247.000000;1.779892
5246.000000;1.778202
5245.000000;1.780157
5244.000000;1.780660
5243.000000;1.777090
5242.000000;1.773076
5241.000000;1.771722
5240.000000;1.771570
5239.000000;1.771334
5238.000000;1.772908
5237.000000;1.777149
5236.000000;1.781739
5235.000000;1.785273
5234.000000;1.788587
5233.000000;1.790723
5232.000000;1.789367
5231.000000;1.786419
5230.000000;1.786751
5229.000000;1.790472
5228.000000;1.792552
5227.000000;1.790994
5226.000000;1.789154
5225.000000;1.788802
5224.000000;1.787688
5223.000000;1.785316
5222.000000;1.784435
5221.000000;1.785417
5220.000000;1.785305
5219.000000;1.783541
5218.000000;1.782671
5217.000000;1.782660
5216.000000;1.780982
5215.000000;1.778952
5214.000000;1.780963
5213.000000;1.786840
5212.000000;1.791383
5211.000000;1.792281
5210.000000;1.792373
5209.000000;1.793094
5208.000000;1.792224
5207.000000;1.789399
5206.000000;1.787564
5205.000000;1.787201
5204.000000;1.785269
5203.000000;1.781392
5202.000000;1.779007
5201.000000;1.779352
5200.000000;1.780027
5199.000000;1.780138
5198.000000;1.781154
5197.000000;1.781998
5196.000000;1.779805
5195.000000;1.776381
5194.000000;1.776939
5193.000000;1.781808
5192.000000;1.785813
5191.000000;1.786647
5190.000000;1.787461
5189.000000;1.789700
5188.000000;1.790155
5187.000000;1.786966
5186.000000;1.782533
5185.000000;1.778689
5184.000000;1.774757
5183.000000;1.771444
5182.000000;1.771037
5181.000000;1.772893
5180.000000;1.773829
5179.000000;1.773608
5178.000000;1.774889
5177.000000;1.777487
5176.000000;1.778419
5175.000000;1.777886
5174.000000;1.778967
5173.000000;1.781120
5172.000000;1.780374
5171.000000;1.776314
5170.000000;1.772799
5169.000000;1.771648
5168.000000;1.771467
5167.000000;1.772685
5166.000000;1.777338
5165.000000;1.783435
5164.000000;1.786013
5163.000000;1.784859
5162.000000;1.784731
5161.000000;1.787122
5160.000000;1.788455
5159.000000;1.786978
5158.000000;1.785045
5157.000000;1.783788
5156.000000;1.781920
5155.000000;1.780261
5154.000000;1.781331
5153.000000;1.784068
5152.000000;1.784942
5151.000000;1.784419
5150.000000;1.785853
5149.000000;1.788253
5148.000000;1.787222
5147.000000;1.783481
5146.000000;1.782789
5145.000000;1.786555
5144.000000;1.789744
5143.000000;1.789037
5142.000000;1.786757
5141.000000;1.785079
5140.000000;1.783163
5139.000000;1.781437
5138.000000;1.782167
5137.000000;1.784588
5136.000000;1.785392
5135.000000;1.784872
5134.000000;1.786564
5133.000000;1.790322
5132.000000;1.791928
5131.000000;1.790316
5130.000000;1.788802
5129.000000;1.788427
5128.000000;1.786800
5127.000000;1.784107
5126.000000;1.783613
5125.000000;1.785528
5124.000000;1.786612
5123.000000;1.786326
5122.000000;1.786972
5121.000000;1.787290
5120.000000;1.783142
5119.000000;1.775541
5118.000000;1.770609
5117.000000;1.770779
5116.000000;1.772737
5115.000000;1.774408
5114.000000;1.777477
5113.000000;1.781570
5112.000000;1.782739
5111.000000;1.780149
5110.000000;1.778053
5109.000000;1.778940
5108.000000;1.780670
5107.000000;1.781905
5106.000000;1.784485
5105.000000;1.788445
5104.000000;1.790337
5103.000000;1.788699
5102.000000;1.786147
5101.000000;1.784456
5100.000000;1.782744
5099.000000;1.781363
5098.000000;1.782233
5097.000000;1.784490
5096.000000;1.785064
5095.000000;1.784502
5094.000000;1.786766
5093.000000;1.792312
5092.000000;1.796695
5091.000000;1.797109
5090.000000;1.795157
5089.000000;1.792109
5088.000000;1.787178
5087.000000;1.781395
5086.000000;1.777596
5085.000000;1.775939
5084.000000;1.774350
5083.000000;1.773524
5082.000000;1.776386
5081.000000;1.782352
5080.000000;1.787241
5079.000000;1.789465
5078.000000;1.791154
5077.000000;1.792834
5076.000000;1.792663
5075.000000;1.791126
5074.000000;1.790746
5073.000000;1.791006
5072.000000;1.789319
5071.000000;1.786951
5070.000000;1.787824
5069.000000;1.791297
5068.000000;1.792051
5067.000000;1.788042
5066.000000;1.782780
5065.000000;1.778796
5064.000000;1.775193
5063.000000;1.771901
5062.000000;1.770576
5061.000000;1.770940
5060.000000;1.770936
5059.000000;1.770837
5058.000000;1.772573
5057.000000;1.774899
5056.000000;1.774423
5055.000000;1.771514
5054.000000;1.769723
5053.000000;1.769456
5052.000000;1.767789
5051.000000;1.764485
5050.000000;1.762664
5049.000000;1.763266
5048.000000;1.764221
5047.000000;1.765127
5046.000000;1.767572
5045.000000;1.770718
5044.000000;1.771655
5043.000000;1.770474
5042.000000;1.769999
5041.000000;1.770467
5040.000000;1.769615
5039.000000;1.767697
5038.000000;1.767020
5037.000000;1.766913
5036.000000;1.764823
5035.000000;1.761900
5034.000000;1.761468
5033.000000;1.762471
5032.000000;1.760415
5031.000000;1.754901
5030.000000;1.750133
5029.000000;1.747747
5028.000000;1.745247
5027.000000;1.741686
5026.000000;1.739200
5025.000000;1.738271
5024.000000;1.736728
5023.000000;1.734211
5022.000000;1.732863
5021.000000;1.732944
5020.000000;1.732253
5019.000000;1.730240
5018.000000;1.728212
5017.000000;1.725636
5016.000000;1.721005
5015.000000;1.716069
5014.000000;1.714303
5013.000000;1.715250
5012.000000;1.714838
5011.000000;1.711523
5010.000000;1.707660
5009.000000;1.704566
5008.000000;1.701185
5007.000000;1.697719
5006.000000;1.696173
5005.000000;1.696390
5004.000000;1.695740
5003.000000;1.693239
5002.000000;1.690257
5001.000000;1.687051
5000.000000;1.682486
4999.000000;1.677147
4998.000000;1.672789
4997.000000;1.669052
4996.000000;1.664529
4995.000000;1.660305
4994.000000;1.658591
4993.000000;1.658552
4992.000000;1.656986
4991.000000;1.652981
4990.000000;1.648502
4989.000000;1.644523
4988.000000;1.640207
4987.000000;1.635547
4986.000000;1.631504
4985.000000;1.628034
4984.000000;1.624776
4983.000000;1.622672
4982.000000;1.622038
4981.000000;1.620496
4980.000000;1.616070
4979.000000;1.610774
4978.000000;1.607356
4977.000000;1.604454
4976.000000;1.598980
4975.000000;1.591701
4974.000000;1.585961
4973.000000;1.582213
4972.000000;1.578305
4971.000000;1.574112
4970.000000;1.571417
4969.000000;1.569775
4968.000000;1.566830
4967.000000;1.562624
4966.000000;1.559454
4965.000000;1.557530
4964.000000;1.554692
4963.000000;1.550322
4962.000000;1.545939
4961.000000;1.541914
4960.000000;1.537144
4959.000000;1.531930
4958.000000;1.527769
4957.000000;1.524291
4956.000000;1.519532
4955.000000;1.513345
4954.000000;1.507626
4953.000000;1.503223
4952.000000;1.499345
4951.000000;1.495615
4950.000000;1.492072
4949.000000;1.487652
4948.000000;1.481402
4947.000000;1.474724
4946.000000;1.469717
4945.000000;1.465936
4944.000000;1.461374
4943.000000;1.456019
4942.000000;1.451668
4941.000000;1.448703
4940.000000;1.445731
4939.000000;1.442073
4938.000000;1.438095
4937.000000;1.433398
4936.000000;1.427152
4935.000000;1.419961
4934.000000;1.413238
4933.000000;1.407209
4932.000000;1.401471
4931.000000;1.396588
4930.000000;1.393006
4929.000000;1.389337
4928.000000;1.384043
4927.000000;1.378021
4926.000000;1.373147
4925.000000;1.369170
4924.000000;1.364472
4923.000000;1.359038
4922.000000;1.354149
4921.000000;1.349811
4920.000000;1.344986
4919.000000;1.339799
4918.000000;1.335104
4917.000000;1.330418
4916.000000;1.324727
4915.000000;1.318863
4914.000000;1.314628
4913.000000;1.311916
4912.000000;1.308885
4911.000000;1.304674
4910.000000;1.299838
4909.000000;1.294475
4908.000000;1.288209
4907.000000;1.281754
4906.000000;1.276292
4905.000000;1.271444
4904.000000;1.265850
4903.000000;1.259550
4902.000000;1.253900
4901.000000;1.249345
4900.000000;1.245153
4899.000000;1.241119
4898.000000;1.237675
4897.000000;1.234391
4896.000000;1.230173
4895.000000;1.224981
4894.000000;1.219825
4893.000000;1.215146
4892.000000;1.210643
4891.000000;1.206406
4890.000000;1.202662
4889.000000;1.198692
4888.000000;1.193528
4887.000000;1.187534
4886.000000;1.181899
4885.000000;1.176869
4884.000000;1.171809
4883.000000;1.166602
4882.000000;1.161602
4881.000000;1.156592
4880.000000;1.151158
4879.000000;1.145772
4878.000000;1.141195
4877.000000;1.137176
4876.000000;1.132966
4875.000000;1.128663
4874.000000;1.124753
4873.000000;1.120812
4872.000000;1.116085
4871.000000;1.110953
4870.000000;1.106369
4869.000000;1.102240
4868.000000;1.097737
4867.000000;1.092876
4866.000000;1.088422
4865.000000;1.084487
4864.000000;1.080545
4863.000000;1.076571
4862.000000;1.072882
4861.000000;1.069109
4860.000000;1.064597
4859.000000;1.059613
4858.000000;1.054947
4857.000000;1.050561
4856.000000;1.045846
4855.000000;1.040924
4854.000000;1.036487
4853.000000;1.032546
4852.000000;1.028492
4851.000000;1.024227
4850.000000;1.020153
4849.000000;1.016241
4848.000000;1.012148
4847.000000;1.008010
4846.000000;1.004148
4845.000000;1.000237
4844.000000;0.995778
4843.000000;0.991138
4842.000000;0.987092
4841.000000;0.983620
4840.000000;0.980064
4839.000000;0.976161
4838.000000;0.972008
4837.000000;0.967393
4836.000000;0.962219
4835.000000;0.957212
4834.000000;0.953141
4833.000000;0.949637
4832.000000;0.945757
4831.000000;0.941423
4830.000000;0.937266
4829.000000;0.933395
4828.000000;0.929407
4827.000000;0.925361
4826.000000;0.921654
4825.000000;0.918100
4824.000000;0.914164
4823.000000;0.909928
4822.000000;0.905869
4821.000000;0.901887
4820.000000;0.897548
4819.000000;0.893087
4818.000000;0.889163
4817.000000;0.885761
4816.000000;0.882284
4815.000000;0.878612
4814.000000;0.875129
4813.000000;0.871856
4812.000000;0.868451
4811.000000;0.864945
4810.000000;0.861594
4809.000000;0.858123
4808.000000;0.854042
4807.000000;0.849615
4806.000000;0.845609
4805.000000;0.842168
4804.000000;0.838770
4803.000000;0.835219
4802.000000;0.831783
4801.000000;0.828428
4800.000000;0.824782
4799.000000;0.820886
4798.000000;0.817180
4797.000000;0.813730
4796.000000;0.810199
4795.000000;0.806559
4794.000000;0.803107
4793.000000;0.799808
4792.000000;0.796324
4791.000000;0.792675
4790.000000;0.789203
4789.000000;0.785891
4788.000000;0.782413
4787.000000;0.778796
4786.000000;0.775407
4785.000000;0.772283
4784.000000;0.769110
4783.000000;0.765836
4782.000000;0.762686
4781.000000;0.759636
4780.000000;0.756455
4779.000000;0.753214
4778.000000;0.750179
4777.000000;0.747254
4776.000000;0.744102
4775.000000;0.740768
4774.000000;0.737596
4773.000000;0.734619
4772.000000;0.731583
4771.000000;0.728472
4770.000000;0.725451
4769.000000;0.722400
4768.000000;0.719074
4767.000000;0.715666
4766.000000;0.712607
4765.000000;0.709872
4764.000000;0.707033
4763.000000;0.703962
4762.000000;0.700946
4761.000000;0.698133
4760.000000;0.695373
4759.000000;0.692592
4758.000000;0.689842
4757.000000;0.687030
4756.000000;0.684045
4755.000000;0.681065
4754.000000;0.678318
4753.000000;0.675663
4752.000000;0.672830
4751.000000;0.669940
4750.000000;0.667304
4749.000000;0.664852
4748.000000;0.662262
4747.000000;0.659518
4746.000000;0.656849
4745.000000;0.654226
4744.000000;0.651437
4743.000000;0.648544
4742.000000;0.645801
4741.000000;0.643206
4740.000000;0.640596
4739.000000;0.638060
4738.000000;0.635780
4737.000000;0.633584
4736.000000;0.631146
4735.000000;0.628525
4734.000000;0.626046
4733.000000;0.623744
4732.000000;0.621401
4731.000000;0.619000
4730.000000;0.616678
4729.000000;0.614326
4728.000000;0.611767
4727.000000;0.609215
4726.000000;0.607047
4725.000000;0.605185
4724.000000;0.603166
4723.000000;0.600800
4722.000000;0.598307
4721.000000;0.595867
4720.000000;0.593486
4719.000000;0.591251
4718.000000;0.589262
4717.000000;0.587346
4716.000000;0.585249
4715.000000;0.583056
4714.000000;0.581032
4713.000000;0.579145
4712.000000;0.577159
4711.000000;0.575113
4710.000000;0.573255
4709.000000;0.571542
4708.000000;0.569664
4707.000000;0.567522
4706.000000;0.565304
4705.000000;0.563134
4704.000000;0.561013
4703.000000;0.559060
4702.000000;0.557402
4701.000000;0.555883
4700.000000;0.554228
4699.000000;0.552440
4698.000000;0.550689
4697.000000;0.548931
4696.000000;0.547021
4695.000000;0.545099
4694.000000;0.543440
4693.000000;0.541977
4692.000000;0.540375
4691.000000;0.538529
4690.000000;0.536649
4689.000000;0.534903
4688.000000;0.533334
4687.000000;0.532023
4686.000000;0.530959
4685.000000;0.529840
4684.000000;0.528358
4683.000000;0.526622
4682.000000;0.524948
4681.000000;0.523365
4680.000000;0.521713
4679.000000;0.520070
4678.000000;0.518657
4677.000000;0.517409
4676.000000;0.516043
4675.000000;0.514510
4674.000000;0.512996
4673.000000;0.511559
4672.000000;0.510154
4671.000000;0.508906
4670.000000;0.507945
4669.000000;0.507035
4668.000000;0.505796
4667.000000;0.504267
4666.000000;0.502842
4665.000000;0.501694
4664.000000;0.500638
4663.000000;0.499527
4662.000000;0.498401
4661.000000;0.497245
4660.000000;0.495987
4659.000000;0.494723
4658.000000;0.493638
4657.000000;0.492714
4656.000000;0.491811
4655.000000;0.490948
4654.000000;0.490187
4653.000000;0.489330
4652.000000;0.488105
4651.000000;0.486608
4650.000000;0.485204
4649.000000;0.484049
4648.000000;0.483033
4647.000000;0.482124
4646.000000;0.481411
4645.000000;0.480824
4644.000000;0.480174
4643.000000;0.479439
4642.000000;0.478724
4641.000000;0.477990
4640.000000;0.477121
4639.000000;0.476206
4638.000000;0.475425
4637.000000;0.474717
4636.000000;0.473877
4635.000000;0.472906
4634.000000;0.471969
4633.000000;0.471098
4632.000000;0.470238
4631.000000;0.469478
4630.000000;0.468909
4629.000000;0.468362
4628.000000;0.467634
4627.000000;0.466844
4626.000000;0.466236
4625.000000;0.465745
4624.000000;0.465136
4623.000000;0.464450
4622.000000;0.463926
4621.000000;0.463558
4620.000000;0.463121
4619.000000;0.462581
4618.000000;0.462093
4617.000000;0.461640
4616.000000;0.461070
4615.000000;0.460438
4614.000000;0.459957
4613.000000;0.459634
4612.000000;0.459288
4611.000000;0.458890
4610.000000;0.458542
4609.000000;0.458187
4608.000000;0.457697
4607.000000;0.457173
4606.000000;0.456823
4605.000000;0.456584
4604.000000;0.456229
4603.000000;0.455776
4602.000000;0.455454
4601.000000;0.455313
4600.000000;0.455204
4599.000000;0.455090
4598.000000;0.455030
4597.000000;0.454922
4596.000000;0.454633
4595.000000;0.454323
4594.000000;0.454276
4593.000000;0.454452
4592.000000;0.454556
4591.000000;0.454495
4590.000000;0.454399
4589.000000;0.454265
4588.000000;0.453973
4587.000000;0.453626
4586.000000;0.453495
4585.000000;0.453612
4584.000000;0.453759
4583.000000;0.453837
4582.000000;0.453926
4581.000000;0.454011
4580.000000;0.454008
4579.000000;0.454013
4578.000000;0.454207
4577.000000;0.454521
4576.000000;0.454737
4575.000000;0.454876
4574.000000;0.455155
4573.000000;0.455600
4572.000000;0.456055
4571.000000;0.456509
4570.000000;0.457050
4569.000000;0.457532
4568.000000;0.457692
4567.000000;0.457600
4566.000000;0.457636
4565.000000;0.457993
4564.000000;0.458542
4563.000000;0.459157
4562.000000;0.459837
4561.000000;0.460501
4560.000000;0.461013
4559.000000;0.461442
4558.000000;0.462003
4557.000000;0.462742
4556.000000;0.463525
4555.000000;0.464302
4554.000000;0.465077
4553.000000;0.465725
4552.000000;0.466152
4551.000000;0.466588
4550.000000;0.467347
4549.000000;0.468373
4548.000000;0.469342
4547.000000;0.470154
4546.000000;0.470973
4545.000000;0.471831
4544.000000;0.472602
4543.000000;0.473321
4542.000000;0.474169
4541.000000;0.475128
4540.000000;0.476013
4539.000000;0.476831
4538.000000;0.477750
4537.000000;0.478752
4536.000000;0.479656
4535.000000;0.480468
4534.000000;0.481356
4533.000000;0.482316
4532.000000;0.483196
4531.000000;0.484033
4530.000000;0.484994
4529.000000;0.486034
4528.000000;0.486943
4527.000000;0.487732
4526.000000;0.488598
4525.000000;0.489570
4524.000000;0.490520
4523.000000;0.491479
4522.000000;0.492582
4521.000000;0.493733
4520.000000;0.494716
4519.000000;0.495586
4518.000000;0.496587
4517.000000;0.497686
4516.000000;0.498594
4515.000000;0.499237
4514.000000;0.499860
4513.000000;0.500653
4512.000000;0.501626
4511.000000;0.502804
4510.000000;0.504184
4509.000000;0.505500
4508.000000;0.506413
4507.000000;0.506961
4506.000000;0.507502
4505.000000;0.508235
4504.000000;0.509098
4503.000000;0.510088
4502.000000;0.511306
4501.000000;0.512684
4500.000000;0.513995
4499.000000;0.515156
4498.000000;0.516270
4497.000000;0.517404
4496.000000;0.518586
4495.000000;0.519929
4494.000000;0.521459
4493.000000;0.522948
4492.000000;0.524198
4491.000000;0.525364
4490.000000;0.526667
4489.000000;0.527986
4488.000000;0.529126
4487.000000;0.530296
4486.000000;0.531856
4485.000000;0.533712
4484.000000;0.535425
4483.000000;0.536853
4482.000000;0.538223
4481.000000;0.539651
4480.000000;0.541057
4479.000000;0.542506
4478.000000;0.544183
4477.000000;0.546038
4476.000000;0.547860
4475.000000;0.549645
4474.000000;0.551508
4473.000000;0.553344
4472.000000;0.554973
4471.000000;0.556552
4470.000000;0.558368
4469.000000;0.560328
4468.000000;0.562131
4467.000000;0.563857
4466.000000;0.565869
4465.000000;0.568183
4464.000000;0.570419
4463.000000;0.572385
4462.000000;0.574233
4461.000000;0.576036
4460.000000;0.577718
4459.000000;0.579403
4458.000000;0.581366
4457.000000;0.583603
4456.000000;0.585827
4455.000000;0.587921
4454.000000;0.589987
4453.000000;0.592005
4452.000000;0.593871
4451.000000;0.595741
4450.000000;0.597921
4449.000000;0.600413
4448.000000;0.602974
4447.000000;0.605549
4446.000000;0.608245
4445.000000;0.610948
4444.000000;0.613423
4443.000000;0.615738
4442.000000;0.618148
4441.000000;0.620631
4440.000000;0.622968
4439.000000;0.625205
4438.000000;0.627592
4437.000000;0.630141
4436.000000;0.632693
4435.000000;0.635323
4434.000000;0.638210
4433.000000;0.641190
4432.000000;0.643913
4431.000000;0.646362
4430.000000;0.648777
4429.000000;0.651205
4428.000000;0.653593
4427.000000;0.656170
4426.000000;0.659184
4425.000000;0.662403
4424.000000;0.665401
4423.000000;0.668204
4422.000000;0.671131
4421.000000;0.674148
4420.000000;0.676965
4419.000000;0.679636
4418.000000;0.682447
4417.000000;0.685337
4416.000000;0.688038
4415.000000;0.690699
4414.000000;0.693719
4413.000000;0.697050
4412.000000;0.700267
4411.000000;0.703293
4410.000000;0.706422
4409.000000;0.709701
4408.000000;0.712882
4407.000000;0.715941
4406.000000;0.719067
4405.000000;0.722208
4404.000000;0.725200
4403.000000;0.728224
4402.000000;0.731565
4401.000000;0.735034
4400.000000;0.738232
4399.000000;0.741262
4398.000000;0.744548
4397.000000;0.748111
4396.000000;0.751677
4395.000000;0.755322
4394.000000;0.759325
4393.000000;0.763505
4392.000000;0.767401
4391.000000;0.771000
4390.000000;0.774613
4389.000000;0.778197
4388.000000;0.781495
4387.000000;0.784673
4386.000000;0.788088
4385.000000;0.791591
4384.000000;0.794822
4383.000000;0.797984
4382.000000;0.801551
4381.000000;0.805411
4380.000000;0.809108
4379.000000;0.812745
4378.000000;0.816772
4377.000000;0.821053
4376.000000;0.825061
4375.000000;0.828875
4374.000000;0.833084
4373.000000;0.837751
4372.000000;0.842337
4371.000000;0.846604
4370.000000;0.850731
4369.000000;0.854663
4368.000000;0.858192
4367.000000;0.861610
4366.000000;0.865452
4365.000000;0.869702
4364.000000;0.874037
4363.000000;0.878573
4362.000000;0.883496
4361.000000;0.888284
4360.000000;0.892334
4359.000000;0.896128
4358.000000;0.900647
4357.000000;0.905808
4356.000000;0.910608
4355.000000;0.914667
4354.000000;0.918528
4353.000000;0.922541
4352.000000;0.926609
4351.000000;0.930955
4350.000000;0.935983
4349.000000;0.941379
4348.000000;0.946380
4347.000000;0.950907
4346.000000;0.955456
4345.000000;0.960074
4344.000000;0.964504
4343.000000;0.969104
4342.000000;0.974422
4341.000000;0.980064
4340.000000;0.985160
4339.000000;0.989765
4338.000000;0.994586
4337.000000;0.999580
4336.000000;1.004145
4335.000000;1.008449
4334.000000;1.013192
4333.000000;1.018285
4332.000000;1.023120
4331.000000;1.027924
4330.000000;1.033418
4329.000000;1.039362
4328.000000;1.044931
4327.000000;1.050344
4326.000000;1.056540
4325.000000;1.063392
4324.000000;1.069804
4323.000000;1.075482
4322.000000;1.081020
4321.000000;1.086425
4320.000000;1.091251
4319.000000;1.096046
4318.000000;1.101812
4317.000000;1.108134
4316.000000;1.113638
4315.000000;1.118270
4314.000000;1.123301
4313.000000;1.129069
4312.000000;1.134672
4311.000000;1.139909
4310.000000;1.145612
4309.000000;1.151841
4308.000000;1.157662
4307.000000;1.162969
4306.000000;1.168768
4305.000000;1.175429
4304.000000;1.182289
4303.000000;1.189040
4302.000000;1.195823
4301.000000;1.201988
4300.000000;1.206642
4299.000000;1.210517
4298.000000;1.215431
4297.000000;1.221895
4296.000000;1.228966
4295.000000;1.236225
4294.000000;1.243974
4293.000000;1.251616
4292.000000;1.257953
4291.000000;1.263179
4290.000000;1.268661
4289.000000;1.274837
4288.000000;1.281197
4287.000000;1.287928
4286.000000;1.295444
4285.000000;1.302720
4284.000000;1.308442
4283.000000;1.313463
4282.000000;1.319688
4281.000000;1.326902
4280.000000;1.333213
4279.000000;1.338432
4278.000000;1.344368
4277.000000;1.351891
4276.000000;1.360187
4275.000000;1.368611
4274.000000;1.376885
4273.000000;1.383884
4272.000000;1.388886
4271.000000;1.393556
4270.000000;1.400061
4269.000000;1.407845
4268.000000;1.414858
4267.000000;1.421210
4266.000000;1.428630
4265.000000;1.437054
4264.000000;1.444999
4263.000000;1.452580
4262.000000;1.460837
4261.000000;1.468786
4260.000000;1.474665
4259.000000;1.479358
4258.000000;1.484991
4257.000000;1.491177
4256.000000;1.496447
4255.000000;1.502139
4254.000000;1.510718
4253.000000;1.521220
4252.000000;1.530580
4251.000000;1.538611
4250.000000;1.547342
4249.000000;1.556250
4248.000000;1.563263
4247.000000;1.569311
4246.000000;1.576703
4245.000000;1.584119
4244.000000;1.588617
4243.000000;1.591834
4242.000000;1.598292
4241.000000;1.608190
4240.000000;1.617524
4239.000000;1.624961
4238.000000;1.632675
4237.000000;1.640501
4236.000000;1.645854
4235.000000;1.649669
4234.000000;1.656081
4233.000000;1.665696
4232.000000;1.674751
4231.000000;1.681341
4230.000000;1.687342
4229.000000;1.693801
4228.000000;1.699913
4227.000000;1.706691
4226.000000;1.716228
4225.000000;1.727419
4224.000000;1.737400
4223.000000;1.746506
4222.000000;1.756704
4221.000000;1.766626
4220.000000;1.773945
4219.000000;1.781093
4218.000000;1.791699
4217.000000;1.803009
4216.000000;1.809248
4215.000000;1.811267
4214.000000;1.814885
4213.000000;1.821825
4212.000000;1.830259
4211.000000;1.841278
4210.000000;1.856307
4209.000000;1.870180
4208.000000;1.876202
4207.000000;1.877296
4206.000000;1.881692
4205.000000;1.890240
4204.000000;1.897618
4203.000000;1.902850
4202.000000;1.908994
4201.000000;1.915243
4200.000000;1.919638
4199.000000;1.926187
4198.000000;1.938325
4197.000000;1.949210
4196.000000;1.951000
4195.000000;1.950726
4194.000000;1.961760
4193.000000;1.984034
4192.000000;2.004367
4191.000000;2.015580
4190.000000;2.023314
4189.000000;2.032073
4188.000000;2.040419
4187.000000;2.049387
4186.000000;2.061115
4185.000000;2.070270
4184.000000;2.071149
4183.000000;2.071140
4182.000000;2.080900
4181.000000;2.096301
4180.000000;2.104910
4179.000000;2.107060
4178.000000;2.112342
4177.000000;2.119454
4176.000000;2.120291
4175.000000;2.118988
4174.000000;2.126371
4173.000000;2.140754
4172.000000;2.151206
4171.000000;2.158445
4170.000000;2.173219
4169.000000;2.194004
4168.000000;2.206986
4167.000000;2.210294
4166.000000;2.215844
4165.000000;2.226369
4164.000000;2.233841
4163.000000;2.237524
4162.000000;2.245419
4161.000000;2.256919
4160.000000;2.264247
4159.000000;2.269939
4158.000000;2.279859
4157.000000;2.285100
4156.000000;2.276427
4155.000000;2.268485
4154.000000;2.280354
4153.000000;2.304403
4152.000000;2.316049
4151.000000;2.313574
4150.000000;2.316920
4149.000000;2.330741
4148.000000;2.343485
4147.000000;2.354990
4146.000000;2.374506
4145.000000;2.392671
4144.000000;2.390662
4143.000000;2.377881
4142.000000;2.377904
4141.000000;2.390029
4140.000000;2.396856
4139.000000;2.400612
4138.000000;2.421263
4137.000000;2.458752
4136.000000;2.485318
4135.000000;2.487785
4134.000000;2.485394
4133.000000;2.488413
4132.000000;2.488936
4131.000000;2.490266
4130.000000;2.504238
4129.000000;2.523055
4128.000000;2.528087
4127.000000;2.527806
4126.000000;2.545600
4125.000000;2.574715
4124.000000;2.583464
4123.000000;2.569688
4122.000000;2.562505
4121.000000;2.571110
4120.000000;2.582568
4119.000000;2.594255
4118.000000;2.609907
4117.000000;2.613121
4116.000000;2.591007
4115.000000;2.569120
4114.000000;2.572621
4113.000000;2.585526
4112.000000;2.578938
4111.000000;2.564983
4110.000000;2.571390
4109.000000;2.591516
4108.000000;2.601229
4107.000000;2.606475
4106.000000;2.629425
4105.000000;2.658482
4104.000000;2.660757
4103.000000;2.643940
4102.000000;2.636747
4101.000000;2.631657
4100.000000;2.615857
4099.000000;2.617727
4098.000000;2.662856
4097.000000;2.719020
4096.000000;2.725300
4095.000000;2.699495
4094.000000;2.697018
4093.000000;2.710605
4092.000000;2.702721
4091.000000;2.698776
4090.000000;2.739657
4089.000000;2.790251
4088.000000;2.771736
4087.000000;2.703957
4086.000000;2.667735
4085.000000;2.684564
4084.000000;2.732943
4083.000000;2.804929
4082.000000;2.903220
4081.000000;2.957945
4080.000000;2.884829
4079.000000;2.778940
4078.000000;2.733918
4077.000000;2.737150
4076.000000;2.731299
4075.000000;2.707077
4074.000000;2.699829
4073.000000;2.711882
4072.000000;2.723117
4071.000000;2.744890
4070.000000;2.810021
4069.000000;2.909339
4068.000000;2.957124
4067.000000;2.918118
4066.000000;2.870754
4065.000000;2.841919
4064.000000;2.816005
4063.000000;2.810665
4062.000000;2.847807
4061.000000;2.893006
4060.000000;2.882763
4059.000000;2.844209
4058.000000;2.842247
4057.000000;2.869083
4056.000000;2.871956
4055.000000;2.856301
4054.000000;2.878586
4053.000000;2.944053
4052.000000;2.983108
4051.000000;2.965360
4050.000000;2.957993
4049.000000;2.965875
4048.000000;2.941477
4047.000000;2.913523
4046.000000;2.931104
4045.000000;2.960920
4044.000000;2.950258
4043.000000;2.932496
4042.000000;2.940699
4041.000000;2.955367
4040.000000;2.945344
4039.000000;2.907156
4038.000000;2.887765
4037.000000;2.909003
4036.000000;2.924654
4035.000000;2.910018
4034.000000;2.911849
4033.000000;2.928310
4032.000000;2.918053
4031.000000;2.917548
4030.000000;2.966517
4029.000000;3.007247
4028.000000;2.963200
4027.000000;2.890597
4026.000000;2.884070
4025.000000;2.945739
4024.000000;2.985498
4023.000000;2.963950
4022.000000;2.951078
4021.000000;2.957260
4020.000000;2.936889
4019.000000;2.921572
4018.000000;2.963887
4017.000000;3.039403
4016.000000;3.053496
4015.000000;2.997784
4014.000000;2.975937
4013.000000;2.996896
4012.000000;2.980349
4011.000000;2.916054
4010.000000;2.860120
4009.000000;2.816258
4008.000000;2.770915
4007.000000;2.759056
4006.000000;2.828638
4005.000000;2.985809
4004.000000;3.145136
4003.000000;3.172224
4002.000000;3.102612
4001.000000;3.015614
4000.000000;2.930868
3999.000000;2.888937
3998.000000;2.935570
3997.000000;3.053953
3996.000000;3.129899
3995.000000;3.094864
3994.000000;3.042892
3993.000000;3.020903
3992.000000;3.027972
3991.000000;3.087023
3990.000000;3.240265
3989.000000;3.409385
3988.000000;3.291857
3987.000000;3.121834
3986.000000;3.066534
3985.000000;3.052604
3984.000000;2.982625
3983.000000;2.903115
3982.000000;2.906574
3981.000000;3.005002
3980.000000;3.146752
3979.000000;3.300478
3978.000000;3.504284
3977.000000;3.720782
3976.000000;3.603638
3975.000000;3.300420
3974.000000;3.177269
3973.000000;3.189980
3972.000000;3.193784
3971.000000;3.148624
3970.000000;3.155384
3969.000000;3.196948
3968.000000;3.170193
3967.000000;3.129176
3966.000000;3.171857
3965.000000;3.274971
3964.000000;3.359118
3963.000000;3.302605
3962.000000;3.220641
3961.000000;3.219928
3960.000000;3.214096
3959.000000;3.188759
3958.000000;3.221233
3957.000000;3.299344
3956.000000;3.296468
3955.000000;3.218006
3954.000000;3.207160
3953.000000;3.327506
3952.000000;3.457525
3951.000000;3.623997
3950.000000;3.885616
3949.000000;3.660949
3948.000000;3.492431
3947.000000;3.270938
3946.000000;3.114080
3945.000000;3.056008
3944.000000;3.018326
3943.000000;3.010200
3942.000000;3.040646
3941.000000;3.044419
3940.000000;3.022919
3939.000000;3.086185
3938.000000;3.264642
3937.000000;3.400592
3936.000000;3.340573
3935.000000;3.323997
3934.000000;3.482276
3933.000000;3.648178
3932.000000;3.658625
3931.000000;3.673845
3930.000000;3.893495
3929.000000;3.917881
3928.000000;3.684539
3927.000000;3.488941
3926.000000;3.321486
3925.000000;3.259280
3924.000000;3.230945
3923.000000;3.191026
3922.000000;3.242999
3921.000000;3.402645
3920.000000;3.415145
3919.000000;3.272773
3918.000000;3.176832
3917.000000;3.190788
3916.000000;3.435468
3915.000000;3.879876
3914.000000;3.725162
3913.000000;3.590675
3912.000000;3.704997
3911.000000;3.734860
3910.000000;3.638753
3909.000000;3.510055
3908.000000;3.430239
3907.000000;3.447563
3906.000000;3.604497
3905.000000;4.061443
3904.000000;3.866435
3903.000000;3.784418
3902.000000;3.954596
3901.000000;3.544464
3900.000000;3.476951
3899.000000;3.671204
3898.000000;3.673347
3897.000000;3.553242
3896.000000;3.550322
3895.000000;3.514189
3894.000000;3.512325
3893.000000;3.859823
3892.000000;4.236884
3891.000000;3.750844
3890.000000;3.808271
3889.000000;4.191178
3888.000000;4.431099
3887.000000;4.437247
3886.000000;4.000051
3885.000000;3.791043
3884.000000;3.599953
3883.000000;3.463658
3882.000000;3.560400
3881.000000;3.813650
3880.000000;4.059782
3879.000000;4.014722
3878.000000;3.509013
3877.000000;3.318144
3876.000000;3.364179
3875.000000;3.363414
3874.000000;3.307018
3873.000000;3.377634
3872.000000;3.401160
3871.000000;3.318438
3870.000000;3.396675
3869.000000;3.650566
3868.000000;3.724341
3867.000000;3.641988
3866.000000;3.585625
3865.000000;3.484979
3864.000000;3.464151
3863.000000;3.617094
3862.000000;3.734396
3861.000000;3.776778
3860.000000;4.128059
3859.000000;5.066686
3858.000000;3.772759
3857.000000;3.281989
3856.000000;3.232113
3855.000000;3.283177
3854.000000;3.283089
3853.000000;3.393254
3852.000000;3.475755
3851.000000;3.535807
3850.000000;3.758003
3849.000000;3.792879
3848.000000;3.617998
3847.000000;3.586412
3846.000000;3.614838
3845.000000;3.604995
3844.000000;3.583836
3843.000000;3.581507
3842.000000;3.535780
3841.000000;3.513555
3840.000000;3.572938
3839.000000;3.631277
3838.000000;3.851973
3837.000000;4.001649
3836.000000;3.679481
3835.000000;3.603503
3834.000000;3.637991
3833.000000;3.796822
3832.000000;4.140192
3831.000000;3.774186
3830.000000;3.791243
3829.000000;4.140099
3828.000000;3.754047
3827.000000;3.719604
3826.000000;3.828826
3825.000000;3.685597
3824.000000;3.710738
3823.000000;3.833367
3822.000000;3.779293
3821.000000;3.783990
3820.000000;4.036819
3819.000000;4.307973
3818.000000;3.559501
3817.000000;3.515980
3816.000000;3.737885
3815.000000;3.402491
3814.000000;3.277914
3813.000000;3.363742
3812.000000;3.486025
3811.000000;3.506893
3810.000000;3.518399
3809.000000;3.583585
3808.000000;3.936526
3807.000000;4.011585
3806.000000;3.492814
3805.000000;3.351823
3804.000000;3.533241
3803.000000;3.989981
3802.000000;3.681586
3801.000000;3.530858
3800.000000;3.639564
3799.000000;3.649997
3798.000000;3.505602
3797.000000;3.322078
3796.000000;3.168113
3795.000000;3.085189
3794.000000;3.112257
3793.000000;3.237435
3792.000000;3.423066
3791.000000;3.739354
3790.000000;3.978231
3789.000000;3.783101
3788.000000;3.652172
3787.000000;3.733743
3786.000000;3.977288
3785.000000;3.897846
3784.000000;3.782390
3783.000000;3.545975
3782.000000;3.409595
3781.000000;3.492890
3780.000000;3.473401
3779.000000;3.445924
3778.000000;3.815584
3777.000000;4.152788
3776.000000;3.834892
3775.000000;3.999237
3774.000000;3.903145
3773.000000;3.817470
3772.000000;4.161449
3771.000000;3.984824
3770.000000;3.741722
3769.000000;3.539427
3768.000000;3.403470
3767.000000;3.385399
3766.000000;3.324591
3765.000000;3.230754
3764.000000;3.164185
3763.000000;3.102053
3762.000000;3.020594
3761.000000;2.972185
3760.000000;3.005785
3759.000000;3.083934
3758.000000;3.106697
3757.000000;3.094216
3756.000000;3.150332
3755.000000;3.250292
3754.000000;3.325666
3753.000000;3.517816
3752.000000;3.714987
3751.000000;3.498465
3750.000000;3.318326
3749.000000;3.205797
3748.000000;3.167040
3747.000000;3.283610
3746.000000;3.292938
3745.000000;3.254891
3744.000000;3.337262
3743.000000;3.339849
3742.000000;3.306432
3741.000000;3.341931
3740.000000;3.646928
3739.000000;3.743911
3738.000000;3.393483
3737.000000;3.350743
3736.000000;3.349726
3735.000000;3.468193
3734.000000;3.861150
3733.000000;3.662347
3732.000000;3.611179
3731.000000;3.671249
3730.000000;3.391180
3729.000000;3.274985
3728.000000;3.364297
3727.000000;3.493997
3726.000000;3.431784
3725.000000;3.318824
3724.000000;3.287439
3723.000000;3.311851
3722.000000;3.246492
3721.000000;3.155505
3720.000000;3.248599
3719.000000;3.521958
3718.000000;3.750963
3717.000000;3.837778
3716.000000;3.750592
3715.000000;3.594026
3714.000000;3.375674
3713.000000;3.206038
3712.000000;3.174285
3711.000000;3.213284
3710.000000;3.229678
3709.000000;3.312145
3708.000000;3.470652
3707.000000;3.459553
3706.000000;3.386329
3705.000000;3.364846
3704.000000;3.461398
3703.000000;3.523283
3702.000000;3.429888
3701.000000;3.482948
3700.000000;3.705889
3699.000000;3.785372
3698.000000;3.482546
3697.000000;3.343778
3696.000000;3.420901
3695.000000;3.664633
3694.000000;4.004630
3693.000000;3.605377
3692.000000;3.337493
3691.000000;3.250157
3690.000000;3.446570
3689.000000;3.707081
3688.000000;3.720000
3687.000000;4.105475
3686.000000;3.447540
3685.000000;3.257096
3684.000000;3.434678
3683.000000;3.878391
3682.000000;3.872149
3681.000000;3.415762
3680.000000;3.334405
3679.000000;3.402374
3678.000000;3.386321
3677.000000;3.277796
3676.000000;3.253232
3675.000000;3.355412
3674.000000;3.476597
3673.000000;3.468524
3672.000000;3.399088
3671.000000;3.268811
3670.000000;3.092395
3669.000000;3.013874
3668.000000;3.097761
3667.000000;3.380838
3666.000000;3.849142
3665.000000;4.187046
3664.000000;3.748282
3663.000000;3.612005
3662.000000;3.935720
3661.000000;3.799658
3660.000000;3.688077
3659.000000;3.926081
3658.000000;3.837470
3657.000000;3.975337
3656.000000;3.715513
3655.000000;3.301441
3654.000000;3.290635
3653.000000;3.531656
3652.000000;3.827854
3651.000000;3.762218
3650.000000;4.090713
3649.000000;4.013101
3648.000000;3.313524
3647.000000;3.162664
3646.000000;3.243458
3645.000000;3.553172
3644.000000;3.843385
3643.000000;3.500770
3642.000000;3.288080
3641.000000;3.225676
3640.000000;3.318232
3639.000000;3.603823
3638.000000;3.484645
3637.000000;3.224247
3636.000000;3.214155
3635.000000;3.380497
3634.000000;3.557615
3633.000000;3.654082
3632.000000;3.854530
3631.000000;3.953973
3630.000000;3.952994
3629.000000;4.016261
3628.000000;4.194623
3627.000000;3.876396
3626.000000;3.459039
3625.000000;3.337839
3624.000000;3.470141
3623.000000;3.882558
3622.000000;4.049339
3621.000000;3.729958
3620.000000;3.548693
3619.000000;3.474767
3618.000000;3.486069
3617.000000;3.500582
3616.000000;3.539359
3615.000000;3.641498
3614.000000;3.524395
3613.000000;3.429766
3612.000000;3.535325
3611.000000;3.455436
3610.000000;3.295886
3609.000000;3.245520
3608.000000;3.350479
3607.000000;3.596706
3606.000000;3.625906
3605.000000;3.514419
3604.000000;3.629981
3603.000000;3.736858
3602.000000;3.525523
3601.000000;3.492231
3600.000000;3.545504
3599.000000;3.679078
3598.000000;3.640997
3597.000000;3.419870
3596.000000;3.376658
3595.000000;3.454996
3594.000000;3.646103
3593.000000;3.635063
3592.000000;3.664219
3591.000000;4.001400
3590.000000;3.594381
3589.000000;3.290643
3588.000000;3.217834
3587.000000;3.270535
3586.000000;3.294527
3585.000000;3.343603
3584.000000;3.637104
3583.000000;3.472921
3582.000000;3.269137
3581.000000;3.286258
3580.000000;3.341153
3579.000000;3.359531
3578.000000;3.531353
3577.000000;3.827524
3576.000000;3.573738
3575.000000;3.607351
3574.000000;3.705887
3573.000000;3.541163
3572.000000;3.417097
3571.000000;3.366603
3570.000000;3.402407
3569.000000;3.417302
3568.000000;3.354899
3567.000000;3.300958
3566.000000;3.373720
3565.000000;3.487599
3564.000000;3.494069
3563.000000;3.417210
3562.000000;3.289482
3561.000000;3.209793
3560.000000;3.200853
3559.000000;3.283200
3558.000000;3.395253
3557.000000;3.342197
3556.000000;3.402367
3555.000000;3.643948
3554.000000;3.576691
3553.000000;3.492483
3552.000000;3.654918
3551.000000;4.099549
3550.000000;3.720539
3549.000000;3.452037
3548.000000;3.565398
3547.000000;3.469270
3546.000000;3.286454
3545.000000;3.318937
3544.000000;3.422498
3543.000000;3.542600
3542.000000;3.702209
3541.000000;3.960553
3540.000000;4.070574
3539.000000;3.787462
3538.000000;3.423901
3537.000000;3.251192
3536.000000;3.390004
3535.000000;3.866724
3534.000000;4.065526
3533.000000;3.646283
3532.000000;3.458094
3531.000000;3.383889
3530.000000;3.303323
3529.000000;3.327322
3528.000000;3.551320
3527.000000;3.547882
3526.000000;3.478752
3525.000000;3.609471
3524.000000;3.599998
3523.000000;3.462524
3522.000000;3.348457
3521.000000;3.252056
3520.000000;3.186218
3519.000000;3.190017
3518.000000;3.411545
3517.000000;3.969625
3516.000000;4.016236
3515.000000;3.738218
3514.000000;3.427361
3513.000000;3.245684
3512.000000;3.293285
3511.000000;3.294695
3510.000000;3.216580
3509.000000;3.277657
3508.000000;3.443949
3507.000000;3.991381
3506.000000;3.742374
3505.000000;3.378444
3504.000000;3.366883
3503.000000;3.350836
3502.000000;3.522672
3501.000000;3.682849
3500.000000;3.691246
3499.000000;4.138157
3498.000000;3.773569
3497.000000;3.639953
3496.000000;3.922014
3495.000000;3.587229
3494.000000;3.120712
3493.000000;2.966068
3492.000000;3.007900
3491.000000;3.191471
3490.000000;3.416766
3489.000000;3.692538
3488.000000;3.849271
3487.000000;3.669740
3486.000000;3.663848
3485.000000;3.408239
3484.000000;3.248825
3483.000000;3.265283
3482.000000;3.407844
3481.000000;3.810240
3480.000000;3.861929
3479.000000;3.575223
3478.000000;3.666944
3477.000000;4.048161
3476.000000;3.669288
3475.000000;3.450870
3474.000000;3.597673
3473.000000;4.040446
3472.000000;3.816910
3471.000000;3.704675
3470.000000;3.509849
3469.000000;3.289656
3468.000000;3.225172
3467.000000;3.215211
3466.000000;3.234639
3465.000000;3.255297
3464.000000;3.296519
3463.000000;3.466920
3462.000000;3.840969
3461.000000;3.941951
3460.000000;3.763893
3459.000000;3.925767
3458.000000;3.963392
3457.000000;3.670483
3456.000000;3.700899
3455.000000;3.627799
3454.000000;3.530181
3453.000000;3.555763
3452.000000;3.525017
3451.000000;3.551536
3450.000000;3.492222
3449.000000;3.521069
3448.000000;4.062374
3447.000000;3.942686
3446.000000;3.848402
3445.000000;3.989158
3444.000000;3.829115
3443.000000;3.592416
3442.000000;3.286866
3441.000000;3.125555
3440.000000;3.186194
3439.000000;3.587958
3438.000000;4.037439
3437.000000;3.535623
3436.000000;3.383651
3435.000000;3.404566
3434.000000;3.686435
3433.000000;3.542541
3432.000000;3.266209
3431.000000;3.159918
3430.000000;3.139861
3429.000000;3.250441
3428.000000;3.319182
3427.000000;3.345042
3426.000000;3.406942
3425.000000;3.303764
3424.000000;3.276395
3423.000000;3.571024
3422.000000;3.402965
3421.000000;3.078645
3420.000000;3.007920
3419.000000;3.055350
3418.000000;3.089013
3417.000000;3.065116
3416.000000;3.093000
3415.000000;3.136951
3414.000000;3.100071
3413.000000;3.036742
3412.000000;3.039910
3411.000000;3.121527
3410.000000;3.195103
3409.000000;3.264502
3408.000000;3.423366
3407.000000;3.464270
3406.000000;3.424928
3405.000000;3.523357
3404.000000;3.577355
3403.000000;4.087334
3402.000000;3.970176
3401.000000;3.438044
3400.000000;3.384346
3399.000000;3.424651
3398.000000;3.540972
3397.000000;3.375533
3396.000000;3.302710
3395.000000;3.635776
3394.000000;3.826821
3393.000000;3.348517
3392.000000;3.086049
3391.000000;3.016452
3390.000000;3.159569
3389.000000;3.287191
3388.000000;3.177867
3387.000000;3.166191
3386.000000;3.134792
3385.000000;3.083397
3384.000000;3.108812
3383.000000;3.184420
3382.000000;3.230536
3381.000000;3.276141
3380.000000;3.323175
3379.000000;3.292463
3378.000000;3.408641
3377.000000;3.778261
3376.000000;3.771920
3375.000000;3.711311
3374.000000;3.497929
3373.000000;3.301330
3372.000000;3.296028
3371.000000;3.302878
3370.000000;3.318501
3369.000000;3.414019
3368.000000;3.566999
3367.000000;3.393164
3366.000000;3.267235
3365.000000;3.275440
3364.000000;3.537954
3363.000000;3.652987
3362.000000;3.291193
3361.000000;3.134071
3360.000000;3.082454
3359.000000;3.152639
3358.000000;3.323421
3357.000000;3.495079
3356.000000;3.396944
3355.000000;3.240588
3354.000000;3.227710
3353.000000;3.249581
3352.000000;3.247523
3351.000000;3.275391
3350.000000;3.287794
3349.000000;3.323802
3348.000000;3.656336
3347.000000;3.787738
3346.000000;3.811483
3345.000000;3.694055
3344.000000;3.505526
3343.000000;3.451818
3342.000000;3.267108
3341.000000;3.225056
3340.000000;3.391804
3339.000000;3.480228
3338.000000;3.540155
3337.000000;3.701353
3336.000000;3.885989
3335.000000;4.368787
3334.000000;3.889898
3333.000000;3.462552
3332.000000;3.371578
3331.000000;3.355791
3330.000000;3.278648
3329.000000;3.483717
3328.000000;4.003445
3327.000000;3.442675
3326.000000;3.122346
3325.000000;2.974001
3324.000000;3.042974
3323.000000;3.335961
3322.000000;3.434787
3321.000000;3.260544
3320.000000;3.185785
3319.000000;3.185287
3318.000000;3.341011
3317.000000;3.897770
3316.000000;3.354202
3315.000000;3.098156
3314.000000;3.092003
3313.000000;3.170650
3312.000000;3.447794
3311.000000;3.569074
3310.000000;3.391144
3309.000000;3.307022
3308.000000;3.270815
3307.000000;3.357743
3306.000000;3.727564
3305.000000;3.767644
3304.000000;3.381791
3303.000000;3.391044
3302.000000;3.727127
3301.000000;3.611951
3300.000000;3.288266
3299.000000;3.265234
3298.000000;3.377832
3297.000000;3.478417
3296.000000;3.263883
3295.000000;3.204439
3294.000000;3.412988
3293.000000;3.662434
3292.000000;3.686396
3291.000000;3.599259
3290.000000;3.591297
3289.000000;3.407504
3288.000000;3.264941
3287.000000;3.229021
3286.000000;3.142101
3285.000000;3.074393
3284.000000;3.160260
3283.000000;3.489665
3282.000000;3.814712
3281.000000;3.543629
3280.000000;3.417892
3279.000000;3.250144
3278.000000;3.201087
3277.000000;3.213515
3276.000000;3.189630
3275.000000;3.210609
3274.000000;3.099297
3273.000000;2.928289
3272.000000;2.897961
3271.000000;2.972939
3270.000000;3.076874
3269.000000;3.219426
3268.000000;3.425444
3267.000000;3.405671
3266.000000;3.485777
3265.000000;3.688313
3264.000000;3.893064
3263.000000;3.649630
3262.000000;3.325444
3261.000000;3.170056
3260.000000;3.161079
3259.000000;3.291110
3258.000000;3.418290
3257.000000;3.426770
3256.000000;3.431887
3255.000000;3.521461
3254.000000;3.629632
3253.000000;3.688006
3252.000000;4.062885
3251.000000;3.539348
3250.000000;3.504996
3249.000000;3.766278
3248.000000;3.897950
3247.000000;3.806465
3246.000000;3.785854
3245.000000;3.485319
3244.000000;3.362419
3243.000000;3.516209
3242.000000;3.632779
3241.000000;3.521791
3240.000000;3.641688
3239.000000;3.863752
3238.000000;3.852565
3237.000000;3.793012
3236.000000;3.998664
3235.000000;3.412162
3234.000000;3.208418
3233.000000;3.246476
3232.000000;3.369950
3231.000000;3.651731
3230.000000;3.680922
3229.000000;3.394754
3228.000000;3.292509
3227.000000;3.182410
3226.000000;3.027026
3225.000000;2.957537
3224.000000;3.071775
3223.000000;3.453247
3222.000000;4.157000
3221.000000;3.975614
3220.000000;3.701882
3219.000000;3.578998
3218.000000;3.653574
3217.000000;3.665106
3216.000000;3.646694
3215.000000;3.710047
3214.000000;3.788759
3213.000000;4.255199
3212.000000;3.891863
3211.000000;3.524530
3210.000000;3.468649
3209.000000;3.338313
3208.000000;3.219006
3207.000000;3.188993
3206.000000;3.245813
3205.000000;3.348414
3204.000000;3.400269
3203.000000;3.414199
3202.000000;3.478249
3201.000000;3.394928
3200.000000;3.431401
3199.000000;3.689787
3198.000000;4.040125
3197.000000;4.146903
3196.000000;3.712865
3195.000000;3.405577
3194.000000;3.308927
3193.000000;3.308893
3192.000000;3.362996
3191.000000;3.311520
3190.000000;3.244768
3189.000000;3.300240
3188.000000;3.349276
3187.000000;3.375655
3186.000000;3.553792
3185.000000;3.771922
3184.000000;3.649135
3183.000000;3.433764
3182.000000;3.315208
3181.000000;3.304296
3180.000000;3.392017
3179.000000;3.780925
3178.000000;3.483497
3177.000000;3.177255
3176.000000;3.146268
3175.000000;3.239309
3174.000000;3.299047
3173.000000;3.375127
3172.000000;3.518144
3171.000000;3.373201
3170.000000;3.454924
3169.000000;3.857400
3168.000000;3.493158
3167.000000;3.254664
3166.000000;3.124404
3165.000000;3.202880
3164.000000;3.415085
3163.000000;3.223831
3162.000000;3.158510
3161.000000;3.374853
3160.000000;3.613934
3159.000000;3.646807
3158.000000;3.368215
3157.000000;3.160603
3156.000000;3.167841
3155.000000;3.263093
3154.000000;3.319592
3153.000000;3.394375
3152.000000;3.923229
3151.000000;3.873318
3150.000000;3.917466
3149.000000;4.148414
3148.000000;3.995040
3147.000000;3.413576
3146.000000;3.369243
3145.000000;3.618827
3144.000000;4.018636
3143.000000;3.920458
3142.000000;3.968721
3141.000000;3.969897
3140.000000;3.327347
3139.000000;3.171314
3138.000000;3.168571
3137.000000;3.199317
3136.000000;3.209628
3135.000000;3.319702
3134.000000;3.450269
3133.000000;3.453973
3132.000000;3.426209
3131.000000;3.366576
3130.000000;3.438418
3129.000000;3.695598
3128.000000;3.947248
3127.000000;3.778961
3126.000000;3.363445
3125.000000;3.177833
3124.000000;3.252602
3123.000000;3.777723
3122.000000;4.124623
3121.000000;4.664634
3120.000000;3.627005
3119.000000;3.470545
3118.000000;3.517554
3117.000000;3.629910
3116.000000;3.599207
3115.000000;3.299366
3114.000000;3.304016
3113.000000;3.612352
3112.000000;4.087961
3111.000000;3.545417
3110.000000;3.184463
3109.000000;3.026590
3108.000000;3.050981
3107.000000;3.152801
3106.000000;3.225215
3105.000000;3.378510
3104.000000;3.749328
3103.000000;4.195733
3102.000000;3.590556
3101.000000;3.301089
3100.000000;3.296344
3099.000000;3.379061
3098.000000;3.410047
3097.000000;3.440543
3096.000000;3.708087
3095.000000;4.676482
3094.000000;4.488535
3093.000000;3.757559
3092.000000;3.617488
3091.000000;3.612464
3090.000000;3.504094
3089.000000;3.293092
3088.000000;3.174959
3087.000000;3.121894
3086.000000;3.065304
3085.000000;3.024510
3084.000000;3.065246
3083.000000;3.163169
3082.000000;3.197413
3081.000000;3.179689
3080.000000;3.217034
3079.000000;3.216195
3078.000000;3.102239
3077.000000;3.045925
3076.000000;3.179407
3075.000000;3.556156
3074.000000;3.632933
3073.000000;3.616353
3072.000000;3.895057
3071.000000;4.519765
3070.000000;4.001978
3069.000000;3.693350
3068.000000;3.782936
3067.000000;3.898655
3066.000000;3.883975
3065.000000;3.505906
3064.000000;3.382264
3063.000000;3.396180
3062.000000;3.562606
3061.000000;3.786942
3060.000000;3.462308
3059.000000;3.210929
3058.000000;3.202496
3057.000000;3.340863
3056.000000;3.401560
3055.000000;3.375302
3054.000000;3.574138
3053.000000;3.804057
3052.000000;3.852916
3051.000000;4.104746
3050.000000;3.744016
3049.000000;3.466809
3048.000000;3.492037
3047.000000;3.666670
3046.000000;3.584694
3045.000000;3.436540
3044.000000;3.432335
3043.000000;3.454536
3042.000000;3.317056
3041.000000;3.186677
3040.000000;3.240400
3039.000000;3.392151
3038.000000;3.403122
3037.000000;3.389450
3036.000000;3.702158
3035.000000;4.093627
3034.000000;3.480900
3033.000000;3.347859
3032.000000;3.243139
3031.000000;3.181277
3030.000000;3.244635
3029.000000;3.416009
3028.000000;3.428262
3027.000000;3.293251
3026.000000;3.285344
3025.000000;3.350633
3024.000000;3.222136
3023.000000;3.148852
3022.000000;3.307107
3021.000000;3.687520
3020.000000;3.785732
3019.000000;3.631631
3018.000000;3.383733
3017.000000;3.183577
3016.000000;3.216315
3015.000000;3.442326
3014.000000;3.575107
3013.000000;3.719196
3012.000000;4.094652
3011.000000;3.640101
3010.000000;3.466474
3009.000000;3.293946
3008.000000;3.212701
3007.000000;3.223647
3006.000000;3.305065
3005.000000;3.566361
3004.000000;3.891220
3003.000000;3.760594
3002.000000;3.776692
3001.000000;3.479672
3000.000000;3.359542
2999.000000;3.410686
2998.000000;3.292627
2997.000000;3.211671
2996.000000;3.287561
2995.000000;3.479363
2994.000000;3.671186
2993.000000;3.709315
2992.000000;3.765275
2991.000000;3.505717
2990.000000;3.476474
2989.000000;3.705152
2988.000000;3.774522
2987.000000;3.618499
2986.000000;3.679187
2985.000000;3.852795
2984.000000;3.833123
2983.000000;3.631375
2982.000000;3.214762
2981.000000;2.990228
2980.000000;2.968098
2979.000000;3.103703
2978.000000;3.235804
2977.000000;3.218517
2976.000000;3.212844
2975.000000;3.542774
2974.000000;3.728604
2973.000000;3.246740
2972.000000;3.213708
2971.000000;3.357867
2970.000000;3.444511
2969.000000;3.381280
2968.000000;3.321006
2967.000000;3.240030
2966.000000;3.187707
2965.000000;3.239696
2964.000000;3.400390
2963.000000;3.638481
2962.000000;3.495857
2961.000000;3.309897
2960.000000;3.293590
2959.000000;3.271084
2958.000000;3.220039
2957.000000;3.163712
2956.000000;3.153486
2955.000000;3.287125
2954.000000;3.722743
2953.000000;3.908636
2952.000000;3.586375
2951.000000;3.551621
2950.000000;3.695718
2949.000000;3.617988
2948.000000;3.448883
2947.000000;3.357484
2946.000000;3.223761
2945.000000;3.224563
2944.000000;3.252478
2943.000000;3.185189
2942.000000;3.205024
2941.000000;3.377398
2940.000000;3.502773
2939.000000;3.504857
2938.000000;3.457041
2937.000000;3.294888
2936.000000;3.246268
2935.000000;3.414857
2934.000000;3.559529
2933.000000;3.399683
2932.000000;3.488891
2931.000000;3.746821
2930.000000;3.454380
2929.000000;3.153654
2928.000000;3.008720
2927.000000;2.972135
2926.000000;3.008796
2925.000000;3.110115
2924.000000;3.319387
2923.000000;3.684424
2922.000000;4.060705
2921.000000;4.038056
2920.000000;3.550944
2919.000000;3.241192
2918.000000;3.115735
2917.000000;3.086628
2916.000000;3.183252
2915.000000;3.360556
2914.000000;3.235296
2913.000000;3.067447
2912.000000;3.103063
2911.000000;3.334968
2910.000000;3.657304
2909.000000;3.913643
2908.000000;4.078493
2907.000000;3.599593
2906.000000;3.355553
2905.000000;3.183399
2904.000000;3.131166
2903.000000;3.209130
2902.000000;3.464547
2901.000000;3.619478
2900.000000;3.244615
2899.000000;3.182963
2898.000000;3.348045
2897.000000;3.539079
2896.000000;3.372874
2895.000000;3.168650
2894.000000;3.127365
2893.000000;3.192299
2892.000000;3.328078
2891.000000;3.583554
2890.000000;3.963005
2889.000000;3.727993
2888.000000;3.641202
2887.000000;3.654369
2886.000000;3.498300
2885.000000;3.391956
2884.000000;3.433600
2883.000000;3.632387
2882.000000;3.422739
2881.000000;3.242292
2880.000000;3.442867
2879.000000;3.883921
2878.000000;3.602875
2877.000000;3.567173
2876.000000;3.646160
2875.000000;3.691265
2874.000000;3.708556
2873.000000;3.624745
2872.000000;3.774239
2871.000000;3.926879
2870.000000;3.547498
2869.000000;3.297950
2868.000000;3.144535
2867.000000;3.059718
2866.000000;3.115605
2865.000000;3.284547
2864.000000;3.403278
2863.000000;3.368657
2862.000000;3.239225
2861.000000;3.205202
2860.000000;3.346061
2859.000000;3.366610
2858.000000;3.376333
2857.000000;3.706295
2856.000000;3.971298
2855.000000;3.649825
2854.000000;3.327389
2853.000000;3.199741
2852.000000;3.426679
2851.000000;3.956321
2850.000000;3.749237
2849.000000;3.794437
2848.000000;3.657348
2847.000000;3.397318
2846.000000;3.199279
2845.000000;3.121226
2844.000000;3.427454
2843.000000;4.050874
2842.000000;3.653432
2841.000000;3.737161
2840.000000;3.748872
2839.000000;3.630731
2838.000000;3.578888
2837.000000;3.455376
2836.000000;3.483464
2835.000000;4.113162
2834.000000;3.664421
2833.000000;3.227644
2832.000000;3.289937
2831.000000;3.637872
2830.000000;3.729297
2829.000000;3.537662
2828.000000;3.409606
2827.000000;3.308772
2826.000000;3.288296
2825.000000;3.321795
2824.000000;3.345622
2823.000000;3.289894
2822.000000;3.437102
2821.000000;3.877927
2820.000000;3.606769
2819.000000;3.391714
2818.000000;3.327722
2817.000000;3.331170
2816.000000;3.306975
2815.000000;3.411241
2814.000000;3.817110
2813.000000;3.547601
2812.000000;3.367378
2811.000000;3.476072
2810.000000;3.438898
2809.000000;3.318323
2808.000000;3.264360
2807.000000;3.320872
2806.000000;3.365907
2805.000000;3.241627
2804.000000;3.203107
2803.000000;3.199232
2802.000000;3.100154
2801.000000;3.055814
2800.000000;3.138428
2799.000000;3.308204
2798.000000;3.370328
2797.000000;3.234926
2796.000000;3.152126
2795.000000;3.195289
2794.000000;3.190676
2793.000000;3.149590
2792.000000;3.354786
2791.000000;3.456672
2790.000000;3.288653
2789.000000;3.354533
2788.000000;3.413993
2787.000000;3.590004
2786.000000;3.766128
2785.000000;3.374510
2784.000000;3.157435
2783.000000;3.115425
2782.000000;3.239497
2781.000000;3.522841
2780.000000;3.823317
2779.000000;3.757879
2778.000000;3.349975
2777.000000;3.111034
2776.000000;3.091785
2775.000000;3.274702
2774.000000;3.325276
2773.000000;3.164369
2772.000000;3.195250
2771.000000;3.375623
2770.000000;3.376071
2769.000000;3.216027
2768.000000;3.177192
2767.000000;3.215746
2766.000000;3.176966
2765.000000;3.133795
2764.000000;3.217435
2763.000000;3.367316
2762.000000;3.361841
2761.000000;3.316921
2760.000000;3.501056
2759.000000;3.585865
2758.000000;3.409484
2757.000000;3.410694
2756.000000;3.572836
2755.000000;4.081799
2754.000000;3.850581
2753.000000;3.647860
2752.000000;3.494743
2751.000000;3.317001
2750.000000;3.432103
2749.000000;3.709038
2748.000000;3.625840
2747.000000;3.600112
2746.000000;4.057928
2745.000000;3.572805
2744.000000;3.242745
2743.000000;3.188698
2742.000000;3.206156
2741.000000;3.405408
2740.000000;3.732798
2739.000000;3.622271
2738.000000;3.615401
2737.000000;3.764288
2736.000000;3.695472
2735.000000;3.542024
2734.000000;3.468190
2733.000000;3.410941
2732.000000;3.251915
2731.000000;3.142438
2730.000000;3.182416
2729.000000;3.271771
2728.000000;3.228247
2727.000000;3.153878
2726.000000;3.229511
2725.000000;3.453262
2724.000000;3.812659
2723.000000;4.519398
2722.000000;3.631633
2721.000000;3.310795
2720.000000;3.309128
2719.000000;3.299590
2718.000000;3.123256
2717.000000;2.999260
2716.000000;3.070843
2715.000000;3.351567
2714.000000;3.603861
2713.000000;3.436519
2712.000000;3.263654
2711.000000;3.166999
2710.000000;3.101584
2709.000000;3.041155
2708.000000;3.013098
2707.000000;3.071908
2706.000000;3.203961
2705.000000;3.370185
2704.000000;3.418401
2703.000000;3.493119
2702.000000;3.658352
2701.000000;3.487754
2700.000000;3.481494
2699.000000;3.558583
2698.000000;3.547223
2697.000000;3.506807
2696.000000;3.429737
2695.000000;3.499953
2694.000000;3.363107
2693.000000;3.174693
2692.000000;3.280771
2691.000000;3.562431
2690.000000;3.509571
2689.000000;3.379783
2688.000000;3.300070
2687.000000;3.260500
2686.000000;3.493408
2685.000000;4.044535
2684.000000;3.552283
2683.000000;3.313368
2682.000000;3.236048
2681.000000;3.272622
2680.000000;3.418536
2679.000000;3.405159
2678.000000;3.607888
2677.000000;3.924040
2676.000000;3.589947
2675.000000;3.395607
2674.000000;3.301848
2673.000000;3.372422
2672.000000;3.659557
2671.000000;4.121881
2670.000000;3.694309
2669.000000;3.332977
2668.000000;3.404187
2667.000000;3.848092
2666.000000;4.208469
2665.000000;4.223051
2664.000000;3.778475
2663.000000;3.732660
2662.000000;4.158990
2661.000000;3.735793
2660.000000;3.675239
2659.000000;3.840388
2658.000000;3.759896
2657.000000;3.588323
2656.000000;3.322905
2655.000000;3.229592
2654.000000;3.313764
2653.000000;3.337614
2652.000000;3.296886
2651.000000;3.376738
2650.000000;3.587261
2649.000000;4.041985
2648.000000;3.814076
2647.000000;3.329692
2646.000000;3.258439
2645.000000;3.464714
2644.000000;3.705610
2643.000000;3.654165
2642.000000;3.500727
2641.000000;3.758856
2640.000000;3.683229
2639.000000;3.284456
2638.000000;3.242660
2637.000000;3.554657
2636.000000;4.085893
2635.000000;3.450856
2634.000000;3.244628
2633.000000;3.234636
2632.000000;3.360967
2631.000000;3.622207
2630.000000;3.883687
2629.000000;3.697684
2628.000000;3.457346
2627.000000;3.413418
2626.000000;3.233122
2625.000000;3.086488
2624.000000;3.081288
2623.000000;3.186904
2622.000000;3.379182
2621.000000;3.527198
2620.000000;3.607560
2619.000000;4.055168
2618.000000;3.813554
2617.000000;3.382244
2616.000000;3.357842
2615.000000;3.423956
2614.000000;3.479697
2613.000000;3.726130
2612.000000;3.996726
2611.000000;3.808717
2610.000000;3.782141
2609.000000;3.719099
2608.000000;3.443517
2607.000000;3.327963
2606.000000;3.435152
2605.000000;3.614064
2604.000000;3.816429
2603.000000;3.817102
2602.000000;3.735946
2601.000000;3.846657
2600.000000;3.614182
2599.000000;3.427522
2598.000000;3.505058
2597.000000;3.750900
2596.000000;3.807638
2595.000000;3.687647
2594.000000;3.517959
2593.000000;3.331526
2592.000000;3.342674
2591.000000;3.585323
2590.000000;3.623923
2589.000000;3.737516
2588.000000;3.703400
2587.000000;3.413144
2586.000000;3.388524
2585.000000;3.648917
2584.000000;4.138212
2583.000000;3.566252
2582.000000;3.412511
2581.000000;3.481424
2580.000000;3.567602
2579.000000;3.670486
2578.000000;3.608938
2577.000000;3.860531
2576.000000;4.156770
2575.000000;3.451408
2574.000000;3.321140
2573.000000;3.401722
2572.000000;3.439604
2571.000000;3.733514
2570.000000;3.961522
2569.000000;4.137858
2568.000000;3.668608
2567.000000;3.328051
2566.000000;3.459212
2565.000000;3.436719
2564.000000;3.345482
2563.000000;3.292325
2562.000000;3.208318
2561.000000;3.325907
2560.000000;3.483450
2559.000000;3.455668
2558.000000;3.326442
2557.000000;3.329670
2556.000000;3.555962
2555.000000;3.606850
2554.000000;3.338855
2553.000000;3.180597
2552.000000;3.128708
2551.000000;3.147219
2550.000000;3.264701
2549.000000;3.396482
2548.000000;3.749106
2547.000000;3.998716
2546.000000;3.581794
2545.000000;3.405176
2544.000000;3.218137
2543.000000;3.219765
2542.000000;3.309236
2541.000000;3.342969
2540.000000;3.330577
2539.000000;3.332186
2538.000000;3.406632
2537.000000;3.343991
2536.000000;3.302786
2535.000000;3.338200
2534.000000;3.306148
2533.000000;3.294477
2532.000000;3.437942
2531.000000;3.509080
2530.000000;3.349518
2529.000000;3.219562
2528.000000;3.118537
2527.000000;3.096754
2526.000000;3.177670
2525.000000;3.263733
2524.000000;3.279437
2523.000000;3.382589
2522.000000;3.683983
2521.000000;3.622410
2520.000000;3.515936
2519.000000;3.558712
2518.000000;3.433359
2517.000000;3.384142
2516.000000;3.547322
2515.000000;4.153975
2514.000000;4.168351
2513.000000;3.934620
2512.000000;3.904627
2511.000000;3.514718
2510.000000;3.345515
2509.000000;3.324936
2508.000000;3.414881
2507.000000;3.538793
2506.000000;3.518817
2505.000000;3.418908
2504.000000;3.389051
2503.000000;3.483290
2502.000000;3.540712
2501.000000;3.475639
2500.000000;3.363422
2499.000000;3.459878
2498.000000;3.684496
2497.000000;3.314989
2496.000000;3.151758
2495.000000;3.126307
2494.000000;3.183610
2493.000000;3.441064
2492.000000;3.667536
2491.000000;3.777993
2490.000000;3.986330
2489.000000;3.580772
2488.000000;3.359285
2487.000000;3.362314
2486.000000;3.308698
2485.000000;3.333218
2484.000000;3.568917
2483.000000;3.596140
2482.000000;3.550072
2481.000000;3.629766
2480.000000;3.715154
2479.000000;3.548560
2478.000000;3.359795
2477.000000;3.326174
2476.000000;3.414377
2475.000000;3.697570
2474.000000;3.597994
2473.000000;3.260200
2472.000000;3.273492
2471.000000;3.503428
2470.000000;3.566341
2469.000000;3.480335
2468.000000;3.528396
2467.000000;3.622869
2466.000000;3.482005
2465.000000;3.341939
2464.000000;3.370236
2463.000000;3.445521
2462.000000;3.346452
2461.000000;3.239509
2460.000000;3.258715
2459.000000;3.363852
2458.000000;3.390348
2457.000000;3.324130
2456.000000;3.347320
2455.000000;3.435896
2454.000000;3.370374
2453.000000;3.355694
2452.000000;3.563866
2451.000000;3.543939
2450.000000;3.524582
2449.000000;3.628437
2448.000000;3.602940
2447.000000;3.733081
2446.000000;3.795630
2445.000000;3.440226
2444.000000;3.293217
2443.000000;3.414581
2442.000000;3.647400
2441.000000;3.470224
2440.000000;3.460413
2439.000000;3.678328
2438.000000;3.628966
2437.000000;3.540052
2436.000000;3.851758
2435.000000;3.710816
2434.000000;3.493391
2433.000000;3.643040
2432.000000;3.904023
2431.000000;4.008307
2430.000000;3.527395
2429.000000;3.484617
2428.000000;3.599113
2427.000000;3.414292
2426.000000;3.314859
2425.000000;3.344194
2424.000000;3.525853
2423.000000;3.823262
2422.000000;3.977254
2421.000000;3.466767
2420.000000;3.461068
2419.000000;3.725527
2418.000000;3.774594
2417.000000;3.683979
2416.000000;3.369478
2415.000000;3.239622
2414.000000;3.286795
2413.000000;3.320969
2412.000000;3.260549
2411.000000;3.262642
2410.000000;3.214086
2409.000000;3.068826
2408.000000;3.046258
2407.000000;3.132579
2406.000000;3.158594
2405.000000;3.145397
2404.000000;3.296036
2403.000000;3.683427
2402.000000;3.911422
2401.000000;4.188210
2400.000000;3.965713
2399.000000;3.583725
2398.000000;3.658300
2397.000000;3.670293
2396.000000;3.476741
2395.000000;3.323619
2394.000000;3.303565
2393.000000;3.362827
2392.000000;3.463538
2391.000000;3.511311
2390.000000;3.301585
2389.000000;3.169848
2388.000000;3.217341
2387.000000;3.345404
2386.000000;3.344582
2385.000000;3.333293
2384.000000;3.542517
2383.000000;3.698795
2382.000000;3.703484
2381.000000;3.844134
2380.000000;3.562419
2379.000000;3.358749
2378.000000;3.357776
2377.000000;3.396615
2376.000000;3.418513
2375.000000;3.366108
2374.000000;3.339388
2373.000000;3.383183
2372.000000;3.338247
2371.000000;3.329562
2370.000000;3.585472
2369.000000;3.523192
2368.000000;3.438932
2367.000000;3.529398
2366.000000;3.380267
2365.000000;3.328625
2364.000000;3.567976
2363.000000;3.605078
2362.000000;3.443278
2361.000000;3.392106
2360.000000;3.159674
2359.000000;2.999311
2358.000000;3.115178
2357.000000;3.381312
2356.000000;3.390548
2355.000000;3.522082
2354.000000;3.382846
2353.000000;3.297518
2352.000000;3.616419
2351.000000;3.378509
2350.000000;3.158854
2349.000000;3.177385
2348.000000;3.333418
2347.000000;3.671947
2346.000000;3.385131
2345.000000;3.190763
2344.000000;3.402212
2343.000000;4.050627
2342.000000;3.539261
2341.000000;3.356929
2340.000000;3.412765
2339.000000;3.436947
2338.000000;3.418648
2337.000000;3.420664
2336.000000;3.527890
2335.000000;3.652196
2334.000000;3.452815
2333.000000;3.287910
2332.000000;3.344205
2331.000000;3.469279
2330.000000;3.386526
2329.000000;3.336232
2328.000000;3.526127
2327.000000;3.905004
2326.000000;3.687197
2325.000000;3.320890
2324.000000;3.268224
2323.000000;3.479908
2322.000000;3.675962
2321.000000;3.572508
2320.000000;3.549015
2319.000000;3.580284
2318.000000;3.497393
2317.000000;3.526489
2316.000000;3.834859
2315.000000;3.524127
2314.000000;3.449617
2313.000000;3.552514
2312.000000;3.526240
2311.000000;3.444802
2310.000000;3.389773
2309.000000;3.323663
2308.000000;3.277063
2307.000000;3.269725
2306.000000;3.358695
2305.000000;3.653057
2304.000000;3.750462
2303.000000;3.465624
2302.000000;3.291523
2301.000000;3.193045
2300.000000;3.325425
2299.000000;3.572909
2298.000000;3.570576
2297.000000;3.540950
2296.000000;3.603431
2295.000000;3.554242
2294.000000;3.322593
2293.000000;3.210255
2292.000000;3.317315
2291.000000;3.524204
2290.000000;3.428274
2289.000000;3.270625
2288.000000;3.230770
2287.000000;3.267115
2286.000000;3.420320
2285.000000;3.679842
2284.000000;3.990046
2283.000000;3.791384
2282.000000;3.636287
2281.000000;3.896774
2280.000000;4.126309
2279.000000;3.366405
2278.000000;3.256422
2277.000000;3.240582
2276.000000;3.290940
2275.000000;3.415961
2274.000000;3.702714
2273.000000;3.628575
2272.000000;3.478965
2271.000000;3.543101
2270.000000;3.548318
2269.000000;3.601785
2268.000000;3.624005
2267.000000;3.605390
2266.000000;3.753791
2265.000000;3.295282
2264.000000;3.157331
2263.000000;3.243354
2262.000000;3.321441
2261.000000;3.333016
2260.000000;3.359197
2259.000000;3.369077
2258.000000;3.291161
2257.000000;3.335893
2256.000000;3.639091
2255.000000;3.534297
2254.000000;3.621016
2253.000000;4.181215
2252.000000;3.681683
2251.000000;3.446982
2250.000000;3.479688
2249.000000;3.721140
2248.000000;3.641734
2247.000000;3.349384
2246.000000;3.242865
2245.000000;3.174133
2244.000000;3.179502
2243.000000;3.221752
2242.000000;3.209884
2241.000000;3.236679
2240.000000;3.349661
2239.000000;3.489043
2238.000000;3.680981
2237.000000;3.682327
2236.000000;3.819775
2235.000000;3.666117
2234.000000;4.074075
2233.000000;3.754426
2232.000000;3.526411
2231.000000;3.468123
2230.000000;3.372931
2229.000000;3.298899
2228.000000;3.271766
2227.000000;3.288838
2226.000000;3.582263
2225.000000;4.109306
2224.000000;3.823583
2223.000000;3.894206
2222.000000;3.567244
2221.000000;3.335774
2220.000000;3.303396
2219.000000;3.209183
2218.000000;3.114299
2217.000000;3.090445
2216.000000;3.145169
2215.000000;3.302137
2214.000000;3.352730
2213.000000;3.237975
2212.000000;3.258176
2211.000000;3.278993
2210.000000;3.210316
2209.000000;3.161516
2208.000000;3.251543
2207.000000;3.438186
2206.000000;3.359440
2205.000000;3.211992
2204.000000;3.198443
2203.000000;3.201478
2202.000000;3.101157
2201.000000;3.045192
2200.000000;3.143053
2199.000000;3.324105
2198.000000;3.332110
2197.000000;3.455134
2196.000000;3.839651
2195.000000;3.443778
2194.000000;3.449093
2193.000000;3.734366
2192.000000;3.597858
2191.000000;3.779336
2190.000000;4.287907
2189.000000;4.020791
2188.000000;3.557392
2187.000000;3.369301
2186.000000;3.257249
2185.000000;3.177218
2184.000000;3.240186
2183.000000;3.607755
2182.000000;3.360716
2181.000000;3.132523
2180.000000;3.163293
2179.000000;3.278284
2178.000000;3.498433
2177.000000;4.282649
2176.000000;4.165164
2175.000000;4.990787
2174.000000;3.792073
2173.000000;3.590541
2172.000000;3.624905
2171.000000;3.669861
2170.000000;3.453705
2169.000000;3.354998
2168.000000;3.554337
2167.000000;4.349777
2166.000000;4.082605
2165.000000;3.587873
2164.000000;3.877939
2163.000000;3.723547
2162.000000;3.518291
2161.000000;3.433329
2160.000000;3.454340
2159.000000;3.679876
2158.000000;3.599171
2157.000000;3.403451
2156.000000;3.313835
2155.000000;3.424625
2154.000000;3.959826
2153.000000;3.404765
2152.000000;3.505817
2151.000000;3.739988
2150.000000;3.574176
2149.000000;3.572308
2148.000000;3.577245
2147.000000;3.765554
2146.000000;3.769015
2145.000000;3.602046
2144.000000;3.907601
2143.000000;4.443622
2142.000000;3.812009
2141.000000;3.779364
2140.000000;3.613126
2139.000000;3.452238
2138.000000;3.195328
2137.000000;3.065268
2136.000000;3.115389
2135.000000;3.289459
2134.000000;3.367543
2133.000000;3.405260
2132.000000;3.712205
2131.000000;3.841755
2130.000000;4.293519
2129.000000;3.722605
2128.000000;3.727426
2127.000000;3.693484
2126.000000;3.463736
2125.000000;3.338822
2124.000000;3.402852
2123.000000;3.618332
2122.000000;3.660116
2121.000000;3.667490
2120.000000;4.046250
2119.000000;3.808320
2118.000000;3.561881
2117.000000;3.621347
2116.000000;3.995755
2115.000000;4.428581
2114.000000;3.646642
2113.000000;3.301346
2112.000000;3.167101
2111.000000;3.128669
2110.000000;3.194798
2109.000000;3.521821
2108.000000;3.361264
2107.000000;3.108531
2106.000000;3.153237
2105.000000;3.317885
2104.000000;3.312689
2103.000000;3.158488
2102.000000;3.112064
2101.000000;3.170108
2100.000000;3.219833
2099.000000;3.253819
2098.000000;3.367575
2097.000000;3.393068
2096.000000;3.434252
2095.000000;3.521490
2094.000000;3.538729
2093.000000;3.392299
2092.000000;3.366715
2091.000000;3.465303
2090.000000;3.402879
2089.000000;3.292413
2088.000000;3.249549
2087.000000;3.179219
2086.000000;3.048315
2085.000000;3.016293
2084.000000;3.197007
2083.000000;3.725015
2082.000000;4.118056
2081.000000;3.733725
2080.000000;3.635191
2079.000000;3.581468
2078.000000;3.361555
2077.000000;3.203216
2076.000000;3.220225
2075.000000;3.303657
2074.000000;3.196994
2073.000000;3.084619
2072.000000;3.096734
2071.000000;3.130825
2070.000000;3.122160
2069.000000;3.211213
2068.000000;3.649267
2067.000000;3.544117
2066.000000;3.389498
2065.000000;3.474224
2064.000000;3.741605
2063.000000;4.249167
2062.000000;3.569951
2061.000000;3.360466
2060.000000;3.324274
2059.000000;3.351629
2058.000000;3.396169
2057.000000;3.484096
2056.000000;3.672779
2055.000000;3.980709
2054.000000;3.630800
2053.000000;3.364910
2052.000000;3.438484
2051.000000;3.849216
2050.000000;4.095059
2049.000000;3.997146
2048.000000;3.743718
2047.000000;3.499354
2046.000000;3.580046
2045.000000;3.804051
2044.000000;3.589671
2043.000000;3.403219
2042.000000;3.504965
2041.000000;3.674311
2040.000000;3.639191
2039.000000;3.653858
2038.000000;3.746111
2037.000000;3.446542
2036.000000;3.315183
2035.000000;3.266667
2034.000000;3.293606
2033.000000;3.351867
2032.000000;3.485538
2031.000000;3.984502
2030.000000;3.709172
2029.000000;3.352595
2028.000000;3.345993
2027.000000;3.359467
2026.000000;3.326761
2025.000000;3.308581
2024.000000;3.459412
2023.000000;3.596268
2022.000000;3.509493
2021.000000;3.576248
2020.000000;3.717217
2019.000000;3.579262
2018.000000;3.547055
2017.000000;3.485253
2016.000000;3.609117
2015.000000;3.612831
2014.000000;3.820695
2013.000000;3.882894
2012.000000;3.576997
2011.000000;3.656556
2010.000000;3.584614
2009.000000;3.403991
2008.000000;3.535752
2007.000000;3.875016
2006.000000;4.083407
2005.000000;3.848678
2004.000000;3.656549
2003.000000;3.544495
2002.000000;3.582560
2001.000000;3.640975
2000.000000;3.442179
1999.000000;3.359406
1998.000000;3.651536
1997.000000;3.964192
1996.000000;3.506486
1995.000000;3.253550
1994.000000;3.218812
1993.000000;3.233154
1992.000000;3.149829
1991.000000;3.111013
1990.000000;3.201881
1989.000000;3.274088
1988.000000;3.388586
1987.000000;3.704364
1986.000000;3.775664
1985.000000;3.442881
1984.000000;3.444090
1983.000000;3.639695
1982.000000;3.783982
1981.000000;3.956927
1980.000000;3.802113
1979.000000;3.713438
1978.000000;3.435344
1977.000000;3.124467
1976.000000;3.112383
1975.000000;3.264416
1974.000000;3.584500
1973.000000;3.612738
1972.000000;3.287915
1971.000000;3.184330
1970.000000;3.381843
1969.000000;3.754501
1968.000000;3.552620
1967.000000;3.667715
1966.000000;3.537105
1965.000000;3.096055
1964.000000;3.048341
1963.000000;3.231389
1962.000000;3.555866
1961.000000;4.044276
1960.000000;3.942190
1959.000000;3.954192
1958.000000;3.662487
1957.000000;3.278752
1956.000000;3.239189
1955.000000;3.507953
1954.000000;3.537306
1953.000000;3.237777
1952.000000;3.229190
1951.000000;3.269319
1950.000000;3.386045
1949.000000;3.460915
1948.000000;3.462149
1947.000000;3.474658
1946.000000;3.468355
1945.000000;3.425253
1944.000000;3.486422
1943.000000;3.625983
1942.000000;3.596195
1941.000000;3.600807
1940.000000;3.998288
1939.000000;3.609619
1938.000000;3.351983
1937.000000;3.213351
1936.000000;3.226823
1935.000000;3.370347
1934.000000;3.418968
1933.000000;3.456045
1932.000000;3.605990
1931.000000;3.492715
1930.000000;3.551313
1929.000000;3.613917
1928.000000;3.770440
1927.000000;3.824896
1926.000000;3.529010
1925.000000;3.435342
1924.000000;3.420841
1923.000000;3.338235
1922.000000;3.170501
1921.000000;3.120792
1920.000000;3.123572
1919.000000;3.190242
1918.000000;3.517283
1917.000000;4.073121
1916.000000;3.921013
1915.000000;3.417500
1914.000000;3.346414
1913.000000;3.559598
1912.000000;3.776377
1911.000000;4.170301
1910.000000;3.706543
1909.000000;3.495547
1908.000000;3.569200
1907.000000;3.385828
1906.000000;3.359607
1905.000000;3.496037
1904.000000;3.491900
1903.000000;3.473365
1902.000000;3.717366
1901.000000;3.818381
1900.000000;3.644078
1899.000000;3.661575
1898.000000;3.780111
1897.000000;3.674823
1896.000000;3.423237
1895.000000;3.280647
1894.000000;3.100794
1893.000000;3.003637
1892.000000;3.073548
1891.000000;3.260518
1890.000000;3.351725
1889.000000;3.339806
1888.000000;3.394241
1887.000000;3.436612
1886.000000;3.447315
1885.000000;3.467552
1884.000000;3.548945
1883.000000;3.772623
1882.000000;3.785133
1881.000000;3.633466
1880.000000;3.881235
1879.000000;3.845707
1878.000000;3.572992
1877.000000;3.407346
1876.000000;3.437570
1875.000000;3.341104
1874.000000;3.234187
1873.000000;3.326851
1872.000000;3.458324
1871.000000;3.363237
1870.000000;3.358932
1869.000000;3.373375
1868.000000;3.257614
1867.000000;3.238918
1866.000000;3.387066
1865.000000;3.661722
1864.000000;3.585980
1863.000000;3.408422
1862.000000;3.294400
1861.000000;3.306330
1860.000000;3.452976
1859.000000;3.341642
1858.000000;3.332265
1857.000000;3.548509
1856.000000;3.660460
1855.000000;3.587494
1854.000000;3.700358
1853.000000;3.793883
1852.000000;3.515737
1851.000000;3.363895
1850.000000;3.477422
1849.000000;3.741926
1848.000000;4.139722
1847.000000;4.062299
1846.000000;3.491244
1845.000000;3.250444
1844.000000;3.281877
1843.000000;3.491382
1842.000000;3.639886
1841.000000;3.866685
1840.000000;4.069367
1839.000000;4.683470
1838.000000;3.713061
1837.000000;3.277791
1836.000000;3.211251
1835.000000;3.319548
1834.000000;3.505921
1833.000000;3.543957
1832.000000;3.770501
1831.000000;3.934893
1830.000000;3.972495
1829.000000;3.759508
1828.000000;3.609435
1827.000000;3.676662
1826.000000;3.550389
1825.000000;3.574365
1824.000000;3.924263
1823.000000;3.678207
1822.000000;3.553381
1821.000000;3.531682
1820.000000;3.734990
1819.000000;4.204480
1818.000000;3.747752
1817.000000;3.517840
1816.000000;3.575905
1815.000000;3.774385
1814.000000;3.445867
1813.000000;3.251867
1812.000000;3.393410
1811.000000;3.566026
1810.000000;3.784440
1809.000000;4.282816
1808.000000;4.028178
1807.000000;3.534623
1806.000000;3.503248
1805.000000;3.688553
1804.000000;3.416212
1803.000000;3.312519
1802.000000;3.377283
1801.000000;3.403159
1800.000000;3.277095
1799.000000;3.092882
1798.000000;3.114997
1797.000000;3.291259
1796.000000;3.315859
1795.000000;3.341631
1794.000000;3.626972
1793.000000;3.573462
1792.000000;3.481250
1791.000000;3.885848
1790.000000;4.629840
1789.000000;4.205820
1788.000000;3.710905
1787.000000;4.062698
1786.000000;3.696915
1785.000000;3.255887
1784.000000;3.278135
1783.000000;3.422189
1782.000000;3.503412
1781.000000;3.405590
1780.000000;3.400221
1779.000000;3.580242
1778.000000;3.446026
1777.000000;3.253686
1776.000000;3.283227
1775.000000;3.384578
1774.000000;3.350552
1773.000000;3.341609
1772.000000;3.464320
1771.000000;3.667436
1770.000000;3.891131
1769.000000;3.589422
1768.000000;3.329726
1767.000000;3.247539
1766.000000;3.197619
1765.000000;3.249993
1764.000000;3.528560
1763.000000;3.654176
1762.000000;3.574882
1761.000000;3.651157
1760.000000;3.744475
1759.000000;3.754263
1758.000000;3.605573
1757.000000;3.571110
1756.000000;3.633828
1755.000000;3.604839
1754.000000;3.375291
1753.000000;3.124659
1752.000000;3.102780
1751.000000;3.352599
1750.000000;3.476862
1749.000000;3.304216
1748.000000;3.258176
1747.000000;3.267933
1746.000000;3.263301
1745.000000;3.245534
1744.000000;3.398752
1743.000000;3.548564
1742.000000;3.441742
1741.000000;3.405337
1740.000000;3.424363
1739.000000;3.493567
1738.000000;3.479110
1737.000000;3.546020
1736.000000;3.673511
1735.000000;3.476289
1734.000000;3.283928
1733.000000;3.249482
1732.000000;3.404303
1731.000000;3.517959
1730.000000;3.540231
1729.000000;3.438499
1728.000000;3.132637
1727.000000;2.975084
1726.000000;3.025364
1725.000000;3.244645
1724.000000;3.470794
1723.000000;3.800771
1722.000000;3.719586
1721.000000;3.425702
1720.000000;3.596984
1719.000000;3.947181
1718.000000;3.757452
1717.000000;3.808199
1716.000000;4.015358
1715.000000;3.775202
1714.000000;3.823694
1713.000000;3.563980
1712.000000;3.526357
1711.000000;3.759486
1710.000000;3.470543
1709.000000;3.325728
1708.000000;3.353723
1707.000000;3.427049
1706.000000;3.474202
1705.000000;3.551272
1704.000000;3.626241
1703.000000;3.645961
1702.000000;3.675101
1701.000000;3.593506
1700.000000;3.605710
1699.000000;3.659153
1698.000000;3.523758
1697.000000;3.459340
1696.000000;3.523219
1695.000000;3.584807
1694.000000;3.370734
1693.000000;3.197021
1692.000000;3.233592
1691.000000;3.354959
1690.000000;3.411475
1689.000000;3.520831
1688.000000;3.863686
1687.000000;4.499562
1686.000000;3.988795
1685.000000;3.650142
1684.000000;3.792718
1683.000000;4.208163
1682.000000;3.816079
1681.000000;3.398974
1680.000000;3.280166
1679.000000;3.355581
1678.000000;3.391088
1677.000000;3.429174
1676.000000;3.569375
1675.000000;3.530261
1674.000000;3.566964
1673.000000;3.933114
1672.000000;4.027760
1671.000000;3.874990
1670.000000;3.573748
1669.000000;3.501252
1668.000000;3.695681
1667.000000;3.440380
1666.000000;3.312720
1665.000000;3.341689
1664.000000;3.389929
1663.000000;3.535268
1662.000000;3.554398
1661.000000;3.398466
1660.000000;3.425803
1659.000000;3.564674
1658.000000;3.532294
1657.000000;3.635014
1656.000000;3.847270
1655.000000;3.841038
1654.000000;3.623605
1653.000000;3.330979
1652.000000;3.210413
1651.000000;3.329286
1650.000000;3.588000
1649.000000;3.829581
1648.000000;3.940965
1647.000000;4.059407
1646.000000;4.288281
1645.000000;3.763448
1644.000000;3.380469
1643.000000;3.278648
1642.000000;3.487044
1641.000000;3.462925
1640.000000;3.292053
1639.000000;3.467244
1638.000000;3.696603
1637.000000;3.759591
1636.000000;4.024992
1635.000000;4.132031
1634.000000;3.503846
1633.000000;3.197566
1632.000000;3.201703
1631.000000;3.338398
1630.000000;3.349988
1629.000000;3.334382
1628.000000;3.412707
1627.000000;3.491325
1626.000000;3.404372
1625.000000;3.380873
1624.000000;3.653810
1623.000000;4.235124
1622.000000;4.136153
1621.000000;4.028354
1620.000000;4.140673
1619.000000;4.013241
1618.000000;3.684290
1617.000000;3.496162
1616.000000;3.449581
1615.000000;3.497251
1614.000000;3.408213
1613.000000;3.497507
1612.000000;3.826018
1611.000000;3.547244
1610.000000;3.578679
1609.000000;3.818412
1608.000000;3.840057
1607.000000;3.621721
1606.000000;3.611186
1605.000000;3.966981
1604.000000;3.819193
1603.000000;3.688534
1602.000000;3.909839
1601.000000;4.112877
1600.000000;3.529458
1599.000000;3.416386
1598.000000;3.812625
1597.000000;4.405273
1596.000000;4.023091
1595.000000;3.747456
1594.000000;3.757928
1593.000000;4.474166
1592.000000;4.088230
1591.000000;3.839189
1590.000000;4.091336
1589.000000;4.044150
1588.000000;4.192529
1587.000000;3.629443
1586.000000;3.631605
1585.000000;4.193546
1584.000000;3.673543
1583.000000;3.517086
1582.000000;3.778488
1581.000000;3.712665
1580.000000;3.572415
1579.000000;3.734244
1578.000000;3.636968
1577.000000;3.571063
1576.000000;3.890315
1575.000000;3.632489
1574.000000;3.431256
1573.000000;3.715411
1572.000000;3.763617
1571.000000;3.802859
1570.000000;3.840342
1569.000000;3.656397
1568.000000;3.911389
1567.000000;4.651922
1566.000000;3.958804
1565.000000;3.577886
1564.000000;3.646251
1563.000000;3.564204
1562.000000;3.444502
1561.000000;3.573818
1560.000000;3.728772
1559.000000;3.937464
1558.000000;3.757099
1557.000000;3.808888
1556.000000;4.018840
1555.000000;3.685746
1554.000000;3.636853
1553.000000;4.084776
1552.000000;4.087045
1551.000000;3.541107
1550.000000;3.733660
1549.000000;3.806008
1548.000000;3.623492
1547.000000;3.861810
1546.000000;3.535625
1545.000000;3.465429
1544.000000;3.600437
1543.000000;3.477630
1542.000000;3.417149
1541.000000;3.529678
1540.000000;3.764499
1539.000000;4.155197
1538.000000;4.199384
1537.000000;3.732358
1536.000000;3.623953
1535.000000;3.666597
1534.000000;3.710086
1533.000000;3.936128
1532.000000;3.703387
1531.000000;3.734541
1530.000000;4.213878
1529.000000;3.496789
1528.000000;3.494433
1527.000000;3.994383
1526.000000;3.797249
1525.000000;3.558092
1524.000000;3.413992
1523.000000;3.300828
1522.000000;3.269572
1521.000000;3.284444
1520.000000;3.363077
1519.000000;3.578546
1518.000000;3.602295
1517.000000;3.590753
1516.000000;3.727477
1515.000000;3.758521
1514.000000;4.003706
1513.000000;3.728709
1512.000000;3.606888
1511.000000;3.632231
1510.000000;3.273370
1509.000000;3.258726
1508.000000;3.399434
1507.000000;3.366208
1506.000000;3.446304
1505.000000;3.522184
1504.000000;3.626968
1503.000000;3.740993
1502.000000;3.927855
1501.000000;3.862594
1500.000000;3.652513
1499.000000;3.853660
1498.000000;4.108456
1497.000000;3.908608
1496.000000;3.494122
1495.000000;3.365256
1494.000000;3.606200
1493.000000;3.847242
1492.000000;3.815098
1491.000000;3.503929
1490.000000;3.424657
1489.000000;3.768002
1488.000000;3.790340
1487.000000;3.553491
1486.000000;3.680015
1485.000000;3.758103
1484.000000;3.451781
1483.000000;3.387383
1482.000000;3.291440
1481.000000;3.088064
1480.000000;3.088876
1479.000000;3.208600
1478.000000;3.150452
1477.000000;3.040128
1476.000000;3.125135
1475.000000;3.435447
1474.000000;3.560382
1473.000000;3.740537
1472.000000;3.994933
1471.000000;3.428460
1470.000000;3.397058
1469.000000;3.509185
1468.000000;3.450120
1467.000000;3.591291
1466.000000;3.665739
1465.000000;3.463502
1464.000000;3.286877
1463.000000;3.189394
1462.000000;3.058894
1461.000000;3.045440
1460.000000;3.216411
1459.000000;3.312363
1458.000000;3.289179
1457.000000;3.447962
1456.000000;4.000768
1455.000000;3.990407
1454.000000;3.638856
1453.000000;3.444141
1452.000000;3.410797
1451.000000;3.416605
1450.000000;3.278898
1449.000000;3.205219
1448.000000;3.393914
1447.000000;3.600391
1446.000000;3.480146
1445.000000;3.479989
1444.000000;3.446238
1443.000000;3.372920
1442.000000;3.184730
1441.000000;3.044472
1440.000000;3.136372
1439.000000;3.522706
1438.000000;4.156410
1437.000000;4.089410
1436.000000;3.573387
1435.000000;3.508762
1434.000000;3.541597
1433.000000;3.549733
1432.000000;3.937700
1431.000000;3.551695
1430.000000;3.299731
1429.000000;3.197208
1428.000000;3.131341
1427.000000;3.117445
1426.000000;3.107357
1425.000000;3.094592
1424.000000;3.092920
1423.000000;3.132249
1422.000000;3.185541
1421.000000;3.272100
1420.000000;3.627212
1419.000000;3.803434
1418.000000;3.485127
1417.000000;3.520942
1416.000000;3.394733
1415.000000;3.436812
1414.000000;3.694450
1413.000000;3.483091
1412.000000;3.576330
1411.000000;4.045740
1410.000000;3.788123
1409.000000;3.543358
1408.000000;3.542153
1407.000000;3.734217
1406.000000;3.760977
1405.000000;3.764351
1404.000000;3.844275
1403.000000;3.628485
1402.000000;3.618291
1401.000000;3.524682
1400.000000;3.484089
1399.000000;3.398056
1398.000000;3.097228
1397.000000;2.966604
1396.000000;3.049103
1395.000000;3.219835
1394.000000;3.239937
1393.000000;3.576021
1392.000000;4.000585
1391.000000;3.340916
1390.000000;3.513567
1389.000000;3.469813
1388.000000;3.421679
1387.000000;3.770461
1386.000000;3.587141
1385.000000;3.576931
1384.000000;3.664526
1383.000000;3.656344
1382.000000;4.024002
1381.000000;3.823408
1380.000000;3.325087
1379.000000;3.175236
1378.000000;3.181966
1377.000000;3.259231
1376.000000;3.280320
1375.000000;3.467926
1374.000000;3.707345
1373.000000;3.276924
1372.000000;3.350060
1371.000000;3.692796
1370.000000;3.555628
1369.000000;3.514702
1368.000000;3.400282
1367.000000;3.309153
1366.000000;3.308735
1365.000000;3.244225
1364.000000;3.372216
1363.000000;3.562228
1362.000000;3.809810
1361.000000;4.303561
1360.000000;3.762654
1359.000000;3.986389
1358.000000;3.829192
1357.000000;3.570339
1356.000000;3.514483
1355.000000;3.290464
1354.000000;3.329506
1353.000000;3.703148
1352.000000;3.619301
1351.000000;3.538770
1350.000000;3.880951
1349.000000;3.676976
1348.000000;3.650643
1347.000000;3.680510
1346.000000;3.740767
1345.000000;4.107553
1344.000000;3.531985
1343.000000;3.177539
1342.000000;3.154593
1341.000000;3.147092
1340.000000;2.985871
1339.000000;2.965619
1338.000000;3.139552
1337.000000;3.411129
1336.000000;3.407190
1335.000000;3.467549
1334.000000;3.711587
1333.000000;3.562397
1332.000000;3.794570
1331.000000;4.056606
1330.000000;4.213246
1329.000000;4.122124
1328.000000;3.462121
1327.000000;3.305618
1326.000000;3.328006
1325.000000;3.338261
1324.000000;3.433267
1323.000000;3.366724
1322.000000;3.156009
1321.000000;3.134847
1320.000000;3.206403
1319.000000;3.097473
1318.000000;3.040052
1317.000000;3.127750
1316.000000;3.331780
1315.000000;3.391448
1314.000000;3.267339
1313.000000;3.167434
1312.000000;3.095442
1311.000000;3.063925
1310.000000;3.211594
1309.000000;3.379435
1308.000000;3.331658
1307.000000;3.332628
1306.000000;3.254064
1305.000000;3.234422
1304.000000;3.474552
1303.000000;3.879004
1302.000000;3.797966
1301.000000;3.512182
1300.000000;3.291514
1299.000000;3.221789
1298.000000;3.173249
1297.000000;3.054702
1296.000000;3.072036
1295.000000;3.220127
1294.000000;3.265222
1293.000000;3.262831
1292.000000;3.400540
1291.000000;3.465214
1290.000000;3.220677
1289.000000;3.053609
1288.000000;3.083461
1287.000000;3.205628
1286.000000;3.194067
1285.000000;3.213710
1284.000000;3.281939
1283.000000;3.267117
1282.000000;3.393011
1281.000000;3.635177
1280.000000;3.819703
1279.000000;3.400209
1278.000000;3.242644
1277.000000;3.459129
1276.000000;3.726677
1275.000000;3.358397
1274.000000;3.038327
1273.000000;2.977776
1272.000000;3.150435
1271.000000;3.365104
1270.000000;3.399056
1269.000000;3.436532
1268.000000;3.464145
1267.000000;3.225477
1266.000000;3.189470
1265.000000;3.199178
1264.000000;3.088955
1263.000000;3.012380
1262.000000;3.113513
1261.000000;3.424726
1260.000000;3.730648
1259.000000;3.916966
1258.000000;3.672097
1257.000000;3.527527
1256.000000;3.827919
1255.000000;4.105457
1254.000000;3.498784
1253.000000;3.246457
1252.000000;3.383761
1251.000000;3.472322
1250.000000;3.226720
1249.000000;3.126524
1248.000000;3.186404
1247.000000;3.357114
1246.000000;3.429898
1245.000000;3.495944
1244.000000;3.815274
1243.000000;3.693180
1242.000000;3.320705
1241.000000;3.168791
1240.000000;3.217958
1239.000000;3.295203
1238.000000;3.494564
1237.000000;4.000482
1236.000000;3.718696
1235.000000;3.302927
1234.000000;3.122380
1233.000000;3.077686
1232.000000;3.137742
1231.000000;3.225418
1230.000000;3.409404
1229.000000;3.832546
1228.000000;3.608642
1227.000000;3.341871
1226.000000;3.243166
1225.000000;3.207742
1224.000000;3.297558
1223.000000;3.403243
1222.000000;3.680447
1221.000000;3.715855
1220.000000;3.972548
1219.000000;3.575905
1218.000000;3.279674
1217.000000;3.221934
1216.000000;3.307086
1215.000000;3.575992
1214.000000;3.981447
1213.000000;3.396231
1212.000000;3.306315
1211.000000;3.619366
1210.000000;3.856725
1209.000000;3.577173
1208.000000;3.736990
1207.000000;3.396047
1206.000000;3.239870
1205.000000;3.105577
1204.000000;3.197437
1203.000000;3.453230
1202.000000;3.383272
1201.000000;3.173233
1200.000000;3.036639
