Criado como novo conjunto de dados;"e2410_daniel_v2.spp","59225.4 Secs"
cm-1;Abs
10000.000000;1.170102
9999.000000;1.168559
9998.000000;1.167022
9997.000000;1.165486
9996.000000;1.164046
9995.000000;1.163155
9994.000000;1.163025
9993.000000;1.163255
9992.000000;1.163345
9991.000000;1.163183
9990.000000;1.162920
9989.000000;1.162559
9988.000000;1.162024
9987.000000;1.161351
9986.000000;1.160641
9985.000000;1.160047
9984.000000;1.159809
9983.000000;1.159905
9982.000000;1.159691
9981.000000;1.158512
9980.000000;1.156751
9979.000000;1.155605
9978.000000;1.155638
9977.000000;1.156175
9976.000000;1.156309
9975.000000;1.155848
9974.000000;1.154966
9973.000000;1.153685
9972.000000;1.152175
9971.000000;1.150944
9970.000000;1.150317
9969.000000;1.150164
9968.000000;1.150349
9967.000000;1.150922
9966.000000;1.151601
9965.000000;1.151768
9964.000000;1.151315
9963.000000;1.150831
9962.000000;1.150598
9961.000000;1.150089
9960.000000;1.148907
9959.000000;1.147541
9958.000000;1.146660
9957.000000;1.146228
9956.000000;1.145783
9955.000000;1.145122
9954.000000;1.144335
9953.000000;1.143625
9952.000000;1.143375
9951.000000;1.143845
9950.000000;1.144520
9949.000000;1.144385
9948.000000;1.143175
9947.000000;1.141694
9946.000000;1.140628
9945.000000;1.139818
9944.000000;1.139027
9943.000000;1.138559
9942.000000;1.138573
9941.000000;1.138548
9940.000000;1.138034
9939.000000;1.137296
9938.000000;1.136679
9937.000000;1.135995
9936.000000;1.135124
9935.000000;1.134562
9934.000000;1.134671
9933.000000;1.134944
9932.000000;1.134666
9931.000000;1.133840
9930.000000;1.132879
9929.000000;1.131887
9928.000000;1.130853
9927.000000;1.130072
9926.000000;1.129777
9925.000000;1.129676
9924.000000;1.129375
9923.000000;1.128893
9922.000000;1.128334
9921.000000;1.127517
9920.000000;1.126398
9919.000000;1.125397
9918.000000;1.124829
9917.000000;1.124452
9916.000000;1.124010
9915.000000;1.123694
9914.000000;1.123635
9913.000000;1.123514
9912.000000;1.123205
9911.000000;1.123237
9910.000000;1.123977
9909.000000;1.124806
9908.000000;1.124770
9907.000000;1.123718
9906.000000;1.122241
9905.000000;1.120854
9904.000000;1.119801
9903.000000;1.119301
9902.000000;1.119328
9901.000000;1.119359
9900.000000;1.118825
9899.000000;1.117714
9898.000000;1.116472
9897.000000;1.115573
9896.000000;1.115363
9895.000000;1.115828
9894.000000;1.116221
9893.000000;1.115493
9892.000000;1.113594
9891.000000;1.111837
9890.000000;1.111486
9889.000000;1.112430
9888.000000;1.113595
9887.000000;1.114183
9886.000000;1.114020
9885.000000;1.113170
9884.000000;1.111834
9883.000000;1.110392
9882.000000;1.109104
9881.000000;1.107959
9880.000000;1.107012
9879.000000;1.106474
9878.000000;1.106207
9877.000000;1.105673
9876.000000;1.104733
9875.000000;1.103978
9874.000000;1.103886
9873.000000;1.104142
9872.000000;1.104194
9871.000000;1.103947
9870.000000;1.103496
9869.000000;1.102741
9868.000000;1.101737
9867.000000;1.100922
9866.000000;1.100483
9865.000000;1.099959
9864.000000;1.098954
9863.000000;1.097765
9862.000000;1.096877
9861.000000;1.096328
9860.000000;1.096017
9859.000000;1.096092
9858.000000;1.096466
9857.000000;1.096462
9856.000000;1.095583
9855.000000;1.094254
9854.000000;1.093233
9853.000000;1.092699
9852.000000;1.092430
9851.000000;1.092381
9850.000000;1.092471
9849.000000;1.092269
9848.000000;1.091567
9847.000000;1.090931
9846.000000;1.090996
9845.000000;1.091482
9844.000000;1.091540
9843.000000;1.090858
9842.000000;1.089839
9841.000000;1.088865
9840.000000;1.087990
9839.000000;1.087214
9838.000000;1.086556
9837.000000;1.085911
9836.000000;1.085210
9835.000000;1.084585
9834.000000;1.084088
9833.000000;1.083522
9832.000000;1.082841
9831.000000;1.082415
9830.000000;1.082502
9829.000000;1.082750
9828.000000;1.082602
9827.000000;1.081958
9826.000000;1.081061
9825.000000;1.080050
9824.000000;1.079014
9823.000000;1.078177
9822.000000;1.077650
9821.000000;1.077206
9820.000000;1.076668
9819.000000;1.076217
9818.000000;1.076030
9817.000000;1.075908
9816.000000;1.075639
9815.000000;1.075402
9814.000000;1.075422
9813.000000;1.075498
9812.000000;1.075259
9811.000000;1.074635
9810.000000;1.073792
9809.000000;1.072845
9808.000000;1.071943
9807.000000;1.071326
9806.000000;1.070992
9805.000000;1.070603
9804.000000;1.069986
9803.000000;1.069402
9802.000000;1.069056
9801.000000;1.068713
9800.000000;1.068157
9799.000000;1.067591
9798.000000;1.067240
9797.000000;1.066912
9796.000000;1.066337
9795.000000;1.065596
9794.000000;1.064900
9793.000000;1.064282
9792.000000;1.063813
9791.000000;1.063700
9790.000000;1.063816
9789.000000;1.063563
9788.000000;1.062660
9787.000000;1.061667
9786.000000;1.061233
9785.000000;1.061189
9784.000000;1.060863
9783.000000;1.059991
9782.000000;1.058834
9781.000000;1.057682
9780.000000;1.056751
9779.000000;1.056351
9778.000000;1.056624
9777.000000;1.057192
9776.000000;1.057472
9775.000000;1.057255
9774.000000;1.056686
9773.000000;1.055858
9772.000000;1.054819
9771.000000;1.053842
9770.000000;1.053306
9769.000000;1.053294
9768.000000;1.053518
9767.000000;1.053603
9766.000000;1.053349
9765.000000;1.052834
9764.000000;1.052330
9763.000000;1.051967
9762.000000;1.051485
9761.000000;1.050598
9760.000000;1.049531
9759.000000;1.048756
9758.000000;1.048215
9757.000000;1.047340
9756.000000;1.045968
9755.000000;1.044693
9754.000000;1.044077
9753.000000;1.044005
9752.000000;1.044069
9751.000000;1.044097
9750.000000;1.044021
9749.000000;1.043671
9748.000000;1.043060
9747.000000;1.042486
9746.000000;1.042061
9745.000000;1.041550
9744.000000;1.040923
9743.000000;1.040612
9742.000000;1.040870
9741.000000;1.041330
9740.000000;1.041520
9739.000000;1.041428
9738.000000;1.041186
9737.000000;1.040625
9736.000000;1.039582
9735.000000;1.038313
9734.000000;1.037174
9733.000000;1.036178
9732.000000;1.035238
9731.000000;1.034554
9730.000000;1.034380
9729.000000;1.034616
9728.000000;1.034942
9727.000000;1.035134
9726.000000;1.035028
9725.000000;1.034462
9724.000000;1.033516
9723.000000;1.032560
9722.000000;1.031836
9721.000000;1.031278
9720.000000;1.030834
9719.000000;1.030593
9718.000000;1.030432
9717.000000;1.029978
9716.000000;1.029183
9715.000000;1.028513
9714.000000;1.028276
9713.000000;1.028202
9712.000000;1.027954
9711.000000;1.027593
9710.000000;1.027227
9709.000000;1.026661
9708.000000;1.025825
9707.000000;1.025133
9706.000000;1.024949
9705.000000;1.025002
9704.000000;1.024718
9703.000000;1.023939
9702.000000;1.022971
9701.000000;1.022170
9700.000000;1.021770
9699.000000;1.021863
9698.000000;1.022225
9697.000000;1.022395
9696.000000;1.022165
9695.000000;1.021738
9694.000000;1.021244
9693.000000;1.020460
9692.000000;1.019268
9691.000000;1.018023
9690.000000;1.017161
9689.000000;1.016750
9688.000000;1.016636
9687.000000;1.016696
9686.000000;1.016691
9685.000000;1.016237
9684.000000;1.015259
9683.000000;1.014188
9682.000000;1.013458
9681.000000;1.013091
9680.000000;1.012957
9679.000000;1.013078
9678.000000;1.013394
9677.000000;1.013596
9676.000000;1.013480
9675.000000;1.013183
9674.000000;1.012835
9673.000000;1.012312
9672.000000;1.011550
9671.000000;1.010749
9670.000000;1.010014
9669.000000;1.009175
9668.000000;1.008180
9667.000000;1.007276
9666.000000;1.006571
9665.000000;1.005861
9664.000000;1.005136
9663.000000;1.004795
9662.000000;1.005003
9661.000000;1.005270
9660.000000;1.005048
9659.000000;1.004422
9658.000000;1.003825
9657.000000;1.003424
9656.000000;1.003143
9655.000000;1.002939
9654.000000;1.002678
9653.000000;1.002080
9652.000000;1.001160
9651.000000;1.000421
9650.000000;1.000230
9649.000000;1.000324
9648.000000;1.000249
9647.000000;0.999962
9646.000000;0.999576
9645.000000;0.998860
9644.000000;0.997533
9643.000000;0.995911
9642.000000;0.994769
9641.000000;0.994550
9640.000000;0.994973
9639.000000;0.995346
9638.000000;0.995106
9637.000000;0.994206
9636.000000;0.993157
9635.000000;0.992548
9634.000000;0.992403
9633.000000;0.992197
9632.000000;0.991612
9631.000000;0.990954
9630.000000;0.990640
9629.000000;0.990595
9628.000000;0.990417
9627.000000;0.989919
9626.000000;0.989249
9625.000000;0.988638
9624.000000;0.988237
9623.000000;0.988043
9622.000000;0.987874
9621.000000;0.987561
9620.000000;0.987198
9619.000000;0.986990
9618.000000;0.986849
9617.000000;0.986482
9616.000000;0.985868
9615.000000;0.985269
9614.000000;0.984703
9613.000000;0.983896
9612.000000;0.982872
9611.000000;0.982113
9610.000000;0.981881
9609.000000;0.981806
9608.000000;0.981385
9607.000000;0.980584
9606.000000;0.979707
9605.000000;0.979005
9604.000000;0.978619
9603.000000;0.978572
9602.000000;0.978615
9601.000000;0.978391
9600.000000;0.977932
9599.000000;0.977648
9598.000000;0.977681
9597.000000;0.977657
9596.000000;0.977235
9595.000000;0.976504
9594.000000;0.975641
9593.000000;0.974628
9592.000000;0.973586
9591.000000;0.972962
9590.000000;0.973035
9589.000000;0.973492
9588.000000;0.973773
9587.000000;0.973614
9586.000000;0.973070
9585.000000;0.972303
9584.000000;0.971555
9583.000000;0.971036
9582.000000;0.970668
9581.000000;0.970151
9580.000000;0.969442
9579.000000;0.968848
9578.000000;0.968539
9577.000000;0.968342
9576.000000;0.968138
9575.000000;0.968065
9574.000000;0.968150
9573.000000;0.968101
9572.000000;0.967708
9571.000000;0.967148
9570.000000;0.966687
9569.000000;0.966359
9568.000000;0.966115
9567.000000;0.965977
9566.000000;0.965901
9565.000000;0.965736
9564.000000;0.965413
9563.000000;0.964909
9562.000000;0.964033
9561.000000;0.962656
9560.000000;0.961160
9559.000000;0.960214
9558.000000;0.959998
9557.000000;0.960104
9556.000000;0.960243
9555.000000;0.960546
9554.000000;0.961037
9553.000000;0.961338
9552.000000;0.961122
9551.000000;0.960423
9550.000000;0.959367
9549.000000;0.958045
9548.000000;0.956813
9547.000000;0.956148
9546.000000;0.955999
9545.000000;0.955767
9544.000000;0.955164
9543.000000;0.954574
9542.000000;0.954355
9541.000000;0.954310
9540.000000;0.954120
9539.000000;0.953806
9538.000000;0.953446
9537.000000;0.952904
9536.000000;0.952174
9535.000000;0.951543
9534.000000;0.951141
9533.000000;0.950697
9532.000000;0.950038
9531.000000;0.949385
9530.000000;0.948930
9529.000000;0.948559
9528.000000;0.948236
9527.000000;0.948183
9526.000000;0.948365
9525.000000;0.948273
9524.000000;0.947582
9523.000000;0.946625
9522.000000;0.945889
9521.000000;0.945433
9520.000000;0.945103
9519.000000;0.944893
9518.000000;0.944761
9517.000000;0.944484
9516.000000;0.944031
9515.000000;0.943715
9514.000000;0.943677
9513.000000;0.943585
9512.000000;0.943145
9511.000000;0.942566
9510.000000;0.942196
9509.000000;0.942057
9508.000000;0.941989
9507.000000;0.941915
9506.000000;0.941671
9505.000000;0.940979
9504.000000;0.939897
9503.000000;0.938964
9502.000000;0.938596
9501.000000;0.938662
9500.000000;0.938859
9499.000000;0.939104
9498.000000;0.939316
9497.000000;0.939247
9496.000000;0.938842
9495.000000;0.938387
9494.000000;0.938043
9493.000000;0.937603
9492.000000;0.936948
9491.000000;0.936277
9490.000000;0.935620
9489.000000;0.934694
9488.000000;0.933572
9487.000000;0.932959
9486.000000;0.933307
9485.000000;0.934071
9484.000000;0.934349
9483.000000;0.933926
9482.000000;0.933237
9481.000000;0.932604
9480.000000;0.932040
9479.000000;0.931539
9478.000000;0.931089
9477.000000;0.930539
9476.000000;0.929839
9475.000000;0.929228
9474.000000;0.928875
9473.000000;0.928581
9472.000000;0.928149
9471.000000;0.927773
9470.000000;0.927675
9469.000000;0.927620
9468.000000;0.927203
9467.000000;0.926423
9466.000000;0.925621
9465.000000;0.925012
9464.000000;0.924599
9463.000000;0.924353
9462.000000;0.924171
9461.000000;0.923776
9460.000000;0.922999
9459.000000;0.922044
9458.000000;0.921282
9457.000000;0.920900
9456.000000;0.920893
9455.000000;0.921163
9454.000000;0.921434
9453.000000;0.921353
9452.000000;0.920890
9451.000000;0.920411
9450.000000;0.920153
9449.000000;0.919918
9448.000000;0.919485
9447.000000;0.918993
9446.000000;0.918633
9445.000000;0.918254
9444.000000;0.917601
9443.000000;0.916746
9442.000000;0.915974
9441.000000;0.915443
9440.000000;0.915148
9439.000000;0.915069
9438.000000;0.915094
9437.000000;0.914995
9436.000000;0.914680
9435.000000;0.914321
9434.000000;0.914057
9433.000000;0.913805
9432.000000;0.913476
9431.000000;0.913149
9430.000000;0.912857
9429.000000;0.912476
9428.000000;0.911979
9427.000000;0.911524
9426.000000;0.911118
9425.000000;0.910491
9424.000000;0.909538
9423.000000;0.908609
9422.000000;0.908137
9421.000000;0.908177
9420.000000;0.908476
9419.000000;0.908738
9418.000000;0.908690
9417.000000;0.908181
9416.000000;0.907438
9415.000000;0.906946
9414.000000;0.906852
9413.000000;0.906722
9412.000000;0.906098
9411.000000;0.905083
9410.000000;0.904149
9409.000000;0.903610
9408.000000;0.903472
9407.000000;0.903576
9406.000000;0.903682
9405.000000;0.903570
9404.000000;0.903234
9403.000000;0.902853
9402.000000;0.902523
9401.000000;0.902212
9400.000000;0.901976
9399.000000;0.901951
9398.000000;0.902048
9397.000000;0.901965
9396.000000;0.901570
9395.000000;0.901011
9394.000000;0.900393
9393.000000;0.899660
9392.000000;0.898837
9391.000000;0.898070
9390.000000;0.897411
9389.000000;0.896868
9388.000000;0.896674
9387.000000;0.897074
9386.000000;0.897792
9385.000000;0.898182
9384.000000;0.898000
9383.000000;0.897608
9382.000000;0.897304
9381.000000;0.896942
9380.000000;0.896347
9379.000000;0.895640
9378.000000;0.894945
9377.000000;0.894220
9376.000000;0.893530
9375.000000;0.893068
9374.000000;0.892747
9373.000000;0.892251
9372.000000;0.891627
9371.000000;0.891337
9370.000000;0.891499
9369.000000;0.891650
9368.000000;0.891517
9367.000000;0.891432
9366.000000;0.891626
9365.000000;0.891632
9364.000000;0.890908
9363.000000;0.889651
9362.000000;0.888513
9361.000000;0.887811
9360.000000;0.887441
9359.000000;0.887298
9358.000000;0.887338
9357.000000;0.887403
9356.000000;0.887354
9355.000000;0.887275
9354.000000;0.887268
9353.000000;0.887206
9352.000000;0.886875
9351.000000;0.886222
9350.000000;0.885303
9349.000000;0.884246
9348.000000;0.883378
9347.000000;0.883094
9346.000000;0.883365
9345.000000;0.883643
9344.000000;0.883454
9343.000000;0.882850
9342.000000;0.882155
9341.000000;0.881585
9340.000000;0.881277
9339.000000;0.881327
9338.000000;0.881568
9337.000000;0.881576
9336.000000;0.881143
9335.000000;0.880485
9334.000000;0.879852
9333.000000;0.879248
9332.000000;0.878675
9331.000000;0.878313
9330.000000;0.878258
9329.000000;0.878368
9328.000000;0.878542
9327.000000;0.878799
9326.000000;0.878954
9325.000000;0.878637
9324.000000;0.877874
9323.000000;0.877226
9322.000000;0.877074
9321.000000;0.877115
9320.000000;0.876826
9319.000000;0.876103
9318.000000;0.875205
9317.000000;0.874413
9316.000000;0.873986
9315.000000;0.874115
9314.000000;0.874579
9313.000000;0.874753
9312.000000;0.874252
9311.000000;0.873330
9310.000000;0.872434
9309.000000;0.871667
9308.000000;0.870951
9307.000000;0.870349
9306.000000;0.869924
9305.000000;0.869514
9304.000000;0.869000
9303.000000;0.868589
9302.000000;0.868567
9301.000000;0.868913
9300.000000;0.869364
9299.000000;0.869679
9298.000000;0.869703
9297.000000;0.869399
9296.000000;0.868938
9295.000000;0.868519
9294.000000;0.868018
9293.000000;0.867145
9292.000000;0.866035
9291.000000;0.865283
9290.000000;0.865204
9289.000000;0.865432
9288.000000;0.865467
9287.000000;0.865239
9286.000000;0.864923
9285.000000;0.864566
9284.000000;0.864208
9283.000000;0.864048
9282.000000;0.864152
9281.000000;0.864242
9280.000000;0.864041
9279.000000;0.863602
9278.000000;0.863103
9277.000000;0.862583
9276.000000;0.862103
9275.000000;0.861859
9274.000000;0.861871
9273.000000;0.861825
9272.000000;0.861469
9271.000000;0.860912
9270.000000;0.860358
9269.000000;0.859801
9268.000000;0.859230
9267.000000;0.858855
9266.000000;0.858868
9265.000000;0.859155
9264.000000;0.859415
9263.000000;0.859405
9262.000000;0.858974
9261.000000;0.858150
9260.000000;0.857283
9259.000000;0.856785
9258.000000;0.856604
9257.000000;0.856282
9256.000000;0.855660
9255.000000;0.855135
9254.000000;0.855041
9253.000000;0.855186
9252.000000;0.855253
9251.000000;0.855275
9250.000000;0.855403
9249.000000;0.855525
9248.000000;0.855413
9247.000000;0.855059
9246.000000;0.854611
9245.000000;0.854165
9244.000000;0.853797
9243.000000;0.853545
9242.000000;0.853252
9241.000000;0.852671
9240.000000;0.851877
9239.000000;0.851253
9238.000000;0.850968
9237.000000;0.850773
9236.000000;0.850463
9235.000000;0.850172
9234.000000;0.850044
9233.000000;0.849966
9232.000000;0.849832
9231.000000;0.849737
9230.000000;0.849702
9229.000000;0.849556
9228.000000;0.849261
9227.000000;0.849009
9226.000000;0.848807
9225.000000;0.848346
9224.000000;0.847495
9223.000000;0.846577
9222.000000;0.845945
9221.000000;0.845658
9220.000000;0.845732
9219.000000;0.846258
9218.000000;0.847036
9217.000000;0.847502
9216.000000;0.847355
9215.000000;0.846889
9214.000000;0.846460
9213.000000;0.846018
9212.000000;0.845466
9211.000000;0.845026
9210.000000;0.844876
9209.000000;0.844770
9208.000000;0.844392
9207.000000;0.843815
9206.000000;0.843268
9205.000000;0.842758
9204.000000;0.842261
9203.000000;0.841976
9202.000000;0.842049
9201.000000;0.842258
9200.000000;0.842303
9199.000000;0.842180
9198.000000;0.842002
9197.000000;0.841730
9196.000000;0.841352
9195.000000;0.841052
9194.000000;0.840918
9193.000000;0.840745
9192.000000;0.840422
9191.000000;0.840176
9190.000000;0.840159
9189.000000;0.840104
9188.000000;0.839737
9187.000000;0.839227
9186.000000;0.838843
9185.000000;0.838457
9184.000000;0.837805
9183.000000;0.836996
9182.000000;0.836363
9181.000000;0.835963
9180.000000;0.835616
9179.000000;0.835314
9178.000000;0.835205
9177.000000;0.835279
9176.000000;0.835380
9175.000000;0.835450
9174.000000;0.835496
9173.000000;0.835406
9172.000000;0.835057
9171.000000;0.834543
9170.000000;0.834092
9169.000000;0.833836
9168.000000;0.833785
9167.000000;0.833873
9166.000000;0.833890
9165.000000;0.833589
9164.000000;0.833008
9163.000000;0.832498
9162.000000;0.832279
9161.000000;0.832180
9160.000000;0.831985
9159.000000;0.831735
9158.000000;0.831513
9157.000000;0.831211
9156.000000;0.830781
9155.000000;0.830443
9154.000000;0.830382
9153.000000;0.830444
9152.000000;0.830369
9151.000000;0.830127
9150.000000;0.829795
9149.000000;0.829328
9148.000000;0.828705
9147.000000;0.828113
9146.000000;0.827729
9145.000000;0.827503
9144.000000;0.827337
9143.000000;0.827295
9142.000000;0.827431
9141.000000;0.827596
9140.000000;0.827630
9139.000000;0.827556
9138.000000;0.827388
9137.000000;0.826991
9136.000000;0.826365
9135.000000;0.825829
9134.000000;0.825676
9133.000000;0.825817
9132.000000;0.825952
9131.000000;0.825902
9130.000000;0.825580
9129.000000;0.824906
9128.000000;0.824000
9127.000000;0.823261
9126.000000;0.822967
9125.000000;0.822958
9124.000000;0.822902
9123.000000;0.822712
9122.000000;0.822489
9121.000000;0.822284
9120.000000;0.822122
9119.000000;0.822091
9118.000000;0.822154
9117.000000;0.822066
9116.000000;0.821687
9115.000000;0.821208
9114.000000;0.820838
9113.000000;0.820501
9112.000000;0.820083
9111.000000;0.819783
9110.000000;0.819901
9109.000000;0.820364
9108.000000;0.820729
9107.000000;0.820623
9106.000000;0.820046
9105.000000;0.819321
9104.000000;0.818866
9103.000000;0.818885
9102.000000;0.819168
9101.000000;0.819290
9100.000000;0.819080
9099.000000;0.818724
9098.000000;0.818391
9097.000000;0.818003
9096.000000;0.817497
9095.000000;0.817011
9094.000000;0.816653
9093.000000;0.816350
9092.000000;0.816077
9091.000000;0.815997
9090.000000;0.816177
9089.000000;0.816382
9088.000000;0.816346
9087.000000;0.816035
9086.000000;0.815535
9085.000000;0.814930
9084.000000;0.814453
9083.000000;0.814420
9082.000000;0.814780
9081.000000;0.815008
9080.000000;0.814722
9079.000000;0.814140
9078.000000;0.813669
9077.000000;0.813303
9076.000000;0.812771
9075.000000;0.812101
9074.000000;0.811619
9073.000000;0.811469
9072.000000;0.811462
9071.000000;0.811401
9070.000000;0.811289
9069.000000;0.811215
9068.000000;0.811217
9067.000000;0.811274
9066.000000;0.811311
9065.000000;0.811209
9064.000000;0.810913
9063.000000;0.810495
9062.000000;0.810067
9061.000000;0.809702
9060.000000;0.809444
9059.000000;0.809294
9058.000000;0.809157
9057.000000;0.808946
9056.000000;0.808725
9055.000000;0.808614
9054.000000;0.808552
9053.000000;0.808349
9052.000000;0.807984
9051.000000;0.807606
9050.000000;0.807256
9049.000000;0.806833
9048.000000;0.806389
9047.000000;0.806151
9046.000000;0.806178
9045.000000;0.806265
9044.000000;0.806277
9043.000000;0.806307
9042.000000;0.806382
9041.000000;0.806321
9040.000000;0.806010
9039.000000;0.805580
9038.000000;0.805173
9037.000000;0.804764
9036.000000;0.804358
9035.000000;0.804094
9034.000000;0.804022
9033.000000;0.804004
9032.000000;0.803981
9031.000000;0.804079
9030.000000;0.804324
9029.000000;0.804497
9028.000000;0.804423
9027.000000;0.804161
9026.000000;0.803790
9025.000000;0.803252
9024.000000;0.802573
9023.000000;0.801974
9022.000000;0.801594
9021.000000;0.801340
9020.000000;0.801155
9019.000000;0.801163
9018.000000;0.801373
9017.000000;0.801468
9016.000000;0.801136
9015.000000;0.800433
9014.000000;0.799674
9013.000000;0.799131
9012.000000;0.798940
9011.000000;0.799076
9010.000000;0.799264
9009.000000;0.799147
9008.000000;0.798715
9007.000000;0.798372
9006.000000;0.798415
9005.000000;0.798653
9004.000000;0.798677
9003.000000;0.798325
9002.000000;0.797740
9001.000000;0.797162
9000.000000;0.796799
8999.000000;0.796717
8998.000000;0.796724
8997.000000;0.796540
8996.000000;0.796172
8995.000000;0.795915
8994.000000;0.795908
8993.000000;0.795941
8992.000000;0.795819
8991.000000;0.795653
8990.000000;0.795608
8989.000000;0.795619
8988.000000;0.795547
8987.000000;0.795418
8986.000000;0.795322
8985.000000;0.795210
8984.000000;0.794976
8983.000000;0.794616
8982.000000;0.794187
8981.000000;0.793740
8980.000000;0.793384
8979.000000;0.793246
8978.000000;0.793333
8977.000000;0.793532
8976.000000;0.793789
8975.000000;0.794062
8974.000000;0.794122
8973.000000;0.793681
8972.000000;0.792797
8971.000000;0.791912
8970.000000;0.791406
8969.000000;0.791326
8968.000000;0.791559
8967.000000;0.791952
8966.000000;0.792234
8965.000000;0.792128
8964.000000;0.791705
8963.000000;0.791343
8962.000000;0.791233
8961.000000;0.791176
8960.000000;0.790972
8959.000000;0.790701
8958.000000;0.790508
8957.000000;0.790373
8956.000000;0.790228
8955.000000;0.790062
8954.000000;0.789811
8953.000000;0.789407
8952.000000;0.788999
8951.000000;0.788841
8950.000000;0.788874
8949.000000;0.788730
8948.000000;0.788285
8947.000000;0.787851
8946.000000;0.787705
8945.000000;0.787735
8944.000000;0.787740
8943.000000;0.787737
8942.000000;0.787796
8941.000000;0.787825
8940.000000;0.787730
8939.000000;0.787546
8938.000000;0.787255
8937.000000;0.786759
8936.000000;0.786171
8935.000000;0.785850
8934.000000;0.785972
8933.000000;0.786318
8932.000000;0.786613
8931.000000;0.786830
8930.000000;0.786991
8929.000000;0.787006
8928.000000;0.786868
8927.000000;0.786738
8926.000000;0.786620
8925.000000;0.786269
8924.000000;0.785620
8923.000000;0.785020
8922.000000;0.784799
8921.000000;0.784839
8920.000000;0.784810
8919.000000;0.784591
8918.000000;0.784264
8917.000000;0.783917
8916.000000;0.783677
8915.000000;0.783724
8914.000000;0.784030
8913.000000;0.784271
8912.000000;0.784183
8911.000000;0.783852
8910.000000;0.783495
8909.000000;0.783181
8908.000000;0.782928
8907.000000;0.782815
8906.000000;0.782786
8905.000000;0.782586
8904.000000;0.782109
8903.000000;0.781630
8902.000000;0.781464
8901.000000;0.781576
8900.000000;0.781708
8899.000000;0.781731
8898.000000;0.781670
8897.000000;0.781554
8896.000000;0.781422
8895.000000;0.781349
8894.000000;0.781303
8893.000000;0.781124
8892.000000;0.780800
8891.000000;0.780586
8890.000000;0.780685
8889.000000;0.780954
8888.000000;0.781097
8887.000000;0.780992
8886.000000;0.780721
8885.000000;0.780396
8884.000000;0.780106
8883.000000;0.779896
8882.000000;0.779692
8881.000000;0.779374
8880.000000;0.778982
8879.000000;0.778697
8878.000000;0.778568
8877.000000;0.778470
8876.000000;0.778361
8875.000000;0.778364
8874.000000;0.778508
8873.000000;0.778611
8872.000000;0.778531
8871.000000;0.778315
8870.000000;0.778017
8869.000000;0.777619
8868.000000;0.777215
8867.000000;0.777025
8866.000000;0.777078
8865.000000;0.777147
8864.000000;0.777106
8863.000000;0.777110
8862.000000;0.777265
8861.000000;0.777386
8860.000000;0.777247
8859.000000;0.776900
8858.000000;0.776564
8857.000000;0.776366
8856.000000;0.776328
8855.000000;0.776420
8854.000000;0.776520
8853.000000;0.776464
8852.000000;0.776242
8851.000000;0.776002
8850.000000;0.775825
8849.000000;0.775659
8848.000000;0.775505
8847.000000;0.775449
8846.000000;0.775462
8845.000000;0.775417
8844.000000;0.775315
8843.000000;0.775271
8842.000000;0.775261
8841.000000;0.775174
8840.000000;0.775104
8839.000000;0.775238
8838.000000;0.775406
8837.000000;0.775157
8836.000000;0.774396
8835.000000;0.773596
8834.000000;0.773228
8833.000000;0.773304
8832.000000;0.773638
8831.000000;0.774161
8830.000000;0.774756
8829.000000;0.775119
8828.000000;0.775067
8827.000000;0.774774
8826.000000;0.774496
8825.000000;0.774301
8824.000000;0.774219
8823.000000;0.774370
8822.000000;0.774712
8821.000000;0.774954
8820.000000;0.774937
8819.000000;0.774871
8818.000000;0.774980
8817.000000;0.775160
8816.000000;0.775228
8815.000000;0.775253
8814.000000;0.775378
8813.000000;0.775510
8812.000000;0.775468
8811.000000;0.775297
8810.000000;0.775173
8809.000000;0.775107
8808.000000;0.774966
8807.000000;0.774705
8806.000000;0.774443
8805.000000;0.774367
8804.000000;0.774632
8803.000000;0.775196
8802.000000;0.775683
8801.000000;0.775627
8800.000000;0.774991
8799.000000;0.774281
8798.000000;0.773991
8797.000000;0.774135
8796.000000;0.774407
8795.000000;0.774601
8794.000000;0.774706
8793.000000;0.774781
8792.000000;0.774897
8791.000000;0.775104
8790.000000;0.775332
8789.000000;0.775436
8788.000000;0.775399
8787.000000;0.775343
8786.000000;0.775323
8785.000000;0.775285
8784.000000;0.775254
8783.000000;0.775318
8782.000000;0.775398
8781.000000;0.775285
8780.000000;0.774981
8779.000000;0.774759
8778.000000;0.774791
8777.000000;0.774985
8776.000000;0.775246
8775.000000;0.775591
8774.000000;0.775922
8773.000000;0.775998
8772.000000;0.775793
8771.000000;0.775613
8770.000000;0.775682
8769.000000;0.775883
8768.000000;0.776059
8767.000000;0.776287
8766.000000;0.776658
8765.000000;0.776995
8764.000000;0.777047
8763.000000;0.776813
8762.000000;0.776500
8761.000000;0.776280
8760.000000;0.776221
8759.000000;0.776325
8758.000000;0.776515
8757.000000;0.776684
8756.000000;0.776809
8755.000000;0.776904
8754.000000;0.776906
8753.000000;0.776799
8752.000000;0.776805
8751.000000;0.777138
8750.000000;0.777573
8749.000000;0.777614
8748.000000;0.777181
8747.000000;0.776772
8746.000000;0.776826
8745.000000;0.777258
8744.000000;0.777773
8743.000000;0.778315
8742.000000;0.778959
8741.000000;0.779630
8740.000000;0.780148
8739.000000;0.780387
8738.000000;0.780274
8737.000000;0.779816
8736.000000;0.779227
8735.000000;0.778820
8734.000000;0.778665
8733.000000;0.778574
8732.000000;0.778489
8731.000000;0.778583
8730.000000;0.778902
8729.000000;0.779234
8728.000000;0.779454
8727.000000;0.779715
8726.000000;0.780118
8725.000000;0.780501
8724.000000;0.780706
8723.000000;0.780822
8722.000000;0.780969
8721.000000;0.781110
8720.000000;0.781219
8719.000000;0.781369
8718.000000;0.781521
8717.000000;0.781488
8716.000000;0.781274
8715.000000;0.781148
8714.000000;0.781233
8713.000000;0.781313
8712.000000;0.781236
8711.000000;0.781220
8710.000000;0.781498
8709.000000;0.781926
8708.000000;0.782180
8707.000000;0.782150
8706.000000;0.781930
8705.000000;0.781612
8704.000000;0.781320
8703.000000;0.781254
8702.000000;0.781483
8701.000000;0.781804
8700.000000;0.781979
8699.000000;0.781985
8698.000000;0.781911
8697.000000;0.781796
8696.000000;0.781691
8695.000000;0.781695
8694.000000;0.781797
8693.000000;0.781852
8692.000000;0.781811
8691.000000;0.781794
8690.000000;0.781861
8689.000000;0.781926
8688.000000;0.781994
8687.000000;0.782204
8686.000000;0.782544
8685.000000;0.782770
8684.000000;0.782753
8683.000000;0.782659
8682.000000;0.782650
8681.000000;0.782670
8680.000000;0.782677
8679.000000;0.782808
8678.000000;0.783111
8677.000000;0.783326
8676.000000;0.783172
8675.000000;0.782701
8674.000000;0.782182
8673.000000;0.781806
8672.000000;0.781627
8671.000000;0.781641
8670.000000;0.781761
8669.000000;0.781868
8668.000000;0.781954
8667.000000;0.782089
8666.000000;0.782205
8665.000000;0.782127
8664.000000;0.781866
8663.000000;0.781649
8662.000000;0.781598
8661.000000;0.781611
8660.000000;0.781611
8659.000000;0.781643
8658.000000;0.781630
8657.000000;0.781373
8656.000000;0.780906
8655.000000;0.780567
8654.000000;0.780544
8653.000000;0.780606
8652.000000;0.780490
8651.000000;0.780294
8650.000000;0.780310
8649.000000;0.780630
8648.000000;0.781106
8647.000000;0.781519
8646.000000;0.781669
8645.000000;0.781457
8644.000000;0.780996
8643.000000;0.780510
8642.000000;0.780072
8641.000000;0.779621
8640.000000;0.779244
8639.000000;0.779174
8638.000000;0.779434
8637.000000;0.779741
8636.000000;0.779843
8635.000000;0.779726
8634.000000;0.779438
8633.000000;0.778979
8632.000000;0.778469
8631.000000;0.778158
8630.000000;0.778177
8629.000000;0.778452
8628.000000;0.778880
8627.000000;0.779327
8626.000000;0.779476
8625.000000;0.779037
8624.000000;0.778167
8623.000000;0.777377
8622.000000;0.776936
8621.000000;0.776690
8620.000000;0.776508
8619.000000;0.776501
8618.000000;0.776698
8617.000000;0.776897
8616.000000;0.777004
8615.000000;0.777163
8614.000000;0.777379
8613.000000;0.777373
8612.000000;0.776992
8611.000000;0.776438
8610.000000;0.775928
8609.000000;0.775473
8608.000000;0.775158
8607.000000;0.775211
8606.000000;0.775570
8605.000000;0.775744
8604.000000;0.775410
8603.000000;0.774851
8602.000000;0.774525
8601.000000;0.774483
8600.000000;0.774504
8599.000000;0.774499
8598.000000;0.774491
8597.000000;0.774397
8596.000000;0.774142
8595.000000;0.773828
8594.000000;0.773571
8593.000000;0.773300
8592.000000;0.772925
8591.000000;0.772523
8590.000000;0.772204
8589.000000;0.771978
8588.000000;0.771896
8587.000000;0.772081
8586.000000;0.772457
8585.000000;0.772699
8584.000000;0.772628
8583.000000;0.772413
8582.000000;0.772203
8581.000000;0.771869
8580.000000;0.771319
8579.000000;0.770809
8578.000000;0.770653
8577.000000;0.770795
8576.000000;0.770948
8575.000000;0.770976
8574.000000;0.770929
8573.000000;0.770842
8572.000000;0.770697
8571.000000;0.770496
8570.000000;0.770199
8569.000000;0.769736
8568.000000;0.769192
8567.000000;0.768799
8566.000000;0.768642
8565.000000;0.768564
8564.000000;0.768454
8563.000000;0.768392
8562.000000;0.768411
8561.000000;0.768386
8560.000000;0.768301
8559.000000;0.768348
8558.000000;0.768576
8557.000000;0.768710
8556.000000;0.768519
8555.000000;0.768133
8554.000000;0.767791
8553.000000;0.767505
8552.000000;0.767186
8551.000000;0.766863
8550.000000;0.766566
8549.000000;0.766211
8548.000000;0.765800
8547.000000;0.765521
8546.000000;0.765458
8545.000000;0.765421
8544.000000;0.765261
8543.000000;0.765136
8542.000000;0.765233
8541.000000;0.765440
8540.000000;0.765522
8539.000000;0.765438
8538.000000;0.765267
8537.000000;0.764995
8536.000000;0.764615
8535.000000;0.764280
8534.000000;0.764119
8533.000000;0.764036
8532.000000;0.763880
8531.000000;0.763656
8530.000000;0.763410
8529.000000;0.763072
8528.000000;0.762622
8527.000000;0.762247
8526.000000;0.762104
8525.000000;0.762076
8524.000000;0.761937
8523.000000;0.761673
8522.000000;0.761460
8521.000000;0.761426
8520.000000;0.761582
8519.000000;0.761840
8518.000000;0.761989
8517.000000;0.761823
8516.000000;0.761428
8515.000000;0.761144
8514.000000;0.761096
8513.000000;0.760993
8512.000000;0.760571
8511.000000;0.760004
8510.000000;0.759635
8509.000000;0.759493
8508.000000;0.759359
8507.000000;0.759172
8506.000000;0.759074
8505.000000;0.759103
8504.000000;0.759117
8503.000000;0.759017
8502.000000;0.758843
8501.000000;0.758654
8500.000000;0.758454
8499.000000;0.758250
8498.000000;0.758084
8497.000000;0.757996
8496.000000;0.757997
8495.000000;0.758063
8494.000000;0.758130
8493.000000;0.758148
8492.000000;0.758128
8491.000000;0.758045
8490.000000;0.757742
8489.000000;0.757113
8488.000000;0.756374
8487.000000;0.755935
8486.000000;0.755949
8485.000000;0.756168
8484.000000;0.756295
8483.000000;0.756259
8482.000000;0.756100
8481.000000;0.755817
8480.000000;0.755443
8479.000000;0.755085
8478.000000;0.754773
8477.000000;0.754442
8476.000000;0.754130
8475.000000;0.753988
8474.000000;0.754028
8473.000000;0.754047
8472.000000;0.753907
8471.000000;0.753682
8470.000000;0.753467
8469.000000;0.753246
8468.000000;0.753053
8467.000000;0.753036
8466.000000;0.753232
8465.000000;0.753465
8464.000000;0.753582
8463.000000;0.753578
8462.000000;0.753427
8461.000000;0.752999
8460.000000;0.752321
8459.000000;0.751674
8458.000000;0.751294
8457.000000;0.751127
8456.000000;0.751005
8455.000000;0.750904
8454.000000;0.750876
8453.000000;0.750895
8452.000000;0.750887
8451.000000;0.750798
8450.000000;0.750572
8449.000000;0.750204
8448.000000;0.749863
8447.000000;0.749777
8446.000000;0.749930
8445.000000;0.750047
8444.000000;0.749934
8443.000000;0.749652
8442.000000;0.749326
8441.000000;0.749030
8440.000000;0.748880
8439.000000;0.748978
8438.000000;0.749190
8437.000000;0.749229
8436.000000;0.749057
8435.000000;0.748916
8434.000000;0.748901
8433.000000;0.748807
8432.000000;0.748501
8431.000000;0.748156
8430.000000;0.747949
8429.000000;0.747816
8428.000000;0.747679
8427.000000;0.747630
8426.000000;0.747707
8425.000000;0.747715
8424.000000;0.747493
8423.000000;0.747133
8422.000000;0.746796
8421.000000;0.746511
8420.000000;0.746305
8419.000000;0.746285
8418.000000;0.746404
8417.000000;0.746404
8416.000000;0.746158
8415.000000;0.745858
8414.000000;0.745663
8413.000000;0.745432
8412.000000;0.745029
8411.000000;0.744655
8410.000000;0.744597
8409.000000;0.744827
8408.000000;0.745080
8407.000000;0.745184
8406.000000;0.745091
8405.000000;0.744762
8404.000000;0.744260
8403.000000;0.743820
8402.000000;0.743621
8401.000000;0.743561
8400.000000;0.743459
8399.000000;0.743324
8398.000000;0.743251
8397.000000;0.743183
8396.000000;0.743010
8395.000000;0.742779
8394.000000;0.742606
8393.000000;0.742442
8392.000000;0.742138
8391.000000;0.741701
8390.000000;0.741294
8389.000000;0.741013
8388.000000;0.740813
8387.000000;0.740612
8386.000000;0.740374
8385.000000;0.740112
8384.000000;0.739910
8383.000000;0.739865
8382.000000;0.739973
8381.000000;0.740105
8380.000000;0.740146
8379.000000;0.740074
8378.000000;0.739900
8377.000000;0.739653
8376.000000;0.739440
8375.000000;0.739369
8374.000000;0.739375
8373.000000;0.739261
8372.000000;0.738977
8371.000000;0.738673
8370.000000;0.738454
8369.000000;0.738250
8368.000000;0.737982
8367.000000;0.737697
8366.000000;0.737453
8365.000000;0.737242
8364.000000;0.737073
8363.000000;0.736993
8362.000000;0.736970
8361.000000;0.736934
8360.000000;0.736923
8359.000000;0.737005
8358.000000;0.737039
8357.000000;0.736793
8356.000000;0.736303
8355.000000;0.735878
8354.000000;0.735655
8353.000000;0.735459
8352.000000;0.735181
8351.000000;0.734996
8350.000000;0.735043
8349.000000;0.735148
8348.000000;0.735066
8347.000000;0.734792
8346.000000;0.734461
8345.000000;0.734137
8344.000000;0.733881
8343.000000;0.733820
8342.000000;0.733976
8341.000000;0.734155
8340.000000;0.734155
8339.000000;0.733956
8338.000000;0.733605
8337.000000;0.733107
8336.000000;0.732564
8335.000000;0.732211
8334.000000;0.732127
8333.000000;0.732079
8332.000000;0.731817
8331.000000;0.731386
8330.000000;0.731009
8329.000000;0.730794
8328.000000;0.730707
8327.000000;0.730699
8326.000000;0.730699
8325.000000;0.730605
8324.000000;0.730392
8323.000000;0.730153
8322.000000;0.729947
8321.000000;0.729733
8320.000000;0.729523
8319.000000;0.729420
8318.000000;0.729432
8317.000000;0.729403
8316.000000;0.729231
8315.000000;0.728993
8314.000000;0.728773
8313.000000;0.728545
8312.000000;0.728324
8311.000000;0.728251
8310.000000;0.728369
8309.000000;0.728485
8308.000000;0.728375
8307.000000;0.728013
8306.000000;0.727515
8305.000000;0.727000
8304.000000;0.726599
8303.000000;0.726440
8302.000000;0.726496
8301.000000;0.726573
8300.000000;0.726511
8299.000000;0.726304
8298.000000;0.725984
8297.000000;0.725579
8296.000000;0.725233
8295.000000;0.725143
8294.000000;0.725272
8293.000000;0.725311
8292.000000;0.725023
8291.000000;0.724495
8290.000000;0.723967
8289.000000;0.723585
8288.000000;0.723417
8287.000000;0.723483
8286.000000;0.723668
8285.000000;0.723747
8284.000000;0.723624
8283.000000;0.723400
8282.000000;0.723163
8281.000000;0.722886
8280.000000;0.722586
8279.000000;0.722376
8278.000000;0.722259
8277.000000;0.722067
8276.000000;0.721736
8275.000000;0.721436
8274.000000;0.721342
8273.000000;0.721417
8272.000000;0.721507
8271.000000;0.721490
8270.000000;0.721267
8269.000000;0.720800
8268.000000;0.720238
8267.000000;0.719809
8266.000000;0.719534
8265.000000;0.719234
8264.000000;0.718868
8263.000000;0.718620
8262.000000;0.718571
8261.000000;0.718549
8260.000000;0.718420
8259.000000;0.718270
8258.000000;0.718195
8257.000000;0.718122
8256.000000;0.718009
8255.000000;0.717959
8254.000000;0.718002
8253.000000;0.717967
8252.000000;0.717730
8251.000000;0.717411
8250.000000;0.717155
8249.000000;0.716922
8248.000000;0.716630
8247.000000;0.716309
8246.000000;0.715986
8245.000000;0.715605
8244.000000;0.715185
8243.000000;0.714877
8242.000000;0.714727
8241.000000;0.714582
8240.000000;0.714358
8239.000000;0.714179
8238.000000;0.714114
8237.000000;0.714029
8236.000000;0.713855
8235.000000;0.713776
8234.000000;0.713933
8233.000000;0.714134
8232.000000;0.714097
8231.000000;0.713817
8230.000000;0.713486
8229.000000;0.713200
8228.000000;0.712947
8227.000000;0.712743
8226.000000;0.712573
8225.000000;0.712312
8224.000000;0.711900
8223.000000;0.711473
8222.000000;0.711190
8221.000000;0.711018
8220.000000;0.710850
8219.000000;0.710690
8218.000000;0.710581
8217.000000;0.710448
8216.000000;0.710208
8215.000000;0.709938
8214.000000;0.709776
8213.000000;0.709713
8212.000000;0.709605
8211.000000;0.709342
8210.000000;0.708945
8209.000000;0.708580
8208.000000;0.708491
8207.000000;0.708763
8206.000000;0.709118
8205.000000;0.709121
8204.000000;0.708661
8203.000000;0.708029
8202.000000;0.707486
8201.000000;0.707015
8200.000000;0.706589
8199.000000;0.706393
8198.000000;0.706552
8197.000000;0.706842
8196.000000;0.706915
8195.000000;0.706667
8194.000000;0.706226
8193.000000;0.705711
8192.000000;0.705218
8191.000000;0.704881
8190.000000;0.704759
8189.000000;0.704736
8188.000000;0.704703
8187.000000;0.704712
8186.000000;0.704807
8185.000000;0.704852
8184.000000;0.704689
8183.000000;0.704356
8182.000000;0.703993
8181.000000;0.703634
8180.000000;0.703249
8179.000000;0.702892
8178.000000;0.702636
8177.000000;0.702463
8176.000000;0.702336
8175.000000;0.702299
8174.000000;0.702347
8173.000000;0.702327
8172.000000;0.702112
8171.000000;0.701799
8170.000000;0.701567
8169.000000;0.701439
8168.000000;0.701314
8167.000000;0.701165
8166.000000;0.701053
8165.000000;0.700989
8164.000000;0.700903
8163.000000;0.700715
8162.000000;0.700378
8161.000000;0.699911
8160.000000;0.699442
8159.000000;0.699111
8158.000000;0.698887
8157.000000;0.698604
8156.000000;0.698253
8155.000000;0.698043
8154.000000;0.698070
8153.000000;0.698096
8152.000000;0.697841
8151.000000;0.697368
8150.000000;0.696990
8149.000000;0.696875
8148.000000;0.696915
8147.000000;0.696915
8146.000000;0.696779
8145.000000;0.696510
8144.000000;0.696171
8143.000000;0.695864
8142.000000;0.695658
8141.000000;0.695543
8140.000000;0.695461
8139.000000;0.695347
8138.000000;0.695146
8137.000000;0.694855
8136.000000;0.694570
8135.000000;0.694387
8134.000000;0.694266
8133.000000;0.694088
8132.000000;0.693842
8131.000000;0.693635
8130.000000;0.693525
8129.000000;0.693472
8128.000000;0.693466
8127.000000;0.693505
8126.000000;0.693465
8125.000000;0.693176
8124.000000;0.692695
8123.000000;0.692286
8122.000000;0.692084
8121.000000;0.691949
8120.000000;0.691752
8119.000000;0.691568
8118.000000;0.691475
8117.000000;0.691377
8116.000000;0.691153
8115.000000;0.690847
8114.000000;0.690550
8113.000000;0.690232
8112.000000;0.689852
8111.000000;0.689477
8110.000000;0.689183
8109.000000;0.688936
8108.000000;0.688698
8107.000000;0.688556
8106.000000;0.688591
8105.000000;0.688697
8104.000000;0.688652
8103.000000;0.688324
8102.000000;0.687767
8101.000000;0.687182
8100.000000;0.686805
8099.000000;0.686731
8098.000000;0.686800
8097.000000;0.686758
8096.000000;0.686561
8095.000000;0.686383
8094.000000;0.686319
8093.000000;0.686254
8092.000000;0.686073
8091.000000;0.685832
8090.000000;0.685630
8089.000000;0.685465
8088.000000;0.685290
8087.000000;0.685096
8086.000000;0.684853
8085.000000;0.684523
8084.000000;0.684182
8083.000000;0.683975
8082.000000;0.683896
8081.000000;0.683761
8080.000000;0.683484
8079.000000;0.683200
8078.000000;0.683038
8077.000000;0.682927
8076.000000;0.682724
8075.000000;0.682390
8074.000000;0.681961
8073.000000;0.681493
8072.000000;0.681113
8071.000000;0.680972
8070.000000;0.681048
8069.000000;0.681139
8068.000000;0.681113
8067.000000;0.681022
8066.000000;0.680904
8065.000000;0.680662
8064.000000;0.680235
8063.000000;0.679744
8062.000000;0.679345
8061.000000;0.679072
8060.000000;0.678904
8059.000000;0.678840
8058.000000;0.678831
8057.000000;0.678769
8056.000000;0.678635
8055.000000;0.678508
8054.000000;0.678387
8053.000000;0.678160
8052.000000;0.677816
8051.000000;0.677514
8050.000000;0.677343
8049.000000;0.677231
8048.000000;0.677125
8047.000000;0.677077
8046.000000;0.677055
8045.000000;0.676887
8044.000000;0.676549
8043.000000;0.676263
8042.000000;0.676164
8041.000000;0.676059
8040.000000;0.675712
8039.000000;0.675187
8038.000000;0.674724
8037.000000;0.674425
8036.000000;0.674237
8035.000000;0.674135
8034.000000;0.674132
8033.000000;0.674161
8032.000000;0.674121
8031.000000;0.673977
8030.000000;0.673738
8029.000000;0.673406
8028.000000;0.673039
8027.000000;0.672750
8026.000000;0.672558
8025.000000;0.672354
8024.000000;0.672099
8023.000000;0.671909
8022.000000;0.671856
8021.000000;0.671834
8020.000000;0.671743
8019.000000;0.671628
8018.000000;0.671522
8017.000000;0.671312
8016.000000;0.670933
8015.000000;0.670537
8014.000000;0.670287
8013.000000;0.670093
8012.000000;0.669753
8011.000000;0.669267
8010.000000;0.668834
8009.000000;0.668582
8008.000000;0.668456
8007.000000;0.668336
8006.000000;0.668153
8005.000000;0.667902
8004.000000;0.667645
8003.000000;0.667463
8002.000000;0.667343
8001.000000;0.667176
8000.000000;0.666900
7999.000000;0.666581
7998.000000;0.666296
7997.000000;0.666040
7996.000000;0.665798
7995.000000;0.665605
7994.000000;0.665454
7993.000000;0.665272
7992.000000;0.665063
7991.000000;0.664927
7990.000000;0.664893
7989.000000;0.664847
7988.000000;0.664712
7987.000000;0.664563
7986.000000;0.664457
7985.000000;0.664305
7984.000000;0.664018
7983.000000;0.663659
7982.000000;0.663332
7981.000000;0.663032
7980.000000;0.662729
7979.000000;0.662476
7978.000000;0.662334
7977.000000;0.662260
7976.000000;0.662180
7975.000000;0.662083
7974.000000;0.661951
7973.000000;0.661714
7972.000000;0.661374
7971.000000;0.661065
7970.000000;0.660873
7969.000000;0.660706
7968.000000;0.660435
7967.000000;0.660087
7966.000000;0.659778
7965.000000;0.659548
7964.000000;0.659363
7963.000000;0.659196
7962.000000;0.659017
7961.000000;0.658765
7960.000000;0.658444
7959.000000;0.658148
7958.000000;0.657932
7957.000000;0.657721
7956.000000;0.657427
7955.000000;0.657075
7954.000000;0.656730
7953.000000;0.656413
7952.000000;0.656144
7951.000000;0.655982
7950.000000;0.655934
7949.000000;0.655895
7948.000000;0.655778
7947.000000;0.655599
7946.000000;0.655394
7945.000000;0.655143
7944.000000;0.654871
7943.000000;0.654696
7942.000000;0.654685
7941.000000;0.654739
7940.000000;0.654717
7939.000000;0.654584
7938.000000;0.654376
7937.000000;0.654117
7936.000000;0.653846
7935.000000;0.653644
7934.000000;0.653522
7933.000000;0.653368
7932.000000;0.653077
7931.000000;0.652674
7930.000000;0.652256
7929.000000;0.651912
7928.000000;0.651717
7927.000000;0.651707
7926.000000;0.651774
7925.000000;0.651707
7924.000000;0.651423
7923.000000;0.651057
7922.000000;0.650770
7921.000000;0.650575
7920.000000;0.650412
7919.000000;0.650274
7918.000000;0.650151
7917.000000;0.649971
7916.000000;0.649691
7915.000000;0.649383
7914.000000;0.649142
7913.000000;0.648972
7912.000000;0.648819
7911.000000;0.648650
7910.000000;0.648451
7909.000000;0.648218
7908.000000;0.648000
7907.000000;0.647860
7906.000000;0.647764
7905.000000;0.647600
7904.000000;0.647341
7903.000000;0.647086
7902.000000;0.646891
7901.000000;0.646682
7900.000000;0.646407
7899.000000;0.646131
7898.000000;0.645938
7897.000000;0.645809
7896.000000;0.645670
7895.000000;0.645463
7894.000000;0.645154
7893.000000;0.644750
7892.000000;0.644360
7891.000000;0.644114
7890.000000;0.643999
7889.000000;0.643876
7888.000000;0.643706
7887.000000;0.643594
7886.000000;0.643594
7885.000000;0.643622
7884.000000;0.643605
7883.000000;0.643571
7882.000000;0.643516
7881.000000;0.643336
7880.000000;0.642993
7879.000000;0.642621
7878.000000;0.642354
7877.000000;0.642161
7876.000000;0.641946
7875.000000;0.641701
7874.000000;0.641476
7873.000000;0.641271
7872.000000;0.641039
7871.000000;0.640739
7870.000000;0.640349
7869.000000;0.639900
7868.000000;0.639509
7867.000000;0.639294
7866.000000;0.639228
7865.000000;0.639191
7864.000000;0.639171
7863.000000;0.639239
7862.000000;0.639342
7861.000000;0.639288
7860.000000;0.638998
7859.000000;0.638622
7858.000000;0.638332
7857.000000;0.638138
7856.000000;0.637969
7855.000000;0.637788
7854.000000;0.637564
7853.000000;0.637294
7852.000000;0.637077
7851.000000;0.637038
7850.000000;0.637105
7849.000000;0.637059
7848.000000;0.636827
7847.000000;0.636557
7846.000000;0.636338
7845.000000;0.636056
7844.000000;0.635643
7843.000000;0.635252
7842.000000;0.635059
7841.000000;0.635038
7840.000000;0.635060
7839.000000;0.635077
7838.000000;0.635077
7837.000000;0.634998
7836.000000;0.634815
7835.000000;0.634599
7834.000000;0.634390
7833.000000;0.634110
7832.000000;0.633720
7831.000000;0.633311
7830.000000;0.632971
7829.000000;0.632675
7828.000000;0.632410
7827.000000;0.632261
7826.000000;0.632271
7825.000000;0.632339
7824.000000;0.632350
7823.000000;0.632277
7822.000000;0.632091
7821.000000;0.631727
7820.000000;0.631267
7819.000000;0.630952
7818.000000;0.630905
7817.000000;0.630963
7816.000000;0.630928
7815.000000;0.630829
7814.000000;0.630790
7813.000000;0.630783
7812.000000;0.630698
7811.000000;0.630548
7810.000000;0.630418
7809.000000;0.630296
7808.000000;0.630113
7807.000000;0.629883
7806.000000;0.629678
7805.000000;0.629511
7804.000000;0.629343
7803.000000;0.629164
7802.000000;0.628956
7801.000000;0.628654
7800.000000;0.628251
7799.000000;0.627880
7798.000000;0.627688
7797.000000;0.627689
7796.000000;0.627782
7795.000000;0.627843
7794.000000;0.627743
7793.000000;0.627414
7792.000000;0.626981
7791.000000;0.626700
7790.000000;0.626682
7789.000000;0.626760
7788.000000;0.626718
7787.000000;0.626533
7786.000000;0.626311
7785.000000;0.626108
7784.000000;0.625936
7783.000000;0.625817
7782.000000;0.625726
7781.000000;0.625576
7780.000000;0.625345
7779.000000;0.625146
7778.000000;0.625049
7777.000000;0.624960
7776.000000;0.624766
7775.000000;0.624493
7774.000000;0.624237
7773.000000;0.624023
7772.000000;0.623839
7771.000000;0.623692
7770.000000;0.623549
7769.000000;0.623340
7768.000000;0.623119
7767.000000;0.623067
7766.000000;0.623219
7765.000000;0.623339
7764.000000;0.623204
7763.000000;0.622891
7762.000000;0.622614
7761.000000;0.622406
7760.000000;0.622162
7759.000000;0.621901
7758.000000;0.621763
7757.000000;0.621777
7756.000000;0.621805
7755.000000;0.621746
7754.000000;0.621641
7753.000000;0.621575
7752.000000;0.621568
7751.000000;0.621572
7750.000000;0.621497
7749.000000;0.621284
7748.000000;0.621006
7747.000000;0.620847
7746.000000;0.620909
7745.000000;0.621060
7744.000000;0.621073
7743.000000;0.620851
7742.000000;0.620463
7741.000000;0.620027
7740.000000;0.619652
7739.000000;0.619426
7738.000000;0.619346
7737.000000;0.619300
7736.000000;0.619193
7735.000000;0.619063
7734.000000;0.619000
7733.000000;0.619005
7732.000000;0.619006
7731.000000;0.618961
7730.000000;0.618884
7729.000000;0.618792
7728.000000;0.618677
7727.000000;0.618522
7726.000000;0.618306
7725.000000;0.618057
7724.000000;0.617890
7723.000000;0.617910
7722.000000;0.618062
7721.000000;0.618156
7720.000000;0.618093
7719.000000;0.617941
7718.000000;0.617785
7717.000000;0.617602
7716.000000;0.617371
7715.000000;0.617162
7714.000000;0.617053
7713.000000;0.617036
7712.000000;0.617070
7711.000000;0.617129
7710.000000;0.617141
7709.000000;0.617012
7708.000000;0.616760
7707.000000;0.616541
7706.000000;0.616451
7705.000000;0.616416
7704.000000;0.616343
7703.000000;0.616255
7702.000000;0.616200
7701.000000;0.616139
7700.000000;0.616022
7699.000000;0.615885
7698.000000;0.615779
7697.000000;0.615689
7696.000000;0.615598
7695.000000;0.615537
7694.000000;0.615499
7693.000000;0.615410
7692.000000;0.615267
7691.000000;0.615170
7690.000000;0.615145
7689.000000;0.615057
7688.000000;0.614809
7687.000000;0.614504
7686.000000;0.614304
7685.000000;0.614231
7684.000000;0.614223
7683.000000;0.614270
7682.000000;0.614360
7681.000000;0.614395
7680.000000;0.614303
7679.000000;0.614177
7678.000000;0.614154
7677.000000;0.614226
7676.000000;0.614283
7675.000000;0.614297
7674.000000;0.614330
7673.000000;0.614385
7672.000000;0.614380
7671.000000;0.614258
7670.000000;0.614047
7669.000000;0.613819
7668.000000;0.613654
7667.000000;0.613599
7666.000000;0.613609
7665.000000;0.613587
7664.000000;0.613503
7663.000000;0.613411
7662.000000;0.613345
7661.000000;0.613289
7660.000000;0.613286
7659.000000;0.613426
7658.000000;0.613667
7657.000000;0.613812
7656.000000;0.613758
7655.000000;0.613636
7654.000000;0.613595
7653.000000;0.613586
7652.000000;0.613484
7651.000000;0.613310
7650.000000;0.613182
7649.000000;0.613128
7648.000000;0.613090
7647.000000;0.613053
7646.000000;0.613034
7645.000000;0.612997
7644.000000;0.612915
7643.000000;0.612845
7642.000000;0.612846
7641.000000;0.612869
7640.000000;0.612841
7639.000000;0.612805
7638.000000;0.612841
7637.000000;0.612910
7636.000000;0.612895
7635.000000;0.612778
7634.000000;0.612665
7633.000000;0.612649
7632.000000;0.612742
7631.000000;0.612898
7630.000000;0.613037
7629.000000;0.613060
7628.000000;0.612931
7627.000000;0.612736
7626.000000;0.612596
7625.000000;0.612553
7624.000000;0.612571
7623.000000;0.612622
7622.000000;0.612696
7621.000000;0.612772
7620.000000;0.612832
7619.000000;0.612863
7618.000000;0.612824
7617.000000;0.612689
7616.000000;0.612541
7615.000000;0.612532
7614.000000;0.612680
7613.000000;0.612814
7612.000000;0.612783
7611.000000;0.612646
7610.000000;0.612580
7609.000000;0.612687
7608.000000;0.612941
7607.000000;0.613256
7606.000000;0.613503
7605.000000;0.613557
7604.000000;0.613420
7603.000000;0.613247
7602.000000;0.613185
7601.000000;0.613229
7600.000000;0.613297
7599.000000;0.613336
7598.000000;0.613305
7597.000000;0.613163
7596.000000;0.612978
7595.000000;0.612948
7594.000000;0.613195
7593.000000;0.613596
7592.000000;0.613911
7591.000000;0.614018
7590.000000;0.613971
7589.000000;0.613878
7588.000000;0.613823
7587.000000;0.613839
7586.000000;0.613870
7585.000000;0.613839
7584.000000;0.613797
7583.000000;0.613942
7582.000000;0.614375
7581.000000;0.614925
7580.000000;0.615304
7579.000000;0.615399
7578.000000;0.615315
7577.000000;0.615219
7576.000000;0.615213
7575.000000;0.615325
7574.000000;0.615486
7573.000000;0.615574
7572.000000;0.615528
7571.000000;0.615408
7570.000000;0.615294
7569.000000;0.615209
7568.000000;0.615176
7567.000000;0.615271
7566.000000;0.615502
7565.000000;0.615743
7564.000000;0.615880
7563.000000;0.615955
7562.000000;0.616073
7561.000000;0.616218
7560.000000;0.616303
7559.000000;0.616336
7558.000000;0.616429
7557.000000;0.616642
7556.000000;0.616914
7555.000000;0.617150
7554.000000;0.617302
7553.000000;0.617396
7552.000000;0.617499
7551.000000;0.617657
7550.000000;0.617823
7549.000000;0.617899
7548.000000;0.617868
7547.000000;0.617829
7546.000000;0.617884
7545.000000;0.618055
7544.000000;0.618338
7543.000000;0.618728
7542.000000;0.619147
7541.000000;0.619454
7540.000000;0.619594
7539.000000;0.619655
7538.000000;0.619713
7537.000000;0.619737
7536.000000;0.619714
7535.000000;0.619733
7534.000000;0.619849
7533.000000;0.619978
7532.000000;0.620024
7531.000000;0.620036
7530.000000;0.620117
7529.000000;0.620264
7528.000000;0.620414
7527.000000;0.620581
7526.000000;0.620825
7525.000000;0.621138
7524.000000;0.621455
7523.000000;0.621737
7522.000000;0.621965
7521.000000;0.622109
7520.000000;0.622175
7519.000000;0.622246
7518.000000;0.622385
7517.000000;0.622576
7516.000000;0.622796
7515.000000;0.623063
7514.000000;0.623353
7513.000000;0.623567
7512.000000;0.623670
7511.000000;0.623763
7510.000000;0.623926
7509.000000;0.624093
7508.000000;0.624194
7507.000000;0.624315
7506.000000;0.624576
7505.000000;0.624932
7504.000000;0.625228
7503.000000;0.625399
7502.000000;0.625496
7501.000000;0.625574
7500.000000;0.625676
7499.000000;0.625876
7498.000000;0.626186
7497.000000;0.626507
7496.000000;0.626699
7495.000000;0.626793
7494.000000;0.626968
7493.000000;0.627158
7492.000000;0.627280
7491.000000;0.627329
7490.000000;0.627437
7489.000000;0.627690
7488.000000;0.628039
7487.000000;0.628353
7486.000000;0.628513
7485.000000;0.628489
7484.000000;0.628406
7483.000000;0.628488
7482.000000;0.628842
7481.000000;0.629336
7480.000000;0.629752
7479.000000;0.630033
7478.000000;0.630265
7477.000000;0.630501
7476.000000;0.630709
7475.000000;0.630897
7474.000000;0.631132
7473.000000;0.631440
7472.000000;0.631758
7471.000000;0.632000
7470.000000;0.632129
7469.000000;0.632178
7468.000000;0.632245
7467.000000;0.632432
7466.000000;0.632738
7465.000000;0.633046
7464.000000;0.633254
7463.000000;0.633365
7462.000000;0.633425
7461.000000;0.633465
7460.000000;0.633555
7459.000000;0.633800
7458.000000;0.634204
7457.000000;0.634606
7456.000000;0.634843
7455.000000;0.634921
7454.000000;0.634960
7453.000000;0.635038
7452.000000;0.635175
7451.000000;0.635372
7450.000000;0.635589
7449.000000;0.635761
7448.000000;0.635917
7447.000000;0.636206
7446.000000;0.636687
7445.000000;0.637194
7444.000000;0.637518
7443.000000;0.637635
7442.000000;0.637678
7441.000000;0.637748
7440.000000;0.637889
7439.000000;0.638152
7438.000000;0.638538
7437.000000;0.638919
7436.000000;0.639157
7435.000000;0.639262
7434.000000;0.639341
7433.000000;0.639445
7432.000000;0.639580
7431.000000;0.639783
7430.000000;0.640079
7429.000000;0.640401
7428.000000;0.640667
7427.000000;0.640872
7426.000000;0.641038
7425.000000;0.641142
7424.000000;0.641206
7423.000000;0.641382
7422.000000;0.641784
7421.000000;0.642286
7420.000000;0.642636
7419.000000;0.642741
7418.000000;0.642715
7417.000000;0.642685
7416.000000;0.642702
7415.000000;0.642808
7414.000000;0.643043
7413.000000;0.643370
7412.000000;0.643727
7411.000000;0.644092
7410.000000;0.644405
7409.000000;0.644511
7408.000000;0.644363
7407.000000;0.644176
7406.000000;0.644206
7405.000000;0.644438
7404.000000;0.644669
7403.000000;0.644853
7402.000000;0.645123
7401.000000;0.645534
7400.000000;0.645995
7399.000000;0.646390
7398.000000;0.646611
7397.000000;0.646573
7396.000000;0.646373
7395.000000;0.646281
7394.000000;0.646390
7393.000000;0.646462
7392.000000;0.646301
7391.000000;0.646088
7390.000000;0.646127
7389.000000;0.646439
7388.000000;0.646861
7387.000000;0.647376
7386.000000;0.648002
7385.000000;0.648512
7384.000000;0.648665
7383.000000;0.648665
7382.000000;0.648943
7381.000000;0.649441
7380.000000;0.649613
7379.000000;0.649313
7378.000000;0.649198
7377.000000;0.649847
7376.000000;0.650916
7375.000000;0.651561
7374.000000;0.651474
7373.000000;0.651090
7372.000000;0.650934
7371.000000;0.651160
7370.000000;0.651631
7369.000000;0.652060
7368.000000;0.652183
7367.000000;0.652038
7366.000000;0.652010
7365.000000;0.652351
7364.000000;0.652850
7363.000000;0.653179
7362.000000;0.653360
7361.000000;0.653579
7360.000000;0.653741
7359.000000;0.653710
7358.000000;0.653818
7357.000000;0.654457
7356.000000;0.655312
7355.000000;0.655645
7354.000000;0.655377
7353.000000;0.655202
7352.000000;0.655583
7351.000000;0.656290
7350.000000;0.656954
7349.000000;0.657402
7348.000000;0.657413
7347.000000;0.656920
7346.000000;0.656494
7345.000000;0.656842
7344.000000;0.657769
7343.000000;0.658494
7342.000000;0.659018
7341.000000;0.660111
7340.000000;0.661716
7339.000000;0.662522
7338.000000;0.661878
7337.000000;0.660971
7336.000000;0.661184
7335.000000;0.662286
7334.000000;0.663098
7333.000000;0.663152
7332.000000;0.662788
7331.000000;0.662362
7330.000000;0.662256
7329.000000;0.662924
7328.000000;0.664085
7327.000000;0.664616
7326.000000;0.664139
7325.000000;0.663863
7324.000000;0.664879
7323.000000;0.666488
7322.000000;0.667260
7321.000000;0.667079
7320.000000;0.667106
7319.000000;0.667961
7318.000000;0.669098
7317.000000;0.669930
7316.000000;0.670444
7315.000000;0.670678
7314.000000;0.670633
7313.000000;0.670780
7312.000000;0.671645
7311.000000;0.672793
7310.000000;0.673320
7309.000000;0.673323
7308.000000;0.673735
7307.000000;0.674695
7306.000000;0.675281
7305.000000;0.675119
7304.000000;0.675110
7303.000000;0.675980
7302.000000;0.677224
7301.000000;0.678087
7300.000000;0.678629
7299.000000;0.679153
7298.000000;0.679433
7297.000000;0.679450
7296.000000;0.680012
7295.000000;0.681620
7294.000000;0.683396
7293.000000;0.684160
7292.000000;0.684234
7291.000000;0.685001
7290.000000;0.686917
7289.000000;0.689064
7288.000000;0.690480
7287.000000;0.691107
7286.000000;0.691422
7285.000000;0.691812
7284.000000;0.692500
7283.000000;0.693564
7282.000000;0.694783
7281.000000;0.695806
7280.000000;0.696604
7279.000000;0.697491
7278.000000;0.698601
7277.000000;0.699756
7276.000000;0.700895
7275.000000;0.702205
7274.000000;0.703771
7273.000000;0.705376
7272.000000;0.706773
7271.000000;0.707992
7270.000000;0.709244
7269.000000;0.710646
7268.000000;0.712136
7267.000000;0.713558
7266.000000;0.714826
7265.000000;0.716110
7264.000000;0.717756
7263.000000;0.719829
7262.000000;0.721867
7261.000000;0.723349
7260.000000;0.724364
7259.000000;0.725484
7258.000000;0.727022
7257.000000;0.728777
7256.000000;0.730579
7255.000000;0.732635
7254.000000;0.735068
7253.000000;0.737537
7252.000000;0.739585
7251.000000;0.741168
7250.000000;0.742661
7249.000000;0.744410
7248.000000;0.746375
7247.000000;0.748171
7246.000000;0.749643
7245.000000;0.751318
7244.000000;0.753857
7243.000000;0.757057
7242.000000;0.759882
7241.000000;0.761786
7240.000000;0.763544
7239.000000;0.766192
7238.000000;0.769566
7237.000000;0.772518
7236.000000;0.774460
7235.000000;0.776122
7234.000000;0.778539
7233.000000;0.781735
7232.000000;0.784745
7231.000000;0.786815
7230.000000;0.788345
7229.000000;0.790540
7228.000000;0.794134
7227.000000;0.798541
7226.000000;0.802424
7225.000000;0.805041
7224.000000;0.806839
7223.000000;0.808822
7222.000000;0.811529
7221.000000;0.814709
7220.000000;0.817795
7219.000000;0.820523
7218.000000;0.823182
7217.000000;0.826283
7216.000000;0.830030
7215.000000;0.834086
7214.000000;0.837857
7213.000000;0.841105
7212.000000;0.844233
7211.000000;0.847814
7210.000000;0.851894
7209.000000;0.856043
7208.000000;0.860000
7207.000000;0.863919
7206.000000;0.867995
7205.000000;0.872152
7204.000000;0.876197
7203.000000;0.880103
7202.000000;0.884007
7201.000000;0.887965
7200.000000;0.891870
7199.000000;0.895587
7198.000000;0.899189
7197.000000;0.903042
7196.000000;0.907548
7195.000000;0.912665
7194.000000;0.917788
7193.000000;0.922377
7192.000000;0.926580
7191.000000;0.930922
7190.000000;0.935535
7189.000000;0.940132
7188.000000;0.944641
7187.000000;0.949273
7186.000000;0.953966
7185.000000;0.958408
7184.000000;0.962774
7183.000000;0.967731
7182.000000;0.973419
7181.000000;0.979082
7180.000000;0.984129
7179.000000;0.988992
7178.000000;0.994406
7177.000000;1.000316
7176.000000;1.006077
7175.000000;1.011343
7174.000000;1.016256
7173.000000;1.021056
7172.000000;1.025974
7171.000000;1.031320
7170.000000;1.037147
7169.000000;1.043040
7168.000000;1.048691
7167.000000;1.054332
7166.000000;1.060174
7165.000000;1.065846
7164.000000;1.071020
7163.000000;1.076078
7162.000000;1.081474
7161.000000;1.086937
7160.000000;1.091989
7159.000000;1.096949
7158.000000;1.102596
7157.000000;1.108930
7156.000000;1.115077
7155.000000;1.120439
7154.000000;1.125297
7153.000000;1.130276
7152.000000;1.135746
7151.000000;1.141749
7150.000000;1.148010
7149.000000;1.154033
7148.000000;1.159626
7147.000000;1.165157
7146.000000;1.171046
7145.000000;1.177184
7144.000000;1.183163
7143.000000;1.188840
7142.000000;1.194401
7141.000000;1.199996
7140.000000;1.205582
7139.000000;1.211093
7138.000000;1.216570
7137.000000;1.222152
7136.000000;1.227924
7135.000000;1.233698
7134.000000;1.239017
7133.000000;1.243647
7132.000000;1.248018
7131.000000;1.252827
7130.000000;1.258192
7129.000000;1.263619
7128.000000;1.268813
7127.000000;1.273956
7126.000000;1.279152
7125.000000;1.284256
7124.000000;1.289360
7123.000000;1.294756
7122.000000;1.300239
7121.000000;1.305171
7120.000000;1.309512
7119.000000;1.314005
7118.000000;1.318994
7117.000000;1.323828
7116.000000;1.328059
7115.000000;1.332440
7114.000000;1.337869
7113.000000;1.343994
7112.000000;1.349712
7111.000000;1.354642
7110.000000;1.359332
7109.000000;1.364216
7108.000000;1.369113
7107.000000;1.373655
7106.000000;1.377609
7105.000000;1.380871
7104.000000;1.383653
7103.000000;1.386532
7102.000000;1.389948
7101.000000;1.393825
7100.000000;1.397899
7099.000000;1.402070
7098.000000;1.406249
7097.000000;1.410185
7096.000000;1.413721
7095.000000;1.417074
7094.000000;1.420705
7093.000000;1.424989
7092.000000;1.429931
7091.000000;1.434936
7090.000000;1.439005
7089.000000;1.441646
7088.000000;1.443585
7087.000000;1.446081
7086.000000;1.449508
7085.000000;1.453135
7084.000000;1.456278
7083.000000;1.458972
7082.000000;1.461446
7081.000000;1.463757
7080.000000;1.466129
7079.000000;1.468968
7078.000000;1.472282
7077.000000;1.475635
7076.000000;1.478830
7075.000000;1.482083
7074.000000;1.485385
7073.000000;1.488267
7072.000000;1.490466
7071.000000;1.492318
7070.000000;1.494210
7069.000000;1.496196
7068.000000;1.498367
7067.000000;1.501006
7066.000000;1.504054
7065.000000;1.506915
7064.000000;1.509138
7063.000000;1.510895
7062.000000;1.512519
7061.000000;1.514047
7060.000000;1.515412
7059.000000;1.516676
7058.000000;1.518051
7057.000000;1.520003
7056.000000;1.523041
7055.000000;1.526879
7054.000000;1.530097
7053.000000;1.531427
7052.000000;1.531344
7051.000000;1.531533
7050.000000;1.532866
7049.000000;1.534816
7048.000000;1.536734
7047.000000;1.538652
7046.000000;1.540686
7045.000000;1.542609
7044.000000;1.544363
7043.000000;1.546171
7042.000000;1.547845
7041.000000;1.548787
7040.000000;1.548925
7039.000000;1.548945
7038.000000;1.549429
7037.000000;1.550490
7036.000000;1.552223
7035.000000;1.554538
7034.000000;1.556453
7033.000000;1.556693
7032.000000;1.555422
7031.000000;1.554445
7030.000000;1.555242
7029.000000;1.557552
7028.000000;1.560149
7027.000000;1.562174
7026.000000;1.563367
7025.000000;1.563825
7024.000000;1.564053
7023.000000;1.564674
7022.000000;1.565687
7021.000000;1.566458
7020.000000;1.566703
7019.000000;1.566923
7018.000000;1.567595
7017.000000;1.568516
7016.000000;1.569191
7015.000000;1.569407
7014.000000;1.569277
7013.000000;1.569157
7012.000000;1.569521
7011.000000;1.570446
7010.000000;1.571327
7009.000000;1.571648
7008.000000;1.571765
7007.000000;1.572276
7006.000000;1.572974
7005.000000;1.573348
7004.000000;1.573750
7003.000000;1.574938
7002.000000;1.576662
7001.000000;1.577859
7000.000000;1.578179
6999.000000;1.578221
6998.000000;1.578345
6997.000000;1.578483
6996.000000;1.579046
6995.000000;1.580523
6994.000000;1.582113
6993.000000;1.582284
6992.000000;1.580987
6991.000000;1.579818
6990.000000;1.579607
6989.000000;1.579460
6988.000000;1.578671
6987.000000;1.578035
6986.000000;1.578380
6985.000000;1.579136
6984.000000;1.579493
6983.000000;1.579897
6982.000000;1.581180
6981.000000;1.582922
6980.000000;1.583822
6979.000000;1.583404
6978.000000;1.582476
6977.000000;1.582055
6976.000000;1.582435
6975.000000;1.583123
6974.000000;1.583337
6973.000000;1.582695
6972.000000;1.581541
6971.000000;1.580406
6970.000000;1.579362
6969.000000;1.578303
6968.000000;1.577557
6967.000000;1.577507
6966.000000;1.577768
6965.000000;1.577600
6964.000000;1.577090
6963.000000;1.576968
6962.000000;1.577387
6961.000000;1.577809
6960.000000;1.578007
6959.000000;1.578176
6958.000000;1.578171
6957.000000;1.577693
6956.000000;1.577254
6955.000000;1.577723
6954.000000;1.578777
6953.000000;1.579020
6952.000000;1.577928
6951.000000;1.576506
6950.000000;1.575745
6949.000000;1.575584
6948.000000;1.575698
6947.000000;1.576118
6946.000000;1.576561
6945.000000;1.576234
6944.000000;1.574930
6943.000000;1.573428
6942.000000;1.572297
6941.000000;1.571202
6940.000000;1.569819
6939.000000;1.568556
6938.000000;1.567916
6937.000000;1.567849
6936.000000;1.568086
6935.000000;1.568400
6934.000000;1.568286
6933.000000;1.567194
6932.000000;1.565421
6931.000000;1.564006
6930.000000;1.563473
6929.000000;1.563393
6928.000000;1.563299
6927.000000;1.563202
6926.000000;1.562988
6925.000000;1.562215
6924.000000;1.560877
6923.000000;1.559637
6922.000000;1.559008
6921.000000;1.558910
6920.000000;1.559112
6919.000000;1.559346
6918.000000;1.559029
6917.000000;1.557767
6916.000000;1.556129
6915.000000;1.555035
6914.000000;1.554500
6913.000000;1.553922
6912.000000;1.553431
6911.000000;1.553714
6910.000000;1.554528
6909.000000;1.554724
6908.000000;1.553961
6907.000000;1.553053
6906.000000;1.552313
6905.000000;1.550967
6904.000000;1.548692
6903.000000;1.546403
6902.000000;1.544933
6901.000000;1.544072
6900.000000;1.543417
6899.000000;1.543079
6898.000000;1.543049
6897.000000;1.542925
6896.000000;1.542731
6895.000000;1.542992
6894.000000;1.543548
6893.000000;1.543427
6892.000000;1.542413
6891.000000;1.541534
6890.000000;1.541403
6889.000000;1.541261
6888.000000;1.540315
6887.000000;1.538920
6886.000000;1.537699
6885.000000;1.536532
6884.000000;1.535211
6883.000000;1.534206
6882.000000;1.533934
6881.000000;1.533990
6880.000000;1.533804
6879.000000;1.533382
6878.000000;1.532800
6877.000000;1.531725
6876.000000;1.530104
6875.000000;1.528552
6874.000000;1.527465
6873.000000;1.526420
6872.000000;1.524976
6871.000000;1.523344
6870.000000;1.521786
6869.000000;1.520147
6868.000000;1.518547
6867.000000;1.517753
6866.000000;1.518249
6865.000000;1.519524
6864.000000;1.520750
6863.000000;1.521581
6862.000000;1.521798
6861.000000;1.520933
6860.000000;1.518918
6859.000000;1.516513
6858.000000;1.514571
6857.000000;1.513315
6856.000000;1.512639
6855.000000;1.512420
6854.000000;1.512213
6853.000000;1.511324
6852.000000;1.509668
6851.000000;1.507951
6850.000000;1.506669
6849.000000;1.505613
6848.000000;1.504616
6847.000000;1.503953
6846.000000;1.503552
6845.000000;1.502696
6844.000000;1.501061
6843.000000;1.499286
6842.000000;1.497936
6841.000000;1.496603
6840.000000;1.494650
6839.000000;1.492201
6838.000000;1.489773
6837.000000;1.487558
6836.000000;1.485646
6835.000000;1.484354
6834.000000;1.483675
6833.000000;1.482888
6832.000000;1.481317
6831.000000;1.479145
6830.000000;1.477011
6829.000000;1.475192
6828.000000;1.473560
6827.000000;1.471923
6826.000000;1.470044
6825.000000;1.467771
6824.000000;1.465470
6823.000000;1.463824
6822.000000;1.462894
6821.000000;1.461895
6820.000000;1.460233
6819.000000;1.458234
6818.000000;1.456471
6817.000000;1.454921
6816.000000;1.453198
6815.000000;1.451143
6814.000000;1.448828
6813.000000;1.446376
6812.000000;1.444096
6811.000000;1.442358
6810.000000;1.441067
6809.000000;1.439651
6808.000000;1.437777
6807.000000;1.435601
6806.000000;1.433202
6805.000000;1.430418
6804.000000;1.427451
6803.000000;1.424960
6802.000000;1.423175
6801.000000;1.421511
6800.000000;1.419444
6799.000000;1.417188
6798.000000;1.415109
6797.000000;1.413029
6796.000000;1.410571
6795.000000;1.407778
6794.000000;1.404968
6793.000000;1.402334
6792.000000;1.400025
6791.000000;1.398191
6790.000000;1.396623
6789.000000;1.394710
6788.000000;1.392054
6787.000000;1.388842
6786.000000;1.385451
6785.000000;1.382143
6784.000000;1.379261
6783.000000;1.377159
6782.000000;1.375660
6781.000000;1.374087
6780.000000;1.372105
6779.000000;1.370049
6778.000000;1.368155
6777.000000;1.366050
6776.000000;1.363409
6775.000000;1.360614
6774.000000;1.358254
6773.000000;1.356327
6772.000000;1.354377
6771.000000;1.352138
6770.000000;1.349693
6769.000000;1.347187
6768.000000;1.344699
6767.000000;1.342192
6766.000000;1.339449
6765.000000;1.336283
6764.000000;1.332917
6763.000000;1.329852
6762.000000;1.327230
6761.000000;1.324666
6760.000000;1.321840
6759.000000;1.318931
6758.000000;1.316337
6757.000000;1.314286
6756.000000;1.312752
6755.000000;1.311415
6754.000000;1.309657
6753.000000;1.307041
6752.000000;1.303869
6751.000000;1.300881
6750.000000;1.298340
6749.000000;1.295836
6748.000000;1.293033
6747.000000;1.290097
6746.000000;1.287255
6745.000000;1.284493
6744.000000;1.281876
6743.000000;1.279640
6742.000000;1.277719
6741.000000;1.275625
6740.000000;1.273074
6739.000000;1.270332
6738.000000;1.267724
6737.000000;1.265188
6736.000000;1.262558
6735.000000;1.259915
6734.000000;1.257381
6733.000000;1.254889
6732.000000;1.252373
6731.000000;1.249895
6730.000000;1.247394
6729.000000;1.244651
6728.000000;1.241681
6727.000000;1.238865
6726.000000;1.236476
6725.000000;1.234344
6724.000000;1.232126
6723.000000;1.229644
6722.000000;1.226865
6721.000000;1.223862
6720.000000;1.220889
6719.000000;1.218177
6718.000000;1.215557
6717.000000;1.212654
6716.000000;1.209514
6715.000000;1.206660
6714.000000;1.204405
6713.000000;1.202523
6712.000000;1.200683
6711.000000;1.198813
6710.000000;1.196837
6709.000000;1.194464
6708.000000;1.191571
6707.000000;1.188475
6706.000000;1.185564
6705.000000;1.182856
6704.000000;1.180256
6703.000000;1.177673
6702.000000;1.175117
6701.000000;1.172432
6700.000000;1.169673
6699.000000;1.167283
6698.000000;1.165272
6697.000000;1.163310
6696.000000;1.161065
6695.000000;1.158553
6694.000000;1.155911
6693.000000;1.153225
6692.000000;1.150636
6691.000000;1.148319
6690.000000;1.146180
6689.000000;1.143907
6688.000000;1.141432
6687.000000;1.139024
6686.000000;1.136816
6685.000000;1.134595
6684.000000;1.132178
6683.000000;1.129650
6682.000000;1.127071
6681.000000;1.124301
6680.000000;1.121335
6679.000000;1.118471
6678.000000;1.115946
6677.000000;1.113657
6676.000000;1.111421
6675.000000;1.109220
6674.000000;1.107058
6673.000000;1.104830
6672.000000;1.102533
6671.000000;1.100309
6670.000000;1.098116
6669.000000;1.095667
6668.000000;1.092861
6667.000000;1.090018
6666.000000;1.087459
6665.000000;1.085136
6664.000000;1.082855
6663.000000;1.080630
6662.000000;1.078575
6661.000000;1.076633
6660.000000;1.074636
6659.000000;1.072499
6658.000000;1.070211
6657.000000;1.067783
6656.000000;1.065322
6655.000000;1.062972
6654.000000;1.060691
6653.000000;1.058262
6652.000000;1.055621
6651.000000;1.052977
6650.000000;1.050512
6649.000000;1.048191
6648.000000;1.045949
6647.000000;1.043839
6646.000000;1.041862
6645.000000;1.039875
6644.000000;1.037776
6643.000000;1.035621
6642.000000;1.033459
6641.000000;1.031251
6640.000000;1.029023
6639.000000;1.026873
6638.000000;1.024736
6637.000000;1.022376
6636.000000;1.019745
6635.000000;1.017127
6634.000000;1.014804
6633.000000;1.012742
6632.000000;1.010713
6631.000000;1.008566
6630.000000;1.006294
6629.000000;1.004000
6628.000000;1.001866
6627.000000;0.999980
6626.000000;0.998168
6625.000000;0.996175
6624.000000;0.993993
6623.000000;0.991793
6622.000000;0.989565
6621.000000;0.987141
6620.000000;0.984592
6619.000000;0.982261
6618.000000;0.980318
6617.000000;0.978579
6616.000000;0.976851
6615.000000;0.975136
6614.000000;0.973387
6613.000000;0.971387
6612.000000;0.969059
6611.000000;0.966654
6610.000000;0.964433
6609.000000;0.962392
6608.000000;0.960411
6607.000000;0.958466
6606.000000;0.956527
6605.000000;0.954489
6604.000000;0.952346
6603.000000;0.950231
6602.000000;0.948169
6601.000000;0.945996
6600.000000;0.943653
6599.000000;0.941344
6598.000000;0.939256
6597.000000;0.937346
6596.000000;0.935502
6595.000000;0.933710
6594.000000;0.931932
6593.000000;0.930023
6592.000000;0.927943
6591.000000;0.925858
6590.000000;0.923914
6589.000000;0.922068
6588.000000;0.920244
6587.000000;0.918441
6586.000000;0.916592
6585.000000;0.914550
6584.000000;0.912337
6583.000000;0.910199
6582.000000;0.908269
6581.000000;0.906408
6580.000000;0.904493
6579.000000;0.902634
6578.000000;0.900916
6577.000000;0.899172
6576.000000;0.897217
6575.000000;0.895145
6574.000000;0.893203
6573.000000;0.891466
6572.000000;0.889833
6571.000000;0.888194
6570.000000;0.886457
6569.000000;0.884535
6568.000000;0.882447
6567.000000;0.880352
6566.000000;0.878381
6565.000000;0.876516
6564.000000;0.874712
6563.000000;0.872966
6562.000000;0.871217
6561.000000;0.869356
6560.000000;0.867427
6559.000000;0.865644
6558.000000;0.864080
6557.000000;0.862530
6556.000000;0.860802
6555.000000;0.858967
6554.000000;0.857204
6553.000000;0.855531
6552.000000;0.853850
6551.000000;0.852091
6550.000000;0.850211
6549.000000;0.848192
6548.000000;0.846164
6547.000000;0.844362
6546.000000;0.842837
6545.000000;0.841369
6544.000000;0.839772
6543.000000;0.838116
6542.000000;0.836517
6541.000000;0.834896
6540.000000;0.833130
6539.000000;0.831294
6538.000000;0.829565
6537.000000;0.827990
6536.000000;0.826495
6535.000000;0.825036
6534.000000;0.823581
6533.000000;0.822042
6532.000000;0.820359
6531.000000;0.818574
6530.000000;0.816730
6529.000000;0.814811
6528.000000;0.812865
6527.000000;0.811050
6526.000000;0.809446
6525.000000;0.807937
6524.000000;0.806395
6523.000000;0.804839
6522.000000;0.803311
6521.000000;0.801743
6520.000000;0.800096
6519.000000;0.798491
6518.000000;0.797041
6517.000000;0.795664
6516.000000;0.794223
6515.000000;0.792726
6514.000000;0.791242
6513.000000;0.789708
6512.000000;0.788020
6511.000000;0.786254
6510.000000;0.784610
6509.000000;0.783153
6508.000000;0.781744
6507.000000;0.780222
6506.000000;0.778560
6505.000000;0.776871
6504.000000;0.775310
6503.000000;0.773949
6502.000000;0.772683
6501.000000;0.771321
6500.000000;0.769805
6499.000000;0.768256
6498.000000;0.766755
6497.000000;0.765221
6496.000000;0.763585
6495.000000;0.761973
6494.000000;0.760571
6493.000000;0.759388
6492.000000;0.758253
6491.000000;0.757010
6490.000000;0.755602
6489.000000;0.754062
6488.000000;0.752487
6487.000000;0.750986
6486.000000;0.749573
6485.000000;0.748160
6484.000000;0.746697
6483.000000;0.745250
6482.000000;0.743873
6481.000000;0.742505
6480.000000;0.741069
6479.000000;0.739595
6478.000000;0.738170
6477.000000;0.736816
6476.000000;0.735497
6475.000000;0.734184
6474.000000;0.732854
6473.000000;0.731484
6472.000000;0.730078
6471.000000;0.728663
6470.000000;0.727214
6469.000000;0.725685
6468.000000;0.724140
6467.000000;0.722726
6466.000000;0.721483
6465.000000;0.720280
6464.000000;0.718999
6463.000000;0.717689
6462.000000;0.716454
6461.000000;0.715294
6460.000000;0.714134
6459.000000;0.712926
6458.000000;0.711665
6457.000000;0.710379
6456.000000;0.709139
6455.000000;0.707983
6454.000000;0.706809
6453.000000;0.705436
6452.000000;0.703844
6451.000000;0.702237
6450.000000;0.700820
6449.000000;0.699619
6448.000000;0.698562
6447.000000;0.697579
6446.000000;0.696571
6445.000000;0.695409
6444.000000;0.694082
6443.000000;0.692744
6442.000000;0.691525
6441.000000;0.690392
6440.000000;0.689235
6439.000000;0.688014
6438.000000;0.686740
6437.000000;0.685432
6436.000000;0.684153
6435.000000;0.682970
6434.000000;0.681829
6433.000000;0.680590
6432.000000;0.679238
6431.000000;0.677951
6430.000000;0.676858
6429.000000;0.675883
6428.000000;0.674885
6427.000000;0.673823
6426.000000;0.672663
6425.000000;0.671319
6424.000000;0.669798
6423.000000;0.668314
6422.000000;0.667086
6421.000000;0.666106
6420.000000;0.665216
6419.000000;0.664309
6418.000000;0.663341
6417.000000;0.662258
6416.000000;0.661060
6415.000000;0.659865
6414.000000;0.658773
6413.000000;0.657724
6412.000000;0.656612
6411.000000;0.655456
6410.000000;0.654336
6409.000000;0.653228
6408.000000;0.652067
6407.000000;0.650896
6406.000000;0.649815
6405.000000;0.648814
6404.000000;0.647787
6403.000000;0.646693
6402.000000;0.645586
6401.000000;0.644503
6400.000000;0.643435
6399.000000;0.642389
6398.000000;0.641384
6397.000000;0.640394
6396.000000;0.639371
6395.000000;0.638316
6394.000000;0.637251
6393.000000;0.636162
6392.000000;0.635047
6391.000000;0.633981
6390.000000;0.633036
6389.000000;0.632162
6388.000000;0.631235
6387.000000;0.630207
6386.000000;0.629144
6385.000000;0.628128
6384.000000;0.627184
6383.000000;0.626288
6382.000000;0.625373
6381.000000;0.624362
6380.000000;0.623239
6379.000000;0.622071
6378.000000;0.620918
6377.000000;0.619770
6376.000000;0.618620
6375.000000;0.617538
6374.000000;0.616599
6373.000000;0.615777
6372.000000;0.614972
6371.000000;0.614105
6370.000000;0.613148
6369.000000;0.612123
6368.000000;0.611102
6367.000000;0.610166
6366.000000;0.609305
6365.000000;0.608408
6364.000000;0.607421
6363.000000;0.606427
6362.000000;0.605523
6361.000000;0.604681
6360.000000;0.603814
6359.000000;0.602922
6358.000000;0.602082
6357.000000;0.601310
6356.000000;0.600531
6355.000000;0.599666
6354.000000;0.598695
6353.000000;0.597658
6352.000000;0.596631
6351.000000;0.595695
6350.000000;0.594869
6349.000000;0.594085
6348.000000;0.593255
6347.000000;0.592349
6346.000000;0.591382
6345.000000;0.590394
6344.000000;0.589451
6343.000000;0.588619
6342.000000;0.587885
6341.000000;0.587148
6340.000000;0.586340
6339.000000;0.585489
6338.000000;0.584638
6337.000000;0.583774
6336.000000;0.582872
6335.000000;0.581967
6334.000000;0.581110
6333.000000;0.580302
6332.000000;0.579513
6331.000000;0.578716
6330.000000;0.577873
6329.000000;0.576958
6328.000000;0.576017
6327.000000;0.575151
6326.000000;0.574388
6325.000000;0.573641
6324.000000;0.572848
6323.000000;0.572053
6322.000000;0.571306
6321.000000;0.570539
6320.000000;0.569661
6319.000000;0.568700
6318.000000;0.567774
6317.000000;0.566957
6316.000000;0.566242
6315.000000;0.565590
6314.000000;0.564956
6313.000000;0.564277
6312.000000;0.563525
6311.000000;0.562745
6310.000000;0.562000
6309.000000;0.561286
6308.000000;0.560545
6307.000000;0.559742
6306.000000;0.558887
6305.000000;0.558021
6304.000000;0.557200
6303.000000;0.556463
6302.000000;0.555766
6301.000000;0.555015
6300.000000;0.554188
6299.000000;0.553380
6298.000000;0.552685
6297.000000;0.552081
6296.000000;0.551476
6295.000000;0.550824
6294.000000;0.550137
6293.000000;0.549436
6292.000000;0.548730
6291.000000;0.548016
6290.000000;0.547263
6289.000000;0.546441
6288.000000;0.545599
6287.000000;0.544838
6286.000000;0.544175
6285.000000;0.543490
6284.000000;0.542677
6283.000000;0.541783
6282.000000;0.540934
6281.000000;0.540198
6280.000000;0.539567
6279.000000;0.539017
6278.000000;0.538504
6277.000000;0.537927
6276.000000;0.537203
6275.000000;0.536357
6274.000000;0.535503
6273.000000;0.534738
6272.000000;0.534094
6271.000000;0.533541
6270.000000;0.533011
6269.000000;0.532422
6268.000000;0.531748
6267.000000;0.531031
6266.000000;0.530315
6265.000000;0.529606
6264.000000;0.528919
6263.000000;0.528303
6262.000000;0.527764
6261.000000;0.527223
6260.000000;0.526594
6259.000000;0.525877
6258.000000;0.525134
6257.000000;0.524399
6256.000000;0.523677
6255.000000;0.522980
6254.000000;0.522328
6253.000000;0.521711
6252.000000;0.521102
6251.000000;0.520471
6250.000000;0.519782
6249.000000;0.519011
6248.000000;0.518203
6247.000000;0.517459
6246.000000;0.516836
6245.000000;0.516300
6244.000000;0.515808
6243.000000;0.515360
6242.000000;0.514962
6241.000000;0.514564
6240.000000;0.514105
6239.000000;0.513557
6238.000000;0.512907
6237.000000;0.512148
6236.000000;0.511341
6235.000000;0.510606
6234.000000;0.510007
6233.000000;0.509478
6232.000000;0.508920
6231.000000;0.508321
6230.000000;0.507723
6229.000000;0.507133
6228.000000;0.506522
6227.000000;0.505896
6226.000000;0.505291
6225.000000;0.504716
6224.000000;0.504146
6223.000000;0.503563
6222.000000;0.502973
6221.000000;0.502386
6220.000000;0.501813
6219.000000;0.501266
6218.000000;0.500729
6217.000000;0.500168
6216.000000;0.499574
6215.000000;0.498983
6214.000000;0.498421
6213.000000;0.497878
6212.000000;0.497335
6211.000000;0.496793
6210.000000;0.496243
6209.000000;0.495682
6208.000000;0.495143
6207.000000;0.494670
6206.000000;0.494232
6205.000000;0.493735
6204.000000;0.493137
6203.000000;0.492490
6202.000000;0.491848
6201.000000;0.491192
6200.000000;0.490509
6199.000000;0.489857
6198.000000;0.489294
6197.000000;0.488791
6196.000000;0.488274
6195.000000;0.487721
6194.000000;0.487159
6193.000000;0.486600
6192.000000;0.486038
6191.000000;0.485476
6190.000000;0.484916
6189.000000;0.484369
6188.000000;0.483871
6187.000000;0.483452
6186.000000;0.483060
6185.000000;0.482576
6184.000000;0.481963
6183.000000;0.481317
6182.000000;0.480746
6181.000000;0.480247
6180.000000;0.479769
6179.000000;0.479322
6178.000000;0.478929
6177.000000;0.478536
6176.000000;0.478052
6175.000000;0.477472
6174.000000;0.476879
6173.000000;0.476337
6172.000000;0.475845
6171.000000;0.475388
6170.000000;0.474958
6169.000000;0.474542
6168.000000;0.474120
6167.000000;0.473684
6166.000000;0.473229
6165.000000;0.472735
6164.000000;0.472192
6163.000000;0.471632
6162.000000;0.471102
6161.000000;0.470620
6160.000000;0.470175
6159.000000;0.469749
6158.000000;0.469314
6157.000000;0.468843
6156.000000;0.468348
6155.000000;0.467872
6154.000000;0.467421
6153.000000;0.466931
6152.000000;0.466351
6151.000000;0.465714
6150.000000;0.465099
6149.000000;0.464543
6148.000000;0.464020
6147.000000;0.463492
6146.000000;0.462952
6145.000000;0.462429
6144.000000;0.461964
6143.000000;0.461579
6142.000000;0.461241
6141.000000;0.460893
6140.000000;0.460504
6139.000000;0.460088
6138.000000;0.459667
6137.000000;0.459250
6136.000000;0.458852
6135.000000;0.458471
6134.000000;0.458048
6133.000000;0.457523
6132.000000;0.456931
6131.000000;0.456392
6130.000000;0.455990
6129.000000;0.455691
6128.000000;0.455419
6127.000000;0.455118
6126.000000;0.454747
6125.000000;0.454281
6124.000000;0.453759
6123.000000;0.453284
6122.000000;0.452898
6121.000000;0.452533
6120.000000;0.452088
6119.000000;0.451546
6118.000000;0.450962
6117.000000;0.450397
6116.000000;0.449895
6115.000000;0.449464
6114.000000;0.449049
6113.000000;0.448584
6112.000000;0.448080
6111.000000;0.447624
6110.000000;0.447253
6109.000000;0.446900
6108.000000;0.446496
6107.000000;0.446072
6106.000000;0.445688
6105.000000;0.445345
6104.000000;0.445014
6103.000000;0.444704
6102.000000;0.444429
6101.000000;0.444141
6100.000000;0.443777
6099.000000;0.443327
6098.000000;0.442829
6097.000000;0.442314
6096.000000;0.441793
6095.000000;0.441298
6094.000000;0.440867
6093.000000;0.440517
6092.000000;0.440235
6091.000000;0.439976
6090.000000;0.439672
6089.000000;0.439270
6088.000000;0.438809
6087.000000;0.438381
6086.000000;0.438027
6085.000000;0.437694
6084.000000;0.437335
6083.000000;0.436980
6082.000000;0.436659
6081.000000;0.436337
6080.000000;0.435962
6079.000000;0.435535
6078.000000;0.435087
6077.000000;0.434621
6076.000000;0.434135
6075.000000;0.433671
6074.000000;0.433283
6073.000000;0.432970
6072.000000;0.432678
6071.000000;0.432345
6070.000000;0.431944
6069.000000;0.431503
6068.000000;0.431105
6067.000000;0.430811
6066.000000;0.430570
6065.000000;0.430263
6064.000000;0.429845
6063.000000;0.429394
6062.000000;0.428989
6061.000000;0.428628
6060.000000;0.428291
6059.000000;0.428006
6058.000000;0.427782
6057.000000;0.427547
6056.000000;0.427233
6055.000000;0.426862
6054.000000;0.426500
6053.000000;0.426150
6052.000000;0.425779
6051.000000;0.425402
6050.000000;0.425065
6049.000000;0.424768
6048.000000;0.424471
6047.000000;0.424158
6046.000000;0.423851
6045.000000;0.423561
6044.000000;0.423290
6043.000000;0.423040
6042.000000;0.422797
6041.000000;0.422514
6040.000000;0.422158
6039.000000;0.421749
6038.000000;0.421335
6037.000000;0.420942
6036.000000;0.420583
6035.000000;0.420278
6034.000000;0.420018
6033.000000;0.419754
6032.000000;0.419453
6031.000000;0.419146
6030.000000;0.418868
6029.000000;0.418594
6028.000000;0.418272
6027.000000;0.417910
6026.000000;0.417566
6025.000000;0.417279
6024.000000;0.417040
6023.000000;0.416826
6022.000000;0.416617
6021.000000;0.416391
6020.000000;0.416131
6019.000000;0.415842
6018.000000;0.415534
6017.000000;0.415220
6016.000000;0.414927
6015.000000;0.414686
6014.000000;0.414497
6013.000000;0.414312
6012.000000;0.414080
6011.000000;0.413770
6010.000000;0.413361
6009.000000;0.412867
6008.000000;0.412377
6007.000000;0.412021
6006.000000;0.411848
6005.000000;0.411770
6004.000000;0.411663
6003.000000;0.411467
6002.000000;0.411187
6001.000000;0.410840
6000.000000;0.410465
5999.000000;0.410130
5998.000000;0.409877
5997.000000;0.409678
5996.000000;0.409494
5995.000000;0.409327
5994.000000;0.409186
5993.000000;0.409035
5992.000000;0.408831
5991.000000;0.408595
5990.000000;0.408380
5989.000000;0.408197
5988.000000;0.408008
5987.000000;0.407773
5986.000000;0.407483
5985.000000;0.407157
5984.000000;0.406837
5983.000000;0.406576
5982.000000;0.406383
5981.000000;0.406201
5980.000000;0.405957
5979.000000;0.405630
5978.000000;0.405266
5977.000000;0.404938
5976.000000;0.404706
5975.000000;0.404566
5974.000000;0.404445
5973.000000;0.404254
5972.000000;0.403983
5971.000000;0.403702
5970.000000;0.403469
5969.000000;0.403271
5968.000000;0.403069
5967.000000;0.402844
5966.000000;0.402601
5965.000000;0.402352
5964.000000;0.402125
5963.000000;0.401940
5962.000000;0.401772
5961.000000;0.401577
5960.000000;0.401377
5959.000000;0.401252
5958.000000;0.401215
5957.000000;0.401166
5956.000000;0.401005
5955.000000;0.400756
5954.000000;0.400537
5953.000000;0.400437
5952.000000;0.400458
5951.000000;0.400531
5950.000000;0.400557
5949.000000;0.400461
5948.000000;0.400250
5947.000000;0.399997
5946.000000;0.399752
5945.000000;0.399506
5944.000000;0.399248
5943.000000;0.399004
5942.000000;0.398802
5941.000000;0.398640
5940.000000;0.398517
5939.000000;0.398433
5938.000000;0.398345
5937.000000;0.398187
5936.000000;0.397962
5935.000000;0.397757
5934.000000;0.397630
5933.000000;0.397535
5932.000000;0.397409
5931.000000;0.397275
5930.000000;0.397187
5929.000000;0.397128
5928.000000;0.397029
5927.000000;0.396862
5926.000000;0.396671
5925.000000;0.396516
5924.000000;0.396434
5923.000000;0.396424
5922.000000;0.396437
5921.000000;0.396402
5920.000000;0.396303
5919.000000;0.396190
5918.000000;0.396105
5917.000000;0.396019
5916.000000;0.395888
5915.000000;0.395717
5914.000000;0.395531
5913.000000;0.395328
5912.000000;0.395097
5911.000000;0.394859
5910.000000;0.394649
5909.000000;0.394478
5908.000000;0.394355
5907.000000;0.394294
5906.000000;0.394281
5905.000000;0.394255
5904.000000;0.394174
5903.000000;0.394068
5902.000000;0.393985
5901.000000;0.393915
5900.000000;0.393815
5899.000000;0.393679
5898.000000;0.393551
5897.000000;0.393464
5896.000000;0.393410
5895.000000;0.393350
5894.000000;0.393250
5893.000000;0.393114
5892.000000;0.392984
5891.000000;0.392900
5890.000000;0.392846
5889.000000;0.392776
5888.000000;0.392689
5887.000000;0.392640
5886.000000;0.392655
5885.000000;0.392694
5884.000000;0.392704
5883.000000;0.392680
5882.000000;0.392629
5881.000000;0.392544
5880.000000;0.392432
5879.000000;0.392333
5878.000000;0.392272
5877.000000;0.392223
5876.000000;0.392155
5875.000000;0.392077
5874.000000;0.392010
5873.000000;0.391955
5872.000000;0.391921
5871.000000;0.391935
5870.000000;0.392001
5869.000000;0.392081
5868.000000;0.392137
5867.000000;0.392175
5866.000000;0.392201
5865.000000;0.392197
5864.000000;0.392153
5863.000000;0.392099
5862.000000;0.392066
5861.000000;0.392051
5860.000000;0.392043
5859.000000;0.392051
5858.000000;0.392066
5857.000000;0.392067
5856.000000;0.392064
5855.000000;0.392111
5854.000000;0.392239
5853.000000;0.392410
5852.000000;0.392558
5851.000000;0.392650
5850.000000;0.392676
5849.000000;0.392633
5848.000000;0.392550
5847.000000;0.392491
5846.000000;0.392494
5845.000000;0.392546
5844.000000;0.392614
5843.000000;0.392679
5842.000000;0.392722
5841.000000;0.392729
5840.000000;0.392734
5839.000000;0.392795
5838.000000;0.392902
5837.000000;0.392984
5836.000000;0.393005
5835.000000;0.393013
5834.000000;0.393072
5833.000000;0.393198
5832.000000;0.393383
5831.000000;0.393619
5830.000000;0.393859
5829.000000;0.394017
5828.000000;0.394062
5827.000000;0.394055
5826.000000;0.394073
5825.000000;0.394141
5824.000000;0.394266
5823.000000;0.394461
5822.000000;0.394696
5821.000000;0.394893
5820.000000;0.395018
5819.000000;0.395119
5818.000000;0.395244
5817.000000;0.395367
5816.000000;0.395459
5815.000000;0.395550
5814.000000;0.395682
5813.000000;0.395843
5812.000000;0.396005
5811.000000;0.396182
5810.000000;0.396394
5809.000000;0.396615
5808.000000;0.396810
5807.000000;0.397002
5806.000000;0.397234
5805.000000;0.397503
5804.000000;0.397761
5803.000000;0.397968
5802.000000;0.398102
5801.000000;0.398167
5800.000000;0.398213
5799.000000;0.398303
5798.000000;0.398450
5797.000000;0.398608
5796.000000;0.398751
5795.000000;0.398918
5794.000000;0.399154
5793.000000;0.399455
5792.000000;0.399807
5791.000000;0.400202
5790.000000;0.400590
5789.000000;0.400885
5788.000000;0.401071
5787.000000;0.401237
5786.000000;0.401468
5785.000000;0.401755
5784.000000;0.402051
5783.000000;0.402341
5782.000000;0.402613
5781.000000;0.402823
5780.000000;0.402956
5779.000000;0.403092
5778.000000;0.403319
5777.000000;0.403632
5776.000000;0.403974
5775.000000;0.404320
5774.000000;0.404673
5773.000000;0.405013
5772.000000;0.405326
5771.000000;0.405643
5770.000000;0.405987
5769.000000;0.406324
5768.000000;0.406602
5767.000000;0.406821
5766.000000;0.407027
5765.000000;0.407261
5764.000000;0.407562
5763.000000;0.407951
5762.000000;0.408384
5761.000000;0.408763
5760.000000;0.409035
5759.000000;0.409259
5758.000000;0.409522
5757.000000;0.409849
5756.000000;0.410223
5755.000000;0.410641
5754.000000;0.411091
5753.000000;0.411525
5752.000000;0.411909
5751.000000;0.412265
5750.000000;0.412621
5749.000000;0.412970
5748.000000;0.413314
5747.000000;0.413692
5746.000000;0.414121
5745.000000;0.414566
5744.000000;0.415002
5743.000000;0.415461
5742.000000;0.415957
5741.000000;0.416445
5740.000000;0.416900
5739.000000;0.417376
5738.000000;0.417905
5737.000000;0.418418
5736.000000;0.418841
5735.000000;0.419222
5734.000000;0.419667
5733.000000;0.420186
5732.000000;0.420699
5731.000000;0.421164
5730.000000;0.421608
5729.000000;0.422058
5728.000000;0.422517
5727.000000;0.423003
5726.000000;0.423525
5725.000000;0.424052
5724.000000;0.424554
5723.000000;0.425062
5722.000000;0.425615
5721.000000;0.426183
5720.000000;0.426699
5719.000000;0.427150
5718.000000;0.427591
5717.000000;0.428066
5716.000000;0.428590
5715.000000;0.429168
5714.000000;0.429776
5713.000000;0.430355
5712.000000;0.430871
5711.000000;0.431378
5710.000000;0.431952
5709.000000;0.432590
5708.000000;0.433217
5707.000000;0.433782
5706.000000;0.434303
5705.000000;0.434833
5704.000000;0.435423
5703.000000;0.436083
5702.000000;0.436752
5701.000000;0.437335
5700.000000;0.437815
5699.000000;0.438274
5698.000000;0.438828
5697.000000;0.439445
5696.000000;0.440139
5695.000000;0.440898
5694.000000;0.441666
5693.000000;0.442392
5692.000000;0.443009
5691.000000;0.443522
5690.000000;0.443974
5689.000000;0.444419
5688.000000;0.444921
5687.000000;0.445553
5686.000000;0.446309
5685.000000;0.447073
5684.000000;0.447728
5683.000000;0.448271
5682.000000;0.448779
5681.000000;0.449298
5680.000000;0.449840
5679.000000;0.450430
5678.000000;0.451089
5677.000000;0.451786
5676.000000;0.452470
5675.000000;0.453130
5674.000000;0.453774
5673.000000;0.454381
5672.000000;0.454930
5671.000000;0.455459
5670.000000;0.456021
5669.000000;0.456616
5668.000000;0.457208
5667.000000;0.457802
5666.000000;0.458435
5665.000000;0.459100
5664.000000;0.459745
5663.000000;0.460322
5662.000000;0.460824
5661.000000;0.461281
5660.000000;0.461748
5659.000000;0.462282
5658.000000;0.462896
5657.000000;0.463545
5656.000000;0.464189
5655.000000;0.464816
5654.000000;0.465408
5653.000000;0.465927
5652.000000;0.466398
5651.000000;0.466921
5650.000000;0.467557
5649.000000;0.468243
5648.000000;0.468873
5647.000000;0.469412
5646.000000;0.469899
5645.000000;0.470358
5644.000000;0.470799
5643.000000;0.471262
5642.000000;0.471787
5641.000000;0.472354
5640.000000;0.472903
5639.000000;0.473406
5638.000000;0.473873
5637.000000;0.474319
5636.000000;0.474763
5635.000000;0.475227
5634.000000;0.475709
5633.000000;0.476167
5632.000000;0.476571
5631.000000;0.476936
5630.000000;0.477281
5629.000000;0.477608
5628.000000;0.477936
5627.000000;0.478324
5626.000000;0.478792
5625.000000;0.479270
5624.000000;0.479663
5623.000000;0.479941
5622.000000;0.480138
5621.000000;0.480315
5620.000000;0.480542
5619.000000;0.480868
5618.000000;0.481258
5617.000000;0.481615
5616.000000;0.481908
5615.000000;0.482220
5614.000000;0.482623
5613.000000;0.483059
5612.000000;0.483409
5611.000000;0.483636
5610.000000;0.483799
5609.000000;0.483969
5608.000000;0.484183
5607.000000;0.484448
5606.000000;0.484745
5605.000000;0.485035
5604.000000;0.485314
5603.000000;0.485623
5602.000000;0.485976
5601.000000;0.486314
5600.000000;0.486563
5599.000000;0.486715
5598.000000;0.486821
5597.000000;0.486923
5596.000000;0.487047
5595.000000;0.487201
5594.000000;0.487355
5593.000000;0.487450
5592.000000;0.487467
5591.000000;0.487465
5590.000000;0.487507
5589.000000;0.487594
5588.000000;0.487691
5587.000000;0.487779
5586.000000;0.487853
5585.000000;0.487915
5584.000000;0.487976
5583.000000;0.488043
5582.000000;0.488071
5581.000000;0.487998
5580.000000;0.487835
5579.000000;0.487674
5578.000000;0.487587
5577.000000;0.487580
5576.000000;0.487648
5575.000000;0.487791
5574.000000;0.487949
5573.000000;0.488014
5572.000000;0.487949
5571.000000;0.487837
5570.000000;0.487760
5569.000000;0.487712
5568.000000;0.487668
5567.000000;0.487645
5566.000000;0.487649
5565.000000;0.487645
5564.000000;0.487620
5563.000000;0.487610
5562.000000;0.487608
5561.000000;0.487550
5560.000000;0.487422
5559.000000;0.487305
5558.000000;0.487249
5557.000000;0.487182
5556.000000;0.487032
5555.000000;0.486845
5554.000000;0.486696
5553.000000;0.486573
5552.000000;0.486430
5551.000000;0.486322
5550.000000;0.486331
5549.000000;0.486413
5548.000000;0.486428
5547.000000;0.486300
5546.000000;0.486087
5545.000000;0.485889
5544.000000;0.485763
5543.000000;0.485695
5542.000000;0.485626
5541.000000;0.485494
5540.000000;0.485303
5539.000000;0.485124
5538.000000;0.484995
5537.000000;0.484866
5536.000000;0.484694
5535.000000;0.484521
5534.000000;0.484404
5533.000000;0.484336
5532.000000;0.484274
5531.000000;0.484205
5530.000000;0.484116
5529.000000;0.483956
5528.000000;0.483721
5527.000000;0.483499
5526.000000;0.483373
5525.000000;0.483337
5524.000000;0.483338
5523.000000;0.483330
5522.000000;0.483276
5521.000000;0.483134
5520.000000;0.482942
5519.000000;0.482830
5518.000000;0.482840
5517.000000;0.482852
5516.000000;0.482754
5515.000000;0.482595
5514.000000;0.482508
5513.000000;0.482505
5512.000000;0.482483
5511.000000;0.482404
5510.000000;0.482328
5509.000000;0.482273
5508.000000;0.482183
5507.000000;0.482053
5506.000000;0.481993
5505.000000;0.482120
5504.000000;0.482374
5503.000000;0.482527
5502.000000;0.482434
5501.000000;0.482177
5500.000000;0.481984
5499.000000;0.482001
5498.000000;0.482113
5497.000000;0.482153
5496.000000;0.482190
5495.000000;0.482396
5494.000000;0.482723
5493.000000;0.482903
5492.000000;0.482844
5491.000000;0.482826
5490.000000;0.483077
5489.000000;0.483399
5488.000000;0.483437
5487.000000;0.483199
5486.000000;0.483001
5485.000000;0.483042
5484.000000;0.483191
5483.000000;0.483241
5482.000000;0.483227
5481.000000;0.483271
5480.000000;0.483314
5479.000000;0.483305
5478.000000;0.483407
5477.000000;0.483792
5476.000000;0.484338
5475.000000;0.484683
5474.000000;0.484738
5473.000000;0.484905
5472.000000;0.485486
5471.000000;0.486207
5470.000000;0.486594
5469.000000;0.486575
5468.000000;0.486534
5467.000000;0.486816
5466.000000;0.487323
5465.000000;0.487793
5464.000000;0.488213
5463.000000;0.488669
5462.000000;0.489109
5461.000000;0.489442
5460.000000;0.489725
5459.000000;0.490134
5458.000000;0.490745
5457.000000;0.491438
5456.000000;0.492085
5455.000000;0.492649
5454.000000;0.493118
5453.000000;0.493589
5452.000000;0.494228
5451.000000;0.494971
5450.000000;0.495511
5449.000000;0.495757
5448.000000;0.496109
5447.000000;0.496980
5446.000000;0.498068
5445.000000;0.498748
5444.000000;0.499097
5443.000000;0.499772
5442.000000;0.500974
5441.000000;0.502195
5440.000000;0.502952
5439.000000;0.503465
5438.000000;0.504334
5437.000000;0.505676
5436.000000;0.507040
5435.000000;0.508025
5434.000000;0.508647
5433.000000;0.509330
5432.000000;0.510529
5431.000000;0.512214
5430.000000;0.513862
5429.000000;0.514980
5428.000000;0.515629
5427.000000;0.516383
5426.000000;0.517648
5425.000000;0.519239
5424.000000;0.520720
5423.000000;0.521898
5422.000000;0.522903
5421.000000;0.524044
5420.000000;0.525502
5419.000000;0.527105
5418.000000;0.528650
5417.000000;0.530327
5416.000000;0.532493
5415.000000;0.535076
5414.000000;0.537483
5413.000000;0.539369
5412.000000;0.541206
5411.000000;0.543566
5410.000000;0.546232
5409.000000;0.548520
5408.000000;0.550269
5407.000000;0.551948
5406.000000;0.553892
5405.000000;0.555936
5404.000000;0.557882
5403.000000;0.559967
5402.000000;0.562442
5401.000000;0.565183
5400.000000;0.568118
5399.000000;0.571295
5398.000000;0.574571
5397.000000;0.577724
5396.000000;0.580798
5395.000000;0.584100
5394.000000;0.587634
5393.000000;0.590992
5392.000000;0.594103
5391.000000;0.597438
5390.000000;0.601266
5389.000000;0.605272
5388.000000;0.609121
5387.000000;0.612984
5386.000000;0.617189
5385.000000;0.621599
5384.000000;0.625936
5383.000000;0.630411
5382.000000;0.635235
5381.000000;0.640089
5380.000000;0.644750
5379.000000;0.649589
5378.000000;0.654993
5377.000000;0.660669
5376.000000;0.666082
5375.000000;0.671455
5374.000000;0.677429
5373.000000;0.683924
5372.000000;0.690258
5371.000000;0.696236
5370.000000;0.702379
5369.000000;0.709009
5368.000000;0.715812
5367.000000;0.722573
5366.000000;0.729639
5365.000000;0.737267
5364.000000;0.745202
5363.000000;0.753251
5362.000000;0.761564
5361.000000;0.770234
5360.000000;0.779111
5359.000000;0.788116
5358.000000;0.797391
5357.000000;0.806977
5356.000000;0.816733
5355.000000;0.826725
5354.000000;0.837218
5353.000000;0.848105
5352.000000;0.858981
5351.000000;0.869979
5350.000000;0.881573
5349.000000;0.893595
5348.000000;0.905443
5347.000000;0.917227
5346.000000;0.929833
5345.000000;0.943579
5344.000000;0.957592
5343.000000;0.971221
5342.000000;0.985158
5341.000000;1.000135
5340.000000;1.015638
5339.000000;1.030794
5338.000000;1.045611
5337.000000;1.060643
5336.000000;1.075967
5335.000000;1.091390
5334.000000;1.107212
5333.000000;1.123782
5332.000000;1.140727
5331.000000;1.157697
5330.000000;1.175210
5329.000000;1.193784
5328.000000;1.212889
5327.000000;1.231571
5326.000000;1.249782
5325.000000;1.268189
5324.000000;1.286895
5323.000000;1.305524
5322.000000;1.324251
5321.000000;1.343566
5320.000000;1.363381
5319.000000;1.383312
5318.000000;1.403394
5317.000000;1.423677
5316.000000;1.443583
5315.000000;1.462513
5314.000000;1.480639
5313.000000;1.498206
5312.000000;1.514873
5311.000000;1.530764
5310.000000;1.547038
5309.000000;1.564223
5308.000000;1.581093
5307.000000;1.596427
5306.000000;1.610767
5305.000000;1.624948
5304.000000;1.638190
5303.000000;1.649395
5302.000000;1.659185
5301.000000;1.668908
5300.000000;1.678714
5299.000000;1.688236
5298.000000;1.697930
5297.000000;1.708035
5296.000000;1.717240
5295.000000;1.724186
5294.000000;1.729518
5293.000000;1.734681
5292.000000;1.739705
5291.000000;1.743754
5290.000000;1.746887
5289.000000;1.749881
5288.000000;1.753083
5287.000000;1.756725
5286.000000;1.761327
5285.000000;1.766445
5284.000000;1.770234
5283.000000;1.771546
5282.000000;1.771422
5281.000000;1.771352
5280.000000;1.771383
5279.000000;1.771063
5278.000000;1.770793
5277.000000;1.771040
5276.000000;1.771425
5275.000000;1.771626
5274.000000;1.772188
5273.000000;1.773422
5272.000000;1.774472
5271.000000;1.774603
5270.000000;1.774391
5269.000000;1.774645
5268.000000;1.775213
5267.000000;1.775609
5266.000000;1.775893
5265.000000;1.776361
5264.000000;1.777197
5263.000000;1.778636
5262.000000;1.780432
5261.000000;1.781172
5260.000000;1.779554
5259.000000;1.776615
5258.000000;1.775089
5257.000000;1.776150
5256.000000;1.778280
5255.000000;1.779694
5254.000000;1.780430
5253.000000;1.781364
5252.000000;1.782624
5251.000000;1.783891
5250.000000;1.784937
5249.000000;1.785160
5248.000000;1.784034
5247.000000;1.782483
5246.000000;1.782125
5245.000000;1.782992
5244.000000;1.783605
5243.000000;1.783395
5242.000000;1.783337
5241.000000;1.783795
5240.000000;1.783598
5239.000000;1.782054
5238.000000;1.780282
5237.000000;1.779648
5236.000000;1.780289
5235.000000;1.781858
5234.000000;1.784149
5233.000000;1.786261
5232.000000;1.786765
5231.000000;1.785680
5230.000000;1.784886
5229.000000;1.785605
5228.000000;1.786769
5227.000000;1.786581
5226.000000;1.784694
5225.000000;1.782476
5224.000000;1.781710
5223.000000;1.783272
5222.000000;1.786293
5221.000000;1.788350
5220.000000;1.787687
5219.000000;1.785410
5218.000000;1.784287
5217.000000;1.785363
5216.000000;1.787190
5215.000000;1.788329
5214.000000;1.788732
5213.000000;1.788658
5212.000000;1.788175
5211.000000;1.787957
5210.000000;1.788860
5209.000000;1.790215
5208.000000;1.790162
5207.000000;1.788285
5206.000000;1.786210
5205.000000;1.785058
5204.000000;1.784210
5203.000000;1.783063
5202.000000;1.782097
5201.000000;1.781600
5200.000000;1.780987
5199.000000;1.780092
5198.000000;1.779718
5197.000000;1.780392
5196.000000;1.781857
5195.000000;1.783959
5194.000000;1.786596
5193.000000;1.788642
5192.000000;1.788652
5191.000000;1.787088
5190.000000;1.786157
5189.000000;1.786955
5188.000000;1.788344
5187.000000;1.789067
5186.000000;1.789070
5185.000000;1.788346
5184.000000;1.786512
5183.000000;1.784210
5182.000000;1.783157
5181.000000;1.784014
5180.000000;1.785740
5179.000000;1.787467
5178.000000;1.789287
5177.000000;1.790853
5176.000000;1.791055
5175.000000;1.789808
5174.000000;1.788611
5173.000000;1.788496
5172.000000;1.788978
5171.000000;1.789585
5170.000000;1.790614
5169.000000;1.791700
5168.000000;1.791506
5167.000000;1.789834
5166.000000;1.788433
5165.000000;1.788712
5164.000000;1.789915
5163.000000;1.790508
5162.000000;1.790248
5161.000000;1.789873
5160.000000;1.789869
5159.000000;1.790272
5158.000000;1.790780
5157.000000;1.790556
5156.000000;1.788935
5155.000000;1.786652
5154.000000;1.785100
5153.000000;1.784364
5152.000000;1.783344
5151.000000;1.781790
5150.000000;1.780875
5149.000000;1.781547
5148.000000;1.783603
5147.000000;1.786462
5146.000000;1.789522
5145.000000;1.791673
5144.000000;1.792052
5143.000000;1.791397
5142.000000;1.791170
5141.000000;1.791452
5140.000000;1.791236
5139.000000;1.790600
5138.000000;1.790587
5137.000000;1.791012
5136.000000;1.790533
5135.000000;1.788989
5134.000000;1.787688
5133.000000;1.787077
5132.000000;1.786254
5131.000000;1.785131
5130.000000;1.784821
5129.000000;1.785459
5128.000000;1.785874
5127.000000;1.785929
5126.000000;1.786969
5125.000000;1.789247
5124.000000;1.791067
5123.000000;1.791277
5122.000000;1.790596
5121.000000;1.789727
5120.000000;1.788332
5119.000000;1.786769
5118.000000;1.786661
5117.000000;1.788533
5116.000000;1.790760
5115.000000;1.791940
5114.000000;1.792528
5113.000000;1.793130
5112.000000;1.793034
5111.000000;1.791642
5110.000000;1.789906
5109.000000;1.789074
5108.000000;1.789366
5107.000000;1.790840
5106.000000;1.793923
5105.000000;1.797859
5104.000000;1.800159
5103.000000;1.799079
5102.000000;1.795655
5101.000000;1.792293
5100.000000;1.790427
5099.000000;1.790441
5098.000000;1.792430
5097.000000;1.795632
5096.000000;1.798144
5095.000000;1.798447
5094.000000;1.796658
5093.000000;1.793707
5092.000000;1.790359
5091.000000;1.787594
5090.000000;1.786610
5089.000000;1.787630
5088.000000;1.789437
5087.000000;1.790596
5086.000000;1.790653
5085.000000;1.790030
5084.000000;1.789663
5083.000000;1.790738
5082.000000;1.793433
5081.000000;1.795708
5080.000000;1.794886
5079.000000;1.790954
5078.000000;1.786792
5077.000000;1.784813
5076.000000;1.785038
5075.000000;1.786490
5074.000000;1.788704
5073.000000;1.791241
5072.000000;1.793192
5071.000000;1.793975
5070.000000;1.793736
5069.000000;1.792643
5068.000000;1.790810
5067.000000;1.789124
5066.000000;1.788767
5065.000000;1.789602
5064.000000;1.790376
5063.000000;1.790660
5062.000000;1.791056
5061.000000;1.791449
5060.000000;1.790946
5059.000000;1.789774
5058.000000;1.789243
5057.000000;1.789382
5056.000000;1.788628
5055.000000;1.786676
5054.000000;1.785414
5053.000000;1.786056
5052.000000;1.787428
5051.000000;1.787899
5050.000000;1.787412
5049.000000;1.786728
5048.000000;1.786231
5047.000000;1.786402
5046.000000;1.787876
5045.000000;1.789964
5044.000000;1.790599
5043.000000;1.789040
5042.000000;1.787157
5041.000000;1.786842
5040.000000;1.787630
5039.000000;1.787905
5038.000000;1.787317
5037.000000;1.786748
5036.000000;1.786696
5035.000000;1.786878
5034.000000;1.786902
5033.000000;1.786546
5032.000000;1.785848
5031.000000;1.785321
5030.000000;1.785422
5029.000000;1.785619
5028.000000;1.784843
5027.000000;1.782978
5026.000000;1.780943
5025.000000;1.779302
5024.000000;1.777968
5023.000000;1.777217
5022.000000;1.777508
5021.000000;1.778234
5020.000000;1.778136
5019.000000;1.777373
5018.000000;1.777609
5017.000000;1.779376
5016.000000;1.780914
5015.000000;1.780509
5014.000000;1.778650
5013.000000;1.776906
5012.000000;1.775914
5011.000000;1.775342
5010.000000;1.774815
5009.000000;1.773905
5008.000000;1.771923
5007.000000;1.768774
5006.000000;1.765611
5005.000000;1.764067
5004.000000;1.765030
5003.000000;1.768013
5002.000000;1.771063
5001.000000;1.771704
5000.000000;1.769131
4999.000000;1.765444
4998.000000;1.763394
4997.000000;1.763438
4996.000000;1.763940
4995.000000;1.763788
4994.000000;1.763373
4993.000000;1.763008
4992.000000;1.762181
4991.000000;1.760738
4990.000000;1.759262
4989.000000;1.757724
4988.000000;1.755245
4987.000000;1.751706
4986.000000;1.748286
4985.000000;1.746053
4984.000000;1.745163
4983.000000;1.745440
4982.000000;1.746439
4981.000000;1.746789
4980.000000;1.745026
4979.000000;1.741583
4978.000000;1.738615
4977.000000;1.737394
4976.000000;1.737138
4975.000000;1.736662
4974.000000;1.735882
4973.000000;1.735210
4972.000000;1.734675
4971.000000;1.734120
4970.000000;1.733288
4969.000000;1.731504
4968.000000;1.728322
4967.000000;1.724821
4966.000000;1.722911
4965.000000;1.722828
4964.000000;1.722760
4963.000000;1.721436
4962.000000;1.719746
4961.000000;1.719071
4960.000000;1.719321
4959.000000;1.719401
4958.000000;1.718466
4957.000000;1.716112
4956.000000;1.712227
4955.000000;1.707392
4954.000000;1.702817
4953.000000;1.699410
4952.000000;1.697293
4951.000000;1.696268
4950.000000;1.695961
4949.000000;1.695482
4948.000000;1.693923
4947.000000;1.691369
4946.000000;1.688528
4945.000000;1.685490
4944.000000;1.681948
4943.000000;1.678532
4942.000000;1.676521
4941.000000;1.676045
4940.000000;1.675708
4939.000000;1.674320
4938.000000;1.671988
4937.000000;1.669249
4936.000000;1.666413
4935.000000;1.664072
4934.000000;1.662957
4933.000000;1.662710
4932.000000;1.661793
4931.000000;1.659224
4930.000000;1.655531
4929.000000;1.651621
4928.000000;1.647753
4927.000000;1.644018
4926.000000;1.640811
4925.000000;1.638333
4924.000000;1.636309
4923.000000;1.634538
4922.000000;1.633040
4921.000000;1.631520
4920.000000;1.629511
4919.000000;1.627185
4918.000000;1.625104
4917.000000;1.623069
4916.000000;1.620229
4915.000000;1.616501
4914.000000;1.612850
4913.000000;1.609852
4912.000000;1.607003
4911.000000;1.603821
4910.000000;1.600568
4909.000000;1.597501
4908.000000;1.594428
4907.000000;1.591512
4906.000000;1.589594
4905.000000;1.589028
4904.000000;1.588815
4903.000000;1.587549
4902.000000;1.584917
4901.000000;1.581786
4900.000000;1.579080
4899.000000;1.576854
4898.000000;1.574262
4897.000000;1.570405
4896.000000;1.565436
4895.000000;1.560660
4894.000000;1.557175
4893.000000;1.554658
4892.000000;1.552114
4891.000000;1.549434
4890.000000;1.547282
4889.000000;1.545593
4888.000000;1.543322
4887.000000;1.539853
4886.000000;1.535722
4885.000000;1.531712
4884.000000;1.528159
4883.000000;1.525251
4882.000000;1.523093
4881.000000;1.521171
4880.000000;1.518628
4879.000000;1.515444
4878.000000;1.512565
4877.000000;1.510495
4876.000000;1.508509
4875.000000;1.505689
4874.000000;1.502129
4873.000000;1.498641
4872.000000;1.495722
4871.000000;1.493204
4870.000000;1.490623
4869.000000;1.487626
4868.000000;1.484208
4867.000000;1.480687
4866.000000;1.477354
4865.000000;1.474221
4864.000000;1.471286
4863.000000;1.468762
4862.000000;1.466643
4861.000000;1.464352
4860.000000;1.461351
4859.000000;1.457857
4858.000000;1.454394
4857.000000;1.450951
4856.000000;1.447281
4855.000000;1.443719
4854.000000;1.440820
4853.000000;1.438350
4852.000000;1.435515
4851.000000;1.432170
4850.000000;1.428987
4849.000000;1.426402
4848.000000;1.424184
4847.000000;1.422071
4846.000000;1.419999
4845.000000;1.417569
4844.000000;1.414143
4843.000000;1.409795
4842.000000;1.405432
4841.000000;1.401743
4840.000000;1.398604
4839.000000;1.395718
4838.000000;1.393197
4837.000000;1.391178
4836.000000;1.389364
4835.000000;1.387238
4834.000000;1.384477
4833.000000;1.381071
4832.000000;1.377329
4831.000000;1.373759
4830.000000;1.370627
4829.000000;1.367684
4828.000000;1.364672
4827.000000;1.361814
4826.000000;1.359319
4825.000000;1.356675
4824.000000;1.353194
4823.000000;1.349126
4822.000000;1.345432
4821.000000;1.342459
4820.000000;1.339667
4819.000000;1.336695
4818.000000;1.333902
4817.000000;1.331578
4816.000000;1.329345
4815.000000;1.326716
4814.000000;1.323745
4813.000000;1.320765
4812.000000;1.317909
4811.000000;1.315131
4810.000000;1.312337
4809.000000;1.309302
4808.000000;1.305827
4807.000000;1.302116
4806.000000;1.298682
4805.000000;1.295752
4804.000000;1.293078
4803.000000;1.290390
4802.000000;1.287724
4801.000000;1.285230
4800.000000;1.282954
4799.000000;1.280830
4798.000000;1.278644
4797.000000;1.276086
4796.000000;1.273103
4795.000000;1.270042
4794.000000;1.267118
4793.000000;1.263999
4792.000000;1.260367
4791.000000;1.256631
4790.000000;1.253509
4789.000000;1.251062
4788.000000;1.248767
4787.000000;1.246406
4786.000000;1.244188
4785.000000;1.242026
4784.000000;1.239442
4783.000000;1.236330
4782.000000;1.233152
4781.000000;1.230219
4780.000000;1.227369
4779.000000;1.224562
4778.000000;1.222180
4777.000000;1.220445
4776.000000;1.218943
4775.000000;1.217036
4774.000000;1.214467
4773.000000;1.211413
4772.000000;1.208238
4771.000000;1.205307
4770.000000;1.202681
4769.000000;1.199926
4768.000000;1.196570
4767.000000;1.192824
4766.000000;1.189487
4765.000000;1.187060
4764.000000;1.185295
4763.000000;1.183636
4762.000000;1.181729
4761.000000;1.179471
4760.000000;1.176940
4759.000000;1.174435
4758.000000;1.172250
4757.000000;1.170310
4756.000000;1.168288
4755.000000;1.166074
4754.000000;1.163822
4753.000000;1.161551
4752.000000;1.159077
4751.000000;1.156385
4750.000000;1.153704
4749.000000;1.151156
4748.000000;1.148653
4747.000000;1.146163
4746.000000;1.143749
4745.000000;1.141350
4744.000000;1.138860
4743.000000;1.136417
4742.000000;1.134265
4741.000000;1.132358
4740.000000;1.130451
4739.000000;1.128567
4738.000000;1.126915
4737.000000;1.125363
4736.000000;1.123414
4735.000000;1.120834
4734.000000;1.117941
4733.000000;1.115175
4732.000000;1.112700
4731.000000;1.110493
4730.000000;1.108469
4729.000000;1.106477
4728.000000;1.104468
4727.000000;1.102654
4726.000000;1.101191
4725.000000;1.099779
4724.000000;1.097940
4723.000000;1.095668
4722.000000;1.093383
4721.000000;1.091273
4720.000000;1.089152
4719.000000;1.086977
4718.000000;1.084994
4717.000000;1.083267
4716.000000;1.081490
4715.000000;1.079452
4714.000000;1.077332
4713.000000;1.075406
4712.000000;1.073753
4711.000000;1.072314
4710.000000;1.070920
4709.000000;1.069228
4708.000000;1.067011
4707.000000;1.064580
4706.000000;1.062547
4705.000000;1.061118
4704.000000;1.059928
4703.000000;1.058598
4702.000000;1.057092
4701.000000;1.055461
4700.000000;1.053678
4699.000000;1.051841
4698.000000;1.050187
4697.000000;1.048773
4696.000000;1.047439
4695.000000;1.046125
4694.000000;1.044877
4693.000000;1.043511
4692.000000;1.041709
4691.000000;1.039565
4690.000000;1.037612
4689.000000;1.036163
4688.000000;1.034974
4687.000000;1.033703
4686.000000;1.032325
4685.000000;1.030970
4684.000000;1.029697
4683.000000;1.028584
4682.000000;1.027683
4681.000000;1.026735
4680.000000;1.025294
4679.000000;1.023325
4678.000000;1.021359
4677.000000;1.019854
4676.000000;1.018710
4675.000000;1.017575
4674.000000;1.016319
4673.000000;1.014983
4672.000000;1.013552
4671.000000;1.012067
4670.000000;1.010728
4669.000000;1.009676
4668.000000;1.008809
4667.000000;1.007979
4666.000000;1.007180
4665.000000;1.006406
4664.000000;1.005515
4663.000000;1.004389
4662.000000;1.003092
4661.000000;1.001762
4660.000000;1.000485
4659.000000;0.999320
4658.000000;0.998291
4657.000000;0.997307
4656.000000;0.996288
4655.000000;0.995347
4654.000000;0.994625
4653.000000;0.993962
4652.000000;0.993042
4651.000000;0.991867
4650.000000;0.990789
4649.000000;0.990000
4648.000000;0.989340
4647.000000;0.988665
4646.000000;0.988031
4645.000000;0.987405
4644.000000;0.986543
4643.000000;0.985377
4642.000000;0.984201
4641.000000;0.983303
4640.000000;0.982654
4639.000000;0.982123
4638.000000;0.981719
4637.000000;0.981412
4636.000000;0.980978
4635.000000;0.980257
4634.000000;0.979392
4633.000000;0.978610
4632.000000;0.977938
4631.000000;0.977268
4630.000000;0.976527
4629.000000;0.975662
4628.000000;0.974641
4627.000000;0.973608
4626.000000;0.972848
4625.000000;0.972439
4624.000000;0.972137
4623.000000;0.971710
4622.000000;0.971206
4621.000000;0.970760
4620.000000;0.970355
4619.000000;0.969910
4618.000000;0.969454
4617.000000;0.969043
4616.000000;0.968658
4615.000000;0.968309
4614.000000;0.968083
4613.000000;0.967959
4612.000000;0.967738
4611.000000;0.967301
4610.000000;0.966787
4609.000000;0.966375
4608.000000;0.966030
4607.000000;0.965591
4606.000000;0.965030
4605.000000;0.964472
4604.000000;0.964028
4603.000000;0.963688
4602.000000;0.963346
4601.000000;0.962912
4600.000000;0.962448
4599.000000;0.962164
4598.000000;0.962162
4597.000000;0.962241
4596.000000;0.962104
4595.000000;0.961759
4594.000000;0.961503
4593.000000;0.961530
4592.000000;0.961739
4591.000000;0.961937
4590.000000;0.962037
4589.000000;0.962011
4588.000000;0.961872
4587.000000;0.961724
4586.000000;0.961661
4585.000000;0.961597
4584.000000;0.961371
4583.000000;0.961039
4582.000000;0.960855
4581.000000;0.960957
4580.000000;0.961248
4579.000000;0.961599
4578.000000;0.961944
4577.000000;0.962180
4576.000000;0.962201
4575.000000;0.962085
4574.000000;0.962045
4573.000000;0.962180
4572.000000;0.962449
4571.000000;0.962877
4570.000000;0.963524
4569.000000;0.964266
4568.000000;0.964855
4567.000000;0.965229
4566.000000;0.965541
4565.000000;0.965879
4564.000000;0.966223
4563.000000;0.966679
4562.000000;0.967447
4561.000000;0.968479
4560.000000;0.969461
4559.000000;0.970198
4558.000000;0.970791
4557.000000;0.971368
4556.000000;0.971881
4555.000000;0.972261
4554.000000;0.972559
4553.000000;0.972857
4552.000000;0.973259
4551.000000;0.973967
4550.000000;0.975130
4549.000000;0.976553
4548.000000;0.977823
4547.000000;0.978756
4546.000000;0.979503
4545.000000;0.980196
4544.000000;0.980806
4543.000000;0.981402
4542.000000;0.982214
4541.000000;0.983291
4540.000000;0.984351
4539.000000;0.985115
4538.000000;0.985607
4537.000000;0.986030
4536.000000;0.986576
4535.000000;0.987395
4534.000000;0.988533
4533.000000;0.989793
4532.000000;0.990892
4531.000000;0.991810
4530.000000;0.992781
4529.000000;0.993899
4528.000000;0.994980
4527.000000;0.995870
4526.000000;0.996647
4525.000000;0.997424
4524.000000;0.998199
4523.000000;0.998969
4522.000000;0.999774
4521.000000;1.000558
4520.000000;1.001200
4519.000000;1.001746
4518.000000;1.002387
4517.000000;1.003177
4516.000000;1.003982
4515.000000;1.004740
4514.000000;1.005549
4513.000000;1.006469
4512.000000;1.007447
4511.000000;1.008458
4510.000000;1.009512
4509.000000;1.010526
4508.000000;1.011426
4507.000000;1.012354
4506.000000;1.013517
4505.000000;1.014831
4504.000000;1.016030
4503.000000;1.017074
4502.000000;1.018139
4501.000000;1.019229
4500.000000;1.020167
4499.000000;1.020973
4498.000000;1.021885
4497.000000;1.022976
4496.000000;1.024092
4495.000000;1.025193
4494.000000;1.026393
4493.000000;1.027610
4492.000000;1.028591
4491.000000;1.029355
4490.000000;1.030246
4489.000000;1.031453
4488.000000;1.032861
4487.000000;1.034403
4486.000000;1.036143
4485.000000;1.037914
4484.000000;1.039320
4483.000000;1.040277
4482.000000;1.041170
4481.000000;1.042300
4480.000000;1.043549
4479.000000;1.044783
4478.000000;1.046174
4477.000000;1.047894
4476.000000;1.049807
4475.000000;1.051712
4474.000000;1.053633
4473.000000;1.055625
4472.000000;1.057586
4471.000000;1.059442
4470.000000;1.061288
4469.000000;1.063125
4468.000000;1.064693
4467.000000;1.065812
4466.000000;1.066743
4465.000000;1.067997
4464.000000;1.069887
4463.000000;1.072292
4462.000000;1.074751
4461.000000;1.076773
4460.000000;1.078272
4459.000000;1.079722
4458.000000;1.081673
4457.000000;1.084120
4456.000000;1.086579
4455.000000;1.088712
4454.000000;1.090602
4453.000000;1.092458
4452.000000;1.094387
4451.000000;1.096467
4450.000000;1.098679
4449.000000;1.100794
4448.000000;1.102641
4447.000000;1.104466
4446.000000;1.106632
4445.000000;1.109032
4444.000000;1.111248
4443.000000;1.113251
4442.000000;1.115455
4441.000000;1.118029
4440.000000;1.120680
4439.000000;1.123208
4438.000000;1.125754
4437.000000;1.128397
4436.000000;1.130972
4435.000000;1.133414
4434.000000;1.135834
4433.000000;1.138177
4432.000000;1.140283
4431.000000;1.142349
4430.000000;1.144771
4429.000000;1.147449
4428.000000;1.149853
4427.000000;1.151943
4426.000000;1.154349
4425.000000;1.157387
4424.000000;1.160525
4423.000000;1.163185
4422.000000;1.165532
4421.000000;1.168055
4420.000000;1.170817
4419.000000;1.173569
4418.000000;1.176227
4417.000000;1.178830
4416.000000;1.181321
4415.000000;1.183717
4414.000000;1.186204
4413.000000;1.188824
4412.000000;1.191372
4411.000000;1.193824
4410.000000;1.196527
4409.000000;1.199717
4408.000000;1.203181
4407.000000;1.206620
4406.000000;1.209999
4405.000000;1.213324
4404.000000;1.216425
4403.000000;1.219244
4402.000000;1.222017
4401.000000;1.224939
4400.000000;1.227931
4399.000000;1.230943
4398.000000;1.234178
4397.000000;1.237804
4396.000000;1.241672
4395.000000;1.245439
4394.000000;1.248766
4393.000000;1.251435
4392.000000;1.253636
4391.000000;1.256080
4390.000000;1.259375
4389.000000;1.263273
4388.000000;1.267005
4387.000000;1.270316
4386.000000;1.273601
4385.000000;1.277019
4384.000000;1.280233
4383.000000;1.283179
4382.000000;1.286350
4381.000000;1.290014
4380.000000;1.293758
4379.000000;1.297120
4378.000000;1.300185
4377.000000;1.303291
4376.000000;1.306671
4375.000000;1.310561
4374.000000;1.315055
4373.000000;1.319628
4372.000000;1.323427
4371.000000;1.326325
4370.000000;1.329121
4369.000000;1.332442
4368.000000;1.336078
4367.000000;1.339651
4366.000000;1.343233
4365.000000;1.346949
4364.000000;1.350548
4363.000000;1.353868
4362.000000;1.357251
4361.000000;1.361081
4360.000000;1.365283
4359.000000;1.369602
4358.000000;1.373973
4357.000000;1.378363
4356.000000;1.382658
4355.000000;1.386875
4354.000000;1.391138
4353.000000;1.395356
4352.000000;1.399364
4351.000000;1.403379
4350.000000;1.407768
4349.000000;1.412379
4348.000000;1.416721
4347.000000;1.420789
4346.000000;1.425012
4345.000000;1.429385
4344.000000;1.433464
4343.000000;1.437296
4342.000000;1.441472
4341.000000;1.446136
4340.000000;1.450777
4339.000000;1.455151
4338.000000;1.459613
4337.000000;1.464383
4336.000000;1.469319
4335.000000;1.474507
4334.000000;1.480114
4333.000000;1.485594
4332.000000;1.490101
4331.000000;1.493843
4330.000000;1.497972
4329.000000;1.502881
4328.000000;1.507650
4327.000000;1.511562
4326.000000;1.515119
4325.000000;1.519100
4324.000000;1.523643
4323.000000;1.528650
4322.000000;1.534115
4321.000000;1.539642
4320.000000;1.544599
4319.000000;1.549073
4318.000000;1.553798
4317.000000;1.559018
4316.000000;1.564376
4315.000000;1.569920
4314.000000;1.575973
4313.000000;1.581932
4312.000000;1.586653
4311.000000;1.590340
4310.000000;1.594473
4309.000000;1.599540
4308.000000;1.604323
4307.000000;1.608032
4306.000000;1.611758
4305.000000;1.616978
4304.000000;1.623904
4303.000000;1.631765
4302.000000;1.639411
4301.000000;1.645305
4300.000000;1.648434
4299.000000;1.649891
4298.000000;1.652131
4297.000000;1.656310
4296.000000;1.661588
4295.000000;1.667110
4294.000000;1.673067
4293.000000;1.679342
4292.000000;1.685006
4291.000000;1.689943
4290.000000;1.695274
4289.000000;1.701495
4288.000000;1.707747
4287.000000;1.713555
4286.000000;1.719550
4285.000000;1.725685
4284.000000;1.730764
4283.000000;1.734762
4282.000000;1.739617
4281.000000;1.746442
4280.000000;1.753644
4279.000000;1.759046
4278.000000;1.762577
4277.000000;1.765771
4276.000000;1.769907
4275.000000;1.775636
4274.000000;1.782962
4273.000000;1.790683
4272.000000;1.797227
4271.000000;1.802815
4270.000000;1.809296
4269.000000;1.817326
4268.000000;1.825497
4267.000000;1.832626
4266.000000;1.838881
4265.000000;1.844199
4264.000000;1.847891
4263.000000;1.850695
4262.000000;1.854992
4261.000000;1.861977
4260.000000;1.870469
4259.000000;1.878798
4258.000000;1.885782
4257.000000;1.889786
4256.000000;1.890037
4255.000000;1.889559
4254.000000;1.893174
4253.000000;1.901834
4252.000000;1.911596
4251.000000;1.919028
4250.000000;1.924940
4249.000000;1.931444
4248.000000;1.938599
4247.000000;1.945756
4246.000000;1.952993
4245.000000;1.959844
4244.000000;1.964657
4243.000000;1.967687
4242.000000;1.971740
4241.000000;1.978082
4240.000000;1.984789
4239.000000;1.990156
4238.000000;1.995034
4237.000000;2.000226
4236.000000;2.004679
4235.000000;2.008264
4234.000000;2.012829
4233.000000;2.019060
4232.000000;2.025837
4231.000000;2.033244
4230.000000;2.042450
4229.000000;2.051591
4228.000000;2.056242
4227.000000;2.056167
4226.000000;2.056737
4225.000000;2.061292
4224.000000;2.067256
4223.000000;2.071889
4222.000000;2.076821
4221.000000;2.084099
4220.000000;2.092650
4219.000000;2.101577
4218.000000;2.112473
4217.000000;2.125537
4216.000000;2.137060
4215.000000;2.144280
4214.000000;2.149378
4213.000000;2.154704
4212.000000;2.158459
4211.000000;2.159199
4210.000000;2.160142
4209.000000;2.164512
4208.000000;2.170523
4207.000000;2.175384
4206.000000;2.180181
4205.000000;2.186581
4204.000000;2.193015
4203.000000;2.198601
4202.000000;2.206030
4201.000000;2.216604
4200.000000;2.226893
4199.000000;2.233605
4198.000000;2.238518
4197.000000;2.244293
4196.000000;2.249764
4195.000000;2.253862
4194.000000;2.259589
4193.000000;2.269006
4192.000000;2.277518
4191.000000;2.279017
4190.000000;2.274572
4189.000000;2.271321
4188.000000;2.274257
4187.000000;2.282994
4186.000000;2.293696
4185.000000;2.301675
4184.000000;2.305290
4183.000000;2.308602
4182.000000;2.316985
4181.000000;2.329630
4180.000000;2.339866
4179.000000;2.344164
4178.000000;2.345680
4177.000000;2.347727
4176.000000;2.350283
4175.000000;2.355404
4174.000000;2.366307
4173.000000;2.380079
4172.000000;2.389054
4171.000000;2.392000
4170.000000;2.397165
4169.000000;2.409726
4168.000000;2.423930
4167.000000;2.432872
4166.000000;2.436285
4165.000000;2.434394
4164.000000;2.424755
4163.000000;2.409963
4162.000000;2.400469
4161.000000;2.402939
4160.000000;2.414576
4159.000000;2.431243
4158.000000;2.450431
4157.000000;2.466441
4156.000000;2.471504
4155.000000;2.467446
4154.000000;2.467770
4153.000000;2.480526
4152.000000;2.497317
4151.000000;2.504979
4150.000000;2.503779
4149.000000;2.504108
4148.000000;2.511508
4147.000000;2.523114
4146.000000;2.532026
4145.000000;2.535108
4144.000000;2.532988
4143.000000;2.530148
4142.000000;2.532714
4141.000000;2.540996
4140.000000;2.549852
4139.000000;2.560471
4138.000000;2.579701
4137.000000;2.604002
4136.000000;2.619821
4135.000000;2.621495
4134.000000;2.619635
4133.000000;2.623450
4132.000000;2.626551
4131.000000;2.618496
4130.000000;2.599918
4129.000000;2.579681
4128.000000;2.566587
4127.000000;2.570220
4126.000000;2.596625
4125.000000;2.633329
4124.000000;2.653751
4123.000000;2.648155
4122.000000;2.636395
4121.000000;2.637237
4120.000000;2.645581
4119.000000;2.646005
4118.000000;2.635511
4117.000000;2.623602
4116.000000;2.614466
4115.000000;2.609679
4114.000000;2.614489
4113.000000;2.628219
4112.000000;2.644220
4111.000000;2.658968
4110.000000;2.673048
4109.000000;2.686957
4108.000000;2.700615
4107.000000;2.714960
4106.000000;2.731426
4105.000000;2.746324
4104.000000;2.750081
4103.000000;2.747186
4102.000000;2.750911
4101.000000;2.756564
4100.000000;2.747447
4099.000000;2.725320
4098.000000;2.713926
4097.000000;2.723750
4096.000000;2.740881
4095.000000;2.753117
4094.000000;2.763729
4093.000000;2.772533
4092.000000;2.770426
4091.000000;2.759224
4090.000000;2.751553
4089.000000;2.754690
4088.000000;2.760930
4087.000000;2.763668
4086.000000;2.769029
4085.000000;2.774641
4084.000000;2.768740
4083.000000;2.754040
4082.000000;2.750131
4081.000000;2.768195
4080.000000;2.792497
4079.000000;2.807808
4078.000000;2.818692
4077.000000;2.827247
4076.000000;2.821591
4075.000000;2.795266
4074.000000;2.769206
4073.000000;2.765625
4072.000000;2.782717
4071.000000;2.812516
4070.000000;2.851981
4069.000000;2.887572
4068.000000;2.891705
4067.000000;2.864102
4066.000000;2.839056
4065.000000;2.840533
4064.000000;2.865068
4063.000000;2.899433
4062.000000;2.930743
4061.000000;2.944522
4060.000000;2.925171
4059.000000;2.878067
4058.000000;2.844791
4057.000000;2.850014
4056.000000;2.882346
4055.000000;2.910649
4054.000000;2.915600
4053.000000;2.896745
4052.000000;2.860736
4051.000000;2.826068
4050.000000;2.816571
4049.000000;2.839179
4048.000000;2.875819
4047.000000;2.906654
4046.000000;2.933805
4045.000000;2.957540
4044.000000;2.958786
4043.000000;2.934537
4042.000000;2.910988
4041.000000;2.913900
4040.000000;2.944164
4039.000000;2.996581
4038.000000;3.066902
4037.000000;3.117372
4036.000000;3.105997
4035.000000;3.061186
4034.000000;3.033136
4033.000000;3.027657
4032.000000;3.014945
4031.000000;2.986552
4030.000000;2.968962
4029.000000;2.983309
4028.000000;3.010421
4027.000000;3.027308
4026.000000;3.042743
4025.000000;3.057127
4024.000000;3.055996
4023.000000;3.033689
4022.000000;3.011021
4021.000000;3.008531
4020.000000;3.014996
4019.000000;3.028796
4018.000000;3.062107
4017.000000;3.097601
4016.000000;3.092336
4015.000000;3.044507
4014.000000;3.005959
4013.000000;3.010329
4012.000000;3.046689
4011.000000;3.095221
4010.000000;3.151253
4009.000000;3.199288
4008.000000;3.201090
4007.000000;3.161914
4006.000000;3.127022
4005.000000;3.132522
4004.000000;3.166182
4003.000000;3.178809
4002.000000;3.169843
4001.000000;3.160138
4000.000000;3.147238
3999.000000;3.128968
3998.000000;3.107906
3997.000000;3.077494
3996.000000;3.026125
3995.000000;2.975450
3994.000000;2.954055
3993.000000;2.966214
3992.000000;3.000358
3991.000000;3.048192
3990.000000;3.109599
3989.000000;3.172678
3988.000000;3.179230
3987.000000;3.128550
3986.000000;3.079631
3985.000000;3.059255
3984.000000;3.060537
3983.000000;3.061202
3982.000000;3.067915
3981.000000;3.093119
3980.000000;3.113745
3979.000000;3.120272
3978.000000;3.146407
3977.000000;3.209500
3976.000000;3.281350
3975.000000;3.325007
3974.000000;3.339198
3973.000000;3.310425
3972.000000;3.245605
3971.000000;3.205422
3970.000000;3.184424
3969.000000;3.168655
3968.000000;3.159496
3967.000000;3.140593
3966.000000;3.132941
3965.000000;3.159896
3964.000000;3.204313
3963.000000;3.236751
3962.000000;3.257504
3961.000000;3.269935
3960.000000;3.254452
3959.000000;3.224187
3958.000000;3.210404
3957.000000;3.217204
3956.000000;3.221772
3955.000000;3.212445
3954.000000;3.215326
3953.000000;3.235102
3952.000000;3.247402
3951.000000;3.274220
3950.000000;3.346718
3949.000000;3.465949
3948.000000;3.555282
3947.000000;3.552428
3946.000000;3.551889
3945.000000;3.620300
3944.000000;3.719303
3943.000000;3.749101
3942.000000;3.709845
3941.000000;3.649308
3940.000000;3.579032
3939.000000;3.510033
3938.000000;3.482878
3937.000000;3.484225
3936.000000;3.436138
3935.000000;3.336934
3934.000000;3.289401
3933.000000;3.342510
3932.000000;3.446703
3931.000000;3.513325
3930.000000;3.532406
3929.000000;3.511212
3928.000000;3.460793
3927.000000;3.449974
3926.000000;3.516252
3925.000000;3.667936
3924.000000;3.859865
3923.000000;3.914744
3922.000000;3.841860
3921.000000;3.821053
3920.000000;3.759835
3919.000000;3.650659
3918.000000;3.572467
3917.000000;3.535414
3916.000000;3.554766
3915.000000;3.637959
3914.000000;3.703978
3913.000000;3.776310
3912.000000;3.723070
3911.000000;3.486648
3910.000000;3.394323
3909.000000;3.456498
3908.000000;3.592628
3907.000000;3.654719
3906.000000;3.625915
3905.000000;3.641703
3904.000000;3.661387
3903.000000;3.616557
3902.000000;3.570022
3901.000000;3.600593
3900.000000;3.694368
3899.000000;3.760844
3898.000000;3.777938
3897.000000;3.768412
3896.000000;3.721836
3895.000000;3.573901
3894.000000;3.501102
3893.000000;3.539454
3892.000000;3.631643
3891.000000;3.719931
3890.000000;3.744220
3889.000000;3.827558
3888.000000;3.879936
3887.000000;3.772124
3886.000000;3.785655
3885.000000;3.826243
3884.000000;3.800576
3883.000000;3.787288
3882.000000;3.733340
3881.000000;3.687781
3880.000000;3.690862
3879.000000;3.739532
3878.000000;3.789148
3877.000000;3.902707
3876.000000;4.012105
3875.000000;3.926950
3874.000000;3.948910
3873.000000;3.975990
3872.000000;3.892872
3871.000000;3.923209
3870.000000;4.088374
3869.000000;4.287379
3868.000000;4.585325
3867.000000;4.669279
3866.000000;4.314319
3865.000000;4.282976
3864.000000;3.911245
3863.000000;3.733340
3862.000000;3.676396
3861.000000;3.620454
3860.000000;3.588407
3859.000000;3.703055
3858.000000;3.933325
3857.000000;4.121587
3856.000000;4.124220
3855.000000;4.192706
3854.000000;4.277534
3853.000000;4.160327
3852.000000;4.030489
3851.000000;3.978950
3850.000000;4.032175
3849.000000;4.133766
3848.000000;4.363601
3847.000000;4.228729
3846.000000;3.925538
3845.000000;3.978401
3844.000000;3.982496
3843.000000;3.923345
3842.000000;4.225535
3841.000000;4.478840
3840.000000;4.172730
3839.000000;4.236381
3838.000000;4.344759
3837.000000;4.417204
3836.000000;4.376582
3835.000000;4.408673
3834.000000;4.320669
3833.000000;4.122266
3832.000000;4.095697
3831.000000;3.982142
3830.000000;3.902841
3829.000000;3.903331
3828.000000;3.912490
3827.000000;3.874813
3826.000000;3.735684
3825.000000;3.701785
3824.000000;3.800131
3823.000000;3.893947
3822.000000;3.888769
3821.000000;3.900868
3820.000000;3.964207
3819.000000;4.020609
3818.000000;4.049824
3817.000000;4.114603
3816.000000;4.303970
3815.000000;4.377479
3814.000000;4.076819
3813.000000;3.892217
3812.000000;3.848409
3811.000000;4.055581
3810.000000;4.297681
3809.000000;4.137764
3808.000000;4.219557
3807.000000;4.145518
3806.000000;3.993718
3805.000000;4.147320
3804.000000;4.633487
3803.000000;4.420084
3802.000000;4.099672
3801.000000;4.013446
3800.000000;4.009025
3799.000000;3.982036
3798.000000;3.922635
3797.000000;3.891014
3796.000000;3.869017
3795.000000;3.779223
3794.000000;3.660753
3793.000000;3.592354
3792.000000;3.596025
3791.000000;3.665221
3790.000000;3.681218
3789.000000;3.655453
3788.000000;3.767069
3787.000000;4.028507
3786.000000;4.054566
3785.000000;3.929412
3784.000000;3.902279
3783.000000;3.975768
3782.000000;4.095145
3781.000000;4.125868
3780.000000;4.102491
3779.000000;4.198016
3778.000000;4.270097
3777.000000;4.296700
3776.000000;4.197794
3775.000000;3.921197
3774.000000;3.836305
3773.000000;4.180499
3772.000000;4.028104
3771.000000;3.788066
3770.000000;3.782512
3769.000000;3.922203
3768.000000;4.407151
3767.000000;3.848375
3766.000000;3.568870
3765.000000;3.537256
3764.000000;3.670164
3763.000000;3.856539
3762.000000;3.954727
3761.000000;3.952849
3760.000000;3.812937
3759.000000;3.706020
3758.000000;3.751830
3757.000000;3.950099
3756.000000;3.989500
3755.000000;3.818197
3754.000000;3.788134
3753.000000;3.916113
3752.000000;4.225277
3751.000000;4.430582
3750.000000;4.388772
3749.000000;4.265174
3748.000000;4.170339
3747.000000;4.208548
3746.000000;4.271017
3745.000000;4.108700
3744.000000;3.880811
3743.000000;3.841677
3742.000000;3.919287
3741.000000;3.891414
3740.000000;3.922364
3739.000000;4.074844
3738.000000;4.246779
3737.000000;4.292802
3736.000000;4.287028
3735.000000;4.438426
3734.000000;4.890237
3733.000000;4.864710
3732.000000;4.150960
3731.000000;3.945447
3730.000000;3.997653
3729.000000;4.096454
3728.000000;3.959748
3727.000000;3.744574
3726.000000;3.637483
3725.000000;3.654544
3724.000000;3.725399
3723.000000;3.794355
3722.000000;3.898520
3721.000000;4.029601
3720.000000;4.075064
3719.000000;4.063985
3718.000000;4.030679
3717.000000;3.882933
3716.000000;3.735179
3715.000000;3.789527
3714.000000;4.027010
3713.000000;4.169477
3712.000000;4.165991
3711.000000;4.046087
3710.000000;3.917782
3709.000000;3.834687
3708.000000;3.818704
3707.000000;3.833599
3706.000000;3.859944
3705.000000;3.938268
3704.000000;3.965822
3703.000000;3.929414
3702.000000;3.767302
3701.000000;3.629610
3700.000000;3.641346
3699.000000;3.730281
3698.000000;3.777349
3697.000000;3.784188
3696.000000;3.775517
3695.000000;3.727974
3694.000000;3.625973
3693.000000;3.569435
3692.000000;3.620219
3691.000000;3.787479
3690.000000;4.094005
3689.000000;4.421743
3688.000000;4.190663
3687.000000;4.071825
3686.000000;3.984840
3685.000000;3.893818
3684.000000;3.980049
3683.000000;3.982250
3682.000000;4.059441
3681.000000;4.655668
3680.000000;3.898541
3679.000000;3.772033
3678.000000;3.772288
3677.000000;3.798798
3676.000000;3.884411
3675.000000;4.113391
3674.000000;4.461077
3673.000000;4.330556
3672.000000;4.153434
3671.000000;4.370122
3670.000000;4.186175
3669.000000;4.003881
3668.000000;4.075315
3667.000000;4.232405
3666.000000;4.289299
3665.000000;4.331078
3664.000000;4.156219
3663.000000;3.823333
3662.000000;3.741586
3661.000000;3.660052
3660.000000;3.540503
3659.000000;3.690333
3658.000000;4.309580
3657.000000;4.272879
3656.000000;4.486379
3655.000000;4.267212
3654.000000;4.574062
3653.000000;4.671372
3652.000000;4.285508
3651.000000;3.997657
3650.000000;4.046376
3649.000000;4.181938
3648.000000;4.195498
3647.000000;4.279451
3646.000000;4.326436
3645.000000;3.958854
3644.000000;3.731163
3643.000000;3.704744
3642.000000;3.791533
3641.000000;4.179420
3640.000000;4.157788
3639.000000;3.916318
3638.000000;3.940032
3637.000000;4.039922
3636.000000;4.161036
3635.000000;4.117808
3634.000000;3.915649
3633.000000;3.785652
3632.000000;3.750904
3631.000000;3.758782
3630.000000;3.722824
3629.000000;3.646027
3628.000000;3.625583
3627.000000;3.738428
3626.000000;3.984539
3625.000000;4.349822
3624.000000;4.649577
3623.000000;3.998924
3622.000000;3.977460
3621.000000;4.229080
3620.000000;3.953046
3619.000000;3.862959
3618.000000;3.955206
3617.000000;3.983017
3616.000000;4.006915
3615.000000;3.962305
3614.000000;3.806847
3613.000000;3.747004
3612.000000;3.808315
3611.000000;3.918373
3610.000000;4.126522
3609.000000;4.021965
3608.000000;3.859844
3607.000000;3.980411
3606.000000;4.250586
3605.000000;4.195821
3604.000000;4.177441
3603.000000;4.682744
3602.000000;4.561301
3601.000000;4.686994
3600.000000;4.390843
3599.000000;4.082257
3598.000000;3.854189
3597.000000;3.900143
3596.000000;4.069974
3595.000000;4.011886
3594.000000;4.046431
3593.000000;4.084842
3592.000000;3.975381
3591.000000;4.369208
3590.000000;4.333080
3589.000000;3.894134
3588.000000;3.903674
3587.000000;3.872456
3586.000000;3.846262
3585.000000;3.895627
3584.000000;4.017487
3583.000000;4.078940
3582.000000;4.136354
3581.000000;3.804569
3580.000000;3.595588
3579.000000;3.620491
3578.000000;3.793538
3577.000000;4.066896
3576.000000;4.313359
3575.000000;4.070376
3574.000000;3.958246
3573.000000;4.282228
3572.000000;4.165889
3571.000000;4.040801
3570.000000;4.327026
3569.000000;4.050424
3568.000000;4.085117
3567.000000;4.159181
3566.000000;4.183259
3565.000000;4.634454
3564.000000;4.444597
3563.000000;4.195534
3562.000000;4.668491
3561.000000;4.506592
3560.000000;4.072865
3559.000000;3.771091
3558.000000;3.583530
3557.000000;3.580261
3556.000000;3.704472
3555.000000;3.831453
3554.000000;4.221988
3553.000000;4.129519
3552.000000;3.835277
3551.000000;3.731566
3550.000000;3.686729
3549.000000;3.804033
3548.000000;4.107759
3547.000000;3.913591
3546.000000;3.763245
3545.000000;3.781283
3544.000000;3.800640
3543.000000;3.702705
3542.000000;3.593904
3541.000000;3.620317
3540.000000;3.722988
3539.000000;3.846123
3538.000000;3.983106
3537.000000;3.973855
3536.000000;4.334021
3535.000000;3.903139
3534.000000;3.643143
3533.000000;3.998992
3532.000000;4.182676
3531.000000;3.803399
3530.000000;3.544177
3529.000000;3.412469
3528.000000;3.430790
3527.000000;3.542867
3526.000000;3.682289
3525.000000;3.873800
3524.000000;4.033063
3523.000000;3.962675
3522.000000;3.924732
3521.000000;3.852091
3520.000000;4.027644
3519.000000;4.500729
3518.000000;3.846065
3517.000000;3.788055
3516.000000;3.758739
3515.000000;3.746172
3514.000000;3.751821
3513.000000;3.614013
3512.000000;3.562161
3511.000000;3.669819
3510.000000;3.864576
3509.000000;3.953316
3508.000000;3.762164
3507.000000;3.560616
3506.000000;3.540459
3505.000000;4.060083
3504.000000;3.988596
3503.000000;3.670123
3502.000000;3.641938
3501.000000;3.645482
3500.000000;3.611413
3499.000000;3.611536
3498.000000;3.777736
3497.000000;4.105164
3496.000000;3.876077
3495.000000;3.508648
3494.000000;3.357001
3493.000000;3.333727
3492.000000;3.370133
3491.000000;3.443431
3490.000000;3.614423
3489.000000;3.894259
3488.000000;3.951622
3487.000000;3.983433
3486.000000;3.988816
3485.000000;4.038887
3484.000000;4.278899
3483.000000;3.851146
3482.000000;3.595200
3481.000000;3.584200
3480.000000;3.630036
3479.000000;3.610231
3478.000000;3.536195
3477.000000;3.509439
3476.000000;3.545231
3475.000000;3.567997
3474.000000;3.581631
3473.000000;3.665588
3472.000000;3.730418
3471.000000;3.676750
3470.000000;3.694769
3469.000000;3.868014
3468.000000;4.059814
3467.000000;4.072209
3466.000000;3.828456
3465.000000;3.845621
3464.000000;3.969258
3463.000000;3.737554
3462.000000;3.472937
3461.000000;3.320644
3460.000000;3.232294
3459.000000;3.198033
3458.000000;3.240807
3457.000000;3.398395
3456.000000;3.672750
3455.000000;4.011741
3454.000000;3.858629
3453.000000;3.680953
3452.000000;4.109399
3451.000000;4.160223
3450.000000;3.912737
3449.000000;4.416018
3448.000000;3.881026
3447.000000;3.605065
3446.000000;3.504349
3445.000000;3.497701
3444.000000;3.612102
3443.000000;3.781723
3442.000000;3.763606
3441.000000;3.691706
3440.000000;3.875273
3439.000000;4.447105
3438.000000;3.931269
3437.000000;3.748236
3436.000000;3.707613
3435.000000;3.847451
3434.000000;3.864278
3433.000000;3.849036
3432.000000;4.113149
3431.000000;3.679653
3430.000000;3.465995
3429.000000;3.610724
3428.000000;3.767317
3427.000000;3.570386
3426.000000;3.410482
3425.000000;3.399609
3424.000000;3.513694
3423.000000;3.589798
3422.000000;3.571180
3421.000000;3.484902
3420.000000;3.386793
3419.000000;3.400127
3418.000000;3.522526
3417.000000;3.668442
3416.000000;3.656822
3415.000000;3.607685
3414.000000;3.640994
3413.000000;3.673671
3412.000000;3.728886
3411.000000;3.763476
3410.000000;3.850906
3409.000000;3.952430
3408.000000;3.935060
3407.000000;3.877418
3406.000000;3.739152
3405.000000;3.808380
3404.000000;3.984370
3403.000000;4.339456
3402.000000;4.352718
3401.000000;3.969638
3400.000000;3.951510
3399.000000;3.709016
3398.000000;3.516457
3397.000000;3.546132
3396.000000;3.677297
3395.000000;3.737539
3394.000000;3.700486
3393.000000;3.672642
3392.000000;3.680864
3391.000000;3.643278
3390.000000;3.573563
3389.000000;3.765190
3388.000000;4.501133
3387.000000;4.105125
3386.000000;3.984533
3385.000000;3.695734
3384.000000;3.498332
3383.000000;3.398167
3382.000000;3.389219
3381.000000;3.555731
3380.000000;3.655707
3379.000000;3.618247
3378.000000;3.700529
3377.000000;3.623229
3376.000000;3.580729
3375.000000;3.663162
3374.000000;3.771284
3373.000000;3.702955
3372.000000;3.506972
3371.000000;3.409968
3370.000000;3.391137
3369.000000;3.378115
3368.000000;3.422121
3367.000000;3.579078
3366.000000;3.641722
3365.000000;3.641163
3364.000000;3.746751
3363.000000;3.871244
3362.000000;4.098963
3361.000000;3.914055
3360.000000;3.755828
3359.000000;4.071422
3358.000000;3.701784
3357.000000;3.465049
3356.000000;3.491806
3355.000000;3.558885
3354.000000;3.580921
3353.000000;3.503832
3352.000000;3.414795
3351.000000;3.460984
3350.000000;3.584565
3349.000000;3.634780
3348.000000;3.738370
3347.000000;3.885091
3346.000000;3.918394
3345.000000;4.004243
3344.000000;3.887155
3343.000000;3.628747
3342.000000;3.466381
3341.000000;3.426666
3340.000000;3.452737
3339.000000;3.444524
3338.000000;3.395642
3337.000000;3.402284
3336.000000;3.515072
3335.000000;3.753551
3334.000000;4.224674
3333.000000;4.448512
3332.000000;4.138302
3331.000000;4.022381
3330.000000;3.806443
3329.000000;3.651658
3328.000000;3.608662
3327.000000;3.848035
3326.000000;4.007182
3325.000000;3.977189
3324.000000;4.215154
3323.000000;4.178818
3322.000000;4.121977
3321.000000;3.835196
3320.000000;3.597449
3319.000000;3.357602
3318.000000;3.211504
3317.000000;3.228086
3316.000000;3.335885
3315.000000;3.392095
3314.000000;3.341034
3313.000000;3.319109
3312.000000;3.404158
3311.000000;3.668075
3310.000000;4.463698
3309.000000;4.022297
3308.000000;3.681222
3307.000000;3.564102
3306.000000;3.504086
3305.000000;3.424550
3304.000000;3.508245
3303.000000;3.857641
3302.000000;3.626105
3301.000000;3.410336
3300.000000;3.384356
3299.000000;3.371981
3298.000000;3.418167
3297.000000;3.649792
3296.000000;4.193847
3295.000000;4.412421
3294.000000;4.010950
3293.000000;3.776668
3292.000000;3.673711
3291.000000;3.697347
3290.000000;3.754356
3289.000000;3.684341
3288.000000;3.594420
3287.000000;3.674983
3286.000000;3.861181
3285.000000;3.898057
3284.000000;4.141496
3283.000000;3.947510
3282.000000;3.576601
3281.000000;3.541583
3280.000000;3.627207
3279.000000;3.678036
3278.000000;3.802271
3277.000000;3.875631
3276.000000;3.723198
3275.000000;3.801692
3274.000000;3.861023
3273.000000;3.596609
3272.000000;3.478608
3271.000000;3.464088
3270.000000;3.443711
3269.000000;3.370900
3268.000000;3.360185
3267.000000;3.450983
3266.000000;3.570146
3265.000000;4.130451
3264.000000;3.965734
3263.000000;3.581702
3262.000000;3.604157
3261.000000;3.645470
3260.000000;3.645557
3259.000000;3.649830
3258.000000;3.688156
3257.000000;3.755312
3256.000000;3.746924
3255.000000;3.973275
3254.000000;3.946110
3253.000000;3.657324
3252.000000;3.685424
3251.000000;3.695982
3250.000000;3.576798
3249.000000;3.418279
3248.000000;3.314711
3247.000000;3.463781
3246.000000;3.863946
3245.000000;3.746718
3244.000000;3.616377
3243.000000;3.603312
3242.000000;3.574730
3241.000000;3.673110
3240.000000;3.846930
3239.000000;3.721338
3238.000000;3.656698
3237.000000;3.859594
3236.000000;3.874690
3235.000000;3.681087
3234.000000;3.509320
3233.000000;3.431640
3232.000000;3.451238
3231.000000;3.542750
3230.000000;3.826729
3229.000000;4.119928
3228.000000;3.992156
3227.000000;3.887439
3226.000000;3.577839
3225.000000;3.555262
3224.000000;3.801445
3223.000000;4.149723
3222.000000;4.098242
3221.000000;3.877055
3220.000000;3.728644
3219.000000;3.582269
3218.000000;3.526898
3217.000000;3.561493
3216.000000;3.557578
3215.000000;3.571060
3214.000000;3.609078
3213.000000;3.633817
3212.000000;3.663732
3211.000000;3.658454
3210.000000;3.642351
3209.000000;3.574047
3208.000000;3.558245
3207.000000;3.582296
3206.000000;3.470382
3205.000000;3.450890
3204.000000;3.596040
3203.000000;3.654981
3202.000000;3.717264
3201.000000;3.908029
3200.000000;3.721192
3199.000000;3.655149
3198.000000;3.667521
3197.000000;3.538038
3196.000000;3.412013
3195.000000;3.449782
3194.000000;3.667022
3193.000000;3.729092
3192.000000;3.640350
3191.000000;3.661738
3190.000000;3.773444
3189.000000;4.239573
3188.000000;4.746601
3187.000000;4.043068
3186.000000;3.695846
3185.000000;3.716409
3184.000000;4.298930
3183.000000;3.912176
3182.000000;3.583519
3181.000000;3.450746
3180.000000;3.359231
3179.000000;3.386756
3178.000000;3.484689
3177.000000;3.486999
3176.000000;3.509903
3175.000000;3.825747
3174.000000;4.039859
3173.000000;4.033223
3172.000000;4.398555
3171.000000;3.967164
3170.000000;3.600518
3169.000000;3.521818
3168.000000;3.714244
3167.000000;3.788224
3166.000000;3.559626
3165.000000;3.526123
3164.000000;3.528428
3163.000000;3.470587
3162.000000;3.457398
3161.000000;3.530842
3160.000000;3.556749
3159.000000;3.420177
3158.000000;3.293161
3157.000000;3.286057
3156.000000;3.340985
3155.000000;3.379994
3154.000000;3.449590
3153.000000;3.578253
3152.000000;3.674277
3151.000000;3.651868
3150.000000;3.564868
3149.000000;3.548279
3148.000000;3.598512
3147.000000;3.599517
3146.000000;3.542204
3145.000000;3.461636
3144.000000;3.451690
3143.000000;3.604981
3142.000000;3.817997
3141.000000;4.031599
3140.000000;4.389104
3139.000000;4.154919
3138.000000;3.996188
3137.000000;3.836707
3136.000000;3.664111
3135.000000;3.647359
3134.000000;3.672338
3133.000000;3.679661
3132.000000;3.652693
3131.000000;3.719846
3130.000000;4.066072
3129.000000;4.348455
3128.000000;4.053377
3127.000000;4.158052
3126.000000;4.526185
3125.000000;4.310885
3124.000000;3.925369
3123.000000;3.713741
3122.000000;3.675430
3121.000000;3.759950
3120.000000;3.817605
3119.000000;3.614174
3118.000000;3.406859
3117.000000;3.372773
3116.000000;3.442945
3115.000000;3.503272
3114.000000;3.535972
3113.000000;3.636652
3112.000000;3.798479
3111.000000;3.714394
3110.000000;3.552495
3109.000000;3.479283
3108.000000;3.529024
3107.000000;3.795366
3106.000000;3.835430
3105.000000;3.792676
3104.000000;3.858819
3103.000000;3.802883
3102.000000;3.800342
3101.000000;3.691600
3100.000000;3.542058
3099.000000;3.454016
3098.000000;3.480286
3097.000000;3.674933
3096.000000;3.917622
3095.000000;3.847684
3094.000000;3.596811
3093.000000;3.505750
3092.000000;3.604519
3091.000000;3.843401
3090.000000;3.919738
3089.000000;3.588165
3088.000000;3.350205
3087.000000;3.260406
3086.000000;3.265878
3085.000000;3.329517
3084.000000;3.475795
3083.000000;3.595227
3082.000000;3.544174
3081.000000;3.515422
3080.000000;3.470528
3079.000000;3.516845
3078.000000;3.914311
3077.000000;4.156283
3076.000000;3.811883
3075.000000;3.827341
3074.000000;3.785453
3073.000000;3.600037
3072.000000;3.491918
3071.000000;3.406500
3070.000000;3.346162
3069.000000;3.360282
3068.000000;3.390214
3067.000000;3.330524
3066.000000;3.264328
3065.000000;3.312407
3064.000000;3.463178
3063.000000;3.599082
3062.000000;3.916778
3061.000000;3.866597
3060.000000;3.456660
3059.000000;3.498707
3058.000000;3.666719
3057.000000;3.717635
3056.000000;3.882104
3055.000000;3.930346
3054.000000;4.269935
3053.000000;4.190745
3052.000000;3.734545
3051.000000;3.908697
3050.000000;3.976439
3049.000000;3.787633
3048.000000;3.837822
3047.000000;3.834772
3046.000000;3.682979
3045.000000;3.539008
3044.000000;3.515940
3043.000000;3.523431
3042.000000;3.446852
3041.000000;3.506744
3040.000000;3.744376
3039.000000;3.996928
3038.000000;4.101727
3037.000000;3.799963
3036.000000;3.667706
3035.000000;3.744631
3034.000000;3.727155
3033.000000;3.685229
3032.000000;3.768870
3031.000000;3.904196
3030.000000;3.986690
3029.000000;3.743984
3028.000000;3.509661
3027.000000;3.460241
3026.000000;3.624312
3025.000000;3.904067
3024.000000;3.769808
3023.000000;3.548621
3022.000000;3.446866
3021.000000;3.481126
3020.000000;3.592286
3019.000000;3.530838
3018.000000;3.458112
3017.000000;3.567651
3016.000000;3.865265
3015.000000;3.992250
3014.000000;3.714752
3013.000000;3.710387
3012.000000;4.070720
3011.000000;4.019328
3010.000000;3.694599
3009.000000;3.615313
3008.000000;3.633426
3007.000000;3.642712
3006.000000;3.735177
3005.000000;3.819382
3004.000000;3.603244
3003.000000;3.493064
3002.000000;3.590029
3001.000000;3.693581
3000.000000;3.859318
2999.000000;4.051675
2998.000000;3.866012
2997.000000;4.192243
2996.000000;4.028815
2995.000000;3.711199
2994.000000;3.761870
2993.000000;3.694056
2992.000000;3.582425
2991.000000;3.706005
2990.000000;4.077507
2989.000000;3.698369
2988.000000;3.398187
2987.000000;3.341426
2986.000000;3.482794
2985.000000;3.762068
2984.000000;3.784266
2983.000000;3.757710
2982.000000;3.630132
2981.000000;3.512431
2980.000000;3.586672
2979.000000;3.760873
2978.000000;3.894582
2977.000000;3.825760
2976.000000;3.537336
2975.000000;3.415828
2974.000000;3.478373
2973.000000;3.572858
2972.000000;3.586178
2971.000000;3.637928
2970.000000;3.679961
2969.000000;3.569609
2968.000000;3.482914
2967.000000;3.557831
2966.000000;3.722461
2965.000000;3.691414
2964.000000;3.632953
2963.000000;3.722983
2962.000000;3.852430
2961.000000;3.686649
2960.000000;3.614070
2959.000000;3.968476
2958.000000;3.923594
2957.000000;3.645996
2956.000000;3.669864
2955.000000;3.745856
2954.000000;4.064471
2953.000000;4.098066
2952.000000;3.732072
2951.000000;3.676539
2950.000000;3.584731
2949.000000;3.608808
2948.000000;3.787128
2947.000000;3.719451
2946.000000;3.657536
2945.000000;3.757475
2944.000000;3.656701
2943.000000;3.582636
2942.000000;3.758902
2941.000000;4.332601
2940.000000;4.182031
2939.000000;3.525272
2938.000000;3.273654
2937.000000;3.282534
2936.000000;3.496166
2935.000000;3.872934
2934.000000;4.470878
2933.000000;3.928349
2932.000000;3.605687
2931.000000;3.606161
2930.000000;3.602368
2929.000000;3.424662
2928.000000;3.400060
2927.000000;3.513838
2926.000000;3.591068
2925.000000;3.866396
2924.000000;4.219502
2923.000000;3.903536
2922.000000;3.885803
2921.000000;3.752179
2920.000000;3.556653
2919.000000;3.578788
2918.000000;3.794179
2917.000000;3.835861
2916.000000;3.700680
2915.000000;3.666688
2914.000000;3.646317
2913.000000;3.682460
2912.000000;3.539937
2911.000000;3.583956
2910.000000;4.374032
2909.000000;3.884179
2908.000000;3.584697
2907.000000;3.489042
2906.000000;3.438931
2905.000000;3.507878
2904.000000;3.599680
2903.000000;3.689952
2902.000000;3.789839
2901.000000;4.023313
2900.000000;4.075072
2899.000000;3.673124
2898.000000;3.403613
2897.000000;3.297908
2896.000000;3.320793
2895.000000;3.467303
2894.000000;3.674997
2893.000000;3.757041
2892.000000;3.629781
2891.000000;3.593334
2890.000000;3.813498
2889.000000;3.819153
2888.000000;3.528113
2887.000000;3.555709
2886.000000;3.744009
2885.000000;3.578542
2884.000000;3.476406
2883.000000;3.545709
2882.000000;3.650797
2881.000000;3.818127
2880.000000;4.134760
2879.000000;3.813103
2878.000000;3.612285
2877.000000;3.789053
2876.000000;3.939106
2875.000000;3.620446
2874.000000;3.367126
2873.000000;3.223933
2872.000000;3.231489
2871.000000;3.444180
2870.000000;3.597832
2869.000000;3.448707
2868.000000;3.358748
2867.000000;3.278552
2866.000000;3.262456
2865.000000;3.426559
2864.000000;3.840359
2863.000000;4.180074
2862.000000;3.966523
2861.000000;3.717895
2860.000000;3.565298
2859.000000;3.511125
2858.000000;3.503162
2857.000000;3.514542
2856.000000;3.529839
2855.000000;3.600677
2854.000000;3.614823
2853.000000;3.667807
2852.000000;3.842776
2851.000000;3.813478
2850.000000;3.723267
2849.000000;3.989722
2848.000000;4.414853
2847.000000;4.326864
2846.000000;4.170280
2845.000000;3.793251
2844.000000;3.839157
2843.000000;3.978790
2842.000000;4.116852
2841.000000;4.154649
2840.000000;3.644253
2839.000000;3.572175
2838.000000;3.960310
2837.000000;4.640555
2836.000000;4.495796
2835.000000;3.958934
2834.000000;3.684413
2833.000000;3.660837
2832.000000;3.651332
2831.000000;3.570005
2830.000000;3.553399
2829.000000;3.696291
2828.000000;3.713042
2827.000000;3.747025
2826.000000;4.367102
2825.000000;3.907404
2824.000000;3.863167
2823.000000;4.508512
2822.000000;3.725585
2821.000000;3.552985
2820.000000;3.541333
2819.000000;3.632617
2818.000000;3.954662
2817.000000;3.960644
2816.000000;3.666755
2815.000000;3.570807
2814.000000;3.608930
2813.000000;3.649076
2812.000000;3.565826
2811.000000;3.528717
2810.000000;3.641898
2809.000000;3.829036
2808.000000;4.106572
2807.000000;3.885331
2806.000000;3.573481
2805.000000;3.594173
2804.000000;3.968656
2803.000000;4.094302
2802.000000;3.718204
2801.000000;3.499031
2800.000000;3.492460
2799.000000;3.614380
2798.000000;3.599419
2797.000000;3.607456
2796.000000;3.729222
2795.000000;3.737011
2794.000000;3.756964
2793.000000;3.935885
2792.000000;3.712369
2791.000000;3.682652
2790.000000;3.936704
2789.000000;3.991500
2788.000000;4.126702
2787.000000;4.140420
2786.000000;3.936888
2785.000000;3.997282
2784.000000;4.474853
2783.000000;4.304089
2782.000000;3.834264
2781.000000;3.518680
2780.000000;3.321850
2779.000000;3.294060
2778.000000;3.425334
2777.000000;3.583617
2776.000000;3.822171
2775.000000;4.256341
2774.000000;3.781994
2773.000000;3.644133
2772.000000;3.723137
2771.000000;3.894683
2770.000000;4.104241
2769.000000;3.811395
2768.000000;3.601888
2767.000000;3.667462
2766.000000;3.801695
2765.000000;3.638583
2764.000000;3.532546
2763.000000;3.647918
2762.000000;3.871293
2761.000000;3.757807
2760.000000;3.571501
2759.000000;3.558074
2758.000000;3.666506
2757.000000;3.790087
2756.000000;3.773639
2755.000000;3.549932
2754.000000;3.396423
2753.000000;3.405871
2752.000000;3.488874
2751.000000;3.523128
2750.000000;3.503642
2749.000000;3.587096
2748.000000;3.829277
2747.000000;3.815956
2746.000000;3.710250
2745.000000;3.914857
2744.000000;4.081637
2743.000000;3.740380
2742.000000;3.507134
2741.000000;3.443111
2740.000000;3.550053
2739.000000;3.759628
2738.000000;3.756524
2737.000000;3.697117
2736.000000;3.741781
2735.000000;3.726486
2734.000000;3.645876
2733.000000;3.763401
2732.000000;3.894226
2731.000000;3.762262
2730.000000;3.844338
2729.000000;4.064376
2728.000000;4.251471
2727.000000;3.965660
2726.000000;3.825099
2725.000000;4.166783
2724.000000;3.907553
2723.000000;3.753005
2722.000000;3.868080
2721.000000;3.713580
2720.000000;3.542910
2719.000000;3.496955
2718.000000;3.539166
2717.000000;3.524552
2716.000000;3.490657
2715.000000;3.583829
2714.000000;3.711186
2713.000000;3.750189
2712.000000;3.709138
2711.000000;3.896554
2710.000000;4.116727
2709.000000;3.673543
2708.000000;3.560074
2707.000000;3.623445
2706.000000;3.516128
2705.000000;3.250632
2704.000000;3.100368
2703.000000;3.116273
2702.000000;3.224547
2701.000000;3.351627
2700.000000;3.615224
2699.000000;3.956840
2698.000000;3.741114
2697.000000;3.591897
2696.000000;3.533074
2695.000000;3.681265
2694.000000;4.202205
2693.000000;4.351741
2692.000000;4.076767
2691.000000;3.650895
2690.000000;3.495334
2689.000000;3.614104
2688.000000;3.908061
2687.000000;4.329477
2686.000000;3.933807
2685.000000;3.499216
2684.000000;3.377713
2683.000000;3.480921
2682.000000;3.656027
2681.000000;3.565502
2680.000000;3.409638
2679.000000;3.453344
2678.000000;3.685124
2677.000000;3.732756
2676.000000;3.615748
2675.000000;3.496410
2674.000000;3.398390
2673.000000;3.560403
2672.000000;3.810161
2671.000000;3.557157
2670.000000;3.342372
2669.000000;3.279859
2668.000000;3.284879
2667.000000;3.407208
2666.000000;3.886584
2665.000000;3.835429
2664.000000;3.566580
2663.000000;3.741257
2662.000000;4.251904
2661.000000;4.067668
2660.000000;3.583202
2659.000000;3.458709
2658.000000;3.428140
2657.000000;3.337973
2656.000000;3.266709
2655.000000;3.293162
2654.000000;3.477888
2653.000000;3.634450
2652.000000;3.562525
2651.000000;3.566131
2650.000000;3.596508
2649.000000;3.623782
2648.000000;3.608956
2647.000000;3.722334
2646.000000;4.035163
2645.000000;3.809078
2644.000000;3.658665
2643.000000;3.624104
2642.000000;3.800932
2641.000000;3.955907
2640.000000;3.631678
2639.000000;3.694406
2638.000000;3.847819
2637.000000;3.771993
2636.000000;3.954216
2635.000000;4.138043
2634.000000;3.859335
2633.000000;3.654303
2632.000000;3.642782
2631.000000;3.647027
2630.000000;3.566308
2629.000000;3.546497
2628.000000;3.548740
2627.000000;3.470668
2626.000000;3.478039
2625.000000;3.940013
2624.000000;3.906918
2623.000000;3.513176
2622.000000;3.568944
2621.000000;3.607296
2620.000000;3.718507
2619.000000;3.820270
2618.000000;3.620648
2617.000000;3.587718
2616.000000;3.727461
2615.000000;3.965020
2614.000000;3.915871
2613.000000;3.628073
2612.000000;3.427690
2611.000000;3.557442
2610.000000;3.964900
2609.000000;3.644097
2608.000000;3.630689
2607.000000;4.076922
2606.000000;3.981531
2605.000000;3.535053
2604.000000;3.439451
2603.000000;3.574458
2602.000000;3.784614
2601.000000;3.756633
2600.000000;3.606712
2599.000000;3.639279
2598.000000;3.935762
2597.000000;4.254887
2596.000000;3.853649
2595.000000;3.686742
2594.000000;3.633738
2593.000000;3.502909
2592.000000;3.457928
2591.000000;3.614260
2590.000000;3.939871
2589.000000;4.400667
2588.000000;4.431547
2587.000000;3.948618
2586.000000;3.681823
2585.000000;3.637284
2584.000000;3.687525
2583.000000;3.624176
2582.000000;3.525158
2581.000000;3.572904
2580.000000;3.792136
2579.000000;4.085090
2578.000000;4.387730
2577.000000;3.785239
2576.000000;3.618299
2575.000000;3.903767
2574.000000;3.820490
2573.000000;3.706288
2572.000000;3.657029
2571.000000;3.510139
2570.000000;3.637186
2569.000000;4.255117
2568.000000;4.213542
2567.000000;3.643786
2566.000000;3.535033
2565.000000;3.541033
2564.000000;3.494198
2563.000000;3.399527
2562.000000;3.363891
2561.000000;3.380775
2560.000000;3.585659
2559.000000;4.238790
2558.000000;4.223770
2557.000000;4.670763
2556.000000;4.016472
2555.000000;3.997971
2554.000000;5.143397
2553.000000;4.025682
2552.000000;3.640301
2551.000000;3.365805
2550.000000;3.264977
2549.000000;3.393798
2548.000000;3.734471
2547.000000;3.888683
2546.000000;3.730315
2545.000000;3.582891
2544.000000;3.506929
2543.000000;3.579468
2542.000000;3.655862
2541.000000;3.514729
2540.000000;3.397639
2539.000000;3.428566
2538.000000;3.561003
2537.000000;3.625485
2536.000000;3.697063
2535.000000;3.831803
2534.000000;3.808386
2533.000000;3.755132
2532.000000;3.698116
2531.000000;3.909857
2530.000000;4.019733
2529.000000;3.781925
2528.000000;3.830301
2527.000000;3.758359
2526.000000;3.564296
2525.000000;3.482548
2524.000000;3.540290
2523.000000;3.741587
2522.000000;3.919935
2521.000000;4.068953
2520.000000;4.455889
2519.000000;4.463604
2518.000000;4.360099
2517.000000;3.826131
2516.000000;3.473436
2515.000000;3.489967
2514.000000;3.799136
2513.000000;4.163707
2512.000000;3.969703
2511.000000;3.727356
2510.000000;3.659215
2509.000000;3.612878
2508.000000;3.524605
2507.000000;3.443777
2506.000000;3.380701
2505.000000;3.448689
2504.000000;3.617224
2503.000000;3.591726
2502.000000;3.651112
2501.000000;3.959410
2500.000000;4.230120
2499.000000;3.886564
2498.000000;3.490266
2497.000000;3.459658
2496.000000;3.686150
2495.000000;3.961755
2494.000000;4.041028
2493.000000;3.815542
2492.000000;3.664150
2491.000000;3.721572
2490.000000;3.769583
2489.000000;3.532780
2488.000000;3.383523
2487.000000;3.434896
2486.000000;3.505038
2485.000000;3.548635
2484.000000;3.701730
2483.000000;3.827534
2482.000000;4.068251
2481.000000;3.882921
2480.000000;3.505750
2479.000000;3.482964
2478.000000;3.659474
2477.000000;3.850282
2476.000000;4.236140
2475.000000;3.972917
2474.000000;3.541693
2473.000000;3.474717
2472.000000;3.641670
2471.000000;3.651217
2470.000000;3.480212
2469.000000;3.474991
2468.000000;3.539900
2467.000000;3.661056
2466.000000;3.828748
2465.000000;3.968508
2464.000000;4.437137
2463.000000;4.336563
2462.000000;4.196287
2461.000000;4.372683
2460.000000;3.987425
2459.000000;3.775052
2458.000000;3.640048
2457.000000;3.572065
2456.000000;3.584270
2455.000000;3.507404
2454.000000;3.511329
2453.000000;3.679569
2452.000000;3.899488
2451.000000;4.167430
2450.000000;4.007084
2449.000000;3.792187
2448.000000;3.644696
2447.000000;3.649645
2446.000000;3.645165
2445.000000;3.397175
2444.000000;3.281211
2443.000000;3.347014
2442.000000;3.435735
2441.000000;3.474596
2440.000000;3.682884
2439.000000;4.262436
2438.000000;4.919987
2437.000000;4.045192
2436.000000;3.776946
2435.000000;3.782373
2434.000000;3.814203
2433.000000;3.649453
2432.000000;3.428162
2431.000000;3.404009
2430.000000;3.588353
2429.000000;3.972311
2428.000000;4.307036
2427.000000;3.778626
2426.000000;3.600657
2425.000000;3.665284
2424.000000;3.647658
2423.000000;3.674728
2422.000000;3.748127
2421.000000;3.741390
2420.000000;3.685481
2419.000000;3.651078
2418.000000;3.722688
2417.000000;3.769895
2416.000000;4.091079
2415.000000;4.017558
2414.000000;3.625219
2413.000000;3.680936
2412.000000;3.653290
2411.000000;3.552740
2410.000000;3.615617
2409.000000;3.579803
2408.000000;3.563461
2407.000000;3.845425
2406.000000;4.510381
2405.000000;4.252474
2404.000000;3.914175
2403.000000;3.884692
2402.000000;4.164827
2401.000000;4.422161
2400.000000;3.886784
2399.000000;3.729428
2398.000000;3.830951
2397.000000;3.694042
2396.000000;3.678994
2395.000000;3.825463
2394.000000;3.765808
2393.000000;3.942614
2392.000000;3.804058
2391.000000;3.612562
2390.000000;3.756852
2389.000000;3.932888
2388.000000;4.196352
2387.000000;4.418853
2386.000000;4.048581
2385.000000;3.635992
2384.000000;3.418770
2383.000000;3.481246
2382.000000;3.773290
2381.000000;3.971238
2380.000000;4.283679
2379.000000;4.240757
2378.000000;3.808218
2377.000000;3.663659
2376.000000;3.554655
2375.000000;3.446810
2374.000000;3.559901
2373.000000;3.977246
2372.000000;4.083175
2371.000000;4.170506
2370.000000;3.678068
2369.000000;3.431969
2368.000000;3.400706
2367.000000;3.359600
2366.000000;3.539650
2365.000000;3.603566
2364.000000;3.381760
2363.000000;3.440856
2362.000000;3.622682
2361.000000;3.793420
2360.000000;4.248309
2359.000000;4.021592
2358.000000;3.912796
2357.000000;4.172691
2356.000000;3.925581
2355.000000;3.756824
2354.000000;3.791985
2353.000000;3.615249
2352.000000;3.395060
2351.000000;3.411011
2350.000000;3.580730
2349.000000;3.596643
2348.000000;3.495361
2347.000000;3.370976
2346.000000;3.285528
2345.000000;3.362793
2344.000000;3.590275
2343.000000;3.597105
2342.000000;3.491369
2341.000000;3.437418
2340.000000;3.466592
2339.000000;3.564431
2338.000000;3.571669
2337.000000;3.870315
2336.000000;4.526227
2335.000000;3.883040
2334.000000;3.664980
2333.000000;3.626893
2332.000000;3.523129
2331.000000;3.310158
2330.000000;3.207033
2329.000000;3.306623
2328.000000;3.610124
2327.000000;3.752065
2326.000000;3.560614
2325.000000;3.486727
2324.000000;3.581254
2323.000000;3.723677
2322.000000;3.698961
2321.000000;3.785619
2320.000000;3.906418
2319.000000;3.764757
2318.000000;3.819308
2317.000000;3.796270
2316.000000;3.685006
2315.000000;3.891781
2314.000000;4.420923
2313.000000;4.636300
2312.000000;4.044919
2311.000000;3.826344
2310.000000;3.690683
2309.000000;3.688751
2308.000000;3.853128
2307.000000;3.782457
2306.000000;3.697878
2305.000000;3.937311
2304.000000;4.222102
2303.000000;3.954538
2302.000000;3.826866
2301.000000;3.888153
2300.000000;4.057807
2299.000000;3.815988
2298.000000;3.736636
2297.000000;4.103836
2296.000000;4.023672
2295.000000;3.926014
2294.000000;4.460666
2293.000000;4.778316
2292.000000;4.191600
2291.000000;3.930433
2290.000000;4.119227
2289.000000;4.012034
2288.000000;3.909641
2287.000000;4.333538
2286.000000;3.943183
2285.000000;3.915054
2284.000000;4.120377
2283.000000;4.043043
2282.000000;3.865640
2281.000000;3.571013
2280.000000;3.431119
2279.000000;3.467803
2278.000000;3.589944
2277.000000;3.585715
2276.000000;3.499524
2275.000000;3.393710
2274.000000;3.370880
2273.000000;3.456215
2272.000000;3.635856
2271.000000;4.119557
2270.000000;4.046168
2269.000000;3.556425
2268.000000;3.335062
2267.000000;3.265590
2266.000000;3.357020
2265.000000;3.462791
2264.000000;3.635654
2263.000000;4.035985
2262.000000;3.877016
2261.000000;3.976331
2260.000000;4.276682
2259.000000;4.003284
2258.000000;4.113877
2257.000000;4.062135
2256.000000;3.869699
2255.000000;4.007206
2254.000000;4.293238
2253.000000;4.179950
2252.000000;3.991475
2251.000000;4.061391
2250.000000;4.346072
2249.000000;3.922205
2248.000000;3.619420
2247.000000;3.576178
2246.000000;3.695113
2245.000000;3.718224
2244.000000;3.736936
2243.000000;4.158794
2242.000000;4.872510
2241.000000;4.249716
2240.000000;3.781473
2239.000000;3.544480
2238.000000;3.517997
2237.000000;3.537255
2236.000000;3.766246
2235.000000;4.111087
2234.000000;3.576964
2233.000000;3.497392
2232.000000;3.746397
2231.000000;3.935048
2230.000000;3.950241
2229.000000;4.169142
2228.000000;5.522446
2227.000000;4.251318
2226.000000;3.770231
2225.000000;3.528616
2224.000000;3.418498
2223.000000;3.464119
2222.000000;3.606045
2221.000000;4.038102
2220.000000;4.233609
2219.000000;3.866370
2218.000000;4.088908
2217.000000;3.798080
2216.000000;3.529939
2215.000000;3.478137
2214.000000;3.391501
2213.000000;3.408828
2212.000000;3.532056
2211.000000;3.672787
2210.000000;3.723919
2209.000000;3.592638
2208.000000;3.458280
2207.000000;3.635477
2206.000000;4.310855
2205.000000;4.061675
2204.000000;3.981558
2203.000000;3.957504
2202.000000;4.135713
2201.000000;3.879361
2200.000000;3.459393
2199.000000;3.468865
2198.000000;3.671376
2197.000000;3.751322
2196.000000;3.629638
2195.000000;3.557263
2194.000000;3.580583
2193.000000;3.733355
2192.000000;4.158493
2191.000000;4.295386
2190.000000;4.188031
2189.000000;4.071964
2188.000000;3.907292
2187.000000;3.788329
2186.000000;3.717082
2185.000000;3.839367
2184.000000;4.088095
2183.000000;4.450852
2182.000000;3.979936
2181.000000;3.593090
2180.000000;3.482539
2179.000000;3.469625
2178.000000;3.592787
2177.000000;3.712611
2176.000000;3.616283
2175.000000;3.677904
2174.000000;3.983290
2173.000000;3.974352
2172.000000;3.948960
2171.000000;4.043485
2170.000000;3.786966
2169.000000;3.958467
2168.000000;3.995876
2167.000000;3.652377
2166.000000;3.695384
2165.000000;3.844351
2164.000000;3.887214
2163.000000;3.619353
2162.000000;3.443909
2161.000000;3.535515
2160.000000;3.804114
2159.000000;3.917594
2158.000000;4.082670
2157.000000;4.063360
2156.000000;3.735932
2155.000000;3.822049
2154.000000;3.807395
2153.000000;3.673634
2152.000000;3.696096
2151.000000;3.505538
2150.000000;3.348396
2149.000000;3.582439
2148.000000;4.054600
2147.000000;3.654709
2146.000000;3.642916
2145.000000;3.709166
2144.000000;3.926720
2143.000000;3.974973
2142.000000;3.651921
2141.000000;3.764313
2140.000000;3.988111
2139.000000;4.259113
2138.000000;4.362166
2137.000000;4.077990
2136.000000;3.906993
2135.000000;3.779896
2134.000000;3.742603
2133.000000;3.930527
2132.000000;4.178932
2131.000000;3.897426
2130.000000;3.652473
2129.000000;3.441187
2128.000000;3.343056
2127.000000;3.473254
2126.000000;3.634129
2125.000000;3.593332
2124.000000;3.713747
2123.000000;4.041252
2122.000000;4.333012
2121.000000;4.066820
2120.000000;4.032165
2119.000000;4.167425
2118.000000;4.067920
2117.000000;4.303210
2116.000000;4.312168
2115.000000;4.193391
2114.000000;3.919508
2113.000000;3.697739
2112.000000;3.646542
2111.000000;3.506460
2110.000000;3.487659
2109.000000;3.705758
2108.000000;3.763896
2107.000000;3.783706
2106.000000;4.260327
2105.000000;4.754930
2104.000000;4.285966
2103.000000;3.867594
2102.000000;3.710935
2101.000000;3.839245
2100.000000;3.896510
2099.000000;3.660593
2098.000000;3.556693
2097.000000;3.682647
2096.000000;3.685242
2095.000000;3.521774
2094.000000;3.526065
2093.000000;3.641429
2092.000000;3.911143
2091.000000;4.052568
2090.000000;3.601985
2089.000000;3.375808
2088.000000;3.317649
2087.000000;3.302154
2086.000000;3.334011
2085.000000;3.504902
2084.000000;3.773241
2083.000000;4.008686
2082.000000;4.398333
2081.000000;4.062006
2080.000000;3.779209
2079.000000;3.643275
2078.000000;3.597450
2077.000000;3.683296
2076.000000;3.758579
2075.000000;3.946527
2074.000000;3.878775
2073.000000;3.678991
2072.000000;3.751709
2071.000000;3.970199
2070.000000;3.991078
2069.000000;3.810726
2068.000000;3.682587
2067.000000;3.885981
2066.000000;4.477164
2065.000000;4.258205
2064.000000;4.058427
2063.000000;3.750795
2062.000000;3.634309
2061.000000;3.867209
2060.000000;4.067424
2059.000000;3.941157
2058.000000;4.034202
2057.000000;3.844989
2056.000000;3.646430
2055.000000;3.748572
2054.000000;4.055660
2053.000000;4.194228
2052.000000;4.119891
2051.000000;3.917214
2050.000000;3.918646
2049.000000;3.972050
2048.000000;3.743199
2047.000000;3.638455
2046.000000;3.513423
2045.000000;3.482050
2044.000000;3.612875
2043.000000;3.629576
2042.000000;3.572748
2041.000000;3.681747
2040.000000;3.874916
2039.000000;3.741018
2038.000000;3.552515
2037.000000;3.579188
2036.000000;3.739834
2035.000000;3.672943
2034.000000;3.513458
2033.000000;3.550370
2032.000000;3.707051
2031.000000;3.751553
2030.000000;3.931015
2029.000000;4.308412
2028.000000;3.989690
2027.000000;3.865284
2026.000000;4.118059
2025.000000;4.690945
2024.000000;4.965115
2023.000000;3.905938
2022.000000;3.713053
2021.000000;3.778791
2020.000000;3.605069
2019.000000;3.554392
2018.000000;3.646624
2017.000000;3.631104
2016.000000;3.582137
2015.000000;3.628623
2014.000000;3.793885
2013.000000;3.937180
2012.000000;3.966974
2011.000000;3.788467
2010.000000;3.602933
2009.000000;3.661243
2008.000000;3.768137
2007.000000;3.556968
2006.000000;3.388481
2005.000000;3.440104
2004.000000;3.639789
2003.000000;3.745540
2002.000000;3.723997
2001.000000;3.879059
2000.000000;4.331124
1999.000000;3.751116
1998.000000;3.416229
1997.000000;3.382139
1996.000000;3.439068
1995.000000;3.484920
1994.000000;3.537228
1993.000000;3.678030
1992.000000;3.731821
1991.000000;3.954805
1990.000000;4.395199
1989.000000;3.801716
1988.000000;3.616091
1987.000000;3.490741
1986.000000;3.449517
1985.000000;3.602728
1984.000000;3.892338
1983.000000;3.944044
1982.000000;3.675832
1981.000000;3.615491
1980.000000;3.560593
1979.000000;3.372932
1978.000000;3.275011
1977.000000;3.382762
1976.000000;3.672805
1975.000000;3.948950
1974.000000;3.960861
1973.000000;3.867222
1972.000000;3.779664
1971.000000;3.710766
1970.000000;3.948980
1969.000000;3.951607
1968.000000;3.499471
1967.000000;3.419118
1966.000000;3.505415
1965.000000;3.589054
1964.000000;3.615415
1963.000000;3.888249
1962.000000;4.614995
1961.000000;3.864525
1960.000000;3.796295
1959.000000;3.646819
1958.000000;3.454559
1957.000000;3.484094
1956.000000;3.636035
1955.000000;3.765134
1954.000000;3.902412
1953.000000;4.173395
1952.000000;3.756815
1951.000000;3.586359
1950.000000;3.753534
1949.000000;3.846045
1948.000000;3.764794
1947.000000;3.941056
1946.000000;4.515096
1945.000000;4.471829
1944.000000;3.943187
1943.000000;3.651703
1942.000000;3.543460
1941.000000;3.473578
1940.000000;3.424594
1939.000000;3.524768
1938.000000;3.842707
1937.000000;4.140029
1936.000000;4.413443
1935.000000;4.151232
1934.000000;4.144681
1933.000000;4.480686
1932.000000;4.243660
1931.000000;4.095402
1930.000000;3.656360
1929.000000;3.883947
1928.000000;4.222061
1927.000000;3.688255
1926.000000;3.721533
1925.000000;3.636504
1924.000000;3.571106
1923.000000;3.920344
1922.000000;4.211430
1921.000000;3.982664
1920.000000;4.132281
1919.000000;4.122195
1918.000000;3.895841
1917.000000;3.638313
1916.000000;3.580373
1915.000000;3.672644
1914.000000;3.695884
1913.000000;3.617123
1912.000000;3.616771
1911.000000;3.727262
1910.000000;3.841519
1909.000000;4.154604
1908.000000;3.917624
1907.000000;3.799717
1906.000000;4.080645
1905.000000;3.979562
1904.000000;3.717541
1903.000000;3.722660
1902.000000;3.900730
1901.000000;3.911156
1900.000000;4.205833
1899.000000;4.356636
1898.000000;4.177800
1897.000000;4.075852
1896.000000;3.863879
1895.000000;4.069877
1894.000000;3.994502
1893.000000;4.084934
1892.000000;4.243019
1891.000000;3.802197
1890.000000;3.720550
1889.000000;3.670191
1888.000000;3.552182
1887.000000;3.690450
1886.000000;4.355735
1885.000000;4.473632
1884.000000;4.161943
1883.000000;3.887481
1882.000000;3.651457
1881.000000;3.800821
1880.000000;4.367711
1879.000000;3.888282
1878.000000;3.601245
1877.000000;3.690946
1876.000000;4.152438
1875.000000;4.175698
1874.000000;3.763251
1873.000000;3.633566
1872.000000;3.632537
1871.000000;3.729128
1870.000000;3.790583
1869.000000;3.657633
1868.000000;3.587995
1867.000000;3.852549
1866.000000;4.203012
1865.000000;4.041676
1864.000000;3.939328
1863.000000;4.017686
1862.000000;4.360410
1861.000000;4.074147
1860.000000;3.867821
1859.000000;3.968177
1858.000000;4.123321
1857.000000;4.013879
1856.000000;3.901537
1855.000000;3.657073
1854.000000;3.602082
1853.000000;3.775880
1852.000000;3.619676
1851.000000;3.563754
1850.000000;3.710739
1849.000000;3.712918
1848.000000;3.708596
1847.000000;4.103987
1846.000000;4.225831
1845.000000;3.841294
1844.000000;3.967082
1843.000000;3.902060
1842.000000;4.041834
1841.000000;4.153990
1840.000000;3.691160
1839.000000;3.616404
1838.000000;3.630208
1837.000000;3.548811
1836.000000;3.624261
1835.000000;3.872184
1834.000000;3.958829
1833.000000;3.832362
1832.000000;3.750559
1831.000000;3.874035
1830.000000;4.439331
1829.000000;4.507839
1828.000000;4.257495
1827.000000;4.583110
1826.000000;3.894383
1825.000000;3.641682
1824.000000;3.630430
1823.000000;3.643526
1822.000000;3.631925
1821.000000;3.881623
1820.000000;4.032761
1819.000000;3.775366
1818.000000;3.965260
1817.000000;3.748480
1816.000000;3.685472
1815.000000;3.891289
1814.000000;3.619377
1813.000000;3.472268
1812.000000;3.477239
1811.000000;3.449580
1810.000000;3.498941
1809.000000;3.639660
1808.000000;3.706090
1807.000000;3.725713
1806.000000;3.567729
1805.000000;3.534467
1804.000000;3.738509
1803.000000;3.945321
1802.000000;4.031875
1801.000000;3.885158
1800.000000;3.802425
1799.000000;3.887632
1798.000000;3.990112
1797.000000;4.198668
1796.000000;3.986671
1795.000000;3.741363
1794.000000;3.822586
1793.000000;4.262991
1792.000000;4.751007
1791.000000;3.840728
1790.000000;3.524463
1789.000000;3.534799
1788.000000;3.741080
1787.000000;3.963717
1786.000000;4.107236
1785.000000;3.933503
1784.000000;3.811421
1783.000000;4.000574
1782.000000;4.223684
1781.000000;4.062976
1780.000000;3.935070
1779.000000;4.192365
1778.000000;4.528502
1777.000000;4.151775
1776.000000;3.899367
1775.000000;3.835585
1774.000000;3.752197
1773.000000;3.524542
1772.000000;3.403257
1771.000000;3.500033
1770.000000;3.687132
1769.000000;3.705539
1768.000000;3.661829
1767.000000;3.721197
1766.000000;3.823446
1765.000000;3.806257
1764.000000;3.998004
1763.000000;4.379375
1762.000000;4.123073
1761.000000;3.975627
1760.000000;3.922274
1759.000000;3.707112
1758.000000;3.439996
1757.000000;3.295188
1756.000000;3.276870
1755.000000;3.342368
1754.000000;3.476115
1753.000000;3.650430
1752.000000;3.736066
1751.000000;3.632622
1750.000000;3.676062
1749.000000;3.901480
1748.000000;3.878790
1747.000000;4.110813
1746.000000;4.669769
1745.000000;4.376729
1744.000000;4.714944
1743.000000;4.107652
1742.000000;3.759504
1741.000000;3.706024
1740.000000;3.735694
1739.000000;3.777396
1738.000000;3.818900
1737.000000;4.024961
1736.000000;4.324341
1735.000000;4.067605
1734.000000;3.881388
1733.000000;3.829794
1732.000000;3.857160
1731.000000;4.130037
1730.000000;4.502111
1729.000000;4.033301
1728.000000;3.676398
1727.000000;3.571701
1726.000000;3.667894
1725.000000;3.688500
1724.000000;3.872280
1723.000000;4.471607
1722.000000;4.034352
1721.000000;4.246285
1720.000000;4.564510
1719.000000;4.323614
1718.000000;4.297626
1717.000000;3.902071
1716.000000;3.712919
1715.000000;3.714491
1714.000000;3.781871
1713.000000;3.751513
1712.000000;3.794189
1711.000000;3.889305
1710.000000;4.057277
1709.000000;4.329031
1708.000000;4.214838
1707.000000;4.025408
1706.000000;3.767853
1705.000000;3.757613
1704.000000;4.053076
1703.000000;4.143611
1702.000000;4.144803
1701.000000;4.129761
1700.000000;3.706748
1699.000000;3.575239
1698.000000;3.632593
1697.000000;3.657555
1696.000000;3.714457
1695.000000;3.793097
1694.000000;3.805010
1693.000000;3.729593
1692.000000;3.697818
1691.000000;3.841628
1690.000000;4.133110
1689.000000;4.134312
1688.000000;3.897629
1687.000000;3.988653
1686.000000;4.401826
1685.000000;4.234256
1684.000000;3.853969
1683.000000;3.615142
1682.000000;3.603087
1681.000000;3.843382
1680.000000;4.340313
1679.000000;3.985864
1678.000000;3.769404
1677.000000;4.051072
1676.000000;3.977607
1675.000000;3.717947
1674.000000;3.769365
1673.000000;3.820228
1672.000000;3.859180
1671.000000;4.195357
1670.000000;4.148426
1669.000000;3.926028
1668.000000;3.954356
1667.000000;3.760774
1666.000000;3.796304
1665.000000;3.950165
1664.000000;3.819185
1663.000000;3.984309
1662.000000;4.059662
1661.000000;3.718546
1660.000000;3.604241
1659.000000;3.743649
1658.000000;4.047991
1657.000000;4.043960
1656.000000;3.996380
1655.000000;4.006715
1654.000000;3.901683
1653.000000;3.740661
1652.000000;3.657570
1651.000000;3.720668
1650.000000;3.727208
1649.000000;3.684409
1648.000000;3.730161
1647.000000;3.869885
1646.000000;3.796283
1645.000000;3.841794
1644.000000;4.502716
1643.000000;4.289861
1642.000000;3.856636
1641.000000;3.543020
1640.000000;3.427057
1639.000000;3.559710
1638.000000;3.941631
1637.000000;4.535791
1636.000000;4.164932
1635.000000;4.032979
1634.000000;4.402211
1633.000000;4.605787
1632.000000;4.130178
1631.000000;3.945040
1630.000000;3.613008
1629.000000;3.531328
1628.000000;3.844556
1627.000000;4.089441
1626.000000;3.821707
1625.000000;3.882889
1624.000000;4.066627
1623.000000;3.800643
1622.000000;3.727956
1621.000000;3.785037
1620.000000;3.744523
1619.000000;3.889696
1618.000000;3.979035
1617.000000;3.896250
1616.000000;4.127569
1615.000000;3.995839
1614.000000;3.704793
1613.000000;3.515527
1612.000000;3.543204
1611.000000;3.770571
1610.000000;3.710109
1609.000000;3.690272
1608.000000;3.554205
1607.000000;3.351552
1606.000000;3.278884
1605.000000;3.263188
1604.000000;3.291820
1603.000000;3.593721
1602.000000;3.976834
1601.000000;3.612510
1600.000000;3.532516
1599.000000;3.464770
1598.000000;3.410515
1597.000000;3.590445
1596.000000;4.318898
1595.000000;4.051823
1594.000000;3.592425
1593.000000;3.395868
1592.000000;3.287728
1591.000000;3.356429
1590.000000;3.613287
1589.000000;3.779179
1588.000000;3.812927
1587.000000;4.250492
1586.000000;3.876333
1585.000000;3.701125
1584.000000;3.778735
1583.000000;3.708537
1582.000000;3.672534
1581.000000;3.595471
1580.000000;3.614718
1579.000000;3.746944
1578.000000;3.815192
1577.000000;4.016402
1576.000000;4.037122
1575.000000;3.929698
1574.000000;3.830999
1573.000000;3.670593
1572.000000;3.663132
1571.000000;3.600330
1570.000000;3.527161
1569.000000;3.747516
1568.000000;4.152793
1567.000000;3.979896
1566.000000;3.798804
1565.000000;3.628515
1564.000000;3.594206
1563.000000;3.696241
1562.000000;3.732610
1561.000000;3.750132
1560.000000;3.777265
1559.000000;3.819206
1558.000000;3.835437
1557.000000;3.989117
1556.000000;4.223653
1555.000000;3.763331
1554.000000;3.621379
1553.000000;3.717220
1552.000000;3.805109
1551.000000;4.004519
1550.000000;4.133696
1549.000000;3.890217
1548.000000;3.800228
1547.000000;4.059917
1546.000000;4.336075
1545.000000;4.245820
1544.000000;4.502229
1543.000000;4.587359
1542.000000;4.647467
1541.000000;4.272193
1540.000000;3.906782
1539.000000;4.149625
1538.000000;3.967325
1537.000000;3.742312
1536.000000;3.870734
1535.000000;3.953390
1534.000000;4.047315
1533.000000;4.043774
1532.000000;3.837580
1531.000000;3.832218
1530.000000;3.852428
1529.000000;3.727660
1528.000000;3.732177
1527.000000;3.942901
1526.000000;3.879649
1525.000000;3.837207
1524.000000;4.078341
1523.000000;4.159992
1522.000000;4.053487
1521.000000;4.047131
1520.000000;4.075888
1519.000000;4.199908
1518.000000;4.552270
1517.000000;4.356153
1516.000000;4.096384
1515.000000;4.127495
1514.000000;4.071402
1513.000000;3.846135
1512.000000;3.786608
1511.000000;3.967335
1510.000000;4.151762
1509.000000;4.401007
1508.000000;4.860758
1507.000000;4.256521
1506.000000;3.886608
1505.000000;3.823460
1504.000000;4.134765
1503.000000;4.023886
1502.000000;3.666462
1501.000000;3.663750
1500.000000;3.733348
1499.000000;3.643516
1498.000000;3.544354
1497.000000;3.592962
1496.000000;3.745090
1495.000000;3.718175
1494.000000;3.701226
1493.000000;3.853273
1492.000000;3.931035
1491.000000;3.833524
1490.000000;3.788877
1489.000000;3.847810
1488.000000;3.904200
1487.000000;3.736630
1486.000000;3.632957
1485.000000;3.869203
1484.000000;4.108555
1483.000000;3.738302
1482.000000;3.548161
1481.000000;3.555415
1480.000000;3.767241
1479.000000;4.028519
1478.000000;3.871802
1477.000000;3.769588
1476.000000;3.786814
1475.000000;3.872035
1474.000000;3.959903
1473.000000;3.889267
1472.000000;3.693348
1471.000000;3.685701
1470.000000;3.892256
1469.000000;3.873235
1468.000000;4.008339
1467.000000;4.281819
1466.000000;3.868237
1465.000000;3.908603
1464.000000;3.993719
1463.000000;3.823737
1462.000000;3.945602
1461.000000;3.794214
1460.000000;3.754305
1459.000000;4.106999
1458.000000;4.064772
1457.000000;3.963648
1456.000000;4.230927
1455.000000;4.184048
1454.000000;3.672857
1453.000000;3.502573
1452.000000;3.576914
1451.000000;3.676653
1450.000000;3.753197
1449.000000;4.026898
1448.000000;4.316078
1447.000000;3.899372
1446.000000;3.659810
1445.000000;3.911681
1444.000000;4.089508
1443.000000;3.975978
1442.000000;4.270238
1441.000000;3.938030
1440.000000;3.792230
1439.000000;3.638637
1438.000000;3.512049
1437.000000;3.585525
1436.000000;3.757836
1435.000000;3.833303
1434.000000;3.719364
1433.000000;3.776530
1432.000000;4.204560
1431.000000;4.438860
1430.000000;4.219684
1429.000000;3.894385
1428.000000;3.766678
1427.000000;3.971411
1426.000000;4.508309
1425.000000;4.175218
1424.000000;3.760566
1423.000000;3.603535
1422.000000;3.588707
1421.000000;3.751088
1420.000000;3.823469
1419.000000;3.767408
1418.000000;3.782032
1417.000000;3.723960
1416.000000;3.782005
1415.000000;3.859087
1414.000000;3.633355
1413.000000;3.420722
1412.000000;3.307552
1411.000000;3.365077
1410.000000;3.698301
1409.000000;3.659422
1408.000000;3.478721
1407.000000;3.503135
1406.000000;3.491188
1405.000000;3.749521
1404.000000;3.982168
1403.000000;3.536043
1402.000000;3.387509
1401.000000;3.331687
1400.000000;3.321359
1399.000000;3.474002
1398.000000;3.890980
1397.000000;4.724583
1396.000000;4.585859
1395.000000;4.007276
1394.000000;3.663265
1393.000000;3.629201
1392.000000;3.662164
1391.000000;3.694083
1390.000000;3.784853
1389.000000;3.675276
1388.000000;3.544371
1387.000000;3.527705
1386.000000;3.526822
1385.000000;3.439699
1384.000000;3.412531
1383.000000;3.517633
1382.000000;3.577300
1381.000000;3.488765
1380.000000;3.427188
1379.000000;3.491381
1378.000000;3.533456
1377.000000;3.545301
1376.000000;3.572925
1375.000000;3.553797
1374.000000;3.616244
1373.000000;3.583269
1372.000000;3.736621
1371.000000;4.582606
1370.000000;3.764387
1369.000000;3.749364
1368.000000;3.922609
1367.000000;3.687359
1366.000000;3.644017
1365.000000;3.694725
1364.000000;3.599048
1363.000000;3.569873
1362.000000;3.711167
1361.000000;3.770128
1360.000000;4.166328
1359.000000;3.830048
1358.000000;3.386114
1357.000000;3.473096
1356.000000;3.729188
1355.000000;3.784604
1354.000000;3.772812
1353.000000;3.859501
1352.000000;4.523110
1351.000000;3.915757
1350.000000;3.478425
1349.000000;3.380595
1348.000000;3.359065
1347.000000;3.250279
1346.000000;3.174612
1345.000000;3.240949
1344.000000;3.323187
1343.000000;3.284880
1342.000000;3.386807
1341.000000;3.628593
1340.000000;3.392433
1339.000000;3.238528
1338.000000;3.221246
1337.000000;3.217414
1336.000000;3.347951
1335.000000;3.751737
1334.000000;3.961210
1333.000000;3.618089
1332.000000;3.635540
1331.000000;3.854577
1330.000000;3.667719
1329.000000;3.620782
1328.000000;3.884049
1327.000000;3.943575
1326.000000;3.816280
1325.000000;3.705716
1324.000000;3.544224
1323.000000;3.597827
1322.000000;4.092514
1321.000000;4.031665
1320.000000;3.722724
1319.000000;3.661150
1318.000000;3.821924
1317.000000;3.810474
1316.000000;3.564580
1315.000000;3.747350
1314.000000;3.803138
1313.000000;3.656043
1312.000000;3.886014
1311.000000;3.937949
1310.000000;3.648774
1309.000000;3.525608
1308.000000;3.541337
1307.000000;3.792959
1306.000000;4.349620
1305.000000;4.021096
1304.000000;3.647425
1303.000000;3.476203
1302.000000;3.370102
1301.000000;3.341342
1300.000000;3.403419
1299.000000;3.572809
1298.000000;3.783789
1297.000000;3.843942
1296.000000;3.901711
1295.000000;3.874380
1294.000000;3.633463
1293.000000;3.539512
1292.000000;3.585880
1291.000000;3.818027
1290.000000;4.162559
1289.000000;3.588598
1288.000000;3.392798
1287.000000;3.696698
1286.000000;3.753750
1285.000000;3.375114
1284.000000;3.407420
1283.000000;3.489818
1282.000000;3.906922
1281.000000;4.171946
1280.000000;3.511502
1279.000000;3.491960
1278.000000;3.713160
1277.000000;4.145885
1276.000000;4.180543
1275.000000;4.150822
1274.000000;3.979080
1273.000000;3.821968
1272.000000;4.158742
1271.000000;3.812071
1270.000000;3.331996
1269.000000;3.195844
1268.000000;3.258007
1267.000000;3.411872
1266.000000;3.580717
1265.000000;3.601025
1264.000000;3.407633
1263.000000;3.358531
1262.000000;3.438565
1261.000000;3.702254
1260.000000;4.007454
1259.000000;3.636280
1258.000000;3.401397
1257.000000;3.453452
1256.000000;3.855713
1255.000000;3.563617
1254.000000;3.280524
1253.000000;3.183443
1252.000000;3.201642
1251.000000;3.676355
1250.000000;3.679081
1249.000000;3.513208
1248.000000;4.157363
1247.000000;4.013407
1246.000000;3.803284
1245.000000;3.818448
1244.000000;3.595156
1243.000000;3.514231
1242.000000;3.706916
1241.000000;4.218671
1240.000000;4.230498
1239.000000;3.804114
1238.000000;3.848349
1237.000000;3.901864
1236.000000;3.788997
1235.000000;3.836133
1234.000000;3.534782
1233.000000;3.256156
1232.000000;3.144082
1231.000000;3.209045
1230.000000;3.510714
1229.000000;3.756754
1228.000000;3.642039
1227.000000;3.530599
1226.000000;3.403477
1225.000000;3.539395
1224.000000;3.860936
1223.000000;3.741717
1222.000000;3.640095
1221.000000;3.903050
1220.000000;3.472196
1219.000000;3.252843
1218.000000;3.432321
1217.000000;3.604888
1216.000000;3.386569
1215.000000;3.217061
1214.000000;3.284262
1213.000000;3.509577
1212.000000;3.369807
1211.000000;3.437216
1210.000000;4.052671
1209.000000;3.942716
1208.000000;3.635161
1207.000000;3.470515
1206.000000;3.602629
1205.000000;4.054828
1204.000000;3.530601
1203.000000;3.507775
1202.000000;3.808477
1201.000000;3.966519
1200.000000;4.073129
