Criado como novo conjunto de dados;"e2410_daniel_v2.spp","85686.5 Secs"
cm-1;Abs
10000.000000;1.192180
9999.000000;1.192076
9998.000000;1.191965
9997.000000;1.191868
9996.000000;1.191746
9995.000000;1.191673
9994.000000;1.191462
9993.000000;1.190873
9992.000000;1.190360
9991.000000;1.190015
9990.000000;1.189683
9989.000000;1.188988
9988.000000;1.187692
9987.000000;1.185957
9986.000000;1.184295
9985.000000;1.183130
9984.000000;1.182540
9983.000000;1.182450
9982.000000;1.182819
9981.000000;1.183400
9980.000000;1.183565
9979.000000;1.182766
9978.000000;1.181187
9977.000000;1.179636
9976.000000;1.178723
9975.000000;1.178364
9974.000000;1.178096
9973.000000;1.177674
9972.000000;1.177227
9971.000000;1.176974
9970.000000;1.176887
9969.000000;1.176624
9968.000000;1.175822
9967.000000;1.174527
9966.000000;1.173272
9965.000000;1.172549
9964.000000;1.172251
9963.000000;1.171837
9962.000000;1.171061
9961.000000;1.170300
9960.000000;1.170056
9959.000000;1.170327
9958.000000;1.170657
9957.000000;1.170714
9956.000000;1.170564
9955.000000;1.170340
9954.000000;1.169907
9953.000000;1.169056
9952.000000;1.167926
9951.000000;1.166948
9950.000000;1.166334
9949.000000;1.165866
9948.000000;1.165306
9947.000000;1.164774
9946.000000;1.164492
9945.000000;1.164273
9944.000000;1.163670
9943.000000;1.162633
9942.000000;1.161656
9941.000000;1.161095
9940.000000;1.160688
9939.000000;1.160017
9938.000000;1.159190
9937.000000;1.158671
9936.000000;1.158511
9935.000000;1.158181
9934.000000;1.157295
9933.000000;1.156209
9932.000000;1.155591
9931.000000;1.155520
9930.000000;1.155308
9929.000000;1.154321
9928.000000;1.152839
9927.000000;1.151864
9926.000000;1.152066
9925.000000;1.153027
9924.000000;1.153586
9923.000000;1.152921
9922.000000;1.151276
9921.000000;1.149665
9920.000000;1.148936
9919.000000;1.149089
9918.000000;1.149397
9917.000000;1.149159
9916.000000;1.148323
9915.000000;1.147310
9914.000000;1.146403
9913.000000;1.145565
9912.000000;1.144858
9911.000000;1.144628
9910.000000;1.145042
9909.000000;1.145734
9908.000000;1.146224
9907.000000;1.146439
9906.000000;1.146450
9905.000000;1.145947
9904.000000;1.144540
9903.000000;1.142494
9902.000000;1.140641
9901.000000;1.139526
9900.000000;1.139112
9899.000000;1.139256
9898.000000;1.139863
9897.000000;1.140422
9896.000000;1.140104
9895.000000;1.138732
9894.000000;1.137155
9893.000000;1.136224
9892.000000;1.135841
9891.000000;1.135437
9890.000000;1.134965
9889.000000;1.134803
9888.000000;1.134910
9887.000000;1.134752
9886.000000;1.134104
9885.000000;1.133360
9884.000000;1.132920
9883.000000;1.132629
9882.000000;1.132038
9881.000000;1.130986
9880.000000;1.129790
9879.000000;1.128926
9878.000000;1.128546
9877.000000;1.128250
9876.000000;1.127498
9875.000000;1.126343
9874.000000;1.125512
9873.000000;1.125485
9872.000000;1.125761
9871.000000;1.125458
9870.000000;1.124518
9869.000000;1.123796
9868.000000;1.123893
9867.000000;1.124408
9866.000000;1.124525
9865.000000;1.123940
9864.000000;1.122994
9863.000000;1.122149
9862.000000;1.121610
9861.000000;1.121321
9860.000000;1.121053
9859.000000;1.120528
9858.000000;1.119655
9857.000000;1.118630
9856.000000;1.117756
9855.000000;1.117202
9854.000000;1.116961
9853.000000;1.116884
9852.000000;1.116727
9851.000000;1.116288
9850.000000;1.115620
9849.000000;1.115008
9848.000000;1.114646
9847.000000;1.114423
9846.000000;1.114131
9845.000000;1.113775
9844.000000;1.113501
9843.000000;1.113267
9842.000000;1.112808
9841.000000;1.112005
9840.000000;1.111091
9839.000000;1.110340
9838.000000;1.109673
9837.000000;1.108810
9836.000000;1.107806
9835.000000;1.107148
9834.000000;1.107149
9833.000000;1.107435
9832.000000;1.107283
9831.000000;1.106457
9830.000000;1.105467
9829.000000;1.104943
9828.000000;1.104938
9827.000000;1.104942
9826.000000;1.104431
9825.000000;1.103337
9824.000000;1.102035
9823.000000;1.100957
9822.000000;1.100203
9821.000000;1.099521
9820.000000;1.098717
9819.000000;1.097975
9818.000000;1.097635
9817.000000;1.097690
9816.000000;1.097719
9815.000000;1.097398
9814.000000;1.096866
9813.000000;1.096501
9812.000000;1.096470
9811.000000;1.096620
9810.000000;1.096669
9809.000000;1.096403
9808.000000;1.095787
9807.000000;1.094986
9806.000000;1.094216
9805.000000;1.093573
9804.000000;1.093063
9803.000000;1.092758
9802.000000;1.092734
9801.000000;1.092849
9800.000000;1.092821
9799.000000;1.092542
9798.000000;1.092079
9797.000000;1.091354
9796.000000;1.090145
9795.000000;1.088534
9794.000000;1.087008
9793.000000;1.085900
9792.000000;1.085046
9791.000000;1.084258
9790.000000;1.083777
9789.000000;1.083867
9788.000000;1.084166
9787.000000;1.083962
9786.000000;1.083058
9785.000000;1.081950
9784.000000;1.081103
9783.000000;1.080489
9782.000000;1.079931
9781.000000;1.079542
9780.000000;1.079546
9779.000000;1.079880
9778.000000;1.080199
9777.000000;1.080209
9776.000000;1.079855
9775.000000;1.079216
9774.000000;1.078368
9773.000000;1.077409
9772.000000;1.076575
9771.000000;1.076209
9770.000000;1.076449
9769.000000;1.076921
9768.000000;1.076925
9767.000000;1.076094
9766.000000;1.074779
9765.000000;1.073650
9764.000000;1.073021
9763.000000;1.072734
9762.000000;1.072531
9761.000000;1.072280
9760.000000;1.071872
9759.000000;1.071213
9758.000000;1.070413
9757.000000;1.069746
9756.000000;1.069294
9755.000000;1.068827
9754.000000;1.068114
9753.000000;1.067195
9752.000000;1.066180
9751.000000;1.065019
9750.000000;1.063721
9749.000000;1.062659
9748.000000;1.062322
9747.000000;1.062712
9746.000000;1.063232
9745.000000;1.063305
9744.000000;1.062965
9743.000000;1.062652
9742.000000;1.062579
9741.000000;1.062545
9740.000000;1.062293
9739.000000;1.061769
9738.000000;1.060966
9737.000000;1.059805
9736.000000;1.058382
9735.000000;1.057151
9734.000000;1.056608
9733.000000;1.056807
9732.000000;1.057331
9731.000000;1.057673
9730.000000;1.057527
9729.000000;1.056822
9728.000000;1.055739
9727.000000;1.054709
9726.000000;1.054170
9725.000000;1.054206
9724.000000;1.054466
9723.000000;1.054449
9722.000000;1.053851
9721.000000;1.052724
9720.000000;1.051429
9719.000000;1.050346
9718.000000;1.049507
9717.000000;1.048611
9716.000000;1.047527
9715.000000;1.046620
9714.000000;1.046318
9713.000000;1.046515
9712.000000;1.046732
9711.000000;1.046728
9710.000000;1.046569
9709.000000;1.046168
9708.000000;1.045273
9707.000000;1.044016
9706.000000;1.042996
9705.000000;1.042624
9704.000000;1.042759
9703.000000;1.043121
9702.000000;1.043635
9701.000000;1.044136
9700.000000;1.044178
9699.000000;1.043513
9698.000000;1.042491
9697.000000;1.041631
9696.000000;1.041036
9695.000000;1.040534
9694.000000;1.040085
9693.000000;1.039695
9692.000000;1.039153
9691.000000;1.038277
9690.000000;1.037285
9689.000000;1.036565
9688.000000;1.036140
9687.000000;1.035691
9686.000000;1.035030
9685.000000;1.034301
9684.000000;1.033775
9683.000000;1.033664
9682.000000;1.033997
9681.000000;1.034442
9680.000000;1.034444
9679.000000;1.033820
9678.000000;1.033059
9677.000000;1.032707
9676.000000;1.032677
9675.000000;1.032513
9674.000000;1.032128
9673.000000;1.031788
9672.000000;1.031448
9671.000000;1.030680
9670.000000;1.029347
9669.000000;1.027914
9668.000000;1.026952
9667.000000;1.026640
9666.000000;1.026815
9665.000000;1.027151
9664.000000;1.027188
9663.000000;1.026557
9662.000000;1.025387
9661.000000;1.024218
9660.000000;1.023378
9659.000000;1.022686
9658.000000;1.021895
9657.000000;1.021157
9656.000000;1.020794
9655.000000;1.020775
9654.000000;1.020661
9653.000000;1.020026
9652.000000;1.018857
9651.000000;1.017601
9650.000000;1.016859
9649.000000;1.016924
9648.000000;1.017503
9647.000000;1.017947
9646.000000;1.017802
9645.000000;1.017102
9644.000000;1.016187
9643.000000;1.015389
9642.000000;1.014894
9641.000000;1.014679
9640.000000;1.014515
9639.000000;1.014150
9638.000000;1.013559
9637.000000;1.012906
9636.000000;1.012318
9635.000000;1.011804
9634.000000;1.011362
9633.000000;1.010946
9632.000000;1.010358
9631.000000;1.009420
9630.000000;1.008336
9629.000000;1.007604
9628.000000;1.007468
9627.000000;1.007641
9626.000000;1.007677
9625.000000;1.007449
9624.000000;1.007114
9623.000000;1.006792
9622.000000;1.006493
9621.000000;1.006253
9620.000000;1.006148
9619.000000;1.006134
9618.000000;1.005987
9617.000000;1.005457
9616.000000;1.004507
9615.000000;1.003419
9614.000000;1.002622
9613.000000;1.002312
9612.000000;1.002245
9611.000000;1.001999
9610.000000;1.001457
9609.000000;1.000909
9608.000000;1.000669
9607.000000;1.000741
9606.000000;1.000865
9605.000000;1.000727
9604.000000;1.000091
9603.000000;0.998905
9602.000000;0.997412
9601.000000;0.996038
9600.000000;0.995070
9599.000000;0.994517
9598.000000;0.994271
9597.000000;0.994238
9596.000000;0.994250
9595.000000;0.994051
9594.000000;0.993569
9593.000000;0.993083
9592.000000;0.992944
9591.000000;0.993128
9590.000000;0.993190
9589.000000;0.992666
9588.000000;0.991484
9587.000000;0.990033
9586.000000;0.988873
9585.000000;0.988349
9584.000000;0.988378
9583.000000;0.988556
9582.000000;0.988474
9581.000000;0.987961
9580.000000;0.987125
9579.000000;0.986276
9578.000000;0.985754
9577.000000;0.985669
9576.000000;0.985760
9575.000000;0.985680
9574.000000;0.985439
9573.000000;0.985391
9572.000000;0.985681
9571.000000;0.985923
9570.000000;0.985604
9569.000000;0.984652
9568.000000;0.983395
9567.000000;0.982083
9566.000000;0.980757
9565.000000;0.979607
9564.000000;0.979088
9563.000000;0.979456
9562.000000;0.980323
9561.000000;0.980869
9560.000000;0.980538
9559.000000;0.979443
9558.000000;0.978121
9557.000000;0.977042
9556.000000;0.976379
9555.000000;0.976067
9554.000000;0.975918
9553.000000;0.975673
9552.000000;0.975101
9551.000000;0.974185
9550.000000;0.973191
9549.000000;0.972492
9548.000000;0.972256
9547.000000;0.972350
9546.000000;0.972508
9545.000000;0.972575
9544.000000;0.972537
9543.000000;0.972381
9542.000000;0.972020
9541.000000;0.971378
9540.000000;0.970512
9539.000000;0.969568
9538.000000;0.968642
9537.000000;0.967784
9536.000000;0.967092
9535.000000;0.966719
9534.000000;0.966714
9533.000000;0.966920
9532.000000;0.967090
9531.000000;0.967047
9530.000000;0.966704
9529.000000;0.966053
9528.000000;0.965249
9527.000000;0.964589
9526.000000;0.964230
9525.000000;0.963961
9524.000000;0.963467
9523.000000;0.962825
9522.000000;0.962472
9521.000000;0.962600
9520.000000;0.962808
9519.000000;0.962553
9518.000000;0.961828
9517.000000;0.961141
9516.000000;0.960874
9515.000000;0.960860
9514.000000;0.960627
9513.000000;0.959943
9512.000000;0.959060
9511.000000;0.958476
9510.000000;0.958458
9509.000000;0.958764
9508.000000;0.958842
9507.000000;0.958341
9506.000000;0.957375
9505.000000;0.956316
9504.000000;0.955464
9503.000000;0.954989
9502.000000;0.954986
9501.000000;0.955366
9500.000000;0.955746
9499.000000;0.955681
9498.000000;0.955058
9497.000000;0.954131
9496.000000;0.953189
9495.000000;0.952347
9494.000000;0.951643
9493.000000;0.951150
9492.000000;0.950868
9491.000000;0.950661
9490.000000;0.950424
9489.000000;0.950260
9488.000000;0.950344
9487.000000;0.950623
9486.000000;0.950750
9485.000000;0.950386
9484.000000;0.949538
9483.000000;0.948531
9482.000000;0.947683
9481.000000;0.947041
9480.000000;0.946442
9479.000000;0.945779
9478.000000;0.945118
9477.000000;0.944582
9476.000000;0.944210
9475.000000;0.943967
9474.000000;0.943808
9473.000000;0.943690
9472.000000;0.943559
9471.000000;0.943377
9470.000000;0.943128
9469.000000;0.942779
9468.000000;0.942293
9467.000000;0.941727
9466.000000;0.941233
9465.000000;0.940882
9464.000000;0.940499
9463.000000;0.939803
9462.000000;0.938728
9461.000000;0.937569
9460.000000;0.936790
9459.000000;0.936687
9458.000000;0.937170
9457.000000;0.937836
9456.000000;0.938232
9455.000000;0.938093
9454.000000;0.937387
9453.000000;0.936234
9452.000000;0.934878
9451.000000;0.933679
9450.000000;0.932963
9449.000000;0.932792
9448.000000;0.932929
9447.000000;0.933062
9446.000000;0.932988
9445.000000;0.932640
9444.000000;0.932076
9443.000000;0.931489
9442.000000;0.931078
9441.000000;0.930827
9440.000000;0.930549
9439.000000;0.930191
9438.000000;0.929936
9437.000000;0.929895
9436.000000;0.929867
9435.000000;0.929568
9434.000000;0.929000
9433.000000;0.928414
9432.000000;0.927988
9431.000000;0.927662
9430.000000;0.927260
9429.000000;0.926616
9428.000000;0.925678
9427.000000;0.924643
9426.000000;0.923900
9425.000000;0.923688
9424.000000;0.923811
9423.000000;0.923859
9422.000000;0.923656
9421.000000;0.923344
9420.000000;0.923109
9419.000000;0.923018
9418.000000;0.923093
9417.000000;0.923301
9416.000000;0.923447
9415.000000;0.923286
9414.000000;0.922832
9413.000000;0.922365
9412.000000;0.922087
9411.000000;0.921923
9410.000000;0.921721
9409.000000;0.921441
9408.000000;0.921043
9407.000000;0.920391
9406.000000;0.919445
9405.000000;0.918427
9404.000000;0.917624
9403.000000;0.917089
9402.000000;0.916688
9401.000000;0.916346
9400.000000;0.916098
9399.000000;0.915891
9398.000000;0.915531
9397.000000;0.914906
9396.000000;0.914158
9395.000000;0.913552
9394.000000;0.913199
9393.000000;0.912999
9392.000000;0.912839
9391.000000;0.912756
9390.000000;0.912840
9389.000000;0.912962
9388.000000;0.912746
9387.000000;0.911927
9386.000000;0.910732
9385.000000;0.909774
9384.000000;0.909474
9383.000000;0.909648
9382.000000;0.909740
9381.000000;0.909438
9380.000000;0.908971
9379.000000;0.908776
9378.000000;0.908947
9377.000000;0.909065
9376.000000;0.908583
9375.000000;0.907356
9374.000000;0.905821
9373.000000;0.904659
9372.000000;0.904268
9371.000000;0.904505
9370.000000;0.904878
9369.000000;0.904990
9368.000000;0.904800
9367.000000;0.904502
9366.000000;0.904230
9365.000000;0.903939
9364.000000;0.903529
9363.000000;0.903003
9362.000000;0.902455
9361.000000;0.902009
9360.000000;0.901778
9359.000000;0.901809
9358.000000;0.901965
9357.000000;0.901940
9356.000000;0.901513
9355.000000;0.900797
9354.000000;0.900133
9353.000000;0.899736
9352.000000;0.899547
9351.000000;0.899424
9350.000000;0.899338
9349.000000;0.899294
9348.000000;0.899189
9347.000000;0.898850
9346.000000;0.898216
9345.000000;0.897389
9344.000000;0.896539
9343.000000;0.895785
9342.000000;0.895151
9341.000000;0.894569
9340.000000;0.893928
9339.000000;0.893152
9338.000000;0.892277
9337.000000;0.891480
9336.000000;0.891012
9335.000000;0.891061
9334.000000;0.891584
9333.000000;0.892284
9332.000000;0.892799
9331.000000;0.892936
9330.000000;0.892714
9329.000000;0.892248
9328.000000;0.891663
9327.000000;0.891082
9326.000000;0.890585
9325.000000;0.890198
9324.000000;0.889965
9323.000000;0.889958
9322.000000;0.890103
9321.000000;0.890082
9320.000000;0.889615
9319.000000;0.888819
9318.000000;0.888102
9317.000000;0.887658
9316.000000;0.887300
9315.000000;0.886816
9314.000000;0.886257
9313.000000;0.885733
9312.000000;0.885166
9311.000000;0.884457
9310.000000;0.883772
9309.000000;0.883433
9308.000000;0.883551
9307.000000;0.883900
9306.000000;0.884120
9305.000000;0.883999
9304.000000;0.883598
9303.000000;0.883205
9302.000000;0.883045
9301.000000;0.882977
9300.000000;0.882599
9299.000000;0.881769
9298.000000;0.880899
9297.000000;0.880515
9296.000000;0.880643
9295.000000;0.880809
9294.000000;0.880584
9293.000000;0.879941
9292.000000;0.879118
9291.000000;0.878380
9290.000000;0.877970
9289.000000;0.878049
9288.000000;0.878521
9287.000000;0.879009
9286.000000;0.879103
9285.000000;0.878649
9284.000000;0.877775
9283.000000;0.876734
9282.000000;0.875765
9281.000000;0.875044
9280.000000;0.874653
9279.000000;0.874531
9278.000000;0.874517
9277.000000;0.874490
9276.000000;0.874495
9275.000000;0.874660
9274.000000;0.874922
9273.000000;0.874923
9272.000000;0.874344
9271.000000;0.873347
9270.000000;0.872500
9269.000000;0.872180
9268.000000;0.872198
9267.000000;0.872108
9266.000000;0.871733
9265.000000;0.871219
9264.000000;0.870727
9263.000000;0.870300
9262.000000;0.869990
9261.000000;0.869873
9260.000000;0.869880
9259.000000;0.869775
9258.000000;0.869376
9257.000000;0.868725
9256.000000;0.868031
9255.000000;0.867509
9254.000000;0.867273
9253.000000;0.867259
9252.000000;0.867222
9251.000000;0.866900
9250.000000;0.866241
9249.000000;0.865468
9248.000000;0.864875
9247.000000;0.864608
9246.000000;0.864582
9245.000000;0.864590
9244.000000;0.864443
9243.000000;0.864085
9242.000000;0.863576
9241.000000;0.863023
9240.000000;0.862562
9239.000000;0.862365
9238.000000;0.862551
9237.000000;0.863010
9236.000000;0.863410
9235.000000;0.863465
9234.000000;0.863157
9233.000000;0.862644
9232.000000;0.862038
9231.000000;0.861367
9230.000000;0.860662
9229.000000;0.859984
9228.000000;0.859366
9227.000000;0.858839
9226.000000;0.858473
9225.000000;0.858325
9224.000000;0.858341
9223.000000;0.858377
9222.000000;0.858303
9221.000000;0.858076
9220.000000;0.857772
9219.000000;0.857565
9218.000000;0.857574
9217.000000;0.857651
9216.000000;0.857439
9215.000000;0.856746
9214.000000;0.855783
9213.000000;0.854938
9212.000000;0.854422
9211.000000;0.854215
9210.000000;0.854223
9209.000000;0.854291
9208.000000;0.854163
9207.000000;0.853665
9206.000000;0.852941
9205.000000;0.852358
9204.000000;0.852141
9203.000000;0.852211
9202.000000;0.852356
9201.000000;0.852408
9200.000000;0.852277
9199.000000;0.851963
9198.000000;0.851595
9197.000000;0.851359
9196.000000;0.851327
9195.000000;0.851423
9194.000000;0.851531
9193.000000;0.851539
9192.000000;0.851301
9191.000000;0.850714
9190.000000;0.849878
9189.000000;0.849083
9188.000000;0.848587
9187.000000;0.848426
9186.000000;0.848426
9185.000000;0.848337
9184.000000;0.847995
9183.000000;0.847453
9182.000000;0.846956
9181.000000;0.846706
9180.000000;0.846643
9179.000000;0.846509
9178.000000;0.846111
9177.000000;0.845487
9176.000000;0.844870
9175.000000;0.844572
9174.000000;0.844790
9173.000000;0.845356
9172.000000;0.845730
9171.000000;0.845425
9170.000000;0.844508
9169.000000;0.843543
9168.000000;0.843048
9167.000000;0.843106
9166.000000;0.843460
9165.000000;0.843804
9164.000000;0.843957
9163.000000;0.843907
9162.000000;0.843752
9161.000000;0.843517
9160.000000;0.843029
9159.000000;0.842128
9158.000000;0.841008
9157.000000;0.840169
9156.000000;0.839936
9155.000000;0.840131
9154.000000;0.840302
9153.000000;0.840160
9152.000000;0.839759
9151.000000;0.839342
9150.000000;0.839109
9149.000000;0.839073
9148.000000;0.839042
9147.000000;0.838775
9146.000000;0.838228
9145.000000;0.837609
9144.000000;0.837202
9143.000000;0.837156
9142.000000;0.837426
9141.000000;0.837787
9140.000000;0.837901
9139.000000;0.837522
9138.000000;0.836734
9137.000000;0.835935
9136.000000;0.835489
9135.000000;0.835436
9134.000000;0.835550
9133.000000;0.835600
9132.000000;0.835482
9131.000000;0.835182
9130.000000;0.834707
9129.000000;0.834095
9128.000000;0.833433
9127.000000;0.832846
9126.000000;0.832428
9125.000000;0.832146
9124.000000;0.831839
9123.000000;0.831390
9122.000000;0.830901
9121.000000;0.830627
9120.000000;0.830685
9119.000000;0.830931
9118.000000;0.831129
9117.000000;0.831171
9116.000000;0.831085
9115.000000;0.830910
9114.000000;0.830647
9113.000000;0.830291
9112.000000;0.829853
9111.000000;0.829351
9110.000000;0.828818
9109.000000;0.828314
9108.000000;0.827881
9107.000000;0.827509
9106.000000;0.827179
9105.000000;0.826920
9104.000000;0.826800
9103.000000;0.826847
9102.000000;0.826983
9101.000000;0.827065
9100.000000;0.827022
9099.000000;0.826932
9098.000000;0.826910
9097.000000;0.826925
9096.000000;0.826805
9095.000000;0.826466
9094.000000;0.826044
9093.000000;0.825722
9092.000000;0.825498
9091.000000;0.825239
9090.000000;0.824893
9089.000000;0.824513
9088.000000;0.824106
9087.000000;0.823640
9086.000000;0.823191
9085.000000;0.822925
9084.000000;0.822875
9083.000000;0.822867
9082.000000;0.822737
9081.000000;0.822526
9080.000000;0.822379
9079.000000;0.822334
9078.000000;0.822295
9077.000000;0.822141
9076.000000;0.821816
9075.000000;0.821372
9074.000000;0.820972
9073.000000;0.820758
9072.000000;0.820683
9071.000000;0.820535
9070.000000;0.820212
9069.000000;0.819861
9068.000000;0.819646
9067.000000;0.819480
9066.000000;0.819128
9065.000000;0.818569
9064.000000;0.818079
9063.000000;0.817911
9062.000000;0.817997
9061.000000;0.818050
9060.000000;0.817881
9059.000000;0.817532
9058.000000;0.817135
9057.000000;0.816774
9056.000000;0.816504
9055.000000;0.816373
9054.000000;0.816340
9053.000000;0.816220
9052.000000;0.815858
9051.000000;0.815338
9050.000000;0.814926
9049.000000;0.814772
9048.000000;0.814781
9047.000000;0.814818
9046.000000;0.814882
9045.000000;0.814972
9044.000000;0.814925
9043.000000;0.814562
9042.000000;0.813954
9041.000000;0.813358
9040.000000;0.812907
9039.000000;0.812537
9038.000000;0.812201
9037.000000;0.811986
9036.000000;0.811941
9035.000000;0.811971
9034.000000;0.811965
9033.000000;0.811913
9032.000000;0.811797
9031.000000;0.811511
9030.000000;0.811007
9029.000000;0.810457
9028.000000;0.810129
9027.000000;0.810136
9026.000000;0.810363
9025.000000;0.810599
9024.000000;0.810667
9023.000000;0.810457
9022.000000;0.809961
9021.000000;0.809282
9020.000000;0.808590
9019.000000;0.808036
9018.000000;0.807712
9017.000000;0.807645
9016.000000;0.807768
9015.000000;0.807915
9014.000000;0.807884
9013.000000;0.807566
9012.000000;0.807051
9011.000000;0.806612
9010.000000;0.806510
9009.000000;0.806726
9008.000000;0.806923
9007.000000;0.806786
9006.000000;0.806374
9005.000000;0.806025
9004.000000;0.805910
9003.000000;0.805842
9002.000000;0.805596
9001.000000;0.805243
9000.000000;0.805034
8999.000000;0.805033
8998.000000;0.805034
8997.000000;0.804823
8996.000000;0.804383
8995.000000;0.803855
8994.000000;0.803390
8993.000000;0.803072
8992.000000;0.802903
8991.000000;0.802822
8990.000000;0.802763
8989.000000;0.802683
8988.000000;0.802534
8987.000000;0.802240
8986.000000;0.801782
8985.000000;0.801251
8984.000000;0.800800
8983.000000;0.800538
8982.000000;0.800501
8981.000000;0.800645
8980.000000;0.800791
8979.000000;0.800685
8978.000000;0.800255
8977.000000;0.799784
8976.000000;0.799653
8975.000000;0.799887
8974.000000;0.800094
8973.000000;0.799910
8972.000000;0.799400
8971.000000;0.798912
8970.000000;0.798658
8969.000000;0.798565
8968.000000;0.798440
8967.000000;0.798162
8966.000000;0.797713
8965.000000;0.797185
8964.000000;0.796753
8963.000000;0.796544
8962.000000;0.796488
8961.000000;0.796379
8960.000000;0.796112
8959.000000;0.795783
8958.000000;0.795527
8957.000000;0.795372
8956.000000;0.795306
8955.000000;0.795394
8954.000000;0.795681
8953.000000;0.796031
8952.000000;0.796177
8951.000000;0.795984
8950.000000;0.795592
8949.000000;0.795267
8948.000000;0.795143
8947.000000;0.795112
8946.000000;0.794937
8945.000000;0.794489
8944.000000;0.793910
8943.000000;0.793507
8942.000000;0.793436
8941.000000;0.793512
8940.000000;0.793417
8939.000000;0.793063
8938.000000;0.792674
8937.000000;0.792495
8936.000000;0.792525
8935.000000;0.792583
8934.000000;0.792522
8933.000000;0.792333
8932.000000;0.792098
8931.000000;0.791912
8930.000000;0.791824
8929.000000;0.791804
8928.000000;0.791773
8927.000000;0.791658
8926.000000;0.791405
8925.000000;0.790961
8924.000000;0.790361
8923.000000;0.789812
8922.000000;0.789550
8921.000000;0.789576
8920.000000;0.789638
8919.000000;0.789550
8918.000000;0.789392
8917.000000;0.789330
8916.000000;0.789365
8915.000000;0.789394
8914.000000;0.789388
8913.000000;0.789347
8912.000000;0.789189
8911.000000;0.788872
8910.000000;0.788547
8909.000000;0.788408
8908.000000;0.788407
8907.000000;0.788318
8906.000000;0.788058
8905.000000;0.787783
8904.000000;0.787615
8903.000000;0.787474
8902.000000;0.787211
8901.000000;0.786802
8900.000000;0.786335
8899.000000;0.785956
8898.000000;0.785809
8897.000000;0.785922
8896.000000;0.786090
8895.000000;0.786045
8894.000000;0.785771
8893.000000;0.785504
8892.000000;0.785360
8891.000000;0.785182
8890.000000;0.784830
8889.000000;0.784462
8888.000000;0.784340
8887.000000;0.784503
8886.000000;0.784754
8885.000000;0.784919
8884.000000;0.784941
8883.000000;0.784818
8882.000000;0.784589
8881.000000;0.784367
8880.000000;0.784234
8879.000000;0.784114
8878.000000;0.783865
8877.000000;0.783489
8876.000000;0.783129
8875.000000;0.782898
8874.000000;0.782795
8873.000000;0.782790
8872.000000;0.782853
8871.000000;0.782907
8870.000000;0.782856
8869.000000;0.782706
8868.000000;0.782585
8867.000000;0.782603
8866.000000;0.782741
8865.000000;0.782880
8864.000000;0.782895
8863.000000;0.782721
8862.000000;0.782411
8861.000000;0.782104
8860.000000;0.781897
8859.000000;0.781738
8858.000000;0.781517
8857.000000;0.781219
8856.000000;0.780937
8855.000000;0.780745
8854.000000;0.780671
8853.000000;0.780746
8852.000000;0.780949
8851.000000;0.781107
8850.000000;0.780978
8849.000000;0.780507
8848.000000;0.779905
8847.000000;0.779422
8846.000000;0.779120
8845.000000;0.778912
8844.000000;0.778725
8843.000000;0.778556
8842.000000;0.778441
8841.000000;0.778438
8840.000000;0.778586
8839.000000;0.778815
8838.000000;0.778960
8837.000000;0.778924
8836.000000;0.778758
8835.000000;0.778532
8834.000000;0.778234
8833.000000;0.777888
8832.000000;0.777662
8831.000000;0.777723
8830.000000;0.777997
8829.000000;0.778238
8828.000000;0.778297
8827.000000;0.778201
8826.000000;0.777988
8825.000000;0.777661
8824.000000;0.777330
8823.000000;0.777216
8822.000000;0.777399
8821.000000;0.777688
8820.000000;0.777857
8819.000000;0.777895
8818.000000;0.777917
8817.000000;0.777940
8816.000000;0.777911
8815.000000;0.777922
8814.000000;0.778176
8813.000000;0.778711
8812.000000;0.779259
8811.000000;0.779472
8810.000000;0.779225
8809.000000;0.778677
8808.000000;0.778102
8807.000000;0.777696
8806.000000;0.777494
8805.000000;0.777412
8804.000000;0.777380
8803.000000;0.777435
8802.000000;0.777641
8801.000000;0.777946
8800.000000;0.778198
8799.000000;0.778309
8798.000000;0.778329
8797.000000;0.778320
8796.000000;0.778256
8795.000000;0.778113
8794.000000;0.777974
8793.000000;0.777953
8792.000000;0.778052
8791.000000;0.778153
8790.000000;0.778139
8789.000000;0.777993
8788.000000;0.777807
8787.000000;0.777746
8786.000000;0.777960
8785.000000;0.778432
8784.000000;0.778921
8783.000000;0.779126
8782.000000;0.778938
8781.000000;0.778505
8780.000000;0.778089
8779.000000;0.777886
8778.000000;0.777952
8777.000000;0.778191
8776.000000;0.778403
8775.000000;0.778433
8774.000000;0.778288
8773.000000;0.778102
8772.000000;0.777964
8771.000000;0.777869
8770.000000;0.777840
8769.000000;0.778003
8768.000000;0.778456
8767.000000;0.779091
8766.000000;0.779626
8765.000000;0.779840
8764.000000;0.779775
8763.000000;0.779692
8762.000000;0.779833
8761.000000;0.780188
8760.000000;0.780505
8759.000000;0.780559
8758.000000;0.780378
8757.000000;0.780171
8756.000000;0.780040
8755.000000;0.779892
8754.000000;0.779631
8753.000000;0.779346
8752.000000;0.779198
8751.000000;0.779202
8750.000000;0.779246
8749.000000;0.779275
8748.000000;0.779353
8747.000000;0.779537
8746.000000;0.779800
8745.000000;0.780107
8744.000000;0.780459
8743.000000;0.780813
8742.000000;0.781057
8741.000000;0.781132
8740.000000;0.781148
8739.000000;0.781276
8738.000000;0.781554
8737.000000;0.781848
8736.000000;0.782008
8735.000000;0.782007
8734.000000;0.781933
8733.000000;0.781874
8732.000000;0.781845
8731.000000;0.781802
8730.000000;0.781728
8729.000000;0.781697
8728.000000;0.781795
8727.000000;0.781979
8726.000000;0.782066
8725.000000;0.781949
8724.000000;0.781761
8723.000000;0.781755
8722.000000;0.782036
8721.000000;0.782477
8720.000000;0.782880
8719.000000;0.783123
8718.000000;0.783150
8717.000000;0.782943
8716.000000;0.782599
8715.000000;0.782340
8714.000000;0.782336
8713.000000;0.782513
8712.000000;0.782630
8711.000000;0.782545
8710.000000;0.782367
8709.000000;0.782333
8708.000000;0.782577
8707.000000;0.783022
8706.000000;0.783432
8705.000000;0.783568
8704.000000;0.783341
8703.000000;0.782880
8702.000000;0.782479
8701.000000;0.782421
8700.000000;0.782784
8699.000000;0.783369
8698.000000;0.783815
8697.000000;0.783854
8696.000000;0.783485
8695.000000;0.782944
8694.000000;0.782522
8693.000000;0.782403
8692.000000;0.782608
8691.000000;0.783007
8690.000000;0.783391
8689.000000;0.783618
8688.000000;0.783737
8687.000000;0.783907
8686.000000;0.784159
8685.000000;0.784320
8684.000000;0.784194
8683.000000;0.783785
8682.000000;0.783291
8681.000000;0.782922
8680.000000;0.782767
8679.000000;0.782791
8678.000000;0.782876
8677.000000;0.782915
8676.000000;0.782912
8675.000000;0.782972
8674.000000;0.783118
8673.000000;0.783202
8672.000000;0.783078
8671.000000;0.782840
8670.000000;0.782751
8669.000000;0.782936
8668.000000;0.783237
8667.000000;0.783392
8666.000000;0.783297
8665.000000;0.783056
8664.000000;0.782845
8663.000000;0.782750
8662.000000;0.782689
8661.000000;0.782497
8660.000000;0.782134
8659.000000;0.781788
8658.000000;0.781701
8657.000000;0.781894
8656.000000;0.782158
8655.000000;0.782280
8654.000000;0.782193
8653.000000;0.781895
8652.000000;0.781396
8651.000000;0.780822
8650.000000;0.780431
8649.000000;0.780380
8648.000000;0.780515
8647.000000;0.780522
8646.000000;0.780274
8645.000000;0.779939
8644.000000;0.779748
8643.000000;0.779736
8642.000000;0.779728
8641.000000;0.779545
8640.000000;0.779183
8639.000000;0.778830
8638.000000;0.778694
8637.000000;0.778781
8636.000000;0.778867
8635.000000;0.778716
8634.000000;0.778316
8633.000000;0.777871
8632.000000;0.777577
8631.000000;0.777492
8630.000000;0.777586
8629.000000;0.777851
8628.000000;0.778253
8627.000000;0.778641
8626.000000;0.778785
8625.000000;0.778572
8624.000000;0.778119
8623.000000;0.777639
8622.000000;0.777223
8621.000000;0.776839
8620.000000;0.776499
8619.000000;0.776316
8618.000000;0.776319
8617.000000;0.776344
8616.000000;0.776212
8615.000000;0.775955
8614.000000;0.775730
8613.000000;0.775553
8612.000000;0.775275
8611.000000;0.774845
8610.000000;0.774438
8609.000000;0.774281
8608.000000;0.774418
8607.000000;0.774684
8606.000000;0.774838
8605.000000;0.774707
8604.000000;0.774310
8603.000000;0.773878
8602.000000;0.773636
8601.000000;0.773562
8600.000000;0.773454
8599.000000;0.773277
8598.000000;0.773253
8597.000000;0.773500
8596.000000;0.773772
8595.000000;0.773715
8594.000000;0.773279
8593.000000;0.772701
8592.000000;0.772178
8591.000000;0.771778
8590.000000;0.771602
8589.000000;0.771767
8588.000000;0.772154
8587.000000;0.772383
8586.000000;0.772161
8585.000000;0.771567
8584.000000;0.770920
8583.000000;0.770475
8582.000000;0.770312
8581.000000;0.770399
8580.000000;0.770619
8579.000000;0.770765
8578.000000;0.770648
8577.000000;0.770261
8576.000000;0.769792
8575.000000;0.769473
8574.000000;0.769410
8573.000000;0.769533
8572.000000;0.769671
8571.000000;0.769694
8570.000000;0.769595
8569.000000;0.769425
8568.000000;0.769193
8567.000000;0.768876
8566.000000;0.768526
8565.000000;0.768264
8564.000000;0.768147
8563.000000;0.768075
8562.000000;0.767882
8561.000000;0.767461
8560.000000;0.766826
8559.000000;0.766107
8558.000000;0.765539
8557.000000;0.765342
8556.000000;0.765526
8555.000000;0.765820
8554.000000;0.765906
8553.000000;0.765714
8552.000000;0.765438
8551.000000;0.765259
8550.000000;0.765148
8549.000000;0.764975
8548.000000;0.764734
8547.000000;0.764576
8546.000000;0.764616
8545.000000;0.764763
8544.000000;0.764770
8543.000000;0.764469
8542.000000;0.763935
8541.000000;0.763449
8540.000000;0.763254
8539.000000;0.763356
8538.000000;0.763525
8537.000000;0.763521
8536.000000;0.763275
8535.000000;0.762884
8534.000000;0.762467
8533.000000;0.762071
8532.000000;0.761692
8531.000000;0.761310
8530.000000;0.760896
8529.000000;0.760440
8528.000000;0.760042
8527.000000;0.759889
8526.000000;0.760082
8525.000000;0.760492
8524.000000;0.760830
8523.000000;0.760884
8522.000000;0.760645
8521.000000;0.760231
8520.000000;0.759789
8519.000000;0.759448
8518.000000;0.759298
8517.000000;0.759321
8516.000000;0.759392
8515.000000;0.759371
8514.000000;0.759183
8513.000000;0.758821
8512.000000;0.758345
8511.000000;0.757891
8510.000000;0.757606
8509.000000;0.757496
8508.000000;0.757378
8507.000000;0.757074
8506.000000;0.756615
8505.000000;0.756202
8504.000000;0.755982
8503.000000;0.755921
8502.000000;0.755879
8501.000000;0.755751
8500.000000;0.755539
8499.000000;0.755329
8498.000000;0.755214
8497.000000;0.755189
8496.000000;0.755149
8495.000000;0.755029
8494.000000;0.754919
8493.000000;0.754960
8492.000000;0.755136
8491.000000;0.755254
8490.000000;0.755158
8489.000000;0.754873
8488.000000;0.754504
8487.000000;0.754081
8486.000000;0.753565
8485.000000;0.752977
8484.000000;0.752420
8483.000000;0.751986
8482.000000;0.751707
8481.000000;0.751588
8480.000000;0.751631
8479.000000;0.751782
8478.000000;0.751910
8477.000000;0.751890
8476.000000;0.751704
8475.000000;0.751431
8474.000000;0.751148
8473.000000;0.750864
8472.000000;0.750572
8471.000000;0.750343
8470.000000;0.750299
8469.000000;0.750483
8468.000000;0.750784
8467.000000;0.751010
8466.000000;0.751042
8465.000000;0.750905
8464.000000;0.750708
8463.000000;0.750543
8462.000000;0.750406
8461.000000;0.750189
8460.000000;0.749779
8459.000000;0.749207
8458.000000;0.748684
8457.000000;0.748417
8456.000000;0.748376
8455.000000;0.748298
8454.000000;0.747964
8453.000000;0.747442
8452.000000;0.747025
8451.000000;0.746953
8450.000000;0.747211
8449.000000;0.747570
8448.000000;0.747765
8447.000000;0.747670
8446.000000;0.747331
8445.000000;0.746886
8444.000000;0.746444
8443.000000;0.746069
8442.000000;0.745820
8441.000000;0.745736
8440.000000;0.745737
8439.000000;0.745634
8438.000000;0.745312
8437.000000;0.744880
8436.000000;0.744553
8435.000000;0.744407
8434.000000;0.744331
8433.000000;0.744216
8432.000000;0.744090
8431.000000;0.744032
8430.000000;0.744020
8429.000000;0.743934
8428.000000;0.743696
8427.000000;0.743350
8426.000000;0.743011
8425.000000;0.742769
8424.000000;0.742628
8423.000000;0.742516
8422.000000;0.742370
8421.000000;0.742213
8420.000000;0.742120
8419.000000;0.742099
8418.000000;0.742055
8417.000000;0.741882
8416.000000;0.741563
8415.000000;0.741142
8414.000000;0.740677
8413.000000;0.740279
8412.000000;0.740116
8411.000000;0.740271
8410.000000;0.740573
8409.000000;0.740696
8408.000000;0.740448
8407.000000;0.739933
8406.000000;0.739406
8405.000000;0.739047
8404.000000;0.738883
8403.000000;0.738823
8402.000000;0.738718
8401.000000;0.738444
8400.000000;0.738024
8399.000000;0.737631
8398.000000;0.737422
8397.000000;0.737380
8396.000000;0.737369
8395.000000;0.737304
8394.000000;0.737202
8393.000000;0.737083
8392.000000;0.736938
8391.000000;0.736787
8390.000000;0.736699
8389.000000;0.736696
8388.000000;0.736695
8387.000000;0.736586
8386.000000;0.736355
8385.000000;0.736073
8384.000000;0.735808
8383.000000;0.735568
8382.000000;0.735333
8381.000000;0.735110
8380.000000;0.734923
8379.000000;0.734781
8378.000000;0.734673
8377.000000;0.734597
8376.000000;0.734555
8375.000000;0.734488
8374.000000;0.734254
8373.000000;0.733746
8372.000000;0.733058
8371.000000;0.732464
8370.000000;0.732197
8369.000000;0.732254
8368.000000;0.732435
8367.000000;0.732548
8366.000000;0.732522
8365.000000;0.732385
8364.000000;0.732204
8363.000000;0.732043
8362.000000;0.731914
8361.000000;0.731761
8360.000000;0.731525
8359.000000;0.731223
8358.000000;0.730908
8357.000000;0.730568
8356.000000;0.730146
8355.000000;0.729707
8354.000000;0.729477
8353.000000;0.729622
8352.000000;0.730009
8351.000000;0.730270
8350.000000;0.730145
8349.000000;0.729723
8348.000000;0.729322
8347.000000;0.729140
8346.000000;0.729068
8345.000000;0.728863
8344.000000;0.728451
8343.000000;0.728029
8342.000000;0.727838
8341.000000;0.727887
8340.000000;0.727930
8339.000000;0.727719
8338.000000;0.727236
8337.000000;0.726672
8336.000000;0.726228
8335.000000;0.725947
8334.000000;0.725750
8333.000000;0.725578
8332.000000;0.725458
8331.000000;0.725430
8330.000000;0.725444
8329.000000;0.725376
8328.000000;0.725165
8327.000000;0.724882
8326.000000;0.724650
8325.000000;0.724536
8324.000000;0.724525
8323.000000;0.724545
8322.000000;0.724472
8321.000000;0.724187
8320.000000;0.723685
8319.000000;0.723114
8318.000000;0.722640
8317.000000;0.722279
8316.000000;0.721945
8315.000000;0.721631
8314.000000;0.721428
8313.000000;0.721343
8312.000000;0.721221
8311.000000;0.720924
8310.000000;0.720550
8309.000000;0.720355
8308.000000;0.720464
8307.000000;0.720727
8306.000000;0.720872
8305.000000;0.720752
8304.000000;0.720425
8303.000000;0.720033
8302.000000;0.719666
8301.000000;0.719342
8300.000000;0.719057
8299.000000;0.718816
8298.000000;0.718612
8297.000000;0.718424
8296.000000;0.718254
8295.000000;0.718131
8294.000000;0.718054
8293.000000;0.717968
8292.000000;0.717821
8291.000000;0.717633
8290.000000;0.717453
8289.000000;0.717266
8288.000000;0.716992
8287.000000;0.716605
8286.000000;0.716187
8285.000000;0.715833
8284.000000;0.715521
8283.000000;0.715140
8282.000000;0.714652
8281.000000;0.714200
8280.000000;0.714008
8279.000000;0.714147
8278.000000;0.714422
8277.000000;0.714521
8276.000000;0.714301
8275.000000;0.713918
8274.000000;0.713643
8273.000000;0.713567
8272.000000;0.713533
8271.000000;0.713332
8270.000000;0.712932
8269.000000;0.712502
8268.000000;0.712234
8267.000000;0.712183
8266.000000;0.712237
8265.000000;0.712218
8264.000000;0.712015
8263.000000;0.711648
8262.000000;0.711250
8261.000000;0.710984
8260.000000;0.710934
8259.000000;0.711050
8258.000000;0.711192
8257.000000;0.711242
8256.000000;0.711163
8255.000000;0.710938
8254.000000;0.710515
8253.000000;0.709888
8252.000000;0.709216
8251.000000;0.708755
8250.000000;0.708604
8249.000000;0.708606
8248.000000;0.708540
8247.000000;0.708356
8246.000000;0.708132
8245.000000;0.707889
8244.000000;0.707574
8243.000000;0.707210
8242.000000;0.706924
8241.000000;0.706779
8240.000000;0.706663
8239.000000;0.706432
8238.000000;0.706093
8237.000000;0.705783
8236.000000;0.705595
8235.000000;0.705489
8234.000000;0.705358
8233.000000;0.705149
8232.000000;0.704901
8231.000000;0.704686
8230.000000;0.704548
8229.000000;0.704483
8228.000000;0.704470
8227.000000;0.704490
8226.000000;0.704509
8225.000000;0.704459
8224.000000;0.704280
8223.000000;0.703973
8222.000000;0.703600
8221.000000;0.703246
8220.000000;0.702972
8219.000000;0.702785
8218.000000;0.702613
8217.000000;0.702349
8216.000000;0.701958
8215.000000;0.701531
8214.000000;0.701176
8213.000000;0.700904
8212.000000;0.700652
8211.000000;0.700402
8210.000000;0.700198
8209.000000;0.700057
8208.000000;0.699941
8207.000000;0.699834
8206.000000;0.699744
8205.000000;0.699626
8204.000000;0.699383
8203.000000;0.698982
8202.000000;0.698529
8201.000000;0.698163
8200.000000;0.697929
8199.000000;0.697804
8198.000000;0.697781
8197.000000;0.697852
8196.000000;0.697914
8195.000000;0.697797
8194.000000;0.697422
8193.000000;0.696895
8192.000000;0.696423
8191.000000;0.696123
8190.000000;0.695953
8189.000000;0.695790
8188.000000;0.695558
8187.000000;0.695245
8186.000000;0.694868
8185.000000;0.694467
8184.000000;0.694154
8183.000000;0.694089
8182.000000;0.694329
8181.000000;0.694701
8180.000000;0.694866
8179.000000;0.694582
8178.000000;0.693903
8177.000000;0.693134
8176.000000;0.692601
8175.000000;0.692418
8174.000000;0.692446
8173.000000;0.692460
8172.000000;0.692360
8171.000000;0.692193
8170.000000;0.692004
8169.000000;0.691754
8168.000000;0.691410
8167.000000;0.691043
8166.000000;0.690743
8165.000000;0.690478
8164.000000;0.690151
8163.000000;0.689780
8162.000000;0.689521
8161.000000;0.689462
8160.000000;0.689499
8159.000000;0.689454
8158.000000;0.689253
8157.000000;0.688956
8156.000000;0.688651
8155.000000;0.688377
8154.000000;0.688145
8153.000000;0.687952
8152.000000;0.687784
8151.000000;0.687619
8150.000000;0.687432
8149.000000;0.687209
8148.000000;0.686967
8147.000000;0.686754
8146.000000;0.686588
8145.000000;0.686414
8144.000000;0.686156
8143.000000;0.685819
8142.000000;0.685497
8141.000000;0.685280
8140.000000;0.685176
8139.000000;0.685121
8138.000000;0.685028
8137.000000;0.684830
8136.000000;0.684525
8135.000000;0.684191
8134.000000;0.683923
8133.000000;0.683730
8132.000000;0.683528
8131.000000;0.683226
8130.000000;0.682805
8129.000000;0.682314
8128.000000;0.681857
8127.000000;0.681564
8126.000000;0.681513
8125.000000;0.681647
8124.000000;0.681813
8123.000000;0.681900
8122.000000;0.681884
8121.000000;0.681751
8120.000000;0.681467
8119.000000;0.681075
8118.000000;0.680718
8117.000000;0.680488
8116.000000;0.680317
8115.000000;0.680062
8114.000000;0.679689
8113.000000;0.679281
8112.000000;0.678911
8111.000000;0.678586
8110.000000;0.678310
8109.000000;0.678127
8108.000000;0.678068
8107.000000;0.678069
8106.000000;0.678001
8105.000000;0.677773
8104.000000;0.677415
8103.000000;0.677056
8102.000000;0.676802
8101.000000;0.676646
8100.000000;0.676507
8099.000000;0.676339
8098.000000;0.676161
8097.000000;0.675983
8096.000000;0.675754
8095.000000;0.675416
8094.000000;0.674973
8093.000000;0.674490
8092.000000;0.674062
8091.000000;0.673800
8090.000000;0.673777
8089.000000;0.673929
8088.000000;0.674045
8087.000000;0.673928
8086.000000;0.673554
8085.000000;0.673064
8084.000000;0.672629
8083.000000;0.672355
8082.000000;0.672274
8081.000000;0.672326
8080.000000;0.672360
8079.000000;0.672213
8078.000000;0.671835
8077.000000;0.671318
8076.000000;0.670813
8075.000000;0.670442
8074.000000;0.670251
8073.000000;0.670180
8072.000000;0.670082
8071.000000;0.669832
8070.000000;0.669444
8069.000000;0.669062
8068.000000;0.668802
8067.000000;0.668641
8066.000000;0.668475
8065.000000;0.668261
8064.000000;0.668054
8063.000000;0.667907
8062.000000;0.667774
8061.000000;0.667540
8060.000000;0.667144
8059.000000;0.666676
8058.000000;0.666329
8057.000000;0.666220
8056.000000;0.666280
8055.000000;0.666315
8054.000000;0.666181
8053.000000;0.665890
8052.000000;0.665565
8051.000000;0.665319
8050.000000;0.665190
8049.000000;0.665132
8048.000000;0.665049
8047.000000;0.664866
8046.000000;0.664588
8045.000000;0.664291
8044.000000;0.664045
8043.000000;0.663863
8042.000000;0.663731
8041.000000;0.663638
8040.000000;0.663547
8039.000000;0.663357
8038.000000;0.662973
8037.000000;0.662441
8036.000000;0.661946
8035.000000;0.661655
8034.000000;0.661571
8033.000000;0.661557
8032.000000;0.661487
8031.000000;0.661336
8030.000000;0.661139
8029.000000;0.660921
8028.000000;0.660662
8027.000000;0.660338
8026.000000;0.659969
8025.000000;0.659641
8024.000000;0.659439
8023.000000;0.659360
8022.000000;0.659293
8021.000000;0.659135
8020.000000;0.658892
8019.000000;0.658642
8018.000000;0.658421
8017.000000;0.658185
8016.000000;0.657876
8015.000000;0.657483
8014.000000;0.657053
8013.000000;0.656670
8012.000000;0.656418
8011.000000;0.656302
8010.000000;0.656228
8009.000000;0.656103
8008.000000;0.655928
8007.000000;0.655746
8006.000000;0.655509
8005.000000;0.655119
8004.000000;0.654616
8003.000000;0.654207
8002.000000;0.654040
8001.000000;0.654050
8000.000000;0.654080
7999.000000;0.654062
7998.000000;0.653999
7997.000000;0.653838
7996.000000;0.653509
7995.000000;0.653069
7994.000000;0.652679
7993.000000;0.652436
7992.000000;0.652280
7991.000000;0.652084
7990.000000;0.651782
7989.000000;0.651418
7988.000000;0.651121
7987.000000;0.651022
7986.000000;0.651129
7985.000000;0.651282
7984.000000;0.651294
7983.000000;0.651116
7982.000000;0.650818
7981.000000;0.650441
7980.000000;0.649958
7979.000000;0.649384
7978.000000;0.648854
7977.000000;0.648519
7976.000000;0.648427
7975.000000;0.648485
7974.000000;0.648528
7973.000000;0.648425
7972.000000;0.648171
7971.000000;0.647887
7970.000000;0.647685
7969.000000;0.647528
7968.000000;0.647280
7967.000000;0.646897
7966.000000;0.646496
7965.000000;0.646216
7964.000000;0.646070
7963.000000;0.645966
7962.000000;0.645808
7961.000000;0.645565
7960.000000;0.645248
7959.000000;0.644882
7958.000000;0.644490
7957.000000;0.644099
7956.000000;0.643745
7955.000000;0.643455
7954.000000;0.643211
7953.000000;0.642971
7952.000000;0.642740
7951.000000;0.642581
7950.000000;0.642512
7949.000000;0.642444
7948.000000;0.642292
7947.000000;0.642090
7946.000000;0.641914
7945.000000;0.641714
7944.000000;0.641355
7943.000000;0.640822
7942.000000;0.640272
7941.000000;0.639857
7940.000000;0.639568
7939.000000;0.639308
7938.000000;0.639046
7937.000000;0.638819
7936.000000;0.638662
7935.000000;0.638568
7934.000000;0.638505
7933.000000;0.638408
7932.000000;0.638203
7931.000000;0.637882
7930.000000;0.637529
7929.000000;0.637244
7928.000000;0.637052
7927.000000;0.636917
7926.000000;0.636818
7925.000000;0.636760
7924.000000;0.636731
7923.000000;0.636685
7922.000000;0.636573
7921.000000;0.636392
7920.000000;0.636189
7919.000000;0.636010
7918.000000;0.635825
7917.000000;0.635536
7916.000000;0.635108
7915.000000;0.634644
7914.000000;0.634302
7913.000000;0.634123
7912.000000;0.634015
7911.000000;0.633888
7910.000000;0.633720
7909.000000;0.633499
7908.000000;0.633179
7907.000000;0.632770
7906.000000;0.632380
7905.000000;0.632128
7904.000000;0.632027
7903.000000;0.632005
7902.000000;0.631986
7901.000000;0.631906
7900.000000;0.631704
7899.000000;0.631366
7898.000000;0.630978
7897.000000;0.630670
7896.000000;0.630484
7895.000000;0.630342
7894.000000;0.630132
7893.000000;0.629833
7892.000000;0.629515
7891.000000;0.629252
7890.000000;0.629043
7889.000000;0.628839
7888.000000;0.628625
7887.000000;0.628430
7886.000000;0.628255
7885.000000;0.628051
7884.000000;0.627799
7883.000000;0.627565
7882.000000;0.627433
7881.000000;0.627401
7880.000000;0.627395
7879.000000;0.627358
7878.000000;0.627260
7877.000000;0.627064
7876.000000;0.626765
7875.000000;0.626434
7874.000000;0.626146
7873.000000;0.625854
7872.000000;0.625451
7871.000000;0.624954
7870.000000;0.624526
7869.000000;0.624275
7868.000000;0.624135
7867.000000;0.623990
7866.000000;0.623818
7865.000000;0.623680
7864.000000;0.623609
7863.000000;0.623590
7862.000000;0.623584
7861.000000;0.623515
7860.000000;0.623293
7859.000000;0.622919
7858.000000;0.622520
7857.000000;0.622221
7856.000000;0.622021
7855.000000;0.621840
7854.000000;0.621647
7853.000000;0.621478
7852.000000;0.621355
7851.000000;0.621248
7850.000000;0.621108
7849.000000;0.620887
7848.000000;0.620557
7847.000000;0.620154
7846.000000;0.619775
7845.000000;0.619490
7844.000000;0.619281
7843.000000;0.619104
7842.000000;0.618977
7841.000000;0.618937
7840.000000;0.618927
7839.000000;0.618821
7838.000000;0.618573
7837.000000;0.618278
7836.000000;0.618068
7835.000000;0.617982
7834.000000;0.617967
7833.000000;0.617959
7832.000000;0.617935
7831.000000;0.617884
7830.000000;0.617773
7829.000000;0.617562
7828.000000;0.617267
7827.000000;0.616975
7826.000000;0.616774
7825.000000;0.616663
7824.000000;0.616539
7823.000000;0.616298
7822.000000;0.615925
7821.000000;0.615496
7820.000000;0.615115
7819.000000;0.614861
7818.000000;0.614764
7817.000000;0.614785
7816.000000;0.614831
7815.000000;0.614802
7814.000000;0.614636
7813.000000;0.614346
7812.000000;0.614012
7811.000000;0.613731
7810.000000;0.613540
7809.000000;0.613391
7808.000000;0.613214
7807.000000;0.612995
7806.000000;0.612763
7805.000000;0.612526
7804.000000;0.612269
7803.000000;0.612000
7802.000000;0.611755
7801.000000;0.611539
7800.000000;0.611326
7799.000000;0.611120
7798.000000;0.610963
7797.000000;0.610873
7796.000000;0.610809
7795.000000;0.610719
7794.000000;0.610591
7793.000000;0.610425
7792.000000;0.610231
7791.000000;0.610043
7790.000000;0.609911
7789.000000;0.609832
7788.000000;0.609743
7787.000000;0.609587
7786.000000;0.609373
7785.000000;0.609144
7784.000000;0.608919
7783.000000;0.608692
7782.000000;0.608450
7781.000000;0.608187
7780.000000;0.607937
7779.000000;0.607775
7778.000000;0.607739
7777.000000;0.607733
7776.000000;0.607605
7775.000000;0.607326
7774.000000;0.607033
7773.000000;0.606855
7772.000000;0.606766
7771.000000;0.606651
7770.000000;0.606469
7769.000000;0.606266
7768.000000;0.606091
7767.000000;0.605951
7766.000000;0.605839
7765.000000;0.605734
7764.000000;0.605590
7763.000000;0.605362
7762.000000;0.605045
7761.000000;0.604686
7760.000000;0.604362
7759.000000;0.604160
7758.000000;0.604119
7757.000000;0.604165
7756.000000;0.604148
7755.000000;0.603993
7754.000000;0.603785
7753.000000;0.603644
7752.000000;0.603578
7751.000000;0.603495
7750.000000;0.603346
7749.000000;0.603185
7748.000000;0.603089
7747.000000;0.603075
7746.000000;0.603101
7745.000000;0.603105
7744.000000;0.603033
7743.000000;0.602863
7742.000000;0.602604
7741.000000;0.602299
7740.000000;0.602003
7739.000000;0.601773
7738.000000;0.601627
7737.000000;0.601514
7736.000000;0.601366
7735.000000;0.601173
7734.000000;0.601001
7733.000000;0.600905
7732.000000;0.600873
7731.000000;0.600864
7730.000000;0.600850
7729.000000;0.600796
7728.000000;0.600658
7727.000000;0.600427
7726.000000;0.600166
7725.000000;0.599938
7724.000000;0.599751
7723.000000;0.599588
7722.000000;0.599474
7721.000000;0.599447
7720.000000;0.599485
7719.000000;0.599500
7718.000000;0.599418
7717.000000;0.599244
7716.000000;0.599056
7715.000000;0.598933
7714.000000;0.598881
7713.000000;0.598823
7712.000000;0.598674
7711.000000;0.598429
7710.000000;0.598158
7709.000000;0.597926
7708.000000;0.597750
7707.000000;0.597629
7706.000000;0.597567
7705.000000;0.597544
7704.000000;0.597513
7703.000000;0.597462
7702.000000;0.597417
7701.000000;0.597397
7700.000000;0.597385
7699.000000;0.597376
7698.000000;0.597374
7697.000000;0.597325
7696.000000;0.597132
7695.000000;0.596796
7694.000000;0.596472
7693.000000;0.596308
7692.000000;0.596283
7691.000000;0.596258
7690.000000;0.596167
7689.000000;0.596049
7688.000000;0.595947
7687.000000;0.595855
7686.000000;0.595767
7685.000000;0.595702
7684.000000;0.595646
7683.000000;0.595550
7682.000000;0.595397
7681.000000;0.595244
7680.000000;0.595161
7679.000000;0.595155
7678.000000;0.595153
7677.000000;0.595074
7676.000000;0.594899
7675.000000;0.594695
7674.000000;0.594555
7673.000000;0.594512
7672.000000;0.594526
7671.000000;0.594564
7670.000000;0.594640
7669.000000;0.594754
7668.000000;0.594841
7667.000000;0.594814
7666.000000;0.594658
7665.000000;0.594425
7664.000000;0.594164
7663.000000;0.593899
7662.000000;0.593678
7661.000000;0.593572
7660.000000;0.593619
7659.000000;0.593775
7658.000000;0.593943
7657.000000;0.594035
7656.000000;0.594015
7655.000000;0.593920
7654.000000;0.593821
7653.000000;0.593772
7652.000000;0.593765
7651.000000;0.593751
7650.000000;0.593673
7649.000000;0.593514
7648.000000;0.593327
7647.000000;0.593219
7646.000000;0.593245
7645.000000;0.593332
7644.000000;0.593335
7643.000000;0.593201
7642.000000;0.593025
7641.000000;0.592927
7640.000000;0.592936
7639.000000;0.593004
7638.000000;0.593076
7637.000000;0.593096
7636.000000;0.593016
7635.000000;0.592844
7634.000000;0.592672
7633.000000;0.592589
7632.000000;0.592583
7631.000000;0.592581
7630.000000;0.592539
7629.000000;0.592468
7628.000000;0.592379
7627.000000;0.592291
7626.000000;0.592249
7625.000000;0.592291
7624.000000;0.592380
7623.000000;0.592437
7622.000000;0.592431
7621.000000;0.592403
7620.000000;0.592387
7619.000000;0.592375
7618.000000;0.592368
7617.000000;0.592409
7616.000000;0.592524
7615.000000;0.592665
7614.000000;0.592729
7613.000000;0.592665
7612.000000;0.592535
7611.000000;0.592447
7610.000000;0.592446
7609.000000;0.592465
7608.000000;0.592413
7607.000000;0.592296
7606.000000;0.592212
7605.000000;0.592242
7604.000000;0.592375
7603.000000;0.592538
7602.000000;0.592666
7601.000000;0.592723
7600.000000;0.592705
7599.000000;0.592652
7598.000000;0.592637
7597.000000;0.592714
7596.000000;0.592864
7595.000000;0.593014
7594.000000;0.593095
7593.000000;0.593094
7592.000000;0.593052
7591.000000;0.593033
7590.000000;0.593047
7589.000000;0.593033
7588.000000;0.592947
7587.000000;0.592842
7586.000000;0.592826
7585.000000;0.592944
7584.000000;0.593153
7583.000000;0.593387
7582.000000;0.593580
7581.000000;0.593645
7580.000000;0.593545
7579.000000;0.593396
7578.000000;0.593413
7577.000000;0.593677
7576.000000;0.594044
7575.000000;0.594322
7574.000000;0.594456
7573.000000;0.594498
7572.000000;0.594482
7571.000000;0.594422
7570.000000;0.594379
7569.000000;0.594411
7568.000000;0.594501
7567.000000;0.594593
7566.000000;0.594683
7565.000000;0.594799
7564.000000;0.594918
7563.000000;0.594966
7562.000000;0.594923
7561.000000;0.594855
7560.000000;0.594850
7559.000000;0.594958
7558.000000;0.595162
7557.000000;0.595372
7556.000000;0.595469
7555.000000;0.595408
7554.000000;0.595276
7553.000000;0.595211
7552.000000;0.595282
7551.000000;0.595469
7550.000000;0.595713
7549.000000;0.595956
7548.000000;0.596158
7547.000000;0.596334
7546.000000;0.596540
7545.000000;0.596792
7544.000000;0.597023
7543.000000;0.597173
7542.000000;0.597278
7541.000000;0.597412
7540.000000;0.597584
7539.000000;0.597737
7538.000000;0.597837
7537.000000;0.597903
7536.000000;0.597978
7535.000000;0.598092
7534.000000;0.598256
7533.000000;0.598444
7532.000000;0.598609
7531.000000;0.598735
7530.000000;0.598862
7529.000000;0.599019
7528.000000;0.599185
7527.000000;0.599338
7526.000000;0.599499
7525.000000;0.599689
7524.000000;0.599878
7523.000000;0.600025
7522.000000;0.600126
7521.000000;0.600191
7520.000000;0.600208
7519.000000;0.600199
7518.000000;0.600242
7517.000000;0.600379
7516.000000;0.600555
7515.000000;0.600713
7514.000000;0.600897
7513.000000;0.601177
7512.000000;0.601524
7511.000000;0.601834
7510.000000;0.602065
7509.000000;0.602249
7508.000000;0.602405
7507.000000;0.602535
7506.000000;0.602679
7505.000000;0.602895
7504.000000;0.603164
7503.000000;0.603392
7502.000000;0.603515
7501.000000;0.603535
7500.000000;0.603494
7499.000000;0.603477
7498.000000;0.603607
7497.000000;0.603955
7496.000000;0.604417
7495.000000;0.604809
7494.000000;0.605014
7493.000000;0.605125
7492.000000;0.605250
7491.000000;0.605361
7490.000000;0.605451
7489.000000;0.605538
7488.000000;0.605675
7487.000000;0.605879
7486.000000;0.606127
7485.000000;0.606376
7484.000000;0.606573
7483.000000;0.606698
7482.000000;0.606788
7481.000000;0.606891
7480.000000;0.607011
7479.000000;0.607140
7478.000000;0.607320
7477.000000;0.607614
7476.000000;0.608005
7475.000000;0.608409
7474.000000;0.608752
7473.000000;0.609020
7472.000000;0.609223
7471.000000;0.609378
7470.000000;0.609535
7469.000000;0.609733
7468.000000;0.609938
7467.000000;0.610090
7466.000000;0.610190
7465.000000;0.610289
7464.000000;0.610364
7463.000000;0.610328
7462.000000;0.610182
7461.000000;0.610090
7460.000000;0.610239
7459.000000;0.610657
7458.000000;0.611196
7457.000000;0.611667
7456.000000;0.611958
7455.000000;0.612075
7454.000000;0.612110
7453.000000;0.612167
7452.000000;0.612299
7451.000000;0.612489
7450.000000;0.612694
7449.000000;0.612891
7448.000000;0.613088
7447.000000;0.613318
7446.000000;0.613608
7445.000000;0.613953
7444.000000;0.614315
7443.000000;0.614650
7442.000000;0.614922
7441.000000;0.615099
7440.000000;0.615176
7439.000000;0.615209
7438.000000;0.615297
7437.000000;0.615473
7436.000000;0.615679
7435.000000;0.615864
7434.000000;0.616063
7433.000000;0.616324
7432.000000;0.616607
7431.000000;0.616839
7430.000000;0.617027
7429.000000;0.617242
7428.000000;0.617503
7427.000000;0.617760
7426.000000;0.617983
7425.000000;0.618202
7424.000000;0.618459
7423.000000;0.618747
7422.000000;0.618993
7421.000000;0.619109
7420.000000;0.619071
7419.000000;0.618979
7418.000000;0.618998
7417.000000;0.619204
7416.000000;0.619504
7415.000000;0.619734
7414.000000;0.619834
7413.000000;0.619884
7412.000000;0.619977
7411.000000;0.620131
7410.000000;0.620329
7409.000000;0.620558
7408.000000;0.620806
7407.000000;0.621045
7406.000000;0.621257
7405.000000;0.621445
7404.000000;0.621631
7403.000000;0.621829
7402.000000;0.622040
7401.000000;0.622267
7400.000000;0.622508
7399.000000;0.622765
7398.000000;0.623045
7397.000000;0.623288
7396.000000;0.623365
7395.000000;0.623270
7394.000000;0.623154
7393.000000;0.623088
7392.000000;0.622960
7391.000000;0.622712
7390.000000;0.622546
7389.000000;0.622727
7388.000000;0.623270
7387.000000;0.623963
7386.000000;0.624610
7385.000000;0.625100
7384.000000;0.625383
7383.000000;0.625500
7382.000000;0.625557
7381.000000;0.625619
7380.000000;0.625712
7379.000000;0.625892
7378.000000;0.626193
7377.000000;0.626485
7376.000000;0.626592
7375.000000;0.626571
7374.000000;0.626690
7373.000000;0.627069
7372.000000;0.627526
7371.000000;0.627817
7370.000000;0.627923
7369.000000;0.627990
7368.000000;0.628093
7367.000000;0.628266
7366.000000;0.628615
7365.000000;0.629086
7364.000000;0.629331
7363.000000;0.629133
7362.000000;0.628698
7361.000000;0.628452
7360.000000;0.628690
7359.000000;0.629405
7358.000000;0.630297
7357.000000;0.630929
7356.000000;0.631065
7355.000000;0.630888
7354.000000;0.630882
7353.000000;0.631326
7352.000000;0.631965
7351.000000;0.632284
7350.000000;0.632068
7349.000000;0.631626
7348.000000;0.631471
7347.000000;0.631830
7346.000000;0.632402
7345.000000;0.632688
7344.000000;0.632588
7343.000000;0.632612
7342.000000;0.633332
7341.000000;0.634616
7340.000000;0.635704
7339.000000;0.636070
7338.000000;0.635977
7337.000000;0.635938
7336.000000;0.636060
7335.000000;0.636183
7334.000000;0.636273
7333.000000;0.636454
7332.000000;0.636849
7331.000000;0.637407
7330.000000;0.637871
7329.000000;0.638048
7328.000000;0.638059
7327.000000;0.638238
7326.000000;0.638745
7325.000000;0.639403
7324.000000;0.639865
7323.000000;0.640001
7322.000000;0.640112
7321.000000;0.640615
7320.000000;0.641525
7319.000000;0.642431
7318.000000;0.643049
7317.000000;0.643505
7316.000000;0.643970
7315.000000;0.644371
7314.000000;0.644572
7313.000000;0.644718
7312.000000;0.645225
7311.000000;0.646259
7310.000000;0.647405
7309.000000;0.648075
7308.000000;0.648130
7307.000000;0.647977
7306.000000;0.648136
7305.000000;0.648869
7304.000000;0.650094
7303.000000;0.651354
7302.000000;0.652110
7301.000000;0.652225
7300.000000;0.652061
7299.000000;0.652205
7298.000000;0.652988
7297.000000;0.654211
7296.000000;0.655314
7295.000000;0.655914
7294.000000;0.656229
7293.000000;0.656842
7292.000000;0.658111
7291.000000;0.659791
7290.000000;0.661281
7289.000000;0.662305
7288.000000;0.663173
7287.000000;0.664279
7286.000000;0.665542
7285.000000;0.666577
7284.000000;0.667295
7283.000000;0.667932
7282.000000;0.668686
7281.000000;0.669595
7280.000000;0.670643
7279.000000;0.671836
7278.000000;0.673118
7277.000000;0.674349
7276.000000;0.675486
7275.000000;0.676623
7274.000000;0.677795
7273.000000;0.678949
7272.000000;0.680113
7271.000000;0.681403
7270.000000;0.682858
7269.000000;0.684408
7268.000000;0.685978
7267.000000;0.687536
7266.000000;0.689053
7265.000000;0.690542
7264.000000;0.692090
7263.000000;0.693748
7262.000000;0.695406
7261.000000;0.696929
7260.000000;0.698367
7259.000000;0.699867
7258.000000;0.701470
7257.000000;0.703143
7256.000000;0.704913
7255.000000;0.706843
7254.000000;0.708858
7253.000000;0.710772
7252.000000;0.712481
7251.000000;0.714123
7250.000000;0.715935
7249.000000;0.717890
7248.000000;0.719839
7247.000000;0.721860
7246.000000;0.724124
7245.000000;0.726548
7244.000000;0.728849
7243.000000;0.730888
7242.000000;0.732821
7241.000000;0.734928
7240.000000;0.737325
7239.000000;0.739853
7238.000000;0.742277
7237.000000;0.744579
7236.000000;0.746956
7235.000000;0.749573
7234.000000;0.752418
7233.000000;0.755364
7232.000000;0.758216
7231.000000;0.760900
7230.000000;0.763570
7229.000000;0.766275
7228.000000;0.768921
7227.000000;0.771541
7226.000000;0.774252
7225.000000;0.777105
7224.000000;0.780121
7223.000000;0.783264
7222.000000;0.786344
7221.000000;0.789171
7220.000000;0.791874
7219.000000;0.794823
7218.000000;0.798203
7217.000000;0.801856
7216.000000;0.805455
7215.000000;0.808739
7214.000000;0.811685
7213.000000;0.814606
7212.000000;0.817925
7211.000000;0.821774
7210.000000;0.825884
7209.000000;0.829911
7208.000000;0.833819
7207.000000;0.837797
7206.000000;0.841860
7205.000000;0.845816
7204.000000;0.849617
7203.000000;0.853450
7202.000000;0.857447
7201.000000;0.861548
7200.000000;0.865693
7199.000000;0.869911
7198.000000;0.874248
7197.000000;0.878723
7196.000000;0.883317
7195.000000;0.887898
7194.000000;0.892272
7193.000000;0.896456
7192.000000;0.900751
7191.000000;0.905395
7190.000000;0.910288
7189.000000;0.915191
7188.000000;0.920057
7187.000000;0.924920
7186.000000;0.929706
7185.000000;0.934354
7184.000000;0.938987
7183.000000;0.943778
7182.000000;0.948726
7181.000000;0.953747
7180.000000;0.958939
7179.000000;0.964455
7178.000000;0.970112
7177.000000;0.975514
7176.000000;0.980582
7175.000000;0.985556
7174.000000;0.990592
7173.000000;0.995746
7172.000000;1.001168
7171.000000;1.007014
7170.000000;1.013141
7169.000000;1.019184
7168.000000;1.024922
7167.000000;1.030349
7166.000000;1.035588
7165.000000;1.040801
7164.000000;1.046064
7163.000000;1.051302
7162.000000;1.056441
7161.000000;1.061644
7160.000000;1.067280
7159.000000;1.073489
7158.000000;1.079850
7157.000000;1.085723
7156.000000;1.090961
7155.000000;1.096025
7154.000000;1.101435
7153.000000;1.107412
7152.000000;1.113867
7151.000000;1.120497
7150.000000;1.126927
7149.000000;1.132842
7148.000000;1.138086
7147.000000;1.142817
7146.000000;1.147506
7145.000000;1.152623
7144.000000;1.158368
7143.000000;1.164564
7142.000000;1.170766
7141.000000;1.176577
7140.000000;1.181995
7139.000000;1.187363
7138.000000;1.192914
7137.000000;1.198508
7136.000000;1.203901
7135.000000;1.209156
7134.000000;1.214539
7133.000000;1.220091
7132.000000;1.225535
7131.000000;1.230668
7130.000000;1.235727
7129.000000;1.241087
7128.000000;1.246716
7127.000000;1.252200
7126.000000;1.257325
7125.000000;1.262415
7124.000000;1.267972
7123.000000;1.274061
7122.000000;1.280203
7121.000000;1.285784
7120.000000;1.290506
7119.000000;1.294522
7118.000000;1.298291
7117.000000;1.302355
7116.000000;1.307066
7115.000000;1.312341
7114.000000;1.317683
7113.000000;1.322608
7112.000000;1.326999
7111.000000;1.331081
7110.000000;1.335223
7109.000000;1.339769
7108.000000;1.344803
7107.000000;1.349967
7106.000000;1.354710
7105.000000;1.358868
7104.000000;1.362733
7103.000000;1.366596
7102.000000;1.370442
7101.000000;1.374081
7100.000000;1.377491
7099.000000;1.380893
7098.000000;1.384442
7097.000000;1.388002
7096.000000;1.391391
7095.000000;1.394755
7094.000000;1.398590
7093.000000;1.403268
7092.000000;1.408513
7091.000000;1.413490
7090.000000;1.417501
7089.000000;1.420554
7088.000000;1.423176
7087.000000;1.425824
7086.000000;1.428674
7085.000000;1.431867
7084.000000;1.435530
7083.000000;1.439471
7082.000000;1.443139
7081.000000;1.446114
7080.000000;1.448484
7079.000000;1.450643
7078.000000;1.452864
7077.000000;1.455282
7076.000000;1.458083
7075.000000;1.461210
7074.000000;1.464070
7073.000000;1.466025
7072.000000;1.467187
7071.000000;1.468367
7070.000000;1.470240
7069.000000;1.472864
7068.000000;1.475974
7067.000000;1.479308
7066.000000;1.482529
7065.000000;1.485221
7064.000000;1.487222
7063.000000;1.488782
7062.000000;1.490227
7061.000000;1.491598
7060.000000;1.492791
7059.000000;1.494030
7058.000000;1.495930
7057.000000;1.498900
7056.000000;1.502598
7055.000000;1.506004
7054.000000;1.508158
7053.000000;1.508977
7052.000000;1.509192
7051.000000;1.509514
7050.000000;1.510183
7049.000000;1.511315
7048.000000;1.513112
7047.000000;1.515399
7046.000000;1.517397
7045.000000;1.518542
7044.000000;1.519294
7043.000000;1.520559
7042.000000;1.522476
7041.000000;1.524317
7040.000000;1.525551
7039.000000;1.526446
7038.000000;1.527508
7037.000000;1.528848
7036.000000;1.530316
7035.000000;1.531816
7034.000000;1.533270
7033.000000;1.534610
7032.000000;1.535935
7031.000000;1.537349
7030.000000;1.538614
7029.000000;1.539370
7028.000000;1.539820
7027.000000;1.540680
7026.000000;1.542195
7025.000000;1.543604
7024.000000;1.543970
7023.000000;1.543253
7022.000000;1.542266
7021.000000;1.541814
7020.000000;1.542191
7019.000000;1.543277
7018.000000;1.544719
7017.000000;1.546070
7016.000000;1.547079
7015.000000;1.547900
7014.000000;1.548852
7013.000000;1.550000
7012.000000;1.551123
7011.000000;1.552083
7010.000000;1.553079
7009.000000;1.554381
7008.000000;1.555843
7007.000000;1.556778
7006.000000;1.556528
7005.000000;1.555267
7004.000000;1.554046
7003.000000;1.553855
7002.000000;1.554730
7001.000000;1.555939
7000.000000;1.556867
6999.000000;1.557421
6998.000000;1.557705
6997.000000;1.557774
6996.000000;1.557814
6995.000000;1.558140
6994.000000;1.558769
6993.000000;1.559213
6992.000000;1.558953
6991.000000;1.558025
6990.000000;1.556993
6989.000000;1.556458
6988.000000;1.556613
6987.000000;1.557111
6986.000000;1.557283
6985.000000;1.556721
6984.000000;1.555736
6983.000000;1.555119
6982.000000;1.555328
6981.000000;1.556066
6980.000000;1.556669
6979.000000;1.556728
6978.000000;1.556265
6977.000000;1.555554
6976.000000;1.554970
6975.000000;1.554836
6974.000000;1.555179
6973.000000;1.555627
6972.000000;1.555752
6971.000000;1.555483
6970.000000;1.555094
6969.000000;1.554863
6968.000000;1.554775
6967.000000;1.554577
6966.000000;1.554174
6965.000000;1.553906
6964.000000;1.554260
6963.000000;1.555226
6962.000000;1.556155
6961.000000;1.556463
6960.000000;1.556313
6959.000000;1.556297
6958.000000;1.556548
6957.000000;1.556513
6956.000000;1.555630
6955.000000;1.553935
6954.000000;1.551930
6953.000000;1.550116
6952.000000;1.548730
6951.000000;1.547739
6950.000000;1.547016
6949.000000;1.546639
6948.000000;1.546904
6947.000000;1.547832
6946.000000;1.548816
6945.000000;1.549094
6944.000000;1.548524
6943.000000;1.547578
6942.000000;1.546679
6941.000000;1.545894
6940.000000;1.545258
6939.000000;1.544914
6938.000000;1.544750
6937.000000;1.544318
6936.000000;1.543390
6935.000000;1.542293
6934.000000;1.541552
6933.000000;1.541420
6932.000000;1.541775
6931.000000;1.542108
6930.000000;1.541592
6929.000000;1.539757
6928.000000;1.537288
6927.000000;1.535605
6926.000000;1.535338
6925.000000;1.535704
6924.000000;1.535637
6923.000000;1.535059
6922.000000;1.534573
6921.000000;1.534309
6920.000000;1.533821
6919.000000;1.532979
6918.000000;1.532211
6917.000000;1.531713
6916.000000;1.531030
6915.000000;1.529734
6914.000000;1.528176
6913.000000;1.527214
6912.000000;1.527338
6911.000000;1.528288
6910.000000;1.529357
6909.000000;1.529897
6908.000000;1.529583
6907.000000;1.528465
6906.000000;1.526922
6905.000000;1.525481
6904.000000;1.524441
6903.000000;1.523551
6902.000000;1.522198
6901.000000;1.520071
6900.000000;1.517654
6899.000000;1.515933
6898.000000;1.515573
6897.000000;1.516397
6896.000000;1.517588
6895.000000;1.518286
6894.000000;1.517983
6893.000000;1.516604
6892.000000;1.514423
6891.000000;1.511940
6890.000000;1.509757
6889.000000;1.508431
6888.000000;1.508232
6887.000000;1.508812
6886.000000;1.509205
6885.000000;1.508497
6884.000000;1.506671
6883.000000;1.504657
6882.000000;1.503409
6881.000000;1.503089
6880.000000;1.503178
6879.000000;1.503171
6878.000000;1.502950
6877.000000;1.502590
6876.000000;1.502078
6875.000000;1.501309
6874.000000;1.500253
6873.000000;1.499060
6872.000000;1.497995
6871.000000;1.497217
6870.000000;1.496558
6869.000000;1.495594
6868.000000;1.494073
6867.000000;1.492304
6866.000000;1.490973
6865.000000;1.490491
6864.000000;1.490547
6863.000000;1.490397
6862.000000;1.489631
6861.000000;1.488538
6860.000000;1.487664
6859.000000;1.487166
6858.000000;1.486778
6857.000000;1.486284
6856.000000;1.485709
6855.000000;1.485025
6854.000000;1.483973
6853.000000;1.482422
6852.000000;1.480693
6851.000000;1.479259
6850.000000;1.478216
6849.000000;1.477214
6848.000000;1.475851
6847.000000;1.473998
6846.000000;1.471870
6845.000000;1.469919
6844.000000;1.468511
6843.000000;1.467535
6842.000000;1.466455
6841.000000;1.464918
6840.000000;1.463141
6839.000000;1.461542
6838.000000;1.460196
6837.000000;1.458902
6836.000000;1.457589
6835.000000;1.456317
6834.000000;1.455005
6833.000000;1.453530
6832.000000;1.452026
6831.000000;1.450758
6830.000000;1.449729
6829.000000;1.448658
6828.000000;1.447276
6827.000000;1.445419
6826.000000;1.443026
6825.000000;1.440327
6824.000000;1.437858
6823.000000;1.435885
6822.000000;1.434050
6821.000000;1.431983
6820.000000;1.430015
6819.000000;1.428657
6818.000000;1.427506
6817.000000;1.425487
6816.000000;1.422358
6815.000000;1.419205
6814.000000;1.417071
6813.000000;1.415754
6812.000000;1.414323
6811.000000;1.412272
6810.000000;1.409725
6809.000000;1.406924
6808.000000;1.404112
6807.000000;1.401662
6806.000000;1.399806
6805.000000;1.398225
6804.000000;1.396307
6803.000000;1.393826
6802.000000;1.391117
6801.000000;1.388618
6800.000000;1.386507
6799.000000;1.384713
6798.000000;1.383027
6797.000000;1.381199
6796.000000;1.379113
6795.000000;1.376859
6794.000000;1.374558
6793.000000;1.372168
6792.000000;1.369593
6791.000000;1.366900
6790.000000;1.364296
6789.000000;1.361913
6788.000000;1.359689
6787.000000;1.357460
6786.000000;1.355082
6785.000000;1.352503
6784.000000;1.349759
6783.000000;1.346904
6782.000000;1.344001
6781.000000;1.341233
6780.000000;1.338906
6779.000000;1.337155
6778.000000;1.335665
6777.000000;1.333900
6776.000000;1.331612
6775.000000;1.328971
6774.000000;1.326206
6773.000000;1.323395
6772.000000;1.320605
6771.000000;1.317948
6770.000000;1.315395
6769.000000;1.312800
6768.000000;1.310182
6767.000000;1.307711
6766.000000;1.305294
6765.000000;1.302509
6764.000000;1.299198
6763.000000;1.295859
6762.000000;1.293162
6761.000000;1.291195
6760.000000;1.289460
6759.000000;1.287487
6758.000000;1.285201
6757.000000;1.282767
6756.000000;1.280287
6755.000000;1.277699
6754.000000;1.274869
6753.000000;1.271780
6752.000000;1.268654
6751.000000;1.265769
6750.000000;1.263104
6749.000000;1.260344
6748.000000;1.257322
6747.000000;1.254242
6746.000000;1.251325
6745.000000;1.248498
6744.000000;1.245656
6743.000000;1.243034
6742.000000;1.240969
6741.000000;1.239374
6740.000000;1.237711
6739.000000;1.235512
6738.000000;1.232729
6737.000000;1.229624
6736.000000;1.226518
6735.000000;1.223649
6734.000000;1.221074
6733.000000;1.218646
6732.000000;1.216198
6731.000000;1.213725
6730.000000;1.211283
6729.000000;1.208794
6728.000000;1.206137
6727.000000;1.203383
6726.000000;1.200743
6725.000000;1.198285
6724.000000;1.195860
6723.000000;1.193313
6722.000000;1.190616
6721.000000;1.187801
6720.000000;1.184928
6719.000000;1.182154
6718.000000;1.179676
6717.000000;1.177541
6716.000000;1.175565
6715.000000;1.173473
6714.000000;1.171036
6713.000000;1.168138
6712.000000;1.164878
6711.000000;1.161637
6710.000000;1.158827
6709.000000;1.156542
6708.000000;1.154490
6707.000000;1.152274
6706.000000;1.149864
6705.000000;1.147494
6704.000000;1.145290
6703.000000;1.143134
6702.000000;1.140880
6701.000000;1.138506
6700.000000;1.136124
6699.000000;1.133697
6698.000000;1.131135
6697.000000;1.128355
6696.000000;1.125405
6695.000000;1.122418
6694.000000;1.119478
6693.000000;1.116618
6692.000000;1.113867
6691.000000;1.111244
6690.000000;1.108709
6689.000000;1.106236
6688.000000;1.103910
6687.000000;1.101841
6686.000000;1.099927
6685.000000;1.097839
6684.000000;1.095333
6683.000000;1.092525
6682.000000;1.089774
6681.000000;1.087322
6680.000000;1.085107
6679.000000;1.082863
6678.000000;1.080326
6677.000000;1.077416
6676.000000;1.074327
6675.000000;1.071422
6674.000000;1.068964
6673.000000;1.066904
6672.000000;1.064951
6671.000000;1.062822
6670.000000;1.060426
6669.000000;1.057865
6668.000000;1.055329
6667.000000;1.052963
6666.000000;1.050762
6665.000000;1.048610
6664.000000;1.046439
6663.000000;1.044301
6662.000000;1.042244
6661.000000;1.040176
6660.000000;1.037941
6659.000000;1.035487
6658.000000;1.032893
6657.000000;1.030246
6656.000000;1.027580
6655.000000;1.024929
6654.000000;1.022366
6653.000000;1.019956
6652.000000;1.017696
6651.000000;1.015505
6650.000000;1.013269
6649.000000;1.010940
6648.000000;1.008599
6647.000000;1.006368
6646.000000;1.004236
6645.000000;1.002025
6644.000000;0.999596
6643.000000;0.997020
6642.000000;0.994497
6641.000000;0.992147
6640.000000;0.989968
6639.000000;0.987923
6638.000000;0.985977
6637.000000;0.984052
6636.000000;0.982051
6635.000000;0.979928
6634.000000;0.977689
6633.000000;0.975313
6632.000000;0.972768
6631.000000;0.970111
6630.000000;0.967503
6629.000000;0.965101
6628.000000;0.962960
6627.000000;0.961015
6626.000000;0.959119
6625.000000;0.957119
6624.000000;0.954965
6623.000000;0.952763
6622.000000;0.950673
6621.000000;0.948736
6620.000000;0.946845
6619.000000;0.944874
6618.000000;0.942777
6617.000000;0.940571
6616.000000;0.938296
6615.000000;0.936010
6614.000000;0.933782
6613.000000;0.931653
6612.000000;0.929607
6611.000000;0.927589
6610.000000;0.925535
6609.000000;0.923398
6608.000000;0.921181
6607.000000;0.918933
6606.000000;0.916699
6605.000000;0.914503
6604.000000;0.912411
6603.000000;0.910528
6602.000000;0.908854
6601.000000;0.907181
6600.000000;0.905266
6599.000000;0.903104
6598.000000;0.900926
6597.000000;0.898901
6596.000000;0.896955
6595.000000;0.894938
6594.000000;0.892845
6593.000000;0.890786
6592.000000;0.888804
6591.000000;0.886844
6590.000000;0.884873
6589.000000;0.882931
6588.000000;0.881037
6587.000000;0.879125
6586.000000;0.877106
6585.000000;0.874959
6584.000000;0.872749
6583.000000;0.870585
6582.000000;0.868542
6581.000000;0.866619
6580.000000;0.864737
6579.000000;0.862828
6578.000000;0.860900
6577.000000;0.858999
6576.000000;0.857119
6575.000000;0.855220
6574.000000;0.853321
6573.000000;0.851525
6572.000000;0.849890
6571.000000;0.848330
6570.000000;0.846668
6569.000000;0.844769
6568.000000;0.842631
6567.000000;0.840380
6566.000000;0.838221
6565.000000;0.836316
6564.000000;0.834664
6563.000000;0.833100
6562.000000;0.831464
6561.000000;0.829746
6560.000000;0.828029
6559.000000;0.826317
6558.000000;0.824524
6557.000000;0.822623
6556.000000;0.820723
6555.000000;0.818947
6554.000000;0.817285
6553.000000;0.815622
6552.000000;0.813869
6551.000000;0.812042
6550.000000;0.810227
6549.000000;0.808512
6548.000000;0.806926
6547.000000;0.805400
6546.000000;0.803800
6545.000000;0.802036
6544.000000;0.800147
6543.000000;0.798257
6542.000000;0.796473
6541.000000;0.794829
6540.000000;0.793288
6539.000000;0.791765
6538.000000;0.790162
6537.000000;0.788441
6536.000000;0.786658
6535.000000;0.784905
6534.000000;0.783225
6533.000000;0.781615
6532.000000;0.780059
6531.000000;0.778533
6530.000000;0.776980
6529.000000;0.775343
6528.000000;0.773640
6527.000000;0.771951
6526.000000;0.770339
6525.000000;0.768794
6524.000000;0.767246
6523.000000;0.765608
6522.000000;0.763832
6521.000000;0.761967
6520.000000;0.760156
6519.000000;0.758530
6518.000000;0.757090
6517.000000;0.755728
6516.000000;0.754346
6515.000000;0.752907
6514.000000;0.751400
6513.000000;0.749814
6512.000000;0.748175
6511.000000;0.746533
6510.000000;0.744903
6509.000000;0.743247
6508.000000;0.741556
6507.000000;0.739895
6506.000000;0.738351
6505.000000;0.736942
6504.000000;0.735621
6503.000000;0.734323
6502.000000;0.733005
6501.000000;0.731646
6500.000000;0.730245
6499.000000;0.728795
6498.000000;0.727249
6497.000000;0.725556
6496.000000;0.723743
6495.000000;0.721932
6494.000000;0.720264
6493.000000;0.718797
6492.000000;0.717490
6491.000000;0.716255
6490.000000;0.714994
6489.000000;0.713621
6488.000000;0.712103
6487.000000;0.710486
6486.000000;0.708872
6485.000000;0.707356
6484.000000;0.705975
6483.000000;0.704695
6482.000000;0.703442
6481.000000;0.702154
6480.000000;0.700822
6479.000000;0.699474
6478.000000;0.698123
6477.000000;0.696744
6476.000000;0.695298
6475.000000;0.693787
6474.000000;0.692288
6473.000000;0.690903
6472.000000;0.689667
6471.000000;0.688481
6470.000000;0.687199
6469.000000;0.685772
6468.000000;0.684296
6467.000000;0.682880
6466.000000;0.681522
6465.000000;0.680157
6464.000000;0.678770
6463.000000;0.677409
6462.000000;0.676096
6461.000000;0.674807
6460.000000;0.673540
6459.000000;0.672321
6458.000000;0.671134
6457.000000;0.669928
6456.000000;0.668681
6455.000000;0.667425
6454.000000;0.666173
6453.000000;0.664892
6452.000000;0.663563
6451.000000;0.662200
6450.000000;0.660799
6449.000000;0.659337
6448.000000;0.657862
6447.000000;0.656515
6446.000000;0.655389
6445.000000;0.654393
6444.000000;0.653334
6443.000000;0.652108
6442.000000;0.650774
6441.000000;0.649449
6440.000000;0.648187
6439.000000;0.646968
6438.000000;0.645743
6437.000000;0.644482
6436.000000;0.643189
6435.000000;0.641898
6434.000000;0.640651
6433.000000;0.639467
6432.000000;0.638339
6431.000000;0.637247
6430.000000;0.636166
6429.000000;0.635053
6428.000000;0.633868
6427.000000;0.632610
6426.000000;0.631344
6425.000000;0.630175
6424.000000;0.629154
6423.000000;0.628211
6422.000000;0.627200
6421.000000;0.626033
6420.000000;0.624757
6419.000000;0.623483
6418.000000;0.622274
6417.000000;0.621128
6416.000000;0.620021
6415.000000;0.618921
6414.000000;0.617790
6413.000000;0.616640
6412.000000;0.615549
6411.000000;0.614557
6410.000000;0.613576
6409.000000;0.612472
6408.000000;0.611255
6407.000000;0.610080
6406.000000;0.609050
6405.000000;0.608102
6404.000000;0.607109
6403.000000;0.606016
6402.000000;0.604841
6401.000000;0.603628
6400.000000;0.602453
6399.000000;0.601390
6398.000000;0.600414
6397.000000;0.599383
6396.000000;0.598208
6395.000000;0.596975
6394.000000;0.595850
6393.000000;0.594873
6392.000000;0.593961
6391.000000;0.593058
6390.000000;0.592195
6389.000000;0.591387
6388.000000;0.590563
6387.000000;0.589624
6386.000000;0.588533
6385.000000;0.587326
6384.000000;0.586076
6383.000000;0.584878
6382.000000;0.583808
6381.000000;0.582874
6380.000000;0.582000
6379.000000;0.581087
6378.000000;0.580077
6377.000000;0.578973
6376.000000;0.577835
6375.000000;0.576745
6374.000000;0.575751
6373.000000;0.574828
6372.000000;0.573906
6371.000000;0.572958
6370.000000;0.572023
6369.000000;0.571141
6368.000000;0.570287
6367.000000;0.569389
6366.000000;0.568409
6365.000000;0.567376
6364.000000;0.566349
6363.000000;0.565361
6362.000000;0.564401
6361.000000;0.563454
6360.000000;0.562520
6359.000000;0.561611
6358.000000;0.560711
6357.000000;0.559789
6356.000000;0.558831
6355.000000;0.557863
6354.000000;0.556931
6353.000000;0.556060
6352.000000;0.555232
6351.000000;0.554391
6350.000000;0.553488
6349.000000;0.552516
6348.000000;0.551509
6347.000000;0.550497
6346.000000;0.549488
6345.000000;0.548501
6344.000000;0.547590
6343.000000;0.546800
6342.000000;0.546097
6341.000000;0.545385
6340.000000;0.544600
6339.000000;0.543750
6338.000000;0.542862
6337.000000;0.541944
6336.000000;0.541005
6335.000000;0.540093
6334.000000;0.539266
6333.000000;0.538523
6332.000000;0.537798
6331.000000;0.537012
6330.000000;0.536139
6329.000000;0.535222
6328.000000;0.534335
6327.000000;0.533518
6326.000000;0.532741
6325.000000;0.531952
6324.000000;0.531129
6323.000000;0.530283
6322.000000;0.529412
6321.000000;0.528507
6320.000000;0.527606
6319.000000;0.526775
6318.000000;0.526028
6317.000000;0.525303
6316.000000;0.524560
6315.000000;0.523851
6314.000000;0.523238
6313.000000;0.522681
6312.000000;0.522067
6311.000000;0.521333
6310.000000;0.520507
6309.000000;0.519635
6308.000000;0.518722
6307.000000;0.517765
6306.000000;0.516795
6305.000000;0.515864
6304.000000;0.514998
6303.000000;0.514199
6302.000000;0.513473
6301.000000;0.512829
6300.000000;0.512255
6299.000000;0.511691
6298.000000;0.511052
6297.000000;0.510292
6296.000000;0.509435
6295.000000;0.508547
6294.000000;0.507673
6293.000000;0.506809
6292.000000;0.505952
6291.000000;0.505129
6290.000000;0.504374
6289.000000;0.503680
6288.000000;0.503003
6287.000000;0.502313
6286.000000;0.501619
6285.000000;0.500952
6284.000000;0.500329
6283.000000;0.499736
6282.000000;0.499135
6281.000000;0.498478
6280.000000;0.497742
6279.000000;0.496951
6278.000000;0.496161
6277.000000;0.495419
6276.000000;0.494727
6275.000000;0.494046
6274.000000;0.493340
6273.000000;0.492607
6272.000000;0.491879
6271.000000;0.491190
6270.000000;0.490541
6269.000000;0.489904
6268.000000;0.489245
6267.000000;0.488554
6266.000000;0.487845
6265.000000;0.487142
6264.000000;0.486459
6263.000000;0.485804
6262.000000;0.485176
6261.000000;0.484570
6260.000000;0.483961
6259.000000;0.483310
6258.000000;0.482598
6257.000000;0.481860
6256.000000;0.481150
6255.000000;0.480484
6254.000000;0.479834
6253.000000;0.479175
6252.000000;0.478513
6251.000000;0.477842
6250.000000;0.477136
6249.000000;0.476395
6248.000000;0.475676
6247.000000;0.475033
6246.000000;0.474443
6245.000000;0.473852
6244.000000;0.473261
6243.000000;0.472718
6242.000000;0.472241
6241.000000;0.471775
6240.000000;0.471255
6239.000000;0.470649
6238.000000;0.469958
6237.000000;0.469218
6236.000000;0.468492
6235.000000;0.467816
6234.000000;0.467159
6233.000000;0.466461
6232.000000;0.465723
6231.000000;0.465010
6230.000000;0.464353
6229.000000;0.463720
6228.000000;0.463094
6227.000000;0.462514
6226.000000;0.462004
6225.000000;0.461511
6224.000000;0.460953
6223.000000;0.460316
6222.000000;0.459650
6221.000000;0.458997
6220.000000;0.458366
6219.000000;0.457749
6218.000000;0.457129
6217.000000;0.456489
6216.000000;0.455845
6215.000000;0.455266
6214.000000;0.454816
6213.000000;0.454470
6212.000000;0.454118
6211.000000;0.453646
6210.000000;0.453028
6209.000000;0.452329
6208.000000;0.451655
6207.000000;0.451090
6206.000000;0.450642
6205.000000;0.450232
6204.000000;0.449760
6203.000000;0.449182
6202.000000;0.448547
6201.000000;0.447931
6200.000000;0.447365
6199.000000;0.446815
6198.000000;0.446241
6197.000000;0.445657
6196.000000;0.445105
6195.000000;0.444585
6194.000000;0.444052
6193.000000;0.443478
6192.000000;0.442897
6191.000000;0.442350
6190.000000;0.441828
6189.000000;0.441282
6188.000000;0.440695
6187.000000;0.440099
6186.000000;0.439521
6185.000000;0.438960
6184.000000;0.438406
6183.000000;0.437857
6182.000000;0.437306
6181.000000;0.436744
6180.000000;0.436173
6179.000000;0.435602
6178.000000;0.435034
6177.000000;0.434489
6176.000000;0.434007
6175.000000;0.433613
6174.000000;0.433249
6173.000000;0.432803
6172.000000;0.432225
6171.000000;0.431573
6170.000000;0.430951
6169.000000;0.430423
6168.000000;0.429996
6167.000000;0.429632
6166.000000;0.429255
6165.000000;0.428787
6164.000000;0.428215
6163.000000;0.427616
6162.000000;0.427080
6161.000000;0.426631
6160.000000;0.426218
6159.000000;0.425782
6158.000000;0.425301
6157.000000;0.424799
6156.000000;0.424311
6155.000000;0.423849
6154.000000;0.423387
6153.000000;0.422892
6152.000000;0.422361
6151.000000;0.421815
6150.000000;0.421268
6149.000000;0.420727
6148.000000;0.420215
6147.000000;0.419751
6146.000000;0.419307
6145.000000;0.418827
6144.000000;0.418307
6143.000000;0.417799
6142.000000;0.417338
6141.000000;0.416882
6140.000000;0.416364
6139.000000;0.415788
6138.000000;0.415229
6137.000000;0.414759
6136.000000;0.414389
6135.000000;0.414053
6134.000000;0.413662
6133.000000;0.413171
6132.000000;0.412613
6131.000000;0.412060
6130.000000;0.411549
6129.000000;0.411075
6128.000000;0.410640
6127.000000;0.410262
6126.000000;0.409930
6125.000000;0.409587
6124.000000;0.409193
6123.000000;0.408767
6122.000000;0.408354
6121.000000;0.407964
6120.000000;0.407577
6119.000000;0.407176
6118.000000;0.406750
6117.000000;0.406285
6116.000000;0.405782
6115.000000;0.405258
6114.000000;0.404735
6113.000000;0.404215
6112.000000;0.403697
6111.000000;0.403193
6110.000000;0.402725
6109.000000;0.402319
6108.000000;0.401981
6107.000000;0.401680
6106.000000;0.401345
6105.000000;0.400933
6104.000000;0.400491
6103.000000;0.400111
6102.000000;0.399807
6101.000000;0.399497
6100.000000;0.399113
6099.000000;0.398678
6098.000000;0.398245
6097.000000;0.397811
6096.000000;0.397327
6095.000000;0.396792
6094.000000;0.396259
6093.000000;0.395784
6092.000000;0.395379
6091.000000;0.395016
6090.000000;0.394654
6089.000000;0.394265
6088.000000;0.393863
6087.000000;0.393480
6086.000000;0.393115
6085.000000;0.392718
6084.000000;0.392259
6083.000000;0.391786
6082.000000;0.391376
6081.000000;0.391051
6080.000000;0.390770
6079.000000;0.390492
6078.000000;0.390192
6077.000000;0.389843
6076.000000;0.389416
6075.000000;0.388921
6074.000000;0.388418
6073.000000;0.387965
6072.000000;0.387573
6071.000000;0.387211
6070.000000;0.386849
6069.000000;0.386493
6068.000000;0.386167
6067.000000;0.385866
6066.000000;0.385534
6065.000000;0.385125
6064.000000;0.384665
6063.000000;0.384235
6062.000000;0.383883
6061.000000;0.383587
6060.000000;0.383302
6059.000000;0.383017
6058.000000;0.382741
6057.000000;0.382475
6056.000000;0.382214
6055.000000;0.381948
6054.000000;0.381654
6053.000000;0.381292
6052.000000;0.380855
6051.000000;0.380395
6050.000000;0.379974
6049.000000;0.379608
6048.000000;0.379268
6047.000000;0.378927
6046.000000;0.378578
6045.000000;0.378224
6044.000000;0.377882
6043.000000;0.377568
6042.000000;0.377266
6041.000000;0.376930
6040.000000;0.376529
6039.000000;0.376095
6038.000000;0.375691
6037.000000;0.375345
6036.000000;0.375047
6035.000000;0.374787
6034.000000;0.374560
6033.000000;0.374342
6032.000000;0.374095
6031.000000;0.373801
6030.000000;0.373477
6029.000000;0.373140
6028.000000;0.372784
6027.000000;0.372402
6026.000000;0.372018
6025.000000;0.371674
6024.000000;0.371391
6023.000000;0.371143
6022.000000;0.370884
6021.000000;0.370587
6020.000000;0.370265
6019.000000;0.369958
6018.000000;0.369699
6017.000000;0.369504
6016.000000;0.369358
6015.000000;0.369191
6014.000000;0.368921
6013.000000;0.368534
6012.000000;0.368122
6011.000000;0.367794
6010.000000;0.367566
6009.000000;0.367355
6008.000000;0.367090
6007.000000;0.366785
6006.000000;0.366486
6005.000000;0.366207
6004.000000;0.365932
6003.000000;0.365642
6002.000000;0.365334
6001.000000;0.365013
6000.000000;0.364702
5999.000000;0.364431
5998.000000;0.364198
5997.000000;0.363983
5996.000000;0.363773
5995.000000;0.363574
5994.000000;0.363372
5993.000000;0.363128
5992.000000;0.362833
5991.000000;0.362532
5990.000000;0.362263
5989.000000;0.362018
5988.000000;0.361760
5987.000000;0.361470
5986.000000;0.361149
5985.000000;0.360813
5984.000000;0.360504
5983.000000;0.360268
5982.000000;0.360099
5981.000000;0.359923
5980.000000;0.359674
5979.000000;0.359363
5978.000000;0.359061
5977.000000;0.358819
5976.000000;0.358637
5975.000000;0.358475
5974.000000;0.358276
5973.000000;0.358000
5972.000000;0.357674
5971.000000;0.357381
5970.000000;0.357181
5969.000000;0.357044
5968.000000;0.356895
5967.000000;0.356709
5966.000000;0.356527
5965.000000;0.356392
5964.000000;0.356296
5963.000000;0.356200
5962.000000;0.356057
5961.000000;0.355843
5960.000000;0.355565
5959.000000;0.355261
5958.000000;0.354977
5957.000000;0.354737
5956.000000;0.354533
5955.000000;0.354340
5954.000000;0.354147
5953.000000;0.353979
5952.000000;0.353883
5951.000000;0.353874
5950.000000;0.353888
5949.000000;0.353824
5948.000000;0.353640
5947.000000;0.353385
5946.000000;0.353138
5945.000000;0.352931
5944.000000;0.352753
5943.000000;0.352597
5942.000000;0.352474
5941.000000;0.352381
5940.000000;0.352291
5939.000000;0.352163
5938.000000;0.351966
5937.000000;0.351703
5936.000000;0.351417
5935.000000;0.351173
5934.000000;0.351001
5933.000000;0.350883
5932.000000;0.350792
5931.000000;0.350719
5930.000000;0.350651
5929.000000;0.350557
5928.000000;0.350421
5927.000000;0.350256
5926.000000;0.350097
5925.000000;0.349965
5924.000000;0.349869
5923.000000;0.349811
5922.000000;0.349781
5921.000000;0.349760
5920.000000;0.349735
5919.000000;0.349695
5918.000000;0.349619
5917.000000;0.349481
5916.000000;0.349286
5915.000000;0.349077
5914.000000;0.348878
5913.000000;0.348681
5912.000000;0.348482
5911.000000;0.348311
5910.000000;0.348196
5909.000000;0.348122
5908.000000;0.348055
5907.000000;0.347978
5906.000000;0.347889
5905.000000;0.347777
5904.000000;0.347636
5903.000000;0.347484
5902.000000;0.347338
5901.000000;0.347192
5900.000000;0.347032
5899.000000;0.346860
5898.000000;0.346694
5897.000000;0.346555
5896.000000;0.346460
5895.000000;0.346412
5894.000000;0.346382
5893.000000;0.346324
5892.000000;0.346215
5891.000000;0.346079
5890.000000;0.345956
5889.000000;0.345876
5888.000000;0.345860
5887.000000;0.345909
5886.000000;0.345975
5885.000000;0.345985
5884.000000;0.345920
5883.000000;0.345829
5882.000000;0.345758
5881.000000;0.345690
5880.000000;0.345591
5879.000000;0.345472
5878.000000;0.345360
5877.000000;0.345253
5876.000000;0.345129
5875.000000;0.344998
5874.000000;0.344890
5873.000000;0.344820
5872.000000;0.344798
5871.000000;0.344836
5870.000000;0.344930
5869.000000;0.345022
5868.000000;0.345050
5867.000000;0.345012
5866.000000;0.344958
5865.000000;0.344922
5864.000000;0.344905
5863.000000;0.344909
5862.000000;0.344950
5861.000000;0.345019
5860.000000;0.345067
5859.000000;0.345054
5858.000000;0.344996
5857.000000;0.344948
5856.000000;0.344960
5855.000000;0.345044
5854.000000;0.345164
5853.000000;0.345268
5852.000000;0.345327
5851.000000;0.345358
5850.000000;0.345404
5849.000000;0.345491
5848.000000;0.345599
5847.000000;0.345682
5846.000000;0.345705
5845.000000;0.345671
5844.000000;0.345618
5843.000000;0.345580
5842.000000;0.345548
5841.000000;0.345490
5840.000000;0.345406
5839.000000;0.345339
5838.000000;0.345331
5837.000000;0.345381
5836.000000;0.345473
5835.000000;0.345605
5834.000000;0.345782
5833.000000;0.345990
5832.000000;0.346200
5831.000000;0.346384
5830.000000;0.346515
5829.000000;0.346568
5828.000000;0.346537
5827.000000;0.346464
5826.000000;0.346417
5825.000000;0.346462
5824.000000;0.346628
5823.000000;0.346885
5822.000000;0.347147
5821.000000;0.347336
5820.000000;0.347445
5819.000000;0.347535
5818.000000;0.347656
5817.000000;0.347797
5816.000000;0.347930
5815.000000;0.348064
5814.000000;0.348229
5813.000000;0.348428
5812.000000;0.348629
5811.000000;0.348788
5810.000000;0.348888
5809.000000;0.348951
5808.000000;0.349037
5807.000000;0.349198
5806.000000;0.349426
5805.000000;0.349663
5804.000000;0.349862
5803.000000;0.350023
5802.000000;0.350162
5801.000000;0.350281
5800.000000;0.350395
5799.000000;0.350540
5798.000000;0.350728
5797.000000;0.350920
5796.000000;0.351074
5795.000000;0.351206
5794.000000;0.351365
5793.000000;0.351575
5792.000000;0.351833
5791.000000;0.352138
5790.000000;0.352476
5789.000000;0.352798
5788.000000;0.353054
5787.000000;0.353252
5786.000000;0.353455
5785.000000;0.353714
5784.000000;0.354022
5783.000000;0.354333
5782.000000;0.354603
5781.000000;0.354822
5780.000000;0.355019
5779.000000;0.355231
5778.000000;0.355464
5777.000000;0.355682
5776.000000;0.355865
5775.000000;0.356046
5774.000000;0.356272
5773.000000;0.356558
5772.000000;0.356890
5771.000000;0.357261
5770.000000;0.357663
5769.000000;0.358059
5768.000000;0.358407
5767.000000;0.358689
5766.000000;0.358929
5765.000000;0.359157
5764.000000;0.359402
5763.000000;0.359687
5762.000000;0.360017
5761.000000;0.360366
5760.000000;0.360704
5759.000000;0.361037
5758.000000;0.361403
5757.000000;0.361822
5756.000000;0.362271
5755.000000;0.362710
5754.000000;0.363113
5753.000000;0.363480
5752.000000;0.363821
5751.000000;0.364154
5750.000000;0.364496
5749.000000;0.364858
5748.000000;0.365234
5747.000000;0.365609
5746.000000;0.365966
5745.000000;0.366312
5744.000000;0.366674
5743.000000;0.367077
5742.000000;0.367529
5741.000000;0.368027
5740.000000;0.368572
5739.000000;0.369149
5738.000000;0.369711
5737.000000;0.370207
5736.000000;0.370622
5735.000000;0.370982
5734.000000;0.371322
5733.000000;0.371675
5732.000000;0.372074
5731.000000;0.372538
5730.000000;0.373035
5729.000000;0.373510
5728.000000;0.373946
5727.000000;0.374378
5726.000000;0.374841
5725.000000;0.375341
5724.000000;0.375875
5723.000000;0.376438
5722.000000;0.377010
5721.000000;0.377551
5720.000000;0.378049
5719.000000;0.378536
5718.000000;0.379048
5717.000000;0.379589
5716.000000;0.380139
5715.000000;0.380687
5714.000000;0.381237
5713.000000;0.381799
5712.000000;0.382388
5711.000000;0.383001
5710.000000;0.383603
5709.000000;0.384163
5708.000000;0.384700
5707.000000;0.385257
5706.000000;0.385843
5705.000000;0.386429
5704.000000;0.387008
5703.000000;0.387597
5702.000000;0.388179
5701.000000;0.388704
5700.000000;0.389166
5699.000000;0.389635
5698.000000;0.390162
5697.000000;0.390741
5696.000000;0.391317
5695.000000;0.391904
5694.000000;0.392549
5693.000000;0.393203
5692.000000;0.393854
5691.000000;0.394505
5690.000000;0.395169
5689.000000;0.395820
5688.000000;0.396436
5687.000000;0.397028
5686.000000;0.397611
5685.000000;0.398179
5684.000000;0.398735
5683.000000;0.399321
5682.000000;0.399969
5681.000000;0.400655
5680.000000;0.401328
5679.000000;0.401983
5678.000000;0.402641
5677.000000;0.403286
5676.000000;0.403867
5675.000000;0.404373
5674.000000;0.404860
5673.000000;0.405391
5672.000000;0.405978
5671.000000;0.406589
5670.000000;0.407192
5669.000000;0.407782
5668.000000;0.408392
5667.000000;0.409058
5666.000000;0.409777
5665.000000;0.410494
5664.000000;0.411147
5663.000000;0.411717
5662.000000;0.412235
5661.000000;0.412739
5660.000000;0.413240
5659.000000;0.413727
5658.000000;0.414200
5657.000000;0.414687
5656.000000;0.415230
5655.000000;0.415831
5654.000000;0.416445
5653.000000;0.417029
5652.000000;0.417593
5651.000000;0.418163
5650.000000;0.418724
5649.000000;0.419244
5648.000000;0.419744
5647.000000;0.420277
5646.000000;0.420839
5645.000000;0.421364
5644.000000;0.421831
5643.000000;0.422304
5642.000000;0.422848
5641.000000;0.423454
5640.000000;0.424079
5639.000000;0.424694
5638.000000;0.425260
5637.000000;0.425728
5636.000000;0.426099
5635.000000;0.426466
5634.000000;0.426914
5633.000000;0.427419
5632.000000;0.427876
5631.000000;0.428223
5630.000000;0.428494
5629.000000;0.428769
5628.000000;0.429110
5627.000000;0.429539
5626.000000;0.430038
5625.000000;0.430561
5624.000000;0.431057
5623.000000;0.431488
5622.000000;0.431825
5621.000000;0.432066
5620.000000;0.432245
5619.000000;0.432408
5618.000000;0.432576
5617.000000;0.432742
5616.000000;0.432928
5615.000000;0.433186
5614.000000;0.433534
5613.000000;0.433916
5612.000000;0.434265
5611.000000;0.434561
5610.000000;0.434823
5609.000000;0.435073
5608.000000;0.435334
5607.000000;0.435636
5606.000000;0.435985
5605.000000;0.436343
5604.000000;0.436670
5603.000000;0.436967
5602.000000;0.437252
5601.000000;0.437510
5600.000000;0.437695
5599.000000;0.437784
5598.000000;0.437822
5597.000000;0.437908
5596.000000;0.438112
5595.000000;0.438391
5594.000000;0.438598
5593.000000;0.438630
5592.000000;0.438541
5591.000000;0.438481
5590.000000;0.438524
5589.000000;0.438624
5588.000000;0.438719
5587.000000;0.438794
5586.000000;0.438843
5585.000000;0.438855
5584.000000;0.438864
5583.000000;0.438933
5582.000000;0.439048
5581.000000;0.439112
5580.000000;0.439079
5579.000000;0.439021
5578.000000;0.439014
5577.000000;0.439040
5576.000000;0.439046
5575.000000;0.439033
5574.000000;0.439029
5573.000000;0.439027
5572.000000;0.439007
5571.000000;0.438981
5570.000000;0.438964
5569.000000;0.438945
5568.000000;0.438912
5567.000000;0.438880
5566.000000;0.438855
5565.000000;0.438814
5564.000000;0.438750
5563.000000;0.438688
5562.000000;0.438631
5561.000000;0.438555
5560.000000;0.438477
5559.000000;0.438444
5558.000000;0.438434
5557.000000;0.438347
5556.000000;0.438156
5555.000000;0.437953
5554.000000;0.437824
5553.000000;0.437749
5552.000000;0.437690
5551.000000;0.437671
5550.000000;0.437695
5549.000000;0.437670
5548.000000;0.437518
5547.000000;0.437297
5546.000000;0.437122
5545.000000;0.437016
5544.000000;0.436923
5543.000000;0.436807
5542.000000;0.436668
5541.000000;0.436506
5540.000000;0.436333
5539.000000;0.436181
5538.000000;0.436054
5537.000000;0.435920
5536.000000;0.435768
5535.000000;0.435635
5534.000000;0.435536
5533.000000;0.435430
5532.000000;0.435284
5531.000000;0.435116
5530.000000;0.434949
5529.000000;0.434782
5528.000000;0.434633
5527.000000;0.434556
5526.000000;0.434576
5525.000000;0.434624
5524.000000;0.434624
5523.000000;0.434565
5522.000000;0.434461
5521.000000;0.434315
5520.000000;0.434154
5519.000000;0.434038
5518.000000;0.433994
5517.000000;0.433954
5516.000000;0.433841
5515.000000;0.433666
5514.000000;0.433465
5513.000000;0.433251
5512.000000;0.433050
5511.000000;0.432927
5510.000000;0.432921
5509.000000;0.432997
5508.000000;0.433092
5507.000000;0.433189
5506.000000;0.433288
5505.000000;0.433345
5504.000000;0.433322
5503.000000;0.433230
5502.000000;0.433089
5501.000000;0.432936
5500.000000;0.432823
5499.000000;0.432743
5498.000000;0.432676
5497.000000;0.432646
5496.000000;0.432700
5495.000000;0.432834
5494.000000;0.432968
5493.000000;0.433068
5492.000000;0.433208
5491.000000;0.433446
5490.000000;0.433683
5489.000000;0.433767
5488.000000;0.433703
5487.000000;0.433625
5486.000000;0.433603
5485.000000;0.433574
5484.000000;0.433506
5483.000000;0.433501
5482.000000;0.433546
5481.000000;0.433523
5480.000000;0.433492
5479.000000;0.433664
5478.000000;0.434149
5477.000000;0.434813
5476.000000;0.435423
5475.000000;0.435849
5474.000000;0.436065
5473.000000;0.436093
5472.000000;0.436017
5471.000000;0.435964
5470.000000;0.435999
5469.000000;0.436132
5468.000000;0.436400
5467.000000;0.436793
5466.000000;0.437213
5465.000000;0.437595
5464.000000;0.438033
5463.000000;0.438625
5462.000000;0.439208
5461.000000;0.439583
5460.000000;0.439875
5459.000000;0.440282
5458.000000;0.440704
5457.000000;0.440997
5456.000000;0.441292
5455.000000;0.441759
5454.000000;0.442350
5453.000000;0.442955
5452.000000;0.443568
5451.000000;0.444172
5450.000000;0.444656
5449.000000;0.445111
5448.000000;0.445792
5447.000000;0.446656
5446.000000;0.447438
5445.000000;0.448109
5444.000000;0.448844
5443.000000;0.449645
5442.000000;0.450288
5441.000000;0.450732
5440.000000;0.451304
5439.000000;0.452247
5438.000000;0.453358
5437.000000;0.454365
5436.000000;0.455296
5435.000000;0.456249
5434.000000;0.457256
5433.000000;0.458399
5432.000000;0.459669
5431.000000;0.460857
5430.000000;0.461890
5429.000000;0.462984
5428.000000;0.464284
5427.000000;0.465656
5426.000000;0.466920
5425.000000;0.468071
5424.000000;0.469249
5423.000000;0.470551
5422.000000;0.471999
5421.000000;0.473542
5420.000000;0.475046
5419.000000;0.476471
5418.000000;0.477943
5417.000000;0.479662
5416.000000;0.481686
5415.000000;0.483835
5414.000000;0.485888
5413.000000;0.487813
5412.000000;0.489749
5411.000000;0.491738
5410.000000;0.493708
5409.000000;0.495732
5408.000000;0.497975
5407.000000;0.500373
5406.000000;0.502652
5405.000000;0.504753
5404.000000;0.506964
5403.000000;0.509432
5402.000000;0.512072
5401.000000;0.514835
5400.000000;0.517675
5399.000000;0.520617
5398.000000;0.523711
5397.000000;0.526905
5396.000000;0.530142
5395.000000;0.533428
5394.000000;0.536811
5393.000000;0.540292
5392.000000;0.543839
5391.000000;0.547505
5390.000000;0.551322
5389.000000;0.555229
5388.000000;0.559176
5387.000000;0.563206
5386.000000;0.567336
5385.000000;0.571583
5384.000000;0.576007
5383.000000;0.580559
5382.000000;0.585207
5381.000000;0.590021
5380.000000;0.594988
5379.000000;0.600078
5378.000000;0.605365
5377.000000;0.610863
5376.000000;0.616458
5375.000000;0.622122
5374.000000;0.628010
5373.000000;0.634164
5372.000000;0.640429
5371.000000;0.646763
5370.000000;0.653301
5369.000000;0.660125
5368.000000;0.667182
5367.000000;0.674447
5366.000000;0.681939
5365.000000;0.689635
5364.000000;0.697456
5363.000000;0.705416
5362.000000;0.713756
5361.000000;0.722590
5360.000000;0.731679
5359.000000;0.740846
5358.000000;0.750246
5357.000000;0.760042
5356.000000;0.770149
5355.000000;0.780478
5354.000000;0.791113
5353.000000;0.802105
5352.000000;0.813271
5351.000000;0.824362
5350.000000;0.835473
5349.000000;0.847026
5348.000000;0.859209
5347.000000;0.871884
5346.000000;0.885019
5345.000000;0.898646
5344.000000;0.912601
5343.000000;0.926703
5342.000000;0.940968
5341.000000;0.955385
5340.000000;0.970011
5339.000000;0.985227
5338.000000;1.001317
5337.000000;1.017970
5336.000000;1.034506
5335.000000;1.050655
5334.000000;1.066879
5333.000000;1.083888
5332.000000;1.101829
5331.000000;1.120210
5330.000000;1.138721
5329.000000;1.157448
5328.000000;1.176318
5327.000000;1.195174
5326.000000;1.214246
5325.000000;1.233846
5324.000000;1.253913
5323.000000;1.274292
5322.000000;1.295049
5321.000000;1.316049
5320.000000;1.336656
5319.000000;1.356440
5318.000000;1.375893
5317.000000;1.395854
5316.000000;1.416460
5315.000000;1.437233
5314.000000;1.457726
5313.000000;1.477688
5312.000000;1.496991
5311.000000;1.515738
5310.000000;1.534128
5309.000000;1.551794
5308.000000;1.567859
5307.000000;1.582323
5306.000000;1.596712
5305.000000;1.612348
5304.000000;1.628642
5303.000000;1.643984
5302.000000;1.657646
5301.000000;1.669873
5300.000000;1.680836
5299.000000;1.690685
5298.000000;1.700099
5297.000000;1.709564
5296.000000;1.718677
5295.000000;1.727074
5294.000000;1.735012
5293.000000;1.742255
5292.000000;1.747499
5291.000000;1.750137
5290.000000;1.751791
5289.000000;1.754646
5288.000000;1.758939
5287.000000;1.763243
5286.000000;1.766539
5285.000000;1.768805
5284.000000;1.770157
5283.000000;1.770852
5282.000000;1.771765
5281.000000;1.773603
5280.000000;1.775869
5279.000000;1.777462
5278.000000;1.778013
5277.000000;1.777820
5276.000000;1.777086
5275.000000;1.776237
5274.000000;1.776300
5273.000000;1.777926
5272.000000;1.780517
5271.000000;1.782836
5270.000000;1.784125
5269.000000;1.784361
5268.000000;1.783815
5267.000000;1.782936
5266.000000;1.782155
5265.000000;1.781357
5264.000000;1.780031
5263.000000;1.778408
5262.000000;1.777606
5261.000000;1.778148
5260.000000;1.779426
5259.000000;1.780859
5258.000000;1.782261
5257.000000;1.782916
5256.000000;1.781752
5255.000000;1.778992
5254.000000;1.776650
5253.000000;1.776307
5252.000000;1.777157
5251.000000;1.777120
5250.000000;1.775420
5249.000000;1.773397
5248.000000;1.772918
5247.000000;1.774769
5246.000000;1.778192
5245.000000;1.781296
5244.000000;1.782334
5243.000000;1.781304
5242.000000;1.779964
5241.000000;1.779873
5240.000000;1.781050
5239.000000;1.782585
5238.000000;1.783577
5237.000000;1.783338
5236.000000;1.781739
5235.000000;1.779601
5234.000000;1.778255
5233.000000;1.778512
5232.000000;1.780063
5231.000000;1.781863
5230.000000;1.782775
5229.000000;1.782043
5228.000000;1.779824
5227.000000;1.777361
5226.000000;1.776003
5225.000000;1.775951
5224.000000;1.776517
5223.000000;1.777385
5222.000000;1.778678
5221.000000;1.779890
5220.000000;1.779935
5219.000000;1.778601
5218.000000;1.776915
5217.000000;1.775719
5216.000000;1.774761
5215.000000;1.773555
5214.000000;1.772398
5213.000000;1.771861
5212.000000;1.771993
5211.000000;1.772691
5210.000000;1.774104
5209.000000;1.776142
5208.000000;1.778322
5207.000000;1.780490
5206.000000;1.782899
5205.000000;1.785211
5204.000000;1.786324
5203.000000;1.785717
5202.000000;1.784228
5201.000000;1.783091
5200.000000;1.782880
5199.000000;1.783515
5198.000000;1.784379
5197.000000;1.784318
5196.000000;1.782435
5195.000000;1.779260
5194.000000;1.776424
5193.000000;1.774971
5192.000000;1.774801
5191.000000;1.775574
5190.000000;1.777128
5189.000000;1.779027
5188.000000;1.780695
5187.000000;1.782101
5186.000000;1.783429
5185.000000;1.784142
5184.000000;1.783547
5183.000000;1.782199
5182.000000;1.781313
5181.000000;1.780893
5180.000000;1.780027
5179.000000;1.779004
5178.000000;1.779233
5177.000000;1.780776
5176.000000;1.781838
5175.000000;1.781389
5174.000000;1.780536
5173.000000;1.780424
5172.000000;1.780517
5171.000000;1.779938
5170.000000;1.779112
5169.000000;1.779040
5168.000000;1.780047
5167.000000;1.781956
5166.000000;1.784287
5165.000000;1.785792
5164.000000;1.785327
5163.000000;1.783860
5162.000000;1.783833
5161.000000;1.785769
5160.000000;1.787403
5159.000000;1.787186
5158.000000;1.786712
5157.000000;1.788109
5156.000000;1.790857
5155.000000;1.792895
5154.000000;1.793507
5153.000000;1.793135
5152.000000;1.791458
5151.000000;1.787930
5150.000000;1.783764
5149.000000;1.781402
5148.000000;1.781940
5147.000000;1.784246
5146.000000;1.786469
5145.000000;1.787560
5144.000000;1.787544
5143.000000;1.787200
5142.000000;1.787364
5141.000000;1.788007
5140.000000;1.788290
5139.000000;1.787919
5138.000000;1.787681
5137.000000;1.788165
5136.000000;1.788923
5135.000000;1.789502
5134.000000;1.790296
5133.000000;1.791469
5132.000000;1.792066
5131.000000;1.791473
5130.000000;1.790875
5129.000000;1.791762
5128.000000;1.793644
5127.000000;1.794687
5126.000000;1.794081
5125.000000;1.792536
5124.000000;1.791005
5123.000000;1.790241
5122.000000;1.791123
5121.000000;1.793909
5120.000000;1.797130
5119.000000;1.798469
5118.000000;1.797044
5117.000000;1.794081
5116.000000;1.791411
5115.000000;1.790090
5114.000000;1.790298
5113.000000;1.791567
5112.000000;1.792914
5111.000000;1.793492
5110.000000;1.793439
5109.000000;1.793575
5108.000000;1.794196
5107.000000;1.794743
5106.000000;1.794560
5105.000000;1.793415
5104.000000;1.791524
5103.000000;1.789565
5102.000000;1.788434
5101.000000;1.788548
5100.000000;1.789550
5099.000000;1.791031
5098.000000;1.793101
5097.000000;1.795704
5096.000000;1.797794
5095.000000;1.798125
5094.000000;1.796837
5093.000000;1.795482
5092.000000;1.795429
5091.000000;1.796673
5090.000000;1.798131
5089.000000;1.798754
5088.000000;1.798250
5087.000000;1.797014
5086.000000;1.795546
5085.000000;1.794003
5084.000000;1.792417
5083.000000;1.791238
5082.000000;1.791249
5081.000000;1.792716
5080.000000;1.794805
5079.000000;1.796168
5078.000000;1.796106
5077.000000;1.794998
5076.000000;1.793705
5075.000000;1.792751
5074.000000;1.791965
5073.000000;1.790840
5072.000000;1.789276
5071.000000;1.787877
5070.000000;1.787419
5069.000000;1.788164
5068.000000;1.789829
5067.000000;1.791896
5066.000000;1.793642
5065.000000;1.794241
5064.000000;1.793426
5063.000000;1.791939
5062.000000;1.790856
5061.000000;1.790580
5060.000000;1.790788
5059.000000;1.791016
5058.000000;1.790916
5057.000000;1.790357
5056.000000;1.789810
5055.000000;1.790161
5054.000000;1.791378
5053.000000;1.791909
5052.000000;1.790445
5051.000000;1.787867
5050.000000;1.786248
5049.000000;1.786249
5048.000000;1.786807
5047.000000;1.787201
5046.000000;1.787885
5045.000000;1.789022
5044.000000;1.789706
5043.000000;1.789324
5042.000000;1.788516
5041.000000;1.788060
5040.000000;1.787758
5039.000000;1.787093
5038.000000;1.786172
5037.000000;1.785383
5036.000000;1.784838
5035.000000;1.784705
5034.000000;1.785352
5033.000000;1.786555
5032.000000;1.787156
5031.000000;1.786168
5030.000000;1.783860
5029.000000;1.781338
5028.000000;1.779549
5027.000000;1.778965
5026.000000;1.779557
5025.000000;1.780617
5024.000000;1.781077
5023.000000;1.780356
5022.000000;1.778716
5021.000000;1.776848
5020.000000;1.775594
5019.000000;1.775802
5018.000000;1.777464
5017.000000;1.778928
5016.000000;1.778077
5015.000000;1.774800
5014.000000;1.771383
5013.000000;1.769954
5012.000000;1.770551
5011.000000;1.771969
5010.000000;1.773177
5009.000000;1.773475
5008.000000;1.772522
5007.000000;1.770957
5006.000000;1.770097
5005.000000;1.770304
5004.000000;1.770364
5003.000000;1.769177
5002.000000;1.767205
5001.000000;1.765392
5000.000000;1.763529
4999.000000;1.760829
4998.000000;1.757598
4997.000000;1.755148
4996.000000;1.754253
4995.000000;1.754409
4994.000000;1.754544
4993.000000;1.753962
4992.000000;1.752607
4991.000000;1.750916
4990.000000;1.749457
4989.000000;1.748385
4988.000000;1.747225
4987.000000;1.745430
4986.000000;1.743077
4985.000000;1.740803
4984.000000;1.739134
4983.000000;1.738106
4982.000000;1.737388
4981.000000;1.736623
4980.000000;1.735665
4979.000000;1.734484
4978.000000;1.732813
4977.000000;1.730231
4976.000000;1.726946
4975.000000;1.724197
4974.000000;1.723273
4973.000000;1.724205
4972.000000;1.725833
4971.000000;1.726997
4970.000000;1.727091
4969.000000;1.725691
4968.000000;1.722599
4967.000000;1.718430
4966.000000;1.714283
4965.000000;1.710577
4964.000000;1.706933
4963.000000;1.703330
4962.000000;1.700523
4961.000000;1.698912
4960.000000;1.697835
4959.000000;1.696485
4958.000000;1.694878
4957.000000;1.693366
4956.000000;1.691886
4955.000000;1.690226
4954.000000;1.688514
4953.000000;1.686910
4952.000000;1.685209
4951.000000;1.683274
4950.000000;1.681478
4949.000000;1.680128
4948.000000;1.678791
4947.000000;1.676761
4946.000000;1.673990
4945.000000;1.671048
4944.000000;1.668356
4943.000000;1.665881
4942.000000;1.663442
4941.000000;1.660892
4940.000000;1.658129
4939.000000;1.655271
4938.000000;1.652674
4937.000000;1.650517
4936.000000;1.648426
4935.000000;1.645732
4934.000000;1.642108
4933.000000;1.637902
4932.000000;1.633993
4931.000000;1.631263
4930.000000;1.629907
4929.000000;1.629121
4928.000000;1.627721
4927.000000;1.625191
4926.000000;1.621940
4925.000000;1.618570
4924.000000;1.615276
4923.000000;1.612015
4922.000000;1.608875
4921.000000;1.606043
4920.000000;1.603583
4919.000000;1.601371
4918.000000;1.599146
4917.000000;1.596627
4916.000000;1.593818
4915.000000;1.591104
4914.000000;1.588732
4913.000000;1.586322
4912.000000;1.583337
4911.000000;1.580020
4910.000000;1.577266
4909.000000;1.575383
4908.000000;1.573500
4907.000000;1.570502
4906.000000;1.566229
4905.000000;1.561496
4904.000000;1.557253
4903.000000;1.553956
4902.000000;1.551398
4901.000000;1.548833
4900.000000;1.545563
4899.000000;1.541694
4898.000000;1.538095
4897.000000;1.535417
4896.000000;1.533428
4895.000000;1.531465
4894.000000;1.529175
4893.000000;1.526483
4892.000000;1.523213
4891.000000;1.519260
4890.000000;1.514989
4889.000000;1.511009
4888.000000;1.507548
4887.000000;1.504388
4886.000000;1.501373
4885.000000;1.498587
4884.000000;1.495940
4883.000000;1.493004
4882.000000;1.489495
4881.000000;1.485729
4880.000000;1.482353
4879.000000;1.479688
4878.000000;1.477490
4877.000000;1.475274
4876.000000;1.472691
4875.000000;1.469610
4874.000000;1.466123
4873.000000;1.462618
4872.000000;1.459623
4871.000000;1.457281
4870.000000;1.455046
4869.000000;1.452187
4868.000000;1.448639
4867.000000;1.445076
4866.000000;1.442051
4865.000000;1.439320
4864.000000;1.436179
4863.000000;1.432255
4862.000000;1.427817
4861.000000;1.423482
4860.000000;1.419797
4859.000000;1.416925
4858.000000;1.414493
4857.000000;1.411873
4856.000000;1.408793
4855.000000;1.405543
4854.000000;1.402438
4853.000000;1.399297
4852.000000;1.395750
4851.000000;1.391918
4850.000000;1.388403
4849.000000;1.385601
4848.000000;1.383284
4847.000000;1.380852
4846.000000;1.377828
4845.000000;1.374151
4844.000000;1.370176
4843.000000;1.366313
4842.000000;1.362614
4841.000000;1.358886
4840.000000;1.355281
4839.000000;1.352395
4838.000000;1.350472
4837.000000;1.348778
4836.000000;1.346251
4835.000000;1.342707
4834.000000;1.338954
4833.000000;1.335764
4832.000000;1.333170
4831.000000;1.330757
4830.000000;1.328179
4829.000000;1.325274
4828.000000;1.322055
4827.000000;1.318761
4826.000000;1.315686
4825.000000;1.312804
4824.000000;1.309771
4823.000000;1.306359
4822.000000;1.302718
4821.000000;1.299129
4820.000000;1.295719
4819.000000;1.292488
4818.000000;1.289445
4817.000000;1.286620
4816.000000;1.284063
4815.000000;1.281815
4814.000000;1.279733
4813.000000;1.277360
4812.000000;1.274204
4811.000000;1.270228
4810.000000;1.265922
4809.000000;1.261878
4808.000000;1.258437
4807.000000;1.255665
4806.000000;1.253393
4805.000000;1.251230
4804.000000;1.248758
4803.000000;1.245843
4802.000000;1.242676
4801.000000;1.239552
4800.000000;1.236687
4799.000000;1.234144
4798.000000;1.231712
4797.000000;1.228929
4796.000000;1.225497
4795.000000;1.221666
4794.000000;1.218020
4793.000000;1.214897
4792.000000;1.212238
4791.000000;1.209898
4790.000000;1.207788
4789.000000;1.205702
4788.000000;1.203350
4787.000000;1.200673
4786.000000;1.197892
4785.000000;1.195147
4784.000000;1.192335
4783.000000;1.189403
4782.000000;1.186514
4781.000000;1.183757
4780.000000;1.180941
4779.000000;1.177885
4778.000000;1.174761
4777.000000;1.171943
4776.000000;1.169580
4775.000000;1.167437
4774.000000;1.165112
4773.000000;1.162344
4772.000000;1.159205
4771.000000;1.156032
4770.000000;1.153102
4769.000000;1.150362
4768.000000;1.147604
4767.000000;1.144873
4766.000000;1.142459
4765.000000;1.140405
4764.000000;1.138274
4763.000000;1.135622
4762.000000;1.132570
4761.000000;1.129686
4760.000000;1.127353
4759.000000;1.125407
4758.000000;1.123374
4757.000000;1.120942
4756.000000;1.118197
4755.000000;1.115485
4754.000000;1.113052
4753.000000;1.110820
4752.000000;1.108521
4751.000000;1.106021
4750.000000;1.103444
4749.000000;1.100959
4748.000000;1.098569
4747.000000;1.096154
4746.000000;1.093644
4745.000000;1.091084
4744.000000;1.088580
4743.000000;1.086230
4742.000000;1.084052
4741.000000;1.081940
4740.000000;1.079714
4739.000000;1.077282
4738.000000;1.074737
4737.000000;1.072294
4736.000000;1.070150
4735.000000;1.068361
4734.000000;1.066785
4733.000000;1.065159
4732.000000;1.063286
4731.000000;1.061192
4730.000000;1.059026
4729.000000;1.056868
4728.000000;1.054701
4727.000000;1.052525
4726.000000;1.050383
4725.000000;1.048271
4724.000000;1.046159
4723.000000;1.044104
4722.000000;1.042233
4721.000000;1.040553
4720.000000;1.038884
4719.000000;1.037012
4718.000000;1.034866
4717.000000;1.032515
4716.000000;1.030110
4715.000000;1.027873
4714.000000;1.026025
4713.000000;1.024606
4712.000000;1.023364
4711.000000;1.021883
4710.000000;1.019895
4709.000000;1.017492
4708.000000;1.015073
4707.000000;1.013042
4706.000000;1.011511
4705.000000;1.010284
4704.000000;1.009114
4703.000000;1.007872
4702.000000;1.006451
4701.000000;1.004693
4700.000000;1.002579
4699.000000;1.000409
4698.000000;0.998552
4697.000000;0.997040
4696.000000;0.995595
4695.000000;0.994050
4694.000000;0.992519
4693.000000;0.991116
4692.000000;0.989752
4691.000000;0.988320
4690.000000;0.986906
4689.000000;0.985619
4688.000000;0.984356
4687.000000;0.982917
4686.000000;0.981305
4685.000000;0.979713
4684.000000;0.978221
4683.000000;0.976691
4682.000000;0.974994
4681.000000;0.973217
4680.000000;0.971575
4679.000000;0.970177
4678.000000;0.968964
4677.000000;0.967824
4676.000000;0.966712
4675.000000;0.965627
4674.000000;0.964539
4673.000000;0.963399
4672.000000;0.962215
4671.000000;0.961077
4670.000000;0.960064
4669.000000;0.959150
4668.000000;0.958220
4667.000000;0.957181
4666.000000;0.956002
4665.000000;0.954685
4664.000000;0.953249
4663.000000;0.951780
4662.000000;0.950419
4661.000000;0.949278
4660.000000;0.948344
4659.000000;0.947493
4658.000000;0.946578
4657.000000;0.945530
4656.000000;0.944372
4655.000000;0.943176
4654.000000;0.942003
4653.000000;0.940888
4652.000000;0.939862
4651.000000;0.938937
4650.000000;0.938096
4649.000000;0.937312
4648.000000;0.936601
4647.000000;0.935980
4646.000000;0.935386
4645.000000;0.934707
4644.000000;0.933917
4643.000000;0.933116
4642.000000;0.932396
4641.000000;0.931728
4640.000000;0.931008
4639.000000;0.930159
4638.000000;0.929145
4637.000000;0.927971
4636.000000;0.926737
4635.000000;0.925629
4634.000000;0.924767
4633.000000;0.924105
4632.000000;0.923548
4631.000000;0.923089
4630.000000;0.922732
4629.000000;0.922350
4628.000000;0.921759
4627.000000;0.920962
4626.000000;0.920174
4625.000000;0.919591
4624.000000;0.919189
4623.000000;0.918789
4622.000000;0.918251
4621.000000;0.917593
4620.000000;0.916963
4619.000000;0.916508
4618.000000;0.916230
4617.000000;0.915974
4616.000000;0.915601
4615.000000;0.915138
4614.000000;0.914717
4613.000000;0.914382
4612.000000;0.914054
4611.000000;0.913649
4610.000000;0.913156
4609.000000;0.912602
4608.000000;0.912026
4607.000000;0.911533
4606.000000;0.911269
4605.000000;0.911275
4604.000000;0.911383
4603.000000;0.911328
4602.000000;0.910965
4601.000000;0.910362
4600.000000;0.909709
4599.000000;0.909158
4598.000000;0.908748
4597.000000;0.908436
4596.000000;0.908168
4595.000000;0.907929
4594.000000;0.907765
4593.000000;0.907762
4592.000000;0.907963
4591.000000;0.908268
4590.000000;0.908467
4589.000000;0.908443
4588.000000;0.908314
4587.000000;0.908299
4586.000000;0.908460
4585.000000;0.908659
4584.000000;0.908760
4583.000000;0.908770
4582.000000;0.908756
4581.000000;0.908754
4580.000000;0.908787
4579.000000;0.908889
4578.000000;0.909035
4577.000000;0.909151
4576.000000;0.909236
4575.000000;0.909396
4574.000000;0.909712
4573.000000;0.910113
4572.000000;0.910451
4571.000000;0.910623
4570.000000;0.910631
4569.000000;0.910597
4568.000000;0.910749
4567.000000;0.911250
4566.000000;0.911974
4565.000000;0.912588
4564.000000;0.912932
4563.000000;0.913202
4562.000000;0.913671
4561.000000;0.914365
4560.000000;0.915128
4559.000000;0.915864
4558.000000;0.916578
4557.000000;0.917250
4556.000000;0.917868
4555.000000;0.918523
4554.000000;0.919309
4553.000000;0.920172
4552.000000;0.920956
4551.000000;0.921611
4550.000000;0.922216
4549.000000;0.922852
4548.000000;0.923539
4547.000000;0.924278
4546.000000;0.925057
4545.000000;0.925838
4544.000000;0.926612
4543.000000;0.927435
4542.000000;0.928332
4541.000000;0.929238
4540.000000;0.930095
4539.000000;0.930926
4538.000000;0.931743
4537.000000;0.932493
4536.000000;0.933183
4535.000000;0.933975
4534.000000;0.934997
4533.000000;0.936180
4532.000000;0.937381
4531.000000;0.938575
4530.000000;0.939757
4529.000000;0.940777
4528.000000;0.941510
4527.000000;0.942128
4526.000000;0.942950
4525.000000;0.944035
4524.000000;0.945093
4523.000000;0.945843
4522.000000;0.946302
4521.000000;0.946697
4520.000000;0.947243
4519.000000;0.948034
4518.000000;0.949007
4517.000000;0.949974
4516.000000;0.950781
4515.000000;0.951463
4514.000000;0.952202
4513.000000;0.953136
4512.000000;0.954259
4511.000000;0.955451
4510.000000;0.956530
4509.000000;0.957387
4508.000000;0.958168
4507.000000;0.959216
4506.000000;0.960669
4505.000000;0.962203
4504.000000;0.963360
4503.000000;0.964060
4502.000000;0.964609
4501.000000;0.965276
4500.000000;0.966103
4499.000000;0.967075
4498.000000;0.968182
4497.000000;0.969292
4496.000000;0.970216
4495.000000;0.970994
4494.000000;0.971937
4493.000000;0.973272
4492.000000;0.974897
4491.000000;0.976542
4490.000000;0.978047
4489.000000;0.979413
4488.000000;0.980721
4487.000000;0.982065
4486.000000;0.983476
4485.000000;0.984853
4484.000000;0.986068
4483.000000;0.987174
4482.000000;0.988392
4481.000000;0.989856
4480.000000;0.991472
4479.000000;0.993069
4478.000000;0.994583
4477.000000;0.996053
4476.000000;0.997513
4475.000000;0.998964
4474.000000;1.000370
4473.000000;1.001692
4472.000000;1.003000
4471.000000;1.004514
4470.000000;1.006416
4469.000000;1.008608
4468.000000;1.010764
4467.000000;1.012663
4466.000000;1.014360
4465.000000;1.016033
4464.000000;1.017785
4463.000000;1.019644
4462.000000;1.021630
4461.000000;1.023742
4460.000000;1.025929
4459.000000;1.028113
4458.000000;1.030230
4457.000000;1.032257
4456.000000;1.034236
4455.000000;1.036212
4454.000000;1.038106
4453.000000;1.039769
4452.000000;1.041263
4451.000000;1.042960
4450.000000;1.045164
4449.000000;1.047710
4448.000000;1.050150
4447.000000;1.052296
4446.000000;1.054382
4445.000000;1.056668
4444.000000;1.059133
4443.000000;1.061587
4442.000000;1.063892
4441.000000;1.065990
4440.000000;1.067920
4439.000000;1.069883
4438.000000;1.072135
4437.000000;1.074710
4436.000000;1.077366
4435.000000;1.079877
4434.000000;1.082277
4433.000000;1.084752
4432.000000;1.087394
4431.000000;1.090136
4430.000000;1.092831
4429.000000;1.095372
4428.000000;1.097782
4427.000000;1.100213
4426.000000;1.102767
4425.000000;1.105353
4424.000000;1.107844
4423.000000;1.110365
4422.000000;1.113221
4421.000000;1.116472
4420.000000;1.119735
4419.000000;1.122526
4418.000000;1.124747
4417.000000;1.126764
4416.000000;1.129076
4415.000000;1.131929
4414.000000;1.135165
4413.000000;1.138387
4412.000000;1.141308
4411.000000;1.143991
4410.000000;1.146733
4409.000000;1.149725
4408.000000;1.152882
4407.000000;1.155991
4406.000000;1.158937
4405.000000;1.161829
4404.000000;1.164904
4403.000000;1.168263
4402.000000;1.171660
4401.000000;1.174693
4400.000000;1.177290
4399.000000;1.179896
4398.000000;1.183020
4397.000000;1.186715
4396.000000;1.190589
4395.000000;1.194188
4394.000000;1.197245
4393.000000;1.199751
4392.000000;1.202041
4391.000000;1.204671
4390.000000;1.207910
4389.000000;1.211422
4388.000000;1.214689
4387.000000;1.217671
4386.000000;1.220735
4385.000000;1.224054
4384.000000;1.227451
4383.000000;1.230834
4382.000000;1.234397
4381.000000;1.238280
4380.000000;1.242345
4379.000000;1.246429
4378.000000;1.250570
4377.000000;1.254835
4376.000000;1.259106
4375.000000;1.263166
4374.000000;1.266856
4373.000000;1.270117
4372.000000;1.273054
4371.000000;1.276004
4370.000000;1.279328
4369.000000;1.283077
4368.000000;1.286976
4367.000000;1.290750
4366.000000;1.294313
4365.000000;1.297704
4364.000000;1.301101
4363.000000;1.304898
4362.000000;1.309414
4361.000000;1.314420
4360.000000;1.319208
4359.000000;1.323255
4358.000000;1.326653
4357.000000;1.329838
4356.000000;1.333157
4355.000000;1.336795
4354.000000;1.340838
4353.000000;1.345222
4352.000000;1.349754
4351.000000;1.354328
4350.000000;1.358984
4349.000000;1.363705
4348.000000;1.368282
4347.000000;1.372511
4346.000000;1.376427
4345.000000;1.380335
4344.000000;1.384629
4343.000000;1.389492
4342.000000;1.394633
4341.000000;1.399425
4340.000000;1.403538
4339.000000;1.407335
4338.000000;1.411374
4337.000000;1.415668
4336.000000;1.419806
4335.000000;1.423747
4334.000000;1.428055
4333.000000;1.433192
4332.000000;1.438914
4331.000000;1.444567
4330.000000;1.449719
4329.000000;1.454293
4328.000000;1.458305
4327.000000;1.461790
4326.000000;1.465030
4325.000000;1.468659
4324.000000;1.473334
4323.000000;1.479167
4322.000000;1.485513
4321.000000;1.491526
4320.000000;1.496939
4319.000000;1.502051
4318.000000;1.506948
4317.000000;1.511317
4316.000000;1.515328
4315.000000;1.520083
4314.000000;1.526540
4313.000000;1.534227
4312.000000;1.541654
4311.000000;1.547874
4310.000000;1.553101
4309.000000;1.557878
4308.000000;1.562371
4307.000000;1.566631
4306.000000;1.570945
4305.000000;1.575666
4304.000000;1.581010
4303.000000;1.587012
4302.000000;1.593361
4301.000000;1.599411
4300.000000;1.604859
4299.000000;1.610248
4298.000000;1.616200
4297.000000;1.622227
4296.000000;1.627068
4295.000000;1.630317
4294.000000;1.633003
4293.000000;1.636326
4292.000000;1.640519
4291.000000;1.645274
4290.000000;1.650579
4289.000000;1.656599
4288.000000;1.663104
4287.000000;1.669518
4286.000000;1.675490
4285.000000;1.681147
4284.000000;1.686831
4283.000000;1.692663
4282.000000;1.698383
4281.000000;1.703636
4280.000000;1.708500
4279.000000;1.713556
4278.000000;1.719112
4277.000000;1.724748
4276.000000;1.730225
4275.000000;1.736276
4274.000000;1.743657
4273.000000;1.751757
4272.000000;1.759144
4271.000000;1.765475
4270.000000;1.771880
4269.000000;1.779217
4268.000000;1.786817
4267.000000;1.793278
4266.000000;1.797901
4265.000000;1.801062
4264.000000;1.803851
4263.000000;1.807699
4262.000000;1.813676
4261.000000;1.821639
4260.000000;1.830302
4259.000000;1.838298
4258.000000;1.844863
4257.000000;1.849675
4256.000000;1.852837
4255.000000;1.855197
4254.000000;1.858186
4253.000000;1.862982
4252.000000;1.869830
4251.000000;1.877970
4250.000000;1.885978
4249.000000;1.892615
4248.000000;1.897968
4247.000000;1.903430
4246.000000;1.909998
4245.000000;1.917019
4244.000000;1.923114
4243.000000;1.927942
4242.000000;1.932100
4241.000000;1.936106
4240.000000;1.940707
4239.000000;1.947304
4238.000000;1.956354
4237.000000;1.965977
4236.000000;1.973702
4235.000000;1.979527
4234.000000;1.985937
4233.000000;1.994425
4232.000000;2.003394
4231.000000;2.010402
4230.000000;2.015314
4229.000000;2.020028
4228.000000;2.025795
4227.000000;2.031733
4226.000000;2.036133
4225.000000;2.038756
4224.000000;2.041376
4223.000000;2.046102
4222.000000;2.053290
4221.000000;2.061299
4220.000000;2.068563
4219.000000;2.075251
4218.000000;2.082086
4217.000000;2.088487
4216.000000;2.093192
4215.000000;2.096388
4214.000000;2.100086
4213.000000;2.106338
4212.000000;2.115568
4211.000000;2.126020
4210.000000;2.134552
4209.000000;2.139422
4208.000000;2.142720
4207.000000;2.148323
4206.000000;2.157037
4205.000000;2.165621
4204.000000;2.171590
4203.000000;2.176270
4202.000000;2.180623
4201.000000;2.181552
4200.000000;2.176914
4199.000000;2.171882
4198.000000;2.174751
4197.000000;2.187408
4196.000000;2.203338
4195.000000;2.215124
4194.000000;2.221699
4193.000000;2.226815
4192.000000;2.233716
4191.000000;2.243243
4190.000000;2.253812
4189.000000;2.261467
4188.000000;2.262996
4187.000000;2.261002
4186.000000;2.263025
4185.000000;2.274486
4184.000000;2.293952
4183.000000;2.314715
4182.000000;2.329838
4181.000000;2.336066
4180.000000;2.335228
4179.000000;2.332769
4178.000000;2.333406
4177.000000;2.337580
4176.000000;2.342910
4175.000000;2.348905
4174.000000;2.357590
4173.000000;2.368714
4172.000000;2.377620
4171.000000;2.380363
4170.000000;2.378996
4169.000000;2.379283
4168.000000;2.385854
4167.000000;2.399224
4166.000000;2.413207
4165.000000;2.418137
4164.000000;2.410831
4163.000000;2.399024
4162.000000;2.394756
4161.000000;2.404324
4160.000000;2.424081
4159.000000;2.443985
4158.000000;2.454824
4157.000000;2.454883
4156.000000;2.451090
4155.000000;2.451654
4154.000000;2.458227
4153.000000;2.466268
4152.000000;2.472261
4151.000000;2.478396
4150.000000;2.487083
4149.000000;2.493575
4148.000000;2.491521
4147.000000;2.483416
4146.000000;2.477980
4145.000000;2.479693
4144.000000;2.486779
4143.000000;2.498340
4142.000000;2.516146
4141.000000;2.537967
4140.000000;2.555704
4139.000000;2.564705
4138.000000;2.570184
4137.000000;2.577943
4136.000000;2.584488
4135.000000;2.582224
4134.000000;2.569977
4133.000000;2.554162
4132.000000;2.543012
4131.000000;2.543141
4130.000000;2.557631
4129.000000;2.582916
4128.000000;2.609273
4127.000000;2.627654
4126.000000;2.635613
4125.000000;2.635252
4124.000000;2.629933
4123.000000;2.624719
4122.000000;2.624405
4121.000000;2.627925
4120.000000;2.628171
4119.000000;2.621221
4118.000000;2.611897
4117.000000;2.607584
4116.000000;2.609273
4115.000000;2.611183
4114.000000;2.611831
4113.000000;2.616350
4112.000000;2.626523
4111.000000;2.640550
4110.000000;2.656377
4109.000000;2.670967
4108.000000;2.682641
4107.000000;2.694410
4106.000000;2.710577
4105.000000;2.729739
4104.000000;2.742934
4103.000000;2.742494
4102.000000;2.736832
4101.000000;2.743061
4100.000000;2.764890
4099.000000;2.786862
4098.000000;2.790935
4097.000000;2.778852
4096.000000;2.768602
4095.000000;2.772735
4094.000000;2.784903
4093.000000;2.784940
4092.000000;2.767350
4091.000000;2.748050
4090.000000;2.736521
4089.000000;2.728916
4088.000000;2.723566
4087.000000;2.727686
4086.000000;2.744268
4085.000000;2.764075
4084.000000;2.778378
4083.000000;2.788372
4082.000000;2.796069
4081.000000;2.797978
4080.000000;2.796970
4079.000000;2.806833
4078.000000;2.836868
4077.000000;2.873789
4076.000000;2.885769
4075.000000;2.858786
4074.000000;2.810212
4073.000000;2.765043
4072.000000;2.737895
4071.000000;2.735654
4070.000000;2.761360
4069.000000;2.807299
4068.000000;2.849892
4067.000000;2.864590
4066.000000;2.851595
4065.000000;2.829707
4064.000000;2.813371
4063.000000;2.810301
4062.000000;2.824889
4061.000000;2.852927
4060.000000;2.879581
4059.000000;2.890457
4058.000000;2.888830
4057.000000;2.894908
4056.000000;2.923729
4055.000000;2.967824
4054.000000;2.994348
4053.000000;2.976984
4052.000000;2.937829
4051.000000;2.911564
4050.000000;2.900634
4049.000000;2.887744
4048.000000;2.869643
4047.000000;2.863638
4046.000000;2.882933
4045.000000;2.917882
4044.000000;2.942573
4043.000000;2.943281
4042.000000;2.927419
4041.000000;2.901858
4040.000000;2.869393
4039.000000;2.839843
4038.000000;2.825983
4037.000000;2.831918
4036.000000;2.850474
4035.000000;2.870666
4034.000000;2.884729
4033.000000;2.891093
4032.000000;2.897321
4031.000000;2.915944
4030.000000;2.952572
4029.000000;2.997064
4028.000000;3.030043
4027.000000;3.044747
4026.000000;3.052632
4025.000000;3.062504
4024.000000;3.075548
4023.000000;3.096224
4022.000000;3.116570
4021.000000;3.106829
4020.000000;3.061249
4019.000000;3.014520
4018.000000;3.000073
4017.000000;3.029506
4016.000000;3.087892
4015.000000;3.128645
4014.000000;3.102357
4013.000000;3.030191
4012.000000;2.965319
4011.000000;2.934415
4010.000000;2.941816
4009.000000;2.969688
4008.000000;2.983287
4007.000000;2.964973
4006.000000;2.935614
4005.000000;2.922385
4004.000000;2.933040
4003.000000;2.962395
4002.000000;2.999368
4001.000000;3.022690
4000.000000;3.013527
3999.000000;2.989875
3998.000000;2.980174
3997.000000;2.980278
3996.000000;2.976494
3995.000000;2.974550
3994.000000;2.989420
3993.000000;3.026051
3992.000000;3.069568
3991.000000;3.099525
3990.000000;3.113477
3989.000000;3.123388
3988.000000;3.125460
3987.000000;3.109360
3986.000000;3.086420
3985.000000;3.076518
3984.000000;3.092109
3983.000000;3.131796
3982.000000;3.179789
3981.000000;3.215732
3980.000000;3.236899
3979.000000;3.259759
3978.000000;3.270819
3977.000000;3.219617
3976.000000;3.113249
3975.000000;3.020152
3974.000000;2.990297
3973.000000;3.037291
3972.000000;3.134298
3971.000000;3.209206
3970.000000;3.214367
3969.000000;3.202182
3968.000000;3.247629
3967.000000;3.399464
3966.000000;3.519778
3965.000000;3.405986
3964.000000;3.228400
3963.000000;3.084031
3962.000000;3.003564
3961.000000;2.991229
3960.000000;3.031685
3959.000000;3.096088
3958.000000;3.157933
3957.000000;3.233229
3956.000000;3.349275
3955.000000;3.441537
3954.000000;3.424106
3953.000000;3.369657
3952.000000;3.307212
3951.000000;3.251493
3950.000000;3.209138
3949.000000;3.162115
3948.000000;3.093371
3947.000000;3.021596
3946.000000;2.982924
3945.000000;2.978020
3944.000000;2.978480
3943.000000;2.974003
3942.000000;2.990789
3941.000000;3.073751
3940.000000;3.253284
3939.000000;3.503172
3938.000000;3.664638
3937.000000;3.556264
3936.000000;3.346154
3935.000000;3.189141
3934.000000;3.106180
3933.000000;3.074150
3932.000000;3.056500
3931.000000;3.035204
3930.000000;3.053341
3929.000000;3.135698
3928.000000;3.217235
3927.000000;3.247031
3926.000000;3.245819
3925.000000;3.220821
3924.000000;3.179176
3923.000000;3.166314
3922.000000;3.233414
3921.000000;3.405570
3920.000000;3.636859
3919.000000;3.756979
3918.000000;3.682529
3917.000000;3.540046
3916.000000;3.441632
3915.000000;3.432158
3914.000000;3.526124
3913.000000;3.724108
3912.000000;3.990029
3911.000000;4.099266
3910.000000;3.911288
3909.000000;3.734998
3908.000000;3.668914
3907.000000;3.680731
3906.000000;3.703306
3905.000000;3.695530
3904.000000;3.664237
3903.000000;3.614275
3902.000000;3.533733
3901.000000;3.438810
3900.000000;3.369153
3899.000000;3.347356
3898.000000;3.391626
3897.000000;3.515989
3896.000000;3.681873
3895.000000;3.840077
3894.000000;4.177473
3893.000000;4.328718
3892.000000;4.145270
3891.000000;4.231982
3890.000000;4.025961
3889.000000;3.939659
3888.000000;3.850905
3887.000000;3.727262
3886.000000;3.656345
3885.000000;3.674247
3884.000000;3.896809
3883.000000;4.082255
3882.000000;4.007642
3881.000000;4.225963
3880.000000;4.438999
3879.000000;4.303943
3878.000000;3.893760
3877.000000;3.725123
3876.000000;3.690452
3875.000000;3.619618
3874.000000;3.525147
3873.000000;3.456164
3872.000000;3.443509
3871.000000;3.460553
3870.000000;3.466400
3869.000000;3.471249
3868.000000;3.484721
3867.000000;3.543971
3866.000000;3.698449
3865.000000;4.015224
3864.000000;4.043550
3863.000000;3.786917
3862.000000;3.966836
3861.000000;4.161506
3860.000000;3.935384
3859.000000;3.840461
3858.000000;3.696891
3857.000000;3.600643
3856.000000;3.599392
3855.000000;3.676316
3854.000000;3.863874
3853.000000;4.199802
3852.000000;5.020845
3851.000000;5.114339
3850.000000;4.935966
3849.000000;4.492515
3848.000000;4.316290
3847.000000;3.972467
3846.000000;3.629186
3845.000000;3.491253
3844.000000;3.483649
3843.000000;3.553741
3842.000000;3.692147
3841.000000;3.904319
3840.000000;4.125890
3839.000000;4.223598
3838.000000;4.535013
3837.000000;4.328953
3836.000000;3.846680
3835.000000;3.736069
3834.000000;3.770792
3833.000000;3.959253
3832.000000;4.223656
3831.000000;4.144199
3830.000000;4.034679
3829.000000;3.993026
3828.000000;3.986233
3827.000000;4.071873
3826.000000;4.268525
3825.000000;4.657676
3824.000000;4.143791
3823.000000;4.093373
3822.000000;4.450412
3821.000000;4.500503
3820.000000;4.280576
3819.000000;4.196469
3818.000000;4.201070
3817.000000;4.148120
3816.000000;4.080541
3815.000000;4.107577
3814.000000;3.991859
3813.000000;3.807638
3812.000000;3.776209
3811.000000;3.836562
3810.000000;3.925539
3809.000000;3.899433
3808.000000;3.787001
3807.000000;3.728288
3806.000000;3.748297
3805.000000;3.865160
3804.000000;4.085461
3803.000000;4.255163
3802.000000;4.117609
3801.000000;3.878218
3800.000000;3.714799
3799.000000;3.663320
3798.000000;3.706213
3797.000000;3.800630
3796.000000;3.943189
3795.000000;4.160662
3794.000000;4.233962
3793.000000;4.078992
3792.000000;3.898481
3791.000000;3.762070
3790.000000;3.748706
3789.000000;3.813648
3788.000000;3.806148
3787.000000;3.694942
3786.000000;3.580762
3785.000000;3.516426
3784.000000;3.550448
3783.000000;3.748888
3782.000000;3.695985
3781.000000;3.495376
3780.000000;3.528863
3779.000000;3.749292
3778.000000;4.206395
3777.000000;4.234351
3776.000000;4.084605
3775.000000;4.112759
3774.000000;3.953250
3773.000000;3.685629
3772.000000;3.517163
3771.000000;3.508923
3770.000000;3.639517
3769.000000;3.865200
3768.000000;4.294587
3767.000000;4.392120
3766.000000;3.894489
3765.000000;3.711577
3764.000000;3.691449
3763.000000;3.918788
3762.000000;3.997903
3761.000000;3.650355
3760.000000;3.597566
3759.000000;3.678458
3758.000000;3.822838
3757.000000;3.964196
3756.000000;4.419162
3755.000000;4.562785
3754.000000;4.036032
3753.000000;4.089539
3752.000000;4.621686
3751.000000;4.554383
3750.000000;4.179193
3749.000000;4.194545
3748.000000;4.266939
3747.000000;4.211178
3746.000000;4.049595
3745.000000;3.996023
3744.000000;4.233138
3743.000000;4.186757
3742.000000;3.859683
3741.000000;3.789528
3740.000000;3.795327
3739.000000;3.712061
3738.000000;3.594511
3737.000000;3.538079
3736.000000;3.532415
3735.000000;3.565584
3734.000000;3.508959
3733.000000;3.391116
3732.000000;3.486653
3731.000000;3.823214
3730.000000;3.921342
3729.000000;3.639733
3728.000000;3.478915
3727.000000;3.409214
3726.000000;3.443190
3725.000000;3.861540
3724.000000;3.806724
3723.000000;3.512287
3722.000000;3.864042
3721.000000;3.787011
3720.000000;3.597848
3719.000000;3.684443
3718.000000;3.699672
3717.000000;3.647789
3716.000000;3.651209
3715.000000;3.638227
3714.000000;3.856111
3713.000000;3.923097
3712.000000;3.540236
3711.000000;3.484545
3710.000000;3.593004
3709.000000;3.678596
3708.000000;3.638712
3707.000000;3.616617
3706.000000;3.650004
3705.000000;3.680995
3704.000000;3.701840
3703.000000;3.859444
3702.000000;4.084583
3701.000000;3.778128
3700.000000;3.485404
3699.000000;3.332092
3698.000000;3.294787
3697.000000;3.388084
3696.000000;3.668357
3695.000000;4.404765
3694.000000;4.578064
3693.000000;4.306817
3692.000000;4.339694
3691.000000;4.392049
3690.000000;4.260931
3689.000000;4.038217
3688.000000;3.972421
3687.000000;3.936971
3686.000000;3.830149
3685.000000;3.688591
3684.000000;3.572325
3683.000000;3.536237
3682.000000;3.594237
3681.000000;3.689705
3680.000000;3.701009
3679.000000;3.650325
3678.000000;3.676160
3677.000000;3.841236
3676.000000;3.991702
3675.000000;4.100748
3674.000000;4.462926
3673.000000;4.176865
3672.000000;3.889921
3671.000000;3.882001
3670.000000;4.087295
3669.000000;4.016259
3668.000000;3.716951
3667.000000;3.665020
3666.000000;3.704048
3665.000000;3.660889
3664.000000;3.511094
3663.000000;3.381758
3662.000000;3.359349
3661.000000;3.429943
3660.000000;3.498751
3659.000000;3.459272
3658.000000;3.393088
3657.000000;3.410187
3656.000000;3.592873
3655.000000;4.070697
3654.000000;4.433391
3653.000000;4.306030
3652.000000;4.231609
3651.000000;4.039867
3650.000000;4.063864
3649.000000;4.321842
3648.000000;4.725629
3647.000000;4.517956
3646.000000;4.237871
3645.000000;4.006407
3644.000000;3.844860
3643.000000;3.779301
3642.000000;3.762636
3641.000000;3.887061
3640.000000;4.266994
3639.000000;4.161832
3638.000000;3.840701
3637.000000;3.668154
3636.000000;3.575793
3635.000000;3.702734
3634.000000;4.345361
3633.000000;3.891151
3632.000000;3.760785
3631.000000;4.015705
3630.000000;3.848874
3629.000000;3.663115
3628.000000;3.729236
3627.000000;4.077618
3626.000000;4.071152
3625.000000;4.023169
3624.000000;3.959661
3623.000000;3.695769
3622.000000;3.528537
3621.000000;3.417174
3620.000000;3.374521
3619.000000;3.431979
3618.000000;3.675815
3617.000000;3.835886
3616.000000;3.617859
3615.000000;3.517500
3614.000000;3.501801
3613.000000;3.512661
3612.000000;3.585614
3611.000000;3.741629
3610.000000;3.863863
3609.000000;3.861178
3608.000000;3.876226
3607.000000;4.041839
3606.000000;4.016572
3605.000000;3.818848
3604.000000;3.602801
3603.000000;3.383614
3602.000000;3.279775
3601.000000;3.294811
3600.000000;3.410478
3599.000000;3.553248
3598.000000;3.645649
3597.000000;3.786873
3596.000000;3.685941
3595.000000;3.384823
3594.000000;3.307286
3593.000000;3.549171
3592.000000;3.605933
3591.000000;3.345199
3590.000000;3.349239
3589.000000;3.424513
3588.000000;3.496943
3587.000000;3.481371
3586.000000;3.300090
3585.000000;3.231530
3584.000000;3.304809
3583.000000;3.381677
3582.000000;3.401379
3581.000000;3.389892
3580.000000;3.399120
3579.000000;3.566080
3578.000000;4.044838
3577.000000;3.793624
3576.000000;3.583511
3575.000000;3.567448
3574.000000;3.575466
3573.000000;3.655014
3572.000000;3.686390
3571.000000;3.531273
3570.000000;3.414665
3569.000000;3.406268
3568.000000;3.431958
3567.000000;3.399898
3566.000000;3.307164
3565.000000;3.208445
3564.000000;3.249362
3563.000000;3.540648
3562.000000;3.641987
3561.000000;3.475773
3560.000000;3.406681
3559.000000;3.463245
3558.000000;3.698054
3557.000000;3.724283
3556.000000;3.517430
3555.000000;3.515361
3554.000000;3.729932
3553.000000;3.640054
3552.000000;3.393183
3551.000000;3.444328
3550.000000;3.728012
3549.000000;3.609597
3548.000000;3.415465
3547.000000;3.335981
3546.000000;3.288594
3545.000000;3.324162
3544.000000;3.473489
3543.000000;3.456967
3542.000000;3.354958
3541.000000;3.407251
3540.000000;3.516562
3539.000000;3.631780
3538.000000;3.686431
3537.000000;3.635153
3536.000000;3.559684
3535.000000;3.581988
3534.000000;3.711920
3533.000000;3.868296
3532.000000;3.922425
3531.000000;3.794527
3530.000000;3.630078
3529.000000;3.489084
3528.000000;3.381085
3527.000000;3.335703
3526.000000;3.329257
3525.000000;3.267922
3524.000000;3.178349
3523.000000;3.161799
3522.000000;3.253563
3521.000000;3.393303
3520.000000;3.425251
3519.000000;3.395128
3518.000000;3.446102
3517.000000;3.666184
3516.000000;4.233038
3515.000000;4.427950
3514.000000;4.074931
3513.000000;3.892410
3512.000000;3.618879
3511.000000;3.478747
3510.000000;3.477757
3509.000000;3.607066
3508.000000;3.693336
3507.000000;3.551108
3506.000000;3.460554
3505.000000;3.450874
3504.000000;3.454390
3503.000000;3.447625
3502.000000;3.443906
3501.000000;3.451608
3500.000000;3.509585
3499.000000;3.637570
3498.000000;3.856906
3497.000000;4.129237
3496.000000;4.307383
3495.000000;4.604237
3494.000000;4.051854
3493.000000;3.761238
3492.000000;3.797934
3491.000000;3.954379
3490.000000;3.781600
3489.000000;3.552319
3488.000000;3.509375
3487.000000;3.617092
3486.000000;3.694053
3485.000000;3.616881
3484.000000;3.583309
3483.000000;3.628758
3482.000000;3.745666
3481.000000;3.889284
3480.000000;3.978696
3479.000000;3.889207
3478.000000;3.635845
3477.000000;3.474932
3476.000000;3.443945
3475.000000;3.510387
3474.000000;3.633814
3473.000000;3.757547
3472.000000;3.822378
3471.000000;3.786552
3470.000000;3.683343
3469.000000;3.584297
3468.000000;3.555499
3467.000000;3.617999
3466.000000;3.829993
3465.000000;4.338168
3464.000000;4.392230
3463.000000;4.081920
3462.000000;3.983935
3461.000000;3.827980
3460.000000;3.751025
3459.000000;3.854438
3458.000000;4.157009
3457.000000;4.923509
3456.000000;4.476973
3455.000000;3.893816
3454.000000;3.681191
3453.000000;3.569194
3452.000000;3.470154
3451.000000;3.395441
3450.000000;3.398761
3449.000000;3.521349
3448.000000;3.787501
3447.000000;4.098943
3446.000000;4.024992
3445.000000;3.820201
3444.000000;3.659502
3443.000000;3.580731
3442.000000;3.636260
3441.000000;3.873693
3440.000000;4.385153
3439.000000;4.478020
3438.000000;4.052926
3437.000000;3.783707
3436.000000;3.694424
3435.000000;3.766995
3434.000000;3.935572
3433.000000;3.971210
3432.000000;3.683855
3431.000000;3.459138
3430.000000;3.375703
3429.000000;3.381631
3428.000000;3.427405
3427.000000;3.534147
3426.000000;3.622651
3425.000000;3.491807
3424.000000;3.390231
3423.000000;3.406405
3422.000000;3.490149
3421.000000;3.574269
3420.000000;3.651480
3419.000000;3.759809
3418.000000;4.038708
3417.000000;4.818058
3416.000000;3.940639
3415.000000;3.508052
3414.000000;3.317352
3413.000000;3.280692
3412.000000;3.387399
3411.000000;3.757020
3410.000000;4.005684
3409.000000;3.556796
3408.000000;3.448833
3407.000000;3.479089
3406.000000;3.605186
3405.000000;3.823213
3404.000000;3.913692
3403.000000;3.807671
3402.000000;3.708246
3401.000000;3.731696
3400.000000;3.720578
3399.000000;3.691107
3398.000000;3.838445
3397.000000;3.911911
3396.000000;3.680347
3395.000000;3.537229
3394.000000;3.456804
3393.000000;3.424858
3392.000000;3.455211
3391.000000;3.466021
3390.000000;3.495189
3389.000000;3.660406
3388.000000;3.906981
3387.000000;3.903367
3386.000000;3.675438
3385.000000;3.519834
3384.000000;3.506309
3383.000000;3.620630
3382.000000;3.922311
3381.000000;4.165123
3380.000000;3.829478
3379.000000;3.631889
3378.000000;3.626025
3377.000000;3.770674
3376.000000;3.886060
3375.000000;3.910209
3374.000000;4.018266
3373.000000;4.090182
3372.000000;3.866687
3371.000000;3.652821
3370.000000;3.605281
3369.000000;3.833659
3368.000000;4.234679
3367.000000;4.166223
3366.000000;4.510102
3365.000000;3.948467
3364.000000;3.920956
3363.000000;4.607682
3362.000000;3.862712
3361.000000;3.705764
3360.000000;3.616508
3359.000000;3.459672
3358.000000;3.474567
3357.000000;3.653918
3356.000000;3.911363
3355.000000;3.841258
3354.000000;3.638258
3353.000000;3.570248
3352.000000;3.709262
3351.000000;4.232177
3350.000000;4.066362
3349.000000;3.767857
3348.000000;3.844953
3347.000000;3.759018
3346.000000;3.599774
3345.000000;3.551997
3344.000000;3.536224
3343.000000;3.500843
3342.000000;3.461282
3341.000000;3.441816
3340.000000;3.402025
3339.000000;3.335631
3338.000000;3.308162
3337.000000;3.381822
3336.000000;3.545459
3335.000000;3.676995
3334.000000;3.733908
3333.000000;3.713349
3332.000000;3.603509
3331.000000;3.499154
3330.000000;3.412441
3329.000000;3.371622
3328.000000;3.440878
3327.000000;3.629637
3326.000000;3.729467
3325.000000;3.734111
3324.000000;4.007535
3323.000000;4.496543
3322.000000;4.282427
3321.000000;4.023829
3320.000000;3.783612
3319.000000;3.615278
3318.000000;3.551411
3317.000000;3.540290
3316.000000;3.573397
3315.000000;3.737370
3314.000000;3.853640
3313.000000;3.689071
3312.000000;3.662425
3311.000000;3.814864
3310.000000;3.945059
3309.000000;4.018475
3308.000000;3.981255
3307.000000;3.809094
3306.000000;3.725809
3305.000000;3.714294
3304.000000;4.010219
3303.000000;4.385105
3302.000000;3.821989
3301.000000;3.745596
3300.000000;3.749648
3299.000000;3.703326
3298.000000;3.710854
3297.000000;3.810574
3296.000000;4.386474
3295.000000;4.404215
3294.000000;3.968764
3293.000000;3.930539
3292.000000;3.935449
3291.000000;4.114303
3290.000000;4.013195
3289.000000;3.706800
3288.000000;3.571574
3287.000000;3.562814
3286.000000;3.635819
3285.000000;3.679589
3284.000000;3.746895
3283.000000;3.829463
3282.000000;3.731588
3281.000000;3.560132
3280.000000;3.458245
3279.000000;3.450488
3278.000000;3.514937
3277.000000;3.573216
3276.000000;3.623604
3275.000000;3.705722
3274.000000;3.631108
3273.000000;3.489603
3272.000000;3.461638
3271.000000;3.485855
3270.000000;3.497476
3269.000000;3.467754
3268.000000;3.482195
3267.000000;3.620632
3266.000000;3.523365
3265.000000;3.324830
3264.000000;3.317800
3263.000000;3.501436
3262.000000;3.787725
3261.000000;3.829479
3260.000000;3.812698
3259.000000;3.802144
3258.000000;3.811228
3257.000000;3.906169
3256.000000;4.169995
3255.000000;5.159761
3254.000000;4.117232
3253.000000;4.052548
3252.000000;4.535920
3251.000000;4.069671
3250.000000;3.972554
3249.000000;3.936068
3248.000000;3.709897
3247.000000;3.604297
3246.000000;3.759071
3245.000000;4.154308
3244.000000;3.687355
3243.000000;3.388274
3242.000000;3.304974
3241.000000;3.313892
3240.000000;3.426168
3239.000000;3.705443
3238.000000;4.339011
3237.000000;4.113801
3236.000000;3.837910
3235.000000;3.755915
3234.000000;3.643406
3233.000000;3.558218
3232.000000;3.471366
3231.000000;3.443215
3230.000000;3.468014
3229.000000;3.423027
3228.000000;3.328558
3227.000000;3.302643
3226.000000;3.356209
3225.000000;3.479830
3224.000000;3.710087
3223.000000;4.124522
3222.000000;4.209857
3221.000000;3.813909
3220.000000;3.658065
3219.000000;3.736493
3218.000000;4.022477
3217.000000;3.980588
3216.000000;3.718450
3215.000000;3.695531
3214.000000;3.886787
3213.000000;3.951485
3212.000000;3.786698
3211.000000;3.742593
3210.000000;3.756349
3209.000000;3.737552
3208.000000;3.700619
3207.000000;3.776661
3206.000000;3.840907
3205.000000;3.727556
3204.000000;3.713176
3203.000000;3.743292
3202.000000;3.699398
3201.000000;3.636773
3200.000000;3.555666
3199.000000;3.498600
3198.000000;3.517517
3197.000000;3.745042
3196.000000;4.099025
3195.000000;3.874319
3194.000000;3.710722
3193.000000;3.686018
3192.000000;3.811631
3191.000000;4.043235
3190.000000;4.115605
3189.000000;4.037446
3188.000000;3.694510
3187.000000;3.506069
3186.000000;3.473084
3185.000000;3.650286
3184.000000;4.069051
3183.000000;4.038628
3182.000000;4.553231
3181.000000;4.109988
3180.000000;3.900583
3179.000000;4.803696
3178.000000;4.088413
3177.000000;4.167114
3176.000000;4.107667
3175.000000;3.621340
3174.000000;3.494360
3173.000000;3.603855
3172.000000;3.885620
3171.000000;3.652514
3170.000000;3.506601
3169.000000;3.621033
3168.000000;3.793458
3167.000000;3.911033
3166.000000;3.854255
3165.000000;3.652830
3164.000000;3.524537
3163.000000;3.517045
3162.000000;3.582942
3161.000000;3.786716
3160.000000;4.252892
3159.000000;3.992187
3158.000000;3.623606
3157.000000;3.501642
3156.000000;3.503030
3155.000000;3.749535
3154.000000;4.060654
3153.000000;3.797228
3152.000000;3.703875
3151.000000;3.936862
3150.000000;4.170771
3149.000000;3.790854
3148.000000;3.709353
3147.000000;3.836638
3146.000000;3.830499
3145.000000;3.737055
3144.000000;3.848810
3143.000000;4.255286
3142.000000;3.898748
3141.000000;3.628089
3140.000000;3.643508
3139.000000;3.671981
3138.000000;3.569905
3137.000000;3.517898
3136.000000;3.572071
3135.000000;3.710227
3134.000000;3.866830
3133.000000;3.781429
3132.000000;3.612946
3131.000000;3.525873
3130.000000;3.553055
3129.000000;3.685091
3128.000000;3.910910
3127.000000;4.247512
3126.000000;3.920680
3125.000000;3.519387
3124.000000;3.311709
3123.000000;3.243624
3122.000000;3.313139
3121.000000;3.492976
3120.000000;3.605373
3119.000000;3.563580
3118.000000;3.632535
3117.000000;3.682892
3116.000000;3.559252
3115.000000;3.507886
3114.000000;3.742740
3113.000000;4.009341
3112.000000;3.631611
3111.000000;3.527354
3110.000000;3.682155
3109.000000;4.001131
3108.000000;3.704660
3107.000000;3.351986
3106.000000;3.206083
3105.000000;3.153474
3104.000000;3.196632
3103.000000;3.329968
3102.000000;3.573968
3101.000000;3.813503
3100.000000;3.742088
3099.000000;3.687369
3098.000000;3.770218
3097.000000;3.937173
3096.000000;4.264402
3095.000000;4.734798
3094.000000;4.575542
3093.000000;4.349789
3092.000000;4.518478
3091.000000;4.198732
3090.000000;3.847477
3089.000000;3.843260
3088.000000;3.782644
3087.000000;3.615640
3086.000000;3.668383
3085.000000;3.716128
3084.000000;3.521551
3083.000000;3.387182
3082.000000;3.399801
3081.000000;3.541922
3080.000000;3.719586
3079.000000;4.171324
3078.000000;4.080015
3077.000000;3.515703
3076.000000;3.336843
3075.000000;3.296410
3074.000000;3.319409
3073.000000;3.358992
3072.000000;3.401375
3071.000000;3.458159
3070.000000;3.467061
3069.000000;3.476975
3068.000000;3.565660
3067.000000;3.792413
3066.000000;4.265379
3065.000000;4.229350
3064.000000;3.808260
3063.000000;3.612832
3062.000000;3.570041
3061.000000;3.608749
3060.000000;3.583393
3059.000000;3.540704
3058.000000;3.591966
3057.000000;3.645069
3056.000000;3.571597
3055.000000;3.470313
3054.000000;3.431632
3053.000000;3.462722
3052.000000;3.546060
3051.000000;3.664918
3050.000000;3.755544
3049.000000;3.706484
3048.000000;3.578992
3047.000000;3.507307
3046.000000;3.517674
3045.000000;3.571968
3044.000000;3.660664
3043.000000;3.806920
3042.000000;3.967238
3041.000000;3.996054
3040.000000;3.810698
3039.000000;3.575763
3038.000000;3.431859
3037.000000;3.454696
3036.000000;3.533607
3035.000000;3.424882
3034.000000;3.284867
3033.000000;3.234876
3032.000000;3.272156
3031.000000;3.415806
3030.000000;3.877343
3029.000000;4.112348
3028.000000;3.642050
3027.000000;3.537125
3026.000000;3.478144
3025.000000;3.471372
3024.000000;3.556917
3023.000000;3.626047
3022.000000;3.515006
3021.000000;3.396824
3020.000000;3.408688
3019.000000;3.514473
3018.000000;3.639269
3017.000000;3.697964
3016.000000;3.666102
3015.000000;3.504321
3014.000000;3.353174
3013.000000;3.316314
3012.000000;3.418141
3011.000000;3.679853
3010.000000;3.855773
3009.000000;3.819798
3008.000000;3.946735
3007.000000;3.853053
3006.000000;3.589490
3005.000000;3.510488
3004.000000;3.552702
3003.000000;3.671923
3002.000000;4.176154
3001.000000;3.947921
3000.000000;3.407528
2999.000000;3.256576
2998.000000;3.273288
2997.000000;3.463491
2996.000000;3.677807
2995.000000;3.589873
2994.000000;3.473655
2993.000000;3.443760
2992.000000;3.514613
2991.000000;3.637771
2990.000000;3.755901
2989.000000;4.017860
2988.000000;4.085009
2987.000000;3.897001
2986.000000;4.046615
2985.000000;3.893808
2984.000000;3.620884
2983.000000;3.618938
2982.000000;3.764093
2981.000000;3.832942
2980.000000;3.831777
2979.000000;3.885823
2978.000000;3.763503
2977.000000;3.640877
2976.000000;3.683390
2975.000000;3.779341
2974.000000;3.730779
2973.000000;3.736578
2972.000000;4.153695
2971.000000;4.078264
2970.000000;3.671228
2969.000000;3.555352
2968.000000;3.466362
2967.000000;3.408913
2966.000000;3.390850
2965.000000;3.406097
2964.000000;3.462685
2963.000000;3.563668
2962.000000;3.869741
2961.000000;3.937928
2960.000000;3.475023
2959.000000;3.290516
2958.000000;3.273151
2957.000000;3.402457
2956.000000;3.753314
2955.000000;3.768986
2954.000000;3.506211
2953.000000;3.502947
2952.000000;3.549971
2951.000000;3.450095
2950.000000;3.376325
2949.000000;3.415337
2948.000000;3.502110
2947.000000;3.568229
2946.000000;3.582737
2945.000000;3.556379
2944.000000;3.487544
2943.000000;3.443216
2942.000000;3.436293
2941.000000;3.514535
2940.000000;3.908900
2939.000000;3.796559
2938.000000;3.437926
2937.000000;3.363935
2936.000000;3.401949
2935.000000;3.474160
2934.000000;3.480549
2933.000000;3.424422
2932.000000;3.416360
2931.000000;3.497144
2930.000000;3.754144
2929.000000;4.000511
2928.000000;3.727729
2927.000000;3.641778
2926.000000;3.568153
2925.000000;3.409439
2924.000000;3.361495
2923.000000;3.441347
2922.000000;3.705967
2921.000000;4.187487
2920.000000;4.113019
2919.000000;4.115967
2918.000000;4.239814
2917.000000;3.883872
2916.000000;3.733605
2915.000000;3.726689
2914.000000;3.740700
2913.000000;3.748061
2912.000000;3.803699
2911.000000;3.962671
2910.000000;4.011462
2909.000000;3.769866
2908.000000;3.543237
2907.000000;3.469065
2906.000000;3.570375
2905.000000;3.733203
2904.000000;4.054807
2903.000000;4.438767
2902.000000;3.697752
2901.000000;3.390142
2900.000000;3.272165
2899.000000;3.278782
2898.000000;3.391565
2897.000000;3.524157
2896.000000;3.597869
2895.000000;3.951816
2894.000000;4.222011
2893.000000;3.644088
2892.000000;3.530428
2891.000000;3.591657
2890.000000;3.897890
2889.000000;4.443561
2888.000000;4.101527
2887.000000;4.148740
2886.000000;4.141587
2885.000000;3.701952
2884.000000;3.458986
2883.000000;3.360935
2882.000000;3.347041
2881.000000;3.396972
2880.000000;3.475270
2879.000000;3.552807
2878.000000;3.621290
2877.000000;3.837400
2876.000000;4.216706
2875.000000;4.042995
2874.000000;4.118932
2873.000000;4.227666
2872.000000;3.874713
2871.000000;3.665534
2870.000000;3.583670
2869.000000;3.559416
2868.000000;3.519935
2867.000000;3.501236
2866.000000;3.574297
2865.000000;3.700728
2864.000000;3.719574
2863.000000;3.739037
2862.000000;3.866364
2861.000000;3.906234
2860.000000;3.841660
2859.000000;3.688113
2858.000000;3.441654
2857.000000;3.257235
2856.000000;3.198308
2855.000000;3.281705
2854.000000;3.556133
2853.000000;3.881769
2852.000000;3.821385
2851.000000;3.764039
2850.000000;3.692412
2849.000000;3.680841
2848.000000;3.850889
2847.000000;4.035248
2846.000000;4.086140
2845.000000;4.125312
2844.000000;3.948561
2843.000000;3.873827
2842.000000;4.079170
2841.000000;4.082729
2840.000000;3.749127
2839.000000;3.592898
2838.000000;3.635573
2837.000000;3.716148
2836.000000;3.649743
2835.000000;3.650534
2834.000000;3.869012
2833.000000;4.577169
2832.000000;4.274350
2831.000000;4.141320
2830.000000;4.678436
2829.000000;4.114788
2828.000000;3.847624
2827.000000;3.799600
2826.000000;3.739886
2825.000000;3.854845
2824.000000;4.275833
2823.000000;3.758703
2822.000000;3.443325
2821.000000;3.325439
2820.000000;3.266925
2819.000000;3.243679
2818.000000;3.261124
2817.000000;3.323710
2816.000000;3.326550
2815.000000;3.248036
2814.000000;3.207976
2813.000000;3.252257
2812.000000;3.363518
2811.000000;3.515921
2810.000000;3.701430
2809.000000;3.836210
2808.000000;3.995504
2807.000000;4.142298
2806.000000;3.785562
2805.000000;3.539493
2804.000000;3.437429
2803.000000;3.411997
2802.000000;3.490420
2801.000000;3.677059
2800.000000;3.854689
2799.000000;3.878554
2798.000000;3.934670
2797.000000;4.092850
2796.000000;3.865748
2795.000000;3.562182
2794.000000;3.401003
2793.000000;3.338612
2792.000000;3.371384
2791.000000;3.463289
2790.000000;3.534584
2789.000000;3.584542
2788.000000;3.658793
2787.000000;3.726657
2786.000000;3.719466
2785.000000;3.655758
2784.000000;3.624771
2783.000000;3.621795
2782.000000;3.683219
2781.000000;3.819032
2780.000000;4.024509
2779.000000;4.682722
2778.000000;4.036538
2777.000000;3.570021
2776.000000;3.394509
2775.000000;3.358466
2774.000000;3.419226
2773.000000;3.499791
2772.000000;3.589958
2771.000000;3.737910
2770.000000;4.005143
2769.000000;4.197107
2768.000000;4.259746
2767.000000;4.231269
2766.000000;4.056504
2765.000000;4.253824
2764.000000;4.046564
2763.000000;3.737503
2762.000000;3.683828
2761.000000;3.583372
2760.000000;3.447231
2759.000000;3.471046
2758.000000;3.740729
2757.000000;3.655489
2756.000000;3.441896
2755.000000;3.510890
2754.000000;3.618255
2753.000000;3.631064
2752.000000;3.778909
2751.000000;4.171228
2750.000000;4.094112
2749.000000;3.874276
2748.000000;3.821288
2747.000000;3.916651
2746.000000;4.060842
2745.000000;4.049094
2744.000000;4.002354
2743.000000;3.918129
2742.000000;3.936780
2741.000000;4.073633
2740.000000;4.261450
2739.000000;4.084253
2738.000000;3.711339
2737.000000;3.564593
2736.000000;3.573134
2735.000000;3.681684
2734.000000;3.861537
2733.000000;4.089817
2732.000000;4.130151
2731.000000;4.004486
2730.000000;3.987574
2729.000000;3.833779
2728.000000;3.578215
2727.000000;3.421021
2726.000000;3.377069
2725.000000;3.422265
2724.000000;3.516121
2723.000000;3.637347
2722.000000;3.716801
2721.000000;3.672988
2720.000000;3.637137
2719.000000;3.679917
2718.000000;3.773216
2717.000000;3.862353
2716.000000;3.954184
2715.000000;4.080660
2714.000000;3.934688
2713.000000;3.661169
2712.000000;3.529790
2711.000000;3.530598
2710.000000;3.638426
2709.000000;3.839732
2708.000000;4.116430
2707.000000;3.970561
2706.000000;3.678341
2705.000000;3.580343
2704.000000;3.593351
2703.000000;3.706779
2702.000000;3.822598
2701.000000;3.726911
2700.000000;3.621918
2699.000000;3.635385
2698.000000;3.696936
2697.000000;3.712334
2696.000000;3.784707
2695.000000;4.100519
2694.000000;4.118519
2693.000000;3.775518
2692.000000;3.681612
2691.000000;3.668492
2690.000000;3.577807
2689.000000;3.538910
2688.000000;3.578491
2687.000000;3.544437
2686.000000;3.452943
2685.000000;3.404962
2684.000000;3.392513
2683.000000;3.384924
2682.000000;3.388510
2681.000000;3.412218
2680.000000;3.461200
2679.000000;3.558687
2678.000000;3.706509
2677.000000;4.192669
2676.000000;4.305117
2675.000000;3.743956
2674.000000;3.606201
2673.000000;3.560932
2672.000000;3.520396
2671.000000;3.472925
2670.000000;3.449021
2669.000000;3.473036
2668.000000;3.575018
2667.000000;3.765784
2666.000000;3.871582
2665.000000;3.874480
2664.000000;3.856477
2663.000000;3.784944
2662.000000;3.673593
2661.000000;3.511450
2660.000000;3.369601
2659.000000;3.309502
2658.000000;3.352528
2657.000000;3.516569
2656.000000;3.684792
2655.000000;3.643251
2654.000000;3.601150
2653.000000;3.618594
2652.000000;3.656345
2651.000000;3.739683
2650.000000;3.805097
2649.000000;3.717877
2648.000000;3.536848
2647.000000;3.444857
2646.000000;3.497824
2645.000000;3.747604
2644.000000;4.537801
2643.000000;4.110567
2642.000000;3.764203
2641.000000;3.661098
2640.000000;3.610190
2639.000000;3.697132
2638.000000;4.005214
2637.000000;3.895777
2636.000000;3.605314
2635.000000;3.537650
2634.000000;3.649798
2633.000000;3.802712
2632.000000;3.715528
2631.000000;3.642524
2630.000000;3.633116
2629.000000;3.655700
2628.000000;3.710460
2627.000000;3.744429
2626.000000;3.897086
2625.000000;4.189798
2624.000000;3.843549
2623.000000;3.564525
2622.000000;3.462644
2621.000000;3.457294
2620.000000;3.638092
2619.000000;3.648155
2618.000000;3.413599
2617.000000;3.373556
2616.000000;3.568990
2615.000000;3.765736
2614.000000;3.629892
2613.000000;3.670060
2612.000000;3.797905
2611.000000;3.633924
2610.000000;3.564762
2609.000000;3.588728
2608.000000;3.561715
2607.000000;3.510368
2606.000000;3.606898
2605.000000;3.959083
2604.000000;3.906993
2603.000000;3.940853
2602.000000;4.110928
2601.000000;3.700129
2600.000000;3.657273
2599.000000;3.753575
2598.000000;3.726768
2597.000000;3.659453
2596.000000;3.674744
2595.000000;3.755593
2594.000000;3.841669
2593.000000;3.947121
2592.000000;4.148552
2591.000000;3.946756
2590.000000;3.675229
2589.000000;3.574381
2588.000000;3.564156
2587.000000;3.571125
2586.000000;3.528308
2585.000000;3.459978
2584.000000;3.426513
2583.000000;3.464372
2582.000000;3.599075
2581.000000;3.905230
2580.000000;3.979868
2579.000000;3.646341
2578.000000;3.565603
2577.000000;3.704409
2576.000000;4.029374
2575.000000;4.065000
2574.000000;3.853470
2573.000000;3.694615
2572.000000;3.693874
2571.000000;3.785307
2570.000000;3.766467
2569.000000;3.763989
2568.000000;3.864259
2567.000000;3.814588
2566.000000;3.664653
2565.000000;3.649635
2564.000000;3.810310
2563.000000;3.891021
2562.000000;3.752401
2561.000000;3.700401
2560.000000;3.778326
2559.000000;3.995118
2558.000000;4.013618
2557.000000;3.822913
2556.000000;3.965799
2555.000000;5.014812
2554.000000;3.949916
2553.000000;3.744764
2552.000000;3.613692
2551.000000;3.556318
2550.000000;3.648499
2549.000000;3.860175
2548.000000;3.982519
2547.000000;3.790666
2546.000000;3.578918
2545.000000;3.471474
2544.000000;3.459890
2543.000000;3.509635
2542.000000;3.581775
2541.000000;3.648623
2540.000000;3.728181
2539.000000;3.824976
2538.000000;3.800429
2537.000000;3.720768
2536.000000;3.678583
2535.000000;3.575620
2534.000000;3.474453
2533.000000;3.437421
2532.000000;3.416461
2531.000000;3.428631
2530.000000;3.569876
2529.000000;3.954953
2528.000000;4.347062
2527.000000;4.111698
2526.000000;4.088127
2525.000000;4.094152
2524.000000;3.870281
2523.000000;3.711343
2522.000000;3.714766
2521.000000;3.905855
2520.000000;4.157336
2519.000000;4.011300
2518.000000;4.276419
2517.000000;4.261066
2516.000000;3.698264
2515.000000;3.511682
2514.000000;3.412565
2513.000000;3.334319
2512.000000;3.273382
2511.000000;3.283434
2510.000000;3.409809
2509.000000;3.769531
2508.000000;4.088668
2507.000000;3.939476
2506.000000;3.991073
2505.000000;3.968208
2504.000000;4.037446
2503.000000;4.509755
2502.000000;5.144101
2501.000000;4.099532
2500.000000;3.644666
2499.000000;3.474856
2498.000000;3.483679
2497.000000;3.636424
2496.000000;3.905598
2495.000000;3.935412
2494.000000;3.579481
2493.000000;3.373934
2492.000000;3.298092
2491.000000;3.298161
2490.000000;3.359740
2489.000000;3.492513
2488.000000;3.745059
2487.000000;3.961316
2486.000000;3.743332
2485.000000;3.767474
2484.000000;4.119525
2483.000000;3.632651
2482.000000;3.438210
2481.000000;3.513213
2480.000000;3.661023
2479.000000;3.773355
2478.000000;3.823760
2477.000000;3.942375
2476.000000;3.991224
2475.000000;3.824617
2474.000000;3.826698
2473.000000;3.920971
2472.000000;4.068511
2471.000000;4.212199
2470.000000;3.904553
2469.000000;3.683826
2468.000000;3.605642
2467.000000;3.589807
2466.000000;3.572077
2465.000000;3.534260
2464.000000;3.473788
2463.000000;3.422707
2462.000000;3.413433
2461.000000;3.451322
2460.000000;3.527667
2459.000000;3.651426
2458.000000;3.835995
2457.000000;3.799364
2456.000000;3.657146
2455.000000;3.640383
2454.000000;3.636191
2453.000000;3.560246
2452.000000;3.520634
2451.000000;3.554360
2450.000000;3.569829
2449.000000;3.564744
2448.000000;3.646805
2447.000000;3.745921
2446.000000;3.647414
2445.000000;3.529277
2444.000000;3.484856
2443.000000;3.522459
2442.000000;3.656327
2441.000000;3.846636
2440.000000;3.945046
2439.000000;3.959063
2438.000000;4.326209
2437.000000;4.519234
2436.000000;3.911610
2435.000000;3.766173
2434.000000;3.744027
2433.000000;3.822150
2432.000000;3.904420
2431.000000;4.429004
2430.000000;4.115588
2429.000000;3.789443
2428.000000;4.237091
2427.000000;4.035743
2426.000000;3.738591
2425.000000;3.824773
2424.000000;3.717495
2423.000000;3.542726
2422.000000;3.519219
2421.000000;3.627366
2420.000000;3.647400
2419.000000;3.486604
2418.000000;3.478710
2417.000000;3.667608
2416.000000;3.947387
2415.000000;3.922179
2414.000000;4.153309
2413.000000;4.364454
2412.000000;3.771928
2411.000000;3.657321
2410.000000;3.750383
2409.000000;4.046216
2408.000000;4.114170
2407.000000;3.896196
2406.000000;3.802554
2405.000000;3.830692
2404.000000;3.965578
2403.000000;4.499201
2402.000000;4.185554
2401.000000;3.816490
2400.000000;3.703653
2399.000000;3.605925
2398.000000;3.460484
2397.000000;3.347138
2396.000000;3.311421
2395.000000;3.357474
2394.000000;3.520914
2393.000000;3.870082
2392.000000;3.784447
2391.000000;3.515012
2390.000000;3.438821
2389.000000;3.486547
2388.000000;3.598446
2387.000000;3.678634
2386.000000;3.685296
2385.000000;3.617319
2384.000000;3.513751
2383.000000;3.443316
2382.000000;3.421748
2381.000000;3.386836
2380.000000;3.314783
2379.000000;3.267616
2378.000000;3.331302
2377.000000;3.550637
2376.000000;4.112695
2375.000000;4.318620
2374.000000;3.913591
2373.000000;3.730152
2372.000000;3.515953
2371.000000;3.386717
2370.000000;3.326958
2369.000000;3.290518
2368.000000;3.291126
2367.000000;3.365423
2366.000000;3.454212
2365.000000;3.392381
2364.000000;3.297722
2363.000000;3.292769
2362.000000;3.432677
2361.000000;3.498236
2360.000000;3.271945
2359.000000;3.156076
2358.000000;3.145690
2357.000000;3.215958
2356.000000;3.330915
2355.000000;3.463347
2354.000000;3.478673
2353.000000;3.300108
2352.000000;3.188372
2351.000000;3.225678
2350.000000;3.307964
2349.000000;3.316830
2348.000000;3.287042
2347.000000;3.264588
2346.000000;3.282201
2345.000000;3.389758
2344.000000;3.544625
2343.000000;3.511573
2342.000000;3.431724
2341.000000;3.417275
2340.000000;3.404065
2339.000000;3.335436
2338.000000;3.301625
2337.000000;3.280164
2336.000000;3.246096
2335.000000;3.292790
2334.000000;3.462404
2333.000000;3.653680
2332.000000;3.909700
2331.000000;3.948644
2330.000000;3.625037
2329.000000;3.645232
2328.000000;3.917475
2327.000000;4.196002
2326.000000;3.903417
2325.000000;3.669604
2324.000000;3.549471
2323.000000;3.464292
2322.000000;3.415800
2321.000000;3.432513
2320.000000;3.479357
2319.000000;3.513108
2318.000000;3.542147
2317.000000;3.522005
2316.000000;3.449198
2315.000000;3.413148
2314.000000;3.490710
2313.000000;3.678356
2312.000000;3.858726
2311.000000;4.001644
2310.000000;3.933389
2309.000000;3.737391
2308.000000;3.586368
2307.000000;3.512045
2306.000000;3.542423
2305.000000;3.706452
2304.000000;3.988625
2303.000000;4.006299
2302.000000;4.221635
2301.000000;4.372051
2300.000000;3.968343
2299.000000;4.008780
2298.000000;4.209534
2297.000000;4.663643
2296.000000;4.503898
2295.000000;4.010989
2294.000000;3.726402
2293.000000;3.547099
2292.000000;3.468547
2291.000000;3.447339
2290.000000;3.402412
2289.000000;3.341184
2288.000000;3.323487
2287.000000;3.408124
2286.000000;3.702459
2285.000000;3.950941
2284.000000;3.605497
2283.000000;3.519942
2282.000000;3.502720
2281.000000;3.513798
2280.000000;3.561742
2279.000000;3.745892
2278.000000;4.235284
2277.000000;5.878239
2276.000000;4.407940
2275.000000;4.017228
2274.000000;3.973570
2273.000000;3.866132
2272.000000;3.767538
2271.000000;3.874862
2270.000000;3.970449
2269.000000;3.809563
2268.000000;3.736329
2267.000000;3.823888
2266.000000;4.145655
2265.000000;4.009638
2264.000000;3.737107
2263.000000;3.665776
2262.000000;3.615941
2261.000000;3.499935
2260.000000;3.432920
2259.000000;3.435802
2258.000000;3.445595
2257.000000;3.426440
2256.000000;3.422910
2255.000000;3.508586
2254.000000;3.610157
2253.000000;3.560959
2252.000000;3.632685
2251.000000;3.765787
2250.000000;3.645869
2249.000000;3.552680
2248.000000;3.542084
2247.000000;3.586145
2246.000000;3.720203
2245.000000;3.969378
2244.000000;4.353169
2243.000000;4.637972
2242.000000;4.187730
2241.000000;4.125204
2240.000000;4.142476
2239.000000;3.851458
2238.000000;3.698945
2237.000000;3.683359
2236.000000;3.661461
2235.000000;3.543052
2234.000000;3.465526
2233.000000;3.502982
2232.000000;3.645350
2231.000000;3.849736
2230.000000;4.093497
2229.000000;3.937506
2228.000000;3.736161
2227.000000;3.728909
2226.000000;3.770815
2225.000000;4.058065
2224.000000;4.515632
2223.000000;3.867107
2222.000000;3.762537
2221.000000;3.707808
2220.000000;3.694279
2219.000000;3.729810
2218.000000;3.704596
2217.000000;3.590543
2216.000000;3.552331
2215.000000;3.601706
2214.000000;3.617711
2213.000000;3.612552
2212.000000;3.650738
2211.000000;3.716671
2210.000000;3.886022
2209.000000;3.984738
2208.000000;3.766189
2207.000000;3.634927
2206.000000;3.592583
2205.000000;3.544154
2204.000000;3.495532
2203.000000;3.527824
2202.000000;3.695149
2201.000000;4.010005
2200.000000;4.027336
2199.000000;3.882177
2198.000000;4.127308
2197.000000;4.465110
2196.000000;3.797509
2195.000000;3.597674
2194.000000;3.591498
2193.000000;3.773972
2192.000000;4.092960
2191.000000;4.216417
2190.000000;4.049360
2189.000000;3.735393
2188.000000;3.531148
2187.000000;3.486226
2186.000000;3.575951
2185.000000;3.784974
2184.000000;4.390671
2183.000000;4.339669
2182.000000;4.028348
2181.000000;3.917031
2180.000000;3.952450
2179.000000;4.076742
2178.000000;4.003364
2177.000000;3.740505
2176.000000;3.531183
2175.000000;3.425396
2174.000000;3.400293
2173.000000;3.445307
2172.000000;3.527006
2171.000000;3.570729
2170.000000;3.521318
2169.000000;3.368633
2168.000000;3.255005
2167.000000;3.254615
2166.000000;3.476091
2165.000000;3.800244
2164.000000;3.498819
2163.000000;3.366043
2162.000000;3.461182
2161.000000;3.749506
2160.000000;4.071556
2159.000000;3.950126
2158.000000;3.861773
2157.000000;3.775258
2156.000000;3.773064
2155.000000;4.038213
2154.000000;4.492192
2153.000000;3.980875
2152.000000;3.799599
2151.000000;3.607591
2150.000000;3.535082
2149.000000;3.605713
2148.000000;3.693402
2147.000000;3.688856
2146.000000;3.985675
2145.000000;4.576924
2144.000000;3.865487
2143.000000;4.056539
2142.000000;4.166234
2141.000000;3.896462
2140.000000;3.746212
2139.000000;3.583271
2138.000000;3.448762
2137.000000;3.388388
2136.000000;3.390847
2135.000000;3.387274
2134.000000;3.400779
2133.000000;3.532857
2132.000000;3.562939
2131.000000;3.434923
2130.000000;3.384571
2129.000000;3.428570
2128.000000;3.592718
2127.000000;3.927655
2126.000000;4.088146
2125.000000;4.207510
2124.000000;4.683203
2123.000000;3.932665
2122.000000;3.845982
2121.000000;4.019618
2120.000000;4.401066
2119.000000;4.202312
2118.000000;3.945375
2117.000000;3.862116
2116.000000;3.973765
2115.000000;4.239577
2114.000000;4.137656
2113.000000;3.767130
2112.000000;3.548227
2111.000000;3.443080
2110.000000;3.451698
2109.000000;3.465865
2108.000000;3.389674
2107.000000;3.344693
2106.000000;3.422948
2105.000000;3.599762
2104.000000;4.171708
2103.000000;3.825239
2102.000000;3.492546
2101.000000;3.429437
2100.000000;3.541155
2099.000000;3.734225
2098.000000;3.815663
2097.000000;3.922465
2096.000000;4.074102
2095.000000;4.079772
2094.000000;3.711027
2093.000000;3.597964
2092.000000;3.619845
2091.000000;3.728337
2090.000000;3.844686
2089.000000;3.759117
2088.000000;3.587225
2087.000000;3.535994
2086.000000;3.604074
2085.000000;3.717378
2084.000000;3.758153
2083.000000;3.709789
2082.000000;3.611871
2081.000000;3.540416
2080.000000;3.535758
2079.000000;3.623347
2078.000000;3.870112
2077.000000;4.002183
2076.000000;4.006820
2075.000000;4.101668
2074.000000;3.750541
2073.000000;3.572049
2072.000000;3.585237
2071.000000;3.750727
2070.000000;3.926890
2069.000000;3.787529
2068.000000;3.685650
2067.000000;3.628140
2066.000000;3.549753
2065.000000;3.486450
2064.000000;3.478017
2063.000000;3.518047
2062.000000;3.586536
2061.000000;3.681069
2060.000000;3.774988
2059.000000;3.797705
2058.000000;3.804325
2057.000000;3.830299
2056.000000;3.641790
2055.000000;3.479183
2054.000000;3.505691
2053.000000;3.717148
2052.000000;4.097264
2051.000000;4.201882
2050.000000;3.910609
2049.000000;3.770304
2048.000000;3.758841
2047.000000;3.831690
2046.000000;3.977778
2045.000000;3.895328
2044.000000;3.747253
2043.000000;3.815500
2042.000000;4.231024
2041.000000;3.938780
2040.000000;3.759368
2039.000000;3.720562
2038.000000;3.644532
2037.000000;3.549740
2036.000000;3.488517
2035.000000;3.443254
2034.000000;3.398705
2033.000000;3.354457
2032.000000;3.387047
2031.000000;3.576149
2030.000000;4.202347
2029.000000;3.986605
2028.000000;3.680250
2027.000000;3.697438
2026.000000;3.687934
2025.000000;3.619278
2024.000000;3.492599
2023.000000;3.440109
2022.000000;3.483437
2021.000000;3.562087
2020.000000;3.618188
2019.000000;3.685957
2018.000000;3.647781
2017.000000;3.503574
2016.000000;3.475432
2015.000000;3.535999
2014.000000;3.514554
2013.000000;3.399737
2012.000000;3.320371
2011.000000;3.294186
2010.000000;3.294044
2009.000000;3.325404
2008.000000;3.434589
2007.000000;3.642877
2006.000000;3.808306
2005.000000;3.991160
2004.000000;3.946787
2003.000000;3.865665
2002.000000;4.231441
2001.000000;3.717660
2000.000000;3.436148
1999.000000;3.392947
1998.000000;3.439415
1997.000000;3.547870
1996.000000;3.965788
1995.000000;3.980073
1994.000000;3.560230
1993.000000;3.455450
1992.000000;3.517100
1991.000000;3.713091
1990.000000;3.748824
1989.000000;3.553016
1988.000000;3.447793
1987.000000;3.409782
1986.000000;3.419857
1985.000000;3.515150
1984.000000;3.704375
1983.000000;3.716783
1982.000000;3.595573
1981.000000;3.541525
1980.000000;3.532584
1979.000000;3.587837
1978.000000;3.647110
1977.000000;3.669193
1976.000000;3.738348
1975.000000;3.814813
1974.000000;3.696252
1973.000000;3.551222
1972.000000;3.491919
1971.000000;3.536299
1970.000000;3.707239
1969.000000;4.100740
1968.000000;4.001149
1967.000000;3.894095
1966.000000;3.986913
1965.000000;4.216163
1964.000000;3.941362
1963.000000;3.661433
1962.000000;3.695890
1961.000000;3.921058
1960.000000;3.812513
1959.000000;3.802487
1958.000000;3.904308
1957.000000;3.719703
1956.000000;3.554821
1955.000000;3.555229
1954.000000;3.821922
1953.000000;4.003676
1952.000000;3.725237
1951.000000;3.682374
1950.000000;3.653854
1949.000000;3.672121
1948.000000;3.734324
1947.000000;4.419407
1946.000000;4.094336
1945.000000;3.680908
1944.000000;3.691731
1943.000000;3.806303
1942.000000;3.913625
1941.000000;3.809155
1940.000000;3.822600
1939.000000;3.950540
1938.000000;3.804111
1937.000000;3.774069
1936.000000;3.978850
1935.000000;4.503196
1934.000000;4.210763
1933.000000;3.958433
1932.000000;3.848660
1931.000000;3.888040
1930.000000;4.068285
1929.000000;4.143660
1928.000000;3.895518
1927.000000;3.671950
1926.000000;3.614068
1925.000000;3.709809
1924.000000;4.193291
1923.000000;3.951863
1922.000000;3.508004
1921.000000;3.416203
1920.000000;3.431091
1919.000000;3.498025
1918.000000;3.485459
1917.000000;3.432065
1916.000000;3.451668
1915.000000;3.600779
1914.000000;3.811172
1913.000000;3.706052
1912.000000;3.667239
1911.000000;3.985382
1910.000000;3.992009
1909.000000;3.529187
1908.000000;3.349540
1907.000000;3.266691
1906.000000;3.266039
1905.000000;3.351460
1904.000000;3.648115
1903.000000;4.010012
1902.000000;3.524745
1901.000000;3.389477
1900.000000;3.390912
1899.000000;3.499757
1898.000000;3.665163
1897.000000;3.943055
1896.000000;4.049524
1895.000000;3.767890
1894.000000;3.657376
1893.000000;3.691487
1892.000000;3.790687
1891.000000;3.813080
1890.000000;3.766787
1889.000000;3.858768
1888.000000;4.208200
1887.000000;3.927440
1886.000000;3.851399
1885.000000;3.961815
1884.000000;3.945452
1883.000000;3.982800
1882.000000;4.335108
1881.000000;4.304035
1880.000000;4.043838
1879.000000;4.045138
1878.000000;3.991136
1877.000000;4.077697
1876.000000;4.420940
1875.000000;4.445024
1874.000000;3.881654
1873.000000;3.603311
1872.000000;3.565293
1871.000000;3.944603
1870.000000;4.191082
1869.000000;3.612581
1868.000000;3.415099
1867.000000;3.339652
1866.000000;3.415860
1865.000000;3.692548
1864.000000;4.293948
1863.000000;4.129110
1862.000000;4.238681
1861.000000;4.245919
1860.000000;3.760448
1859.000000;3.530184
1858.000000;3.456675
1857.000000;3.450667
1856.000000;3.396010
1855.000000;3.360121
1854.000000;3.413172
1853.000000;3.525952
1852.000000;3.692177
1851.000000;4.090382
1850.000000;4.222421
1849.000000;3.928576
1848.000000;4.168066
1847.000000;3.977326
1846.000000;3.776413
1845.000000;3.712174
1844.000000;3.528303
1843.000000;3.413085
1842.000000;3.400243
1841.000000;3.485735
1840.000000;3.652329
1839.000000;3.873116
1838.000000;4.052521
1837.000000;4.161462
1836.000000;4.265449
1835.000000;3.803656
1834.000000;3.507433
1833.000000;3.421486
1832.000000;3.497437
1831.000000;3.706965
1830.000000;3.874255
1829.000000;3.741259
1828.000000;3.665025
1827.000000;3.773778
1826.000000;4.029763
1825.000000;4.258130
1824.000000;4.484831
1823.000000;4.460853
1822.000000;3.758201
1821.000000;3.509948
1820.000000;3.369767
1819.000000;3.292971
1818.000000;3.266619
1817.000000;3.279409
1816.000000;3.347601
1815.000000;3.497931
1814.000000;3.904927
1813.000000;4.236513
1812.000000;3.875823
1811.000000;3.979434
1810.000000;4.219322
1809.000000;3.666639
1808.000000;3.381174
1807.000000;3.267367
1806.000000;3.269568
1805.000000;3.368187
1804.000000;3.488057
1803.000000;3.564245
1802.000000;3.616429
1801.000000;3.690034
1800.000000;3.839583
1799.000000;4.014658
1798.000000;4.055009
1797.000000;4.208267
1796.000000;4.020625
1795.000000;3.744011
1794.000000;3.637377
1793.000000;3.507977
1792.000000;3.342431
1791.000000;3.230667
1790.000000;3.208794
1789.000000;3.247617
1788.000000;3.335445
1787.000000;3.531494
1786.000000;4.132917
1785.000000;3.939640
1784.000000;3.684266
1783.000000;3.732264
1782.000000;3.682603
1781.000000;3.641550
1780.000000;3.647277
1779.000000;3.690680
1778.000000;3.717218
1777.000000;3.697110
1776.000000;3.740500
1775.000000;3.988574
1774.000000;4.250440
1773.000000;3.767136
1772.000000;3.504610
1771.000000;3.361981
1770.000000;3.308603
1769.000000;3.306989
1768.000000;3.346797
1767.000000;3.423201
1766.000000;3.430214
1765.000000;3.340048
1764.000000;3.271250
1763.000000;3.254883
1762.000000;3.285515
1761.000000;3.348513
1760.000000;3.394432
1759.000000;3.377946
1758.000000;3.353579
1757.000000;3.387660
1756.000000;3.522003
1755.000000;3.921828
1754.000000;4.125585
1753.000000;3.930060
1752.000000;4.295918
1751.000000;4.112777
1750.000000;3.790923
1749.000000;3.920456
1748.000000;4.036798
1747.000000;3.737773
1746.000000;3.598787
1745.000000;3.590660
1744.000000;3.791934
1743.000000;3.645261
1742.000000;3.360016
1741.000000;3.308992
1740.000000;3.350698
1739.000000;3.401427
1738.000000;3.408193
1737.000000;3.415939
1736.000000;3.470855
1735.000000;3.534717
1734.000000;3.529912
1733.000000;3.498630
1732.000000;3.696355
1731.000000;4.113011
1730.000000;4.203018
1729.000000;3.838128
1728.000000;3.544281
1727.000000;3.536103
1726.000000;3.723520
1725.000000;3.781396
1724.000000;3.608693
1723.000000;3.491307
1722.000000;3.519363
1721.000000;3.679153
1720.000000;3.741975
1719.000000;3.569330
1718.000000;3.383079
1717.000000;3.267290
1716.000000;3.498493
1715.000000;3.932179
1714.000000;3.370072
1713.000000;3.369506
1712.000000;3.509800
1711.000000;3.636899
1710.000000;3.480337
1709.000000;3.378095
1708.000000;3.447668
1707.000000;3.644943
1706.000000;3.823421
1705.000000;3.906105
1704.000000;4.013378
1703.000000;4.077049
1702.000000;4.170876
1701.000000;4.221072
1700.000000;3.989266
1699.000000;3.756295
1698.000000;3.548279
1697.000000;3.449039
1696.000000;3.515845
1695.000000;3.438815
1694.000000;3.288857
1693.000000;3.371363
1692.000000;3.764787
1691.000000;3.798097
1690.000000;3.450892
1689.000000;3.428767
1688.000000;3.456338
1687.000000;3.429456
1686.000000;3.477660
1685.000000;3.609672
1684.000000;3.698791
1683.000000;3.846236
1682.000000;4.135409
1681.000000;3.741874
1680.000000;3.548387
1679.000000;3.659665
1678.000000;3.804741
1677.000000;3.838838
1676.000000;3.965762
1675.000000;4.577651
1674.000000;3.994211
1673.000000;3.599572
1672.000000;3.491586
1671.000000;3.610113
1670.000000;4.111247
1669.000000;3.978858
1668.000000;3.766743
1667.000000;3.774019
1666.000000;3.888653
1665.000000;3.938048
1664.000000;3.729705
1663.000000;3.571137
1662.000000;3.461285
1661.000000;3.433396
1660.000000;3.574998
1659.000000;3.644801
1658.000000;3.482964
1657.000000;3.463924
1656.000000;3.455681
1655.000000;3.377605
1654.000000;3.337186
1653.000000;3.368506
1652.000000;3.611318
1651.000000;3.984097
1650.000000;3.712676
1649.000000;3.717399
1648.000000;4.008677
1647.000000;3.910395
1646.000000;3.732051
1645.000000;3.643462
1644.000000;3.549456
1643.000000;3.433684
1642.000000;3.374728
1641.000000;3.397007
1640.000000;3.454656
1639.000000;3.627134
1638.000000;3.807056
1637.000000;4.022571
1636.000000;4.127622
1635.000000;3.540007
1634.000000;3.439490
1633.000000;3.460596
1632.000000;3.459090
1631.000000;3.417842
1630.000000;3.406702
1629.000000;3.508166
1628.000000;3.732208
1627.000000;4.051861
1626.000000;4.067023
1625.000000;3.742202
1624.000000;3.495826
1623.000000;3.359152
1622.000000;3.318628
1621.000000;3.395062
1620.000000;3.575221
1619.000000;3.614227
1618.000000;3.513645
1617.000000;3.467943
1616.000000;3.538446
1615.000000;3.671408
1614.000000;3.591299
1613.000000;3.511010
1612.000000;3.474042
1611.000000;3.426169
1610.000000;3.397011
1609.000000;3.416427
1608.000000;3.484512
1607.000000;3.469405
1606.000000;3.395270
1605.000000;3.449078
1604.000000;3.625043
1603.000000;3.946252
1602.000000;4.477880
1601.000000;4.312500
1600.000000;4.477017
1599.000000;4.166283
1598.000000;3.792783
1597.000000;3.662225
1596.000000;3.615103
1595.000000;3.712895
1594.000000;3.893002
1593.000000;4.068852
1592.000000;3.856176
1591.000000;3.619104
1590.000000;3.579068
1589.000000;3.681937
1588.000000;3.739787
1587.000000;3.723335
1586.000000;3.792863
1585.000000;3.771520
1584.000000;3.643159
1583.000000;3.591986
1582.000000;3.601691
1581.000000;3.575293
1580.000000;3.548042
1579.000000;3.643389
1578.000000;3.937079
1577.000000;4.367711
1576.000000;4.083471
1575.000000;3.773294
1574.000000;3.784436
1573.000000;3.769982
1572.000000;3.586952
1571.000000;3.499231
1570.000000;3.486530
1569.000000;3.501852
1568.000000;3.564050
1567.000000;3.849302
1566.000000;4.125885
1565.000000;3.677156
1564.000000;3.637000
1563.000000;3.994912
1562.000000;3.724024
1561.000000;3.459821
1560.000000;3.410740
1559.000000;3.404494
1558.000000;3.461368
1557.000000;3.789227
1556.000000;3.940608
1555.000000;3.582399
1554.000000;3.339803
1553.000000;3.278403
1552.000000;3.333804
1551.000000;3.352721
1550.000000;3.243519
1549.000000;3.150958
1548.000000;3.164011
1547.000000;3.250543
1546.000000;3.332873
1545.000000;3.393244
1544.000000;3.496830
1543.000000;3.761728
1542.000000;3.991954
1541.000000;3.575024
1540.000000;3.162622
1539.000000;2.961526
1538.000000;2.969555
1537.000000;3.097193
1536.000000;3.274116
1535.000000;3.390216
1534.000000;3.313878
1533.000000;3.162944
1532.000000;3.073932
1531.000000;3.105730
1530.000000;3.274697
1529.000000;3.494167
1528.000000;3.515479
1527.000000;3.389047
1526.000000;3.259507
1525.000000;3.202958
1524.000000;3.193645
1523.000000;3.191189
1522.000000;3.232916
1521.000000;3.448589
1520.000000;3.439999
1519.000000;3.177727
1518.000000;3.129493
1517.000000;3.164143
1516.000000;3.294075
1515.000000;3.568277
1514.000000;3.737288
1513.000000;3.680709
1512.000000;3.770167
1511.000000;4.212831
1510.000000;4.044727
1509.000000;3.873271
1508.000000;4.186537
1507.000000;3.564143
1506.000000;3.183413
1505.000000;3.205808
1504.000000;3.420924
1503.000000;3.657180
1502.000000;3.584298
1501.000000;3.390498
1500.000000;3.299142
1499.000000;3.289204
1498.000000;3.338920
1497.000000;3.409642
1496.000000;3.457812
1495.000000;3.478576
1494.000000;3.563813
1493.000000;3.752540
1492.000000;3.977292
1491.000000;3.988828
1490.000000;4.028886
1489.000000;4.072970
1488.000000;3.652812
1487.000000;3.487831
1486.000000;3.735285
1485.000000;4.054821
1484.000000;3.581681
1483.000000;3.403765
1482.000000;3.407033
1481.000000;3.405298
1480.000000;3.380558
1479.000000;3.361330
1478.000000;3.499636
1477.000000;3.979074
1476.000000;3.553032
1475.000000;3.218117
1474.000000;3.167655
1473.000000;3.248353
1472.000000;3.269382
1471.000000;3.230544
1470.000000;3.303635
1469.000000;3.384184
1468.000000;3.361771
1467.000000;3.430515
1466.000000;4.024755
1465.000000;4.201437
1464.000000;3.685279
1463.000000;3.678406
1462.000000;3.602125
1461.000000;3.430781
1460.000000;3.278999
1459.000000;3.219657
1458.000000;3.249016
1457.000000;3.356792
1456.000000;3.510360
1455.000000;3.549317
1454.000000;3.494650
1453.000000;3.399477
1452.000000;3.284350
1451.000000;3.204887
1450.000000;3.224993
1449.000000;3.380632
1448.000000;3.531192
1447.000000;3.508111
1446.000000;3.542698
1445.000000;3.576350
1444.000000;3.575366
1443.000000;3.854610
1442.000000;3.839725
1441.000000;3.383628
1440.000000;3.219823
1439.000000;3.216749
1438.000000;3.355103
1437.000000;3.590869
1436.000000;3.578311
1435.000000;3.369133
1434.000000;3.285045
1433.000000;3.368897
1432.000000;3.641475
1431.000000;4.152535
1430.000000;4.288396
1429.000000;4.260397
1428.000000;4.065380
1427.000000;3.733749
1426.000000;3.815571
1425.000000;4.209820
1424.000000;3.846786
1423.000000;3.923381
1422.000000;3.950502
1421.000000;3.763011
1420.000000;3.862301
1419.000000;3.646568
1418.000000;3.378391
1417.000000;3.260188
1416.000000;3.255340
1415.000000;3.281063
1414.000000;3.317225
1413.000000;3.403243
1412.000000;3.482903
1411.000000;3.469932
1410.000000;3.402716
1409.000000;3.353677
1408.000000;3.389698
1407.000000;3.528102
1406.000000;3.654250
1405.000000;3.618160
1404.000000;3.539876
1403.000000;3.524669
1402.000000;3.488324
1401.000000;3.372997
1400.000000;3.248661
1399.000000;3.166932
1398.000000;3.156226
1397.000000;3.221614
1396.000000;3.324360
1395.000000;3.422495
1394.000000;3.572426
1393.000000;3.762766
1392.000000;3.760287
1391.000000;3.781402
1390.000000;4.197797
1389.000000;4.291479
1388.000000;3.823285
1387.000000;3.713366
1386.000000;3.664635
1385.000000;3.788960
1384.000000;3.909666
1383.000000;3.583848
1382.000000;3.370983
1381.000000;3.283524
1380.000000;3.265700
1379.000000;3.278801
1378.000000;3.264762
1377.000000;3.266611
1376.000000;3.239519
1375.000000;3.119848
1374.000000;3.077450
1373.000000;3.206193
1372.000000;3.546250
1371.000000;3.960098
1370.000000;3.777013
1369.000000;3.607850
1368.000000;3.576586
1367.000000;3.681629
1366.000000;4.052350
1365.000000;4.335388
1364.000000;3.943670
1363.000000;4.222596
1362.000000;4.137464
1361.000000;3.581828
1360.000000;3.504733
1359.000000;3.499614
1358.000000;3.503392
1357.000000;3.580556
1356.000000;3.461350
1355.000000;3.258998
1354.000000;3.228502
1353.000000;3.409739
1352.000000;3.783956
1351.000000;3.937622
1350.000000;4.099489
1349.000000;4.396540
1348.000000;3.844578
1347.000000;3.593478
1346.000000;3.543236
1345.000000;3.590992
1344.000000;3.666528
1343.000000;3.758550
1342.000000;3.809704
1341.000000;3.689788
1340.000000;3.648017
1339.000000;3.755063
1338.000000;3.674693
1337.000000;3.626893
1336.000000;3.776026
1335.000000;3.692105
1334.000000;3.513709
1333.000000;3.524658
1332.000000;3.562753
1331.000000;3.419612
1330.000000;3.273522
1329.000000;3.257688
1328.000000;3.574511
1327.000000;3.779984
1326.000000;3.345566
1325.000000;3.252283
1324.000000;3.356785
1323.000000;3.495493
1322.000000;3.483144
1321.000000;3.396182
1320.000000;3.430444
1319.000000;3.614981
1318.000000;4.071145
1317.000000;4.249746
1316.000000;3.837537
1315.000000;3.812724
1314.000000;3.870022
1313.000000;3.860963
1312.000000;4.038979
1311.000000;4.126241
1310.000000;3.792895
1309.000000;3.572033
1308.000000;3.544990
1307.000000;3.930281
1306.000000;4.186336
1305.000000;3.601242
1304.000000;3.415999
1303.000000;3.334930
1302.000000;3.275234
1301.000000;3.232406
1300.000000;3.200729
1299.000000;3.214071
1298.000000;3.277991
1297.000000;3.465028
1296.000000;3.995869
1295.000000;4.017437
1294.000000;3.719421
1293.000000;3.655525
1292.000000;3.587769
1291.000000;3.577394
1290.000000;3.686944
1289.000000;4.108662
1288.000000;4.009193
1287.000000;3.545348
1286.000000;3.352986
1285.000000;3.295770
1284.000000;3.367727
1283.000000;3.614303
1282.000000;3.960657
1281.000000;3.939993
1280.000000;3.799276
1279.000000;3.560188
1278.000000;3.352601
1277.000000;3.341317
1276.000000;3.575113
1275.000000;4.106197
1274.000000;4.337579
1273.000000;3.730581
1272.000000;3.407886
1271.000000;3.320388
1270.000000;3.464509
1269.000000;3.687726
1268.000000;3.505184
1267.000000;3.481760
1266.000000;3.803616
1265.000000;4.364768
1264.000000;4.331492
1263.000000;3.980325
1262.000000;3.590407
1261.000000;3.287968
1260.000000;3.234724
1259.000000;3.388260
1258.000000;3.742496
1257.000000;4.089163
1256.000000;3.915472
1255.000000;3.866280
1254.000000;3.692830
1253.000000;3.468002
1252.000000;3.350969
1251.000000;3.345980
1250.000000;3.423977
1249.000000;3.406620
1248.000000;3.303617
1247.000000;3.279756
1246.000000;3.293298
1245.000000;3.264603
1244.000000;3.294895
1243.000000;3.400227
1242.000000;3.556377
1241.000000;3.706858
1240.000000;3.498108
1239.000000;3.212084
1238.000000;3.090850
1237.000000;3.084190
1236.000000;3.275192
1235.000000;3.834727
1234.000000;3.571655
1233.000000;3.325279
1232.000000;3.294070
1231.000000;3.375197
1230.000000;3.669787
1229.000000;3.458450
1228.000000;3.199628
1227.000000;3.164314
1226.000000;3.200742
1225.000000;3.257873
1224.000000;3.368480
1223.000000;3.496429
1222.000000;3.408581
1221.000000;3.347037
1220.000000;3.478497
1219.000000;3.433645
1218.000000;3.287284
1217.000000;3.312395
1216.000000;3.637833
1215.000000;3.996191
1214.000000;3.513368
1213.000000;3.313142
1212.000000;3.232049
1211.000000;3.197264
1210.000000;3.249497
1209.000000;3.408454
1208.000000;3.426163
1207.000000;3.202369
1206.000000;3.102092
1205.000000;3.145264
1204.000000;3.296500
1203.000000;3.463690
1202.000000;3.397923
1201.000000;3.260584
1200.000000;3.215050
