Criado como novo conjunto de dados;"e2410_daniel_v2.spp","55445.2 Secs"
cm-1;Abs
10000.000000;1.151001
9999.000000;1.150333
9998.000000;1.150397
9997.000000;1.150851
9996.000000;1.150956
9995.000000;1.150294
9994.000000;1.149162
9993.000000;1.148225
9992.000000;1.147850
9991.000000;1.147786
9990.000000;1.147413
9989.000000;1.146331
9988.000000;1.144820
9987.000000;1.143608
9986.000000;1.143122
9985.000000;1.143093
9984.000000;1.142975
9983.000000;1.142558
9982.000000;1.142009
9981.000000;1.141531
9980.000000;1.141206
9979.000000;1.141014
9978.000000;1.140789
9977.000000;1.140294
9976.000000;1.139498
9975.000000;1.138633
9974.000000;1.137880
9973.000000;1.137194
9972.000000;1.136519
9971.000000;1.135900
9970.000000;1.135251
9969.000000;1.134366
9968.000000;1.133374
9967.000000;1.132785
9966.000000;1.132820
9965.000000;1.133038
9964.000000;1.132979
9963.000000;1.132809
9962.000000;1.132890
9961.000000;1.133018
9960.000000;1.132614
9959.000000;1.131500
9958.000000;1.130031
9957.000000;1.128614
9956.000000;1.127499
9955.000000;1.126874
9954.000000;1.126677
9953.000000;1.126429
9952.000000;1.125721
9951.000000;1.124845
9950.000000;1.124484
9949.000000;1.124751
9948.000000;1.124947
9947.000000;1.124387
9946.000000;1.123175
9945.000000;1.122057
9944.000000;1.121683
9943.000000;1.122038
9942.000000;1.122476
9941.000000;1.122369
9940.000000;1.121757
9939.000000;1.121188
9938.000000;1.120892
9937.000000;1.120475
9936.000000;1.119623
9935.000000;1.118685
9934.000000;1.118195
9933.000000;1.118108
9932.000000;1.117937
9931.000000;1.117416
9930.000000;1.116645
9929.000000;1.115758
9928.000000;1.114851
9927.000000;1.114107
9926.000000;1.113607
9925.000000;1.113148
9924.000000;1.112597
9923.000000;1.112248
9922.000000;1.112383
9921.000000;1.112631
9920.000000;1.112259
9919.000000;1.111102
9918.000000;1.109775
9917.000000;1.108924
9916.000000;1.108596
9915.000000;1.108385
9914.000000;1.107849
9913.000000;1.106768
9912.000000;1.105290
9911.000000;1.103942
9910.000000;1.103297
9909.000000;1.103504
9908.000000;1.104183
9907.000000;1.104741
9906.000000;1.104767
9905.000000;1.104292
9904.000000;1.103746
9903.000000;1.103477
9902.000000;1.103236
9901.000000;1.102427
9900.000000;1.100978
9899.000000;1.099604
9898.000000;1.098960
9897.000000;1.098879
9896.000000;1.098753
9895.000000;1.098359
9894.000000;1.097914
9893.000000;1.097578
9892.000000;1.097352
9891.000000;1.097277
9890.000000;1.097329
9889.000000;1.097231
9888.000000;1.096758
9887.000000;1.096060
9886.000000;1.095348
9885.000000;1.094468
9884.000000;1.093220
9883.000000;1.091950
9882.000000;1.091292
9881.000000;1.091350
9880.000000;1.091553
9879.000000;1.091356
9878.000000;1.090730
9877.000000;1.089934
9876.000000;1.089187
9875.000000;1.088610
9874.000000;1.088198
9873.000000;1.087783
9872.000000;1.087231
9871.000000;1.086672
9870.000000;1.086303
9869.000000;1.086057
9868.000000;1.085745
9867.000000;1.085449
9866.000000;1.085411
9865.000000;1.085565
9864.000000;1.085497
9863.000000;1.084925
9862.000000;1.083969
9861.000000;1.082901
9860.000000;1.081910
9859.000000;1.081139
9858.000000;1.080720
9857.000000;1.080614
9856.000000;1.080538
9855.000000;1.080161
9854.000000;1.079353
9853.000000;1.078243
9852.000000;1.077092
9851.000000;1.076117
9850.000000;1.075402
9849.000000;1.074996
9848.000000;1.074977
9847.000000;1.075239
9846.000000;1.075293
9845.000000;1.074637
9844.000000;1.073439
9843.000000;1.072487
9842.000000;1.072267
9841.000000;1.072366
9840.000000;1.072027
9839.000000;1.071033
9838.000000;1.069802
9837.000000;1.068850
9836.000000;1.068446
9835.000000;1.068572
9834.000000;1.068873
9833.000000;1.068769
9832.000000;1.067967
9831.000000;1.066820
9830.000000;1.065931
9829.000000;1.065498
9828.000000;1.065235
9827.000000;1.064815
9826.000000;1.064155
9825.000000;1.063404
9824.000000;1.062869
9823.000000;1.062836
9822.000000;1.063245
9821.000000;1.063608
9820.000000;1.063455
9819.000000;1.062790
9818.000000;1.062000
9817.000000;1.061452
9816.000000;1.061307
9815.000000;1.061508
9814.000000;1.061725
9813.000000;1.061495
9812.000000;1.060656
9811.000000;1.059525
9810.000000;1.058499
9809.000000;1.057628
9808.000000;1.056755
9807.000000;1.055835
9806.000000;1.054932
9805.000000;1.054081
9804.000000;1.053365
9803.000000;1.052911
9802.000000;1.052572
9801.000000;1.051875
9800.000000;1.050609
9799.000000;1.049308
9798.000000;1.048782
9797.000000;1.049237
9796.000000;1.050087
9795.000000;1.050595
9794.000000;1.050501
9793.000000;1.050058
9792.000000;1.049641
9791.000000;1.049358
9790.000000;1.048963
9789.000000;1.048187
9788.000000;1.047103
9787.000000;1.046031
9786.000000;1.045101
9785.000000;1.044209
9784.000000;1.043404
9783.000000;1.042969
9782.000000;1.042984
9781.000000;1.043137
9780.000000;1.043147
9779.000000;1.043048
9778.000000;1.042886
9777.000000;1.042488
9776.000000;1.041799
9775.000000;1.041110
9774.000000;1.040671
9773.000000;1.040355
9772.000000;1.039965
9771.000000;1.039552
9770.000000;1.039156
9769.000000;1.038525
9768.000000;1.037514
9767.000000;1.036513
9766.000000;1.036055
9765.000000;1.036103
9764.000000;1.036075
9763.000000;1.035527
9762.000000;1.034582
9761.000000;1.033734
9760.000000;1.033413
9759.000000;1.033591
9758.000000;1.033723
9757.000000;1.033227
9756.000000;1.032158
9755.000000;1.031111
9754.000000;1.030405
9753.000000;1.029746
9752.000000;1.028881
9751.000000;1.028134
9750.000000;1.027939
9749.000000;1.028202
9748.000000;1.028499
9747.000000;1.028618
9746.000000;1.028537
9745.000000;1.028158
9744.000000;1.027494
9743.000000;1.026871
9742.000000;1.026549
9741.000000;1.026327
9740.000000;1.025878
9739.000000;1.025243
9738.000000;1.024614
9737.000000;1.023877
9736.000000;1.022815
9735.000000;1.021589
9734.000000;1.020580
9733.000000;1.019911
9732.000000;1.019530
9731.000000;1.019586
9730.000000;1.020204
9729.000000;1.020971
9728.000000;1.021165
9727.000000;1.020583
9726.000000;1.019732
9725.000000;1.019121
9724.000000;1.018728
9723.000000;1.018234
9722.000000;1.017476
9721.000000;1.016532
9720.000000;1.015538
9719.000000;1.014548
9718.000000;1.013534
9717.000000;1.012557
9716.000000;1.011885
9715.000000;1.011760
9714.000000;1.011981
9713.000000;1.011989
9712.000000;1.011525
9711.000000;1.010929
9710.000000;1.010588
9709.000000;1.010400
9708.000000;1.010057
9707.000000;1.009571
9706.000000;1.009170
9705.000000;1.008881
9704.000000;1.008594
9703.000000;1.008357
9702.000000;1.008220
9701.000000;1.007934
9700.000000;1.007194
9699.000000;1.006128
9698.000000;1.005226
9697.000000;1.004805
9696.000000;1.004786
9695.000000;1.004895
9694.000000;1.004798
9693.000000;1.004182
9692.000000;1.003011
9691.000000;1.001688
9690.000000;1.000728
9689.000000;1.000304
9688.000000;1.000268
9687.000000;1.000445
9686.000000;1.000653
9685.000000;1.000607
9684.000000;1.000108
9683.000000;0.999276
9682.000000;0.998360
9681.000000;0.997397
9680.000000;0.996318
9679.000000;0.995278
9678.000000;0.994593
9677.000000;0.994368
9676.000000;0.994359
9675.000000;0.994199
9674.000000;0.993625
9673.000000;0.992630
9672.000000;0.991535
9671.000000;0.990795
9670.000000;0.990594
9669.000000;0.990750
9668.000000;0.991071
9667.000000;0.991544
9666.000000;0.992003
9665.000000;0.991990
9664.000000;0.991276
9663.000000;0.990302
9662.000000;0.989735
9661.000000;0.989710
9660.000000;0.989805
9659.000000;0.989606
9658.000000;0.989031
9657.000000;0.988203
9656.000000;0.987309
9655.000000;0.986507
9654.000000;0.985799
9653.000000;0.985065
9652.000000;0.984396
9651.000000;0.984135
9650.000000;0.984374
9649.000000;0.984623
9648.000000;0.984287
9647.000000;0.983349
9646.000000;0.982278
9645.000000;0.981461
9644.000000;0.981018
9643.000000;0.981011
9642.000000;0.981436
9641.000000;0.982002
9640.000000;0.982197
9639.000000;0.981651
9638.000000;0.980383
9637.000000;0.978808
9636.000000;0.977576
9635.000000;0.977119
9634.000000;0.977164
9633.000000;0.976905
9632.000000;0.975908
9631.000000;0.974600
9630.000000;0.973661
9629.000000;0.973274
9628.000000;0.973221
9627.000000;0.973349
9626.000000;0.973520
9625.000000;0.973351
9624.000000;0.972535
9623.000000;0.971328
9622.000000;0.970331
9621.000000;0.969852
9620.000000;0.969814
9619.000000;0.970089
9618.000000;0.970500
9617.000000;0.970622
9616.000000;0.970066
9615.000000;0.969011
9614.000000;0.968080
9613.000000;0.967649
9612.000000;0.967583
9611.000000;0.967627
9610.000000;0.967701
9609.000000;0.967738
9608.000000;0.967532
9607.000000;0.966925
9606.000000;0.966000
9605.000000;0.965035
9604.000000;0.964331
9603.000000;0.964010
9602.000000;0.963866
9601.000000;0.963516
9600.000000;0.962853
9599.000000;0.962184
9598.000000;0.961795
9597.000000;0.961576
9596.000000;0.961299
9595.000000;0.961051
9594.000000;0.961062
9593.000000;0.961244
9592.000000;0.961253
9591.000000;0.960961
9590.000000;0.960571
9589.000000;0.960241
9588.000000;0.959867
9587.000000;0.959250
9586.000000;0.958319
9585.000000;0.957187
9584.000000;0.956117
9583.000000;0.955364
9582.000000;0.954966
9581.000000;0.954741
9580.000000;0.954583
9579.000000;0.954569
9578.000000;0.954695
9577.000000;0.954730
9576.000000;0.954503
9575.000000;0.954118
9574.000000;0.953677
9573.000000;0.953050
9572.000000;0.952193
9571.000000;0.951431
9570.000000;0.951079
9569.000000;0.950940
9568.000000;0.950519
9567.000000;0.949653
9566.000000;0.948637
9565.000000;0.947828
9564.000000;0.947404
9563.000000;0.947368
9562.000000;0.947513
9561.000000;0.947458
9560.000000;0.946988
9559.000000;0.946301
9558.000000;0.945659
9557.000000;0.944980
9556.000000;0.944085
9555.000000;0.943191
9554.000000;0.942778
9553.000000;0.942944
9552.000000;0.943230
9551.000000;0.943127
9550.000000;0.942527
9549.000000;0.941690
9548.000000;0.940980
9547.000000;0.940630
9546.000000;0.940569
9545.000000;0.940464
9544.000000;0.940085
9543.000000;0.939579
9542.000000;0.939241
9541.000000;0.939088
9540.000000;0.938851
9539.000000;0.938316
9538.000000;0.937524
9537.000000;0.936696
9536.000000;0.936086
9535.000000;0.935839
9534.000000;0.935827
9533.000000;0.935742
9532.000000;0.935449
9531.000000;0.935120
9530.000000;0.934889
9529.000000;0.934597
9528.000000;0.934059
9527.000000;0.933375
9526.000000;0.932750
9525.000000;0.932189
9524.000000;0.931608
9523.000000;0.931084
9522.000000;0.930737
9521.000000;0.930450
9520.000000;0.929971
9519.000000;0.929238
9518.000000;0.928432
9517.000000;0.927804
9516.000000;0.927564
9515.000000;0.927744
9514.000000;0.928008
9513.000000;0.927820
9512.000000;0.927037
9511.000000;0.926120
9510.000000;0.925511
9509.000000;0.925054
9508.000000;0.924337
9507.000000;0.923380
9506.000000;0.922611
9505.000000;0.922291
9504.000000;0.922359
9503.000000;0.922723
9502.000000;0.923287
9501.000000;0.923741
9500.000000;0.923697
9499.000000;0.923124
9498.000000;0.922341
9497.000000;0.921564
9496.000000;0.920722
9495.000000;0.919746
9494.000000;0.918787
9493.000000;0.918062
9492.000000;0.917652
9491.000000;0.917505
9490.000000;0.917522
9489.000000;0.917593
9488.000000;0.917617
9487.000000;0.917484
9486.000000;0.917051
9485.000000;0.916267
9484.000000;0.915406
9483.000000;0.914956
9482.000000;0.915126
9481.000000;0.915588
9480.000000;0.915848
9479.000000;0.915729
9478.000000;0.915333
9477.000000;0.914738
9476.000000;0.913949
9475.000000;0.913051
9474.000000;0.912188
9473.000000;0.911492
9472.000000;0.911125
9471.000000;0.911210
9470.000000;0.911558
9469.000000;0.911669
9468.000000;0.911224
9467.000000;0.910433
9466.000000;0.909707
9465.000000;0.909189
9464.000000;0.908808
9463.000000;0.908557
9462.000000;0.908432
9461.000000;0.908286
9460.000000;0.907993
9459.000000;0.907642
9458.000000;0.907310
9457.000000;0.906829
9456.000000;0.906082
9455.000000;0.905339
9454.000000;0.904958
9453.000000;0.904895
9452.000000;0.904823
9451.000000;0.904630
9450.000000;0.904460
9449.000000;0.904318
9448.000000;0.903987
9447.000000;0.903337
9446.000000;0.902476
9445.000000;0.901591
9444.000000;0.900871
9443.000000;0.900500
9442.000000;0.900500
9441.000000;0.900610
9440.000000;0.900542
9439.000000;0.900332
9438.000000;0.900226
9437.000000;0.900295
9436.000000;0.900358
9435.000000;0.900221
9434.000000;0.899777
9433.000000;0.898980
9432.000000;0.897945
9431.000000;0.897021
9430.000000;0.896525
9429.000000;0.896424
9428.000000;0.896446
9427.000000;0.896421
9426.000000;0.896329
9425.000000;0.896130
9424.000000;0.895744
9423.000000;0.895137
9422.000000;0.894280
9421.000000;0.893156
9420.000000;0.891979
9419.000000;0.891193
9418.000000;0.890995
9417.000000;0.891040
9416.000000;0.890897
9415.000000;0.890635
9414.000000;0.890604
9413.000000;0.890763
9412.000000;0.890650
9411.000000;0.890039
9410.000000;0.889250
9409.000000;0.888688
9408.000000;0.888390
9407.000000;0.888127
9406.000000;0.887733
9405.000000;0.887217
9404.000000;0.886696
9403.000000;0.886310
9402.000000;0.886097
9401.000000;0.885939
9400.000000;0.885684
9399.000000;0.885320
9398.000000;0.884940
9397.000000;0.884601
9396.000000;0.884336
9395.000000;0.884219
9394.000000;0.884289
9393.000000;0.884465
9392.000000;0.884659
9391.000000;0.884873
9390.000000;0.885040
9389.000000;0.884906
9388.000000;0.884258
9387.000000;0.883234
9386.000000;0.882216
9385.000000;0.881465
9384.000000;0.880999
9383.000000;0.880751
9382.000000;0.880669
9381.000000;0.880661
9380.000000;0.880564
9379.000000;0.880203
9378.000000;0.879479
9377.000000;0.878482
9376.000000;0.877537
9375.000000;0.876978
9374.000000;0.876823
9373.000000;0.876820
9372.000000;0.876818
9371.000000;0.876859
9370.000000;0.876836
9369.000000;0.876397
9368.000000;0.875409
9367.000000;0.874238
9366.000000;0.873367
9365.000000;0.872951
9364.000000;0.872920
9363.000000;0.873195
9362.000000;0.873520
9361.000000;0.873398
9360.000000;0.872626
9359.000000;0.871707
9358.000000;0.871320
9357.000000;0.871493
9356.000000;0.871697
9355.000000;0.871640
9354.000000;0.871537
9353.000000;0.871558
9352.000000;0.871477
9351.000000;0.871001
9350.000000;0.870190
9349.000000;0.869375
9348.000000;0.868832
9347.000000;0.868609
9346.000000;0.868532
9345.000000;0.868355
9344.000000;0.868007
9343.000000;0.867680
9342.000000;0.867576
9341.000000;0.867605
9340.000000;0.867476
9339.000000;0.867019
9338.000000;0.866292
9337.000000;0.865437
9336.000000;0.864606
9335.000000;0.863935
9334.000000;0.863460
9333.000000;0.863102
9332.000000;0.862860
9331.000000;0.862861
9330.000000;0.863068
9329.000000;0.863140
9328.000000;0.862818
9327.000000;0.862342
9326.000000;0.862162
9325.000000;0.862324
9324.000000;0.862423
9323.000000;0.862139
9322.000000;0.861549
9321.000000;0.860879
9320.000000;0.860234
9319.000000;0.859613
9318.000000;0.859019
9317.000000;0.858451
9316.000000;0.857925
9315.000000;0.857527
9314.000000;0.857320
9313.000000;0.857206
9312.000000;0.857017
9311.000000;0.856739
9310.000000;0.856508
9309.000000;0.856376
9308.000000;0.856222
9307.000000;0.855916
9306.000000;0.855491
9305.000000;0.855094
9304.000000;0.854804
9303.000000;0.854521
9302.000000;0.854066
9301.000000;0.853433
9300.000000;0.852882
9299.000000;0.852650
9298.000000;0.852580
9297.000000;0.852256
9296.000000;0.851565
9295.000000;0.850909
9294.000000;0.850711
9293.000000;0.850919
9292.000000;0.851160
9291.000000;0.851232
9290.000000;0.851225
9289.000000;0.851267
9288.000000;0.851350
9287.000000;0.851375
9286.000000;0.851208
9285.000000;0.850775
9284.000000;0.850189
9283.000000;0.849698
9282.000000;0.849383
9281.000000;0.849032
9280.000000;0.848439
9279.000000;0.847709
9278.000000;0.847128
9277.000000;0.846850
9276.000000;0.846854
9275.000000;0.847049
9274.000000;0.847259
9273.000000;0.847223
9272.000000;0.846800
9271.000000;0.846129
9270.000000;0.845452
9269.000000;0.844875
9268.000000;0.844401
9267.000000;0.844080
9266.000000;0.843950
9265.000000;0.843940
9264.000000;0.843952
9263.000000;0.843957
9262.000000;0.843900
9261.000000;0.843629
9260.000000;0.843089
9259.000000;0.842484
9258.000000;0.842109
9257.000000;0.842063
9256.000000;0.842210
9255.000000;0.842344
9254.000000;0.842299
9253.000000;0.842032
9252.000000;0.841656
9251.000000;0.841283
9250.000000;0.840811
9249.000000;0.840047
9248.000000;0.839082
9247.000000;0.838292
9246.000000;0.837884
9245.000000;0.837690
9244.000000;0.837529
9243.000000;0.837485
9242.000000;0.837648
9241.000000;0.837827
9240.000000;0.837767
9239.000000;0.837439
9238.000000;0.836932
9237.000000;0.836271
9236.000000;0.835558
9235.000000;0.835068
9234.000000;0.834922
9233.000000;0.834847
9232.000000;0.834509
9231.000000;0.833936
9230.000000;0.833364
9229.000000;0.832852
9228.000000;0.832344
9227.000000;0.831942
9226.000000;0.831804
9225.000000;0.831862
9224.000000;0.831909
9223.000000;0.831902
9222.000000;0.831915
9221.000000;0.831894
9220.000000;0.831740
9219.000000;0.831559
9218.000000;0.831554
9217.000000;0.831708
9216.000000;0.831806
9215.000000;0.831724
9214.000000;0.831480
9213.000000;0.831038
9212.000000;0.830324
9211.000000;0.829409
9210.000000;0.828489
9209.000000;0.827701
9208.000000;0.827123
9207.000000;0.826895
9206.000000;0.827112
9205.000000;0.827591
9204.000000;0.827930
9203.000000;0.827828
9202.000000;0.827282
9201.000000;0.826529
9200.000000;0.825909
9199.000000;0.825690
9198.000000;0.825865
9197.000000;0.826151
9196.000000;0.826277
9195.000000;0.826201
9194.000000;0.825965
9193.000000;0.825521
9192.000000;0.824836
9191.000000;0.824035
9190.000000;0.823264
9189.000000;0.822558
9188.000000;0.821992
9187.000000;0.821787
9186.000000;0.822020
9185.000000;0.822351
9184.000000;0.822284
9183.000000;0.821675
9182.000000;0.820805
9181.000000;0.820024
9180.000000;0.819505
9179.000000;0.819254
9178.000000;0.819156
9177.000000;0.819074
9176.000000;0.819032
9175.000000;0.819200
9174.000000;0.819603
9173.000000;0.819977
9172.000000;0.820092
9171.000000;0.820037
9170.000000;0.819966
9169.000000;0.819749
9168.000000;0.819200
9167.000000;0.818515
9166.000000;0.818131
9165.000000;0.818151
9164.000000;0.818211
9163.000000;0.817958
9162.000000;0.817424
9161.000000;0.816883
9160.000000;0.816525
9159.000000;0.816351
9158.000000;0.816229
9157.000000;0.816014
9156.000000;0.815707
9155.000000;0.815468
9154.000000;0.815370
9153.000000;0.815201
9152.000000;0.814689
9151.000000;0.813914
9150.000000;0.813295
9149.000000;0.813129
9148.000000;0.813276
9147.000000;0.813351
9146.000000;0.813116
9145.000000;0.812656
9144.000000;0.812235
9143.000000;0.812040
9142.000000;0.812044
9141.000000;0.812078
9140.000000;0.812024
9139.000000;0.811896
9138.000000;0.811742
9137.000000;0.811558
9136.000000;0.811301
9135.000000;0.810930
9134.000000;0.810441
9133.000000;0.809930
9132.000000;0.809594
9131.000000;0.809536
9130.000000;0.809572
9129.000000;0.809426
9128.000000;0.809083
9127.000000;0.808765
9126.000000;0.808565
9125.000000;0.808350
9124.000000;0.808053
9123.000000;0.807784
9122.000000;0.807579
9121.000000;0.807318
9120.000000;0.807014
9119.000000;0.806853
9118.000000;0.806805
9117.000000;0.806493
9116.000000;0.805717
9115.000000;0.804840
9114.000000;0.804374
9113.000000;0.804386
9112.000000;0.804567
9111.000000;0.804696
9110.000000;0.804745
9109.000000;0.804665
9108.000000;0.804416
9107.000000;0.804147
9106.000000;0.804074
9105.000000;0.804172
9104.000000;0.804196
9103.000000;0.803985
9102.000000;0.803579
9101.000000;0.803071
9100.000000;0.802534
9099.000000;0.802064
9098.000000;0.801750
9097.000000;0.801599
9096.000000;0.801567
9095.000000;0.801601
9094.000000;0.801586
9093.000000;0.801383
9092.000000;0.801033
9091.000000;0.800765
9090.000000;0.800713
9089.000000;0.800723
9088.000000;0.800596
9087.000000;0.800329
9086.000000;0.800011
9085.000000;0.799629
9084.000000;0.799191
9083.000000;0.798846
9082.000000;0.798695
9081.000000;0.798592
9080.000000;0.798363
9079.000000;0.798082
9078.000000;0.797932
9077.000000;0.797890
9076.000000;0.797779
9075.000000;0.797537
9074.000000;0.797229
9073.000000;0.796875
9072.000000;0.796468
9071.000000;0.796110
9070.000000;0.795933
9069.000000;0.795914
9068.000000;0.795920
9067.000000;0.795882
9066.000000;0.795777
9065.000000;0.795529
9064.000000;0.795108
9063.000000;0.794678
9062.000000;0.794460
9061.000000;0.794480
9060.000000;0.794558
9059.000000;0.794522
9058.000000;0.794320
9057.000000;0.794015
9056.000000;0.793754
9055.000000;0.793656
9054.000000;0.793624
9053.000000;0.793359
9052.000000;0.792711
9051.000000;0.791904
9050.000000;0.791313
9049.000000;0.791094
9048.000000;0.791118
9047.000000;0.791149
9046.000000;0.790982
9045.000000;0.790571
9044.000000;0.790152
9043.000000;0.790101
9042.000000;0.790500
9041.000000;0.790963
9040.000000;0.791040
9039.000000;0.790686
9038.000000;0.790180
9037.000000;0.789735
9036.000000;0.789371
9035.000000;0.789059
9034.000000;0.788780
9033.000000;0.788483
9032.000000;0.788145
9031.000000;0.787845
9030.000000;0.787669
9029.000000;0.787603
9028.000000;0.787585
9027.000000;0.787575
9026.000000;0.787516
9025.000000;0.787361
9024.000000;0.787224
9023.000000;0.787316
9022.000000;0.787619
9021.000000;0.787810
9020.000000;0.787655
9019.000000;0.787297
9018.000000;0.787006
9017.000000;0.786812
9016.000000;0.786554
9015.000000;0.786131
9014.000000;0.785544
9013.000000;0.784874
9012.000000;0.784359
9011.000000;0.784294
9010.000000;0.784619
9009.000000;0.784804
9008.000000;0.784427
9007.000000;0.783705
9006.000000;0.783190
9005.000000;0.783072
9004.000000;0.783079
9003.000000;0.782965
9002.000000;0.782772
9001.000000;0.782630
9000.000000;0.782574
8999.000000;0.782585
8998.000000;0.782626
8997.000000;0.782589
8996.000000;0.782390
8995.000000;0.782107
8994.000000;0.781898
8993.000000;0.781798
8992.000000;0.781720
8991.000000;0.781618
8990.000000;0.781494
8989.000000;0.781317
8988.000000;0.781058
8987.000000;0.780797
8986.000000;0.780642
8985.000000;0.780579
8984.000000;0.780503
8983.000000;0.780333
8982.000000;0.780011
8981.000000;0.779475
8980.000000;0.778756
8979.000000;0.778021
8978.000000;0.777411
8977.000000;0.776929
8976.000000;0.776591
8975.000000;0.776525
8974.000000;0.776775
8973.000000;0.777118
8972.000000;0.777277
8971.000000;0.777250
8970.000000;0.777226
8969.000000;0.777246
8968.000000;0.777136
8967.000000;0.776786
8966.000000;0.776333
8965.000000;0.776035
8964.000000;0.776031
8963.000000;0.776213
8962.000000;0.776305
8961.000000;0.776135
8960.000000;0.775857
8959.000000;0.775779
8958.000000;0.775924
8957.000000;0.775937
8956.000000;0.775542
8955.000000;0.774940
8954.000000;0.774545
8953.000000;0.774452
8952.000000;0.774383
8951.000000;0.774093
8950.000000;0.773647
8949.000000;0.773262
8948.000000;0.773041
8947.000000;0.772896
8946.000000;0.772691
8945.000000;0.772425
8944.000000;0.772254
8943.000000;0.772278
8942.000000;0.772349
8941.000000;0.772231
8940.000000;0.771924
8939.000000;0.771646
8938.000000;0.771465
8937.000000;0.771199
8936.000000;0.770757
8935.000000;0.770355
8934.000000;0.770214
8933.000000;0.770250
8932.000000;0.770236
8931.000000;0.770134
8930.000000;0.770081
8929.000000;0.770171
8928.000000;0.770381
8927.000000;0.770607
8926.000000;0.770655
8925.000000;0.770332
8924.000000;0.769700
8923.000000;0.769112
8922.000000;0.768862
8921.000000;0.768911
8920.000000;0.769053
8919.000000;0.769157
8918.000000;0.769127
8917.000000;0.768836
8916.000000;0.768316
8915.000000;0.767869
8914.000000;0.767756
8913.000000;0.767872
8912.000000;0.767936
8911.000000;0.767899
8910.000000;0.767944
8909.000000;0.768148
8908.000000;0.768353
8907.000000;0.768345
8906.000000;0.768019
8905.000000;0.767392
8904.000000;0.766613
8903.000000;0.765916
8902.000000;0.765457
8901.000000;0.765226
8900.000000;0.765180
8899.000000;0.765335
8898.000000;0.765633
8897.000000;0.765855
8896.000000;0.765834
8895.000000;0.765663
8894.000000;0.765549
8893.000000;0.765523
8892.000000;0.765446
8891.000000;0.765225
8890.000000;0.764902
8889.000000;0.764597
8888.000000;0.764460
8887.000000;0.764578
8886.000000;0.764814
8885.000000;0.764820
8884.000000;0.764377
8883.000000;0.763684
8882.000000;0.763193
8881.000000;0.763182
8880.000000;0.763556
8879.000000;0.764001
8878.000000;0.764240
8877.000000;0.764192
8876.000000;0.763960
8875.000000;0.763675
8874.000000;0.763357
8873.000000;0.763001
8872.000000;0.762727
8871.000000;0.762686
8870.000000;0.762832
8869.000000;0.762964
8868.000000;0.763020
8867.000000;0.763107
8866.000000;0.763175
8865.000000;0.762944
8864.000000;0.762288
8863.000000;0.761501
8862.000000;0.761002
8861.000000;0.760928
8860.000000;0.761100
8859.000000;0.761265
8858.000000;0.761246
8857.000000;0.761019
8856.000000;0.760774
8855.000000;0.760791
8854.000000;0.761143
8853.000000;0.761621
8852.000000;0.761977
8851.000000;0.762103
8850.000000;0.761954
8849.000000;0.761528
8848.000000;0.761001
8847.000000;0.760642
8846.000000;0.760506
8845.000000;0.760397
8844.000000;0.760221
8843.000000;0.760113
8842.000000;0.760135
8841.000000;0.760122
8840.000000;0.759977
8839.000000;0.759849
8838.000000;0.759837
8837.000000;0.759753
8836.000000;0.759398
8835.000000;0.758859
8834.000000;0.758373
8833.000000;0.758068
8832.000000;0.758005
8831.000000;0.758243
8830.000000;0.758669
8829.000000;0.758980
8828.000000;0.759019
8827.000000;0.758958
8826.000000;0.758989
8825.000000;0.759070
8824.000000;0.759134
8823.000000;0.759300
8822.000000;0.759625
8821.000000;0.759877
8820.000000;0.759838
8819.000000;0.759643
8818.000000;0.759582
8817.000000;0.759712
8816.000000;0.759909
8815.000000;0.760127
8814.000000;0.760348
8813.000000;0.760428
8812.000000;0.760249
8811.000000;0.759934
8810.000000;0.759695
8809.000000;0.759583
8808.000000;0.759567
8807.000000;0.759690
8806.000000;0.759946
8805.000000;0.760151
8804.000000;0.760172
8803.000000;0.760117
8802.000000;0.760089
8801.000000;0.759931
8800.000000;0.759477
8799.000000;0.758894
8798.000000;0.758501
8797.000000;0.758365
8796.000000;0.758337
8795.000000;0.758367
8794.000000;0.758517
8793.000000;0.758730
8792.000000;0.758870
8791.000000;0.758950
8790.000000;0.759109
8789.000000;0.759362
8788.000000;0.759568
8787.000000;0.759602
8786.000000;0.759444
8785.000000;0.759174
8784.000000;0.758974
8783.000000;0.759034
8782.000000;0.759335
8781.000000;0.759650
8780.000000;0.759853
8779.000000;0.760058
8778.000000;0.760322
8777.000000;0.760449
8776.000000;0.760286
8775.000000;0.759996
8774.000000;0.759840
8773.000000;0.759844
8772.000000;0.759908
8771.000000;0.760025
8770.000000;0.760184
8769.000000;0.760246
8768.000000;0.760179
8767.000000;0.760217
8766.000000;0.760512
8765.000000;0.760800
8764.000000;0.760724
8763.000000;0.760361
8762.000000;0.760117
8761.000000;0.760231
8760.000000;0.760635
8759.000000;0.761183
8758.000000;0.761722
8757.000000;0.762029
8756.000000;0.761985
8755.000000;0.761767
8754.000000;0.761641
8753.000000;0.761627
8752.000000;0.761581
8751.000000;0.761502
8750.000000;0.761503
8749.000000;0.761583
8748.000000;0.761695
8747.000000;0.761933
8746.000000;0.762389
8745.000000;0.762897
8744.000000;0.763191
8743.000000;0.763263
8742.000000;0.763341
8741.000000;0.763550
8740.000000;0.763823
8739.000000;0.764072
8738.000000;0.764218
8737.000000;0.764159
8736.000000;0.763922
8735.000000;0.763760
8734.000000;0.763863
8733.000000;0.764063
8732.000000;0.764096
8731.000000;0.764022
8730.000000;0.764116
8729.000000;0.764437
8728.000000;0.764791
8727.000000;0.765050
8726.000000;0.765202
8725.000000;0.765161
8724.000000;0.764865
8723.000000;0.764548
8722.000000;0.764589
8721.000000;0.765037
8720.000000;0.765548
8719.000000;0.765816
8718.000000;0.765842
8717.000000;0.765758
8716.000000;0.765641
8715.000000;0.765567
8714.000000;0.765616
8713.000000;0.765759
8712.000000;0.765889
8711.000000;0.765987
8710.000000;0.766106
8709.000000;0.766212
8708.000000;0.766218
8707.000000;0.766167
8706.000000;0.766201
8705.000000;0.766347
8704.000000;0.766478
8703.000000;0.766483
8702.000000;0.766372
8701.000000;0.766239
8700.000000;0.766243
8699.000000;0.766543
8698.000000;0.767113
8697.000000;0.767685
8696.000000;0.767998
8695.000000;0.768029
8694.000000;0.767879
8693.000000;0.767568
8692.000000;0.767138
8691.000000;0.766792
8690.000000;0.766713
8689.000000;0.766816
8688.000000;0.766912
8687.000000;0.766999
8686.000000;0.767168
8685.000000;0.767328
8684.000000;0.767288
8683.000000;0.767055
8682.000000;0.766820
8681.000000;0.766677
8680.000000;0.766586
8679.000000;0.766557
8678.000000;0.766624
8677.000000;0.766668
8676.000000;0.766522
8675.000000;0.766241
8674.000000;0.766050
8673.000000;0.766039
8672.000000;0.766100
8671.000000;0.766148
8670.000000;0.766218
8669.000000;0.766346
8668.000000;0.766510
8667.000000;0.766666
8666.000000;0.766695
8665.000000;0.766424
8664.000000;0.765895
8663.000000;0.765492
8662.000000;0.765546
8661.000000;0.765889
8660.000000;0.766069
8659.000000;0.765952
8658.000000;0.765821
8657.000000;0.765876
8656.000000;0.765968
8655.000000;0.765899
8654.000000;0.765700
8653.000000;0.765501
8652.000000;0.765333
8651.000000;0.765187
8650.000000;0.765114
8649.000000;0.765149
8648.000000;0.765228
8647.000000;0.765247
8646.000000;0.765150
8645.000000;0.764923
8644.000000;0.764610
8643.000000;0.764323
8642.000000;0.764164
8641.000000;0.764115
8640.000000;0.764069
8639.000000;0.763958
8638.000000;0.763801
8637.000000;0.763664
8636.000000;0.763599
8635.000000;0.763570
8634.000000;0.763421
8633.000000;0.763035
8632.000000;0.762584
8631.000000;0.762432
8630.000000;0.762668
8629.000000;0.762932
8628.000000;0.762854
8627.000000;0.762523
8626.000000;0.762298
8625.000000;0.762326
8624.000000;0.762475
8623.000000;0.762626
8622.000000;0.762760
8621.000000;0.762811
8620.000000;0.762692
8619.000000;0.762458
8618.000000;0.762239
8617.000000;0.762012
8616.000000;0.761647
8615.000000;0.761154
8614.000000;0.760703
8613.000000;0.760401
8612.000000;0.760206
8611.000000;0.760054
8610.000000;0.759886
8609.000000;0.759625
8608.000000;0.759269
8607.000000;0.758999
8606.000000;0.759013
8605.000000;0.759259
8604.000000;0.759499
8603.000000;0.759587
8602.000000;0.759536
8601.000000;0.759374
8600.000000;0.759122
8599.000000;0.758894
8598.000000;0.758818
8597.000000;0.758842
8596.000000;0.758759
8595.000000;0.758452
8594.000000;0.757994
8593.000000;0.757546
8592.000000;0.757268
8591.000000;0.757283
8590.000000;0.757544
8589.000000;0.757772
8588.000000;0.757689
8587.000000;0.757296
8586.000000;0.756826
8585.000000;0.756449
8584.000000;0.756195
8583.000000;0.756092
8582.000000;0.756183
8581.000000;0.756410
8580.000000;0.756597
8579.000000;0.756576
8578.000000;0.756258
8577.000000;0.755635
8576.000000;0.754853
8575.000000;0.754231
8574.000000;0.754044
8573.000000;0.754279
8572.000000;0.754699
8571.000000;0.755060
8570.000000;0.755217
8569.000000;0.755088
8568.000000;0.754710
8567.000000;0.754270
8566.000000;0.753935
8565.000000;0.753680
8564.000000;0.753392
8563.000000;0.753060
8562.000000;0.752736
8561.000000;0.752409
8560.000000;0.752091
8559.000000;0.751933
8558.000000;0.752065
8557.000000;0.752346
8556.000000;0.752464
8555.000000;0.752282
8554.000000;0.751937
8553.000000;0.751617
8552.000000;0.751400
8551.000000;0.751296
8550.000000;0.751283
8549.000000;0.751287
8548.000000;0.751226
8547.000000;0.751073
8546.000000;0.750846
8545.000000;0.750578
8544.000000;0.750348
8543.000000;0.750227
8542.000000;0.750094
8541.000000;0.749672
8540.000000;0.748904
8539.000000;0.748155
8538.000000;0.747862
8537.000000;0.748050
8536.000000;0.748392
8535.000000;0.748629
8534.000000;0.748729
8533.000000;0.748698
8532.000000;0.748507
8531.000000;0.748214
8530.000000;0.747971
8529.000000;0.747857
8528.000000;0.747844
8527.000000;0.747891
8526.000000;0.747931
8525.000000;0.747804
8524.000000;0.747381
8523.000000;0.746770
8522.000000;0.746239
8521.000000;0.745928
8520.000000;0.745779
8519.000000;0.745721
8518.000000;0.745765
8517.000000;0.745873
8516.000000;0.745909
8515.000000;0.745764
8514.000000;0.745458
8513.000000;0.745064
8512.000000;0.744620
8511.000000;0.744140
8510.000000;0.743672
8509.000000;0.743337
8508.000000;0.743303
8507.000000;0.743650
8506.000000;0.744189
8505.000000;0.744526
8504.000000;0.744398
8503.000000;0.743900
8502.000000;0.743325
8501.000000;0.742868
8500.000000;0.742575
8499.000000;0.742433
8498.000000;0.742368
8497.000000;0.742223
8496.000000;0.741917
8495.000000;0.741578
8494.000000;0.741395
8493.000000;0.741380
8492.000000;0.741405
8491.000000;0.741399
8490.000000;0.741382
8489.000000;0.741356
8488.000000;0.741296
8487.000000;0.741216
8486.000000;0.741149
8485.000000;0.741066
8484.000000;0.740919
8483.000000;0.740731
8482.000000;0.740558
8481.000000;0.740418
8480.000000;0.740313
8479.000000;0.740224
8478.000000;0.740057
8477.000000;0.739713
8476.000000;0.739285
8475.000000;0.739034
8474.000000;0.739057
8473.000000;0.739120
8472.000000;0.738971
8471.000000;0.738664
8470.000000;0.738399
8469.000000;0.738184
8468.000000;0.737866
8467.000000;0.737432
8466.000000;0.737046
8465.000000;0.736800
8464.000000;0.736637
8463.000000;0.736491
8462.000000;0.736370
8461.000000;0.736298
8460.000000;0.736291
8459.000000;0.736365
8458.000000;0.736453
8457.000000;0.736393
8456.000000;0.736125
8455.000000;0.735816
8454.000000;0.735669
8453.000000;0.735643
8452.000000;0.735514
8451.000000;0.735187
8450.000000;0.734798
8449.000000;0.734539
8448.000000;0.734486
8447.000000;0.734569
8446.000000;0.734629
8445.000000;0.734527
8444.000000;0.734293
8443.000000;0.734084
8442.000000;0.733958
8441.000000;0.733804
8440.000000;0.733563
8439.000000;0.733378
8438.000000;0.733360
8437.000000;0.733370
8436.000000;0.733192
8435.000000;0.732842
8434.000000;0.732514
8433.000000;0.732307
8432.000000;0.732184
8431.000000;0.732125
8430.000000;0.732124
8429.000000;0.732098
8428.000000;0.731963
8427.000000;0.731777
8426.000000;0.731644
8425.000000;0.731529
8424.000000;0.731314
8423.000000;0.731011
8422.000000;0.730753
8421.000000;0.730607
8420.000000;0.730537
8419.000000;0.730507
8418.000000;0.730485
8417.000000;0.730381
8416.000000;0.730139
8415.000000;0.729851
8414.000000;0.729662
8413.000000;0.729593
8412.000000;0.729563
8411.000000;0.729537
8410.000000;0.729511
8409.000000;0.729410
8408.000000;0.729147
8407.000000;0.728761
8406.000000;0.728384
8405.000000;0.728101
8404.000000;0.727946
8403.000000;0.727955
8402.000000;0.728088
8401.000000;0.728159
8400.000000;0.727993
8399.000000;0.727642
8398.000000;0.727318
8397.000000;0.727154
8396.000000;0.727129
8395.000000;0.727159
8394.000000;0.727139
8393.000000;0.726960
8392.000000;0.726613
8391.000000;0.726257
8390.000000;0.726054
8389.000000;0.725993
8388.000000;0.725967
8387.000000;0.725940
8386.000000;0.725919
8385.000000;0.725841
8384.000000;0.725652
8383.000000;0.725457
8382.000000;0.725405
8381.000000;0.725460
8380.000000;0.725422
8379.000000;0.725175
8378.000000;0.724806
8377.000000;0.724475
8376.000000;0.724264
8375.000000;0.724123
8374.000000;0.723904
8373.000000;0.723490
8372.000000;0.722955
8371.000000;0.722530
8370.000000;0.722341
8369.000000;0.722295
8368.000000;0.722271
8367.000000;0.722287
8366.000000;0.722342
8365.000000;0.722269
8364.000000;0.721940
8363.000000;0.721534
8362.000000;0.721358
8361.000000;0.721460
8360.000000;0.721584
8359.000000;0.721507
8358.000000;0.721224
8357.000000;0.720846
8356.000000;0.720469
8355.000000;0.720184
8354.000000;0.720052
8353.000000;0.720022
8352.000000;0.719969
8351.000000;0.719834
8350.000000;0.719658
8349.000000;0.719505
8348.000000;0.719402
8347.000000;0.719328
8346.000000;0.719223
8345.000000;0.719052
8344.000000;0.718891
8343.000000;0.718862
8342.000000;0.718936
8341.000000;0.718902
8340.000000;0.718622
8339.000000;0.718180
8338.000000;0.717728
8337.000000;0.717296
8336.000000;0.716893
8335.000000;0.716603
8334.000000;0.716454
8333.000000;0.716317
8332.000000;0.716097
8331.000000;0.715909
8330.000000;0.715877
8329.000000;0.715878
8328.000000;0.715694
8327.000000;0.715325
8326.000000;0.714967
8325.000000;0.714720
8324.000000;0.714521
8323.000000;0.714326
8322.000000;0.714165
8321.000000;0.714026
8320.000000;0.713851
8319.000000;0.713628
8318.000000;0.713391
8317.000000;0.713147
8316.000000;0.712913
8315.000000;0.712763
8314.000000;0.712721
8313.000000;0.712670
8312.000000;0.712504
8311.000000;0.712290
8310.000000;0.712131
8309.000000;0.711994
8308.000000;0.711832
8307.000000;0.711756
8306.000000;0.711895
8305.000000;0.712121
8304.000000;0.712158
8303.000000;0.711922
8302.000000;0.711567
8301.000000;0.711209
8300.000000;0.710831
8299.000000;0.710449
8298.000000;0.710146
8297.000000;0.709910
8296.000000;0.709626
8295.000000;0.709286
8294.000000;0.709029
8293.000000;0.708936
8292.000000;0.708901
8291.000000;0.708780
8290.000000;0.708525
8289.000000;0.708168
8288.000000;0.707760
8287.000000;0.707390
8286.000000;0.707154
8285.000000;0.707069
8284.000000;0.707075
8283.000000;0.707119
8282.000000;0.707162
8281.000000;0.707115
8280.000000;0.706879
8279.000000;0.706458
8278.000000;0.705954
8277.000000;0.705481
8276.000000;0.705126
8275.000000;0.704950
8274.000000;0.704914
8273.000000;0.704873
8272.000000;0.704739
8271.000000;0.704625
8270.000000;0.704686
8269.000000;0.704859
8268.000000;0.704891
8267.000000;0.704635
8266.000000;0.704183
8265.000000;0.703707
8264.000000;0.703307
8263.000000;0.703034
8262.000000;0.702920
8261.000000;0.702913
8260.000000;0.702872
8259.000000;0.702680
8258.000000;0.702359
8257.000000;0.702015
8256.000000;0.701720
8255.000000;0.701466
8254.000000;0.701217
8253.000000;0.700980
8252.000000;0.700834
8251.000000;0.700847
8250.000000;0.700982
8249.000000;0.701115
8248.000000;0.701141
8247.000000;0.701022
8246.000000;0.700744
8245.000000;0.700319
8244.000000;0.699861
8243.000000;0.699521
8242.000000;0.699328
8241.000000;0.699154
8240.000000;0.698919
8239.000000;0.698708
8238.000000;0.698631
8237.000000;0.698661
8236.000000;0.698667
8235.000000;0.698545
8234.000000;0.698241
8233.000000;0.697770
8232.000000;0.697268
8231.000000;0.696936
8230.000000;0.696838
8229.000000;0.696840
8228.000000;0.696796
8227.000000;0.696687
8226.000000;0.696507
8225.000000;0.696189
8224.000000;0.695748
8223.000000;0.695385
8222.000000;0.695262
8221.000000;0.695273
8220.000000;0.695155
8219.000000;0.694799
8218.000000;0.694335
8217.000000;0.693967
8216.000000;0.693818
8215.000000;0.693868
8214.000000;0.693952
8213.000000;0.693883
8212.000000;0.693639
8211.000000;0.693357
8210.000000;0.693112
8209.000000;0.692827
8208.000000;0.692469
8207.000000;0.692177
8206.000000;0.692068
8205.000000;0.692043
8204.000000;0.691934
8203.000000;0.691738
8202.000000;0.691543
8201.000000;0.691337
8200.000000;0.691039
8199.000000;0.690676
8198.000000;0.690379
8197.000000;0.690239
8196.000000;0.690250
8195.000000;0.690337
8194.000000;0.690356
8193.000000;0.690171
8192.000000;0.689830
8191.000000;0.689562
8190.000000;0.689485
8189.000000;0.689420
8188.000000;0.689140
8187.000000;0.688685
8186.000000;0.688301
8185.000000;0.688121
8184.000000;0.688083
8183.000000;0.688079
8182.000000;0.688037
8181.000000;0.687911
8180.000000;0.687708
8179.000000;0.687496
8178.000000;0.687300
8177.000000;0.687056
8176.000000;0.686764
8175.000000;0.686552
8174.000000;0.686498
8173.000000;0.686473
8172.000000;0.686313
8171.000000;0.686018
8170.000000;0.685675
8169.000000;0.685303
8168.000000;0.684933
8167.000000;0.684710
8166.000000;0.684695
8165.000000;0.684688
8164.000000;0.684451
8163.000000;0.684055
8162.000000;0.683792
8161.000000;0.683780
8160.000000;0.683842
8159.000000;0.683779
8158.000000;0.683561
8157.000000;0.683248
8156.000000;0.682896
8155.000000;0.682563
8154.000000;0.682296
8153.000000;0.682076
8152.000000;0.681869
8151.000000;0.681702
8150.000000;0.681595
8149.000000;0.681465
8148.000000;0.681219
8147.000000;0.680915
8146.000000;0.680711
8145.000000;0.680678
8144.000000;0.680747
8143.000000;0.680785
8142.000000;0.680658
8141.000000;0.680290
8140.000000;0.679777
8139.000000;0.679375
8138.000000;0.679236
8137.000000;0.679219
8136.000000;0.679094
8135.000000;0.678841
8134.000000;0.678628
8133.000000;0.678535
8132.000000;0.678480
8131.000000;0.678369
8130.000000;0.678175
8129.000000;0.677903
8128.000000;0.677606
8127.000000;0.677382
8126.000000;0.677244
8125.000000;0.677051
8124.000000;0.676695
8123.000000;0.676306
8122.000000;0.676111
8121.000000;0.676129
8120.000000;0.676151
8119.000000;0.675993
8118.000000;0.675617
8117.000000;0.675071
8116.000000;0.674471
8115.000000;0.674016
8114.000000;0.673852
8113.000000;0.673888
8112.000000;0.673879
8111.000000;0.673690
8110.000000;0.673381
8109.000000;0.673061
8108.000000;0.672797
8107.000000;0.672644
8106.000000;0.672623
8105.000000;0.672655
8104.000000;0.672612
8103.000000;0.672451
8102.000000;0.672208
8101.000000;0.671912
8100.000000;0.671580
8099.000000;0.671287
8098.000000;0.671124
8097.000000;0.671090
8096.000000;0.671117
8095.000000;0.671146
8094.000000;0.671120
8093.000000;0.670952
8092.000000;0.670604
8091.000000;0.670159
8090.000000;0.669725
8089.000000;0.669337
8088.000000;0.669018
8087.000000;0.668845
8086.000000;0.668842
8085.000000;0.668881
8084.000000;0.668835
8083.000000;0.668750
8082.000000;0.668739
8081.000000;0.668753
8080.000000;0.668616
8079.000000;0.668259
8078.000000;0.667776
8077.000000;0.667289
8076.000000;0.666886
8075.000000;0.666651
8074.000000;0.666608
8073.000000;0.666648
8072.000000;0.666619
8071.000000;0.666475
8070.000000;0.666226
8069.000000;0.665834
8068.000000;0.665295
8067.000000;0.664762
8066.000000;0.664424
8065.000000;0.664276
8064.000000;0.664158
8063.000000;0.663991
8062.000000;0.663836
8061.000000;0.663727
8060.000000;0.663590
8059.000000;0.663374
8058.000000;0.663136
8057.000000;0.662960
8056.000000;0.662854
8055.000000;0.662726
8054.000000;0.662443
8053.000000;0.661951
8052.000000;0.661401
8051.000000;0.661053
8050.000000;0.660990
8049.000000;0.661004
8048.000000;0.660867
8047.000000;0.660615
8046.000000;0.660423
8045.000000;0.660328
8044.000000;0.660224
8043.000000;0.660073
8042.000000;0.659925
8041.000000;0.659764
8040.000000;0.659521
8039.000000;0.659228
8038.000000;0.658995
8037.000000;0.658832
8036.000000;0.658644
8035.000000;0.658394
8034.000000;0.658142
8033.000000;0.657919
8032.000000;0.657708
8031.000000;0.657527
8030.000000;0.657410
8029.000000;0.657318
8028.000000;0.657181
8027.000000;0.657011
8026.000000;0.656862
8025.000000;0.656708
8024.000000;0.656484
8023.000000;0.656219
8022.000000;0.655994
8021.000000;0.655808
8020.000000;0.655623
8019.000000;0.655493
8018.000000;0.655498
8017.000000;0.655549
8016.000000;0.655420
8015.000000;0.655012
8014.000000;0.654445
8013.000000;0.653896
8012.000000;0.653468
8011.000000;0.653217
8010.000000;0.653166
8009.000000;0.653231
8008.000000;0.653254
8007.000000;0.653128
8006.000000;0.652819
8005.000000;0.652309
8004.000000;0.651633
8003.000000;0.650983
8002.000000;0.650616
8001.000000;0.650607
8000.000000;0.650780
7999.000000;0.650898
7998.000000;0.650846
7997.000000;0.650632
7996.000000;0.650325
7995.000000;0.650033
7994.000000;0.649845
7993.000000;0.649762
7992.000000;0.649707
7991.000000;0.649602
7990.000000;0.649398
7989.000000;0.649083
7988.000000;0.648734
7987.000000;0.648520
7986.000000;0.648524
7985.000000;0.648599
7984.000000;0.648489
7983.000000;0.648098
7982.000000;0.647554
7981.000000;0.647050
7980.000000;0.646709
7979.000000;0.646560
7978.000000;0.646523
7977.000000;0.646436
7976.000000;0.646207
7975.000000;0.645928
7974.000000;0.645737
7973.000000;0.645617
7972.000000;0.645443
7971.000000;0.645182
7970.000000;0.644922
7969.000000;0.644702
7968.000000;0.644472
7967.000000;0.644199
7966.000000;0.643886
7965.000000;0.643498
7964.000000;0.643025
7963.000000;0.642611
7962.000000;0.642469
7961.000000;0.642604
7960.000000;0.642750
7959.000000;0.642658
7958.000000;0.642339
7957.000000;0.641983
7956.000000;0.641737
7955.000000;0.641612
7954.000000;0.641519
7953.000000;0.641342
7952.000000;0.641039
7951.000000;0.640695
7950.000000;0.640449
7949.000000;0.640336
7948.000000;0.640285
7947.000000;0.640229
7946.000000;0.640166
7945.000000;0.640080
7944.000000;0.639912
7943.000000;0.639645
7942.000000;0.639344
7941.000000;0.639079
7940.000000;0.638852
7939.000000;0.638617
7938.000000;0.638351
7937.000000;0.638078
7936.000000;0.637856
7935.000000;0.637736
7934.000000;0.637690
7933.000000;0.637620
7932.000000;0.637454
7931.000000;0.637211
7930.000000;0.636935
7929.000000;0.636628
7928.000000;0.636299
7927.000000;0.636039
7926.000000;0.635945
7925.000000;0.635985
7924.000000;0.636013
7923.000000;0.635904
7922.000000;0.635647
7921.000000;0.635321
7920.000000;0.635036
7919.000000;0.634859
7918.000000;0.634741
7917.000000;0.634564
7916.000000;0.634305
7915.000000;0.634079
7914.000000;0.633974
7913.000000;0.633912
7912.000000;0.633770
7911.000000;0.633542
7910.000000;0.633280
7909.000000;0.632949
7908.000000;0.632485
7907.000000;0.631965
7906.000000;0.631565
7905.000000;0.631354
7904.000000;0.631245
7903.000000;0.631154
7902.000000;0.631087
7901.000000;0.631055
7900.000000;0.631011
7899.000000;0.630902
7898.000000;0.630718
7897.000000;0.630478
7896.000000;0.630221
7895.000000;0.630012
7894.000000;0.629871
7893.000000;0.629711
7892.000000;0.629431
7891.000000;0.629062
7890.000000;0.628733
7889.000000;0.628508
7888.000000;0.628341
7887.000000;0.628175
7886.000000;0.627998
7885.000000;0.627786
7884.000000;0.627488
7883.000000;0.627110
7882.000000;0.626738
7881.000000;0.626454
7880.000000;0.626275
7879.000000;0.626169
7878.000000;0.626094
7877.000000;0.626002
7876.000000;0.625877
7875.000000;0.625753
7874.000000;0.625663
7873.000000;0.625556
7872.000000;0.625355
7871.000000;0.625066
7870.000000;0.624791
7869.000000;0.624625
7868.000000;0.624574
7867.000000;0.624569
7866.000000;0.624514
7865.000000;0.624333
7864.000000;0.624032
7863.000000;0.623707
7862.000000;0.623449
7861.000000;0.623257
7860.000000;0.623077
7859.000000;0.622886
7858.000000;0.622702
7857.000000;0.622538
7856.000000;0.622402
7855.000000;0.622320
7854.000000;0.622302
7853.000000;0.622289
7852.000000;0.622182
7851.000000;0.621933
7850.000000;0.621571
7849.000000;0.621176
7848.000000;0.620828
7847.000000;0.620584
7846.000000;0.620443
7845.000000;0.620362
7844.000000;0.620315
7843.000000;0.620302
7842.000000;0.620284
7841.000000;0.620181
7840.000000;0.619965
7839.000000;0.619700
7838.000000;0.619464
7837.000000;0.619263
7836.000000;0.619070
7835.000000;0.618876
7834.000000;0.618661
7833.000000;0.618386
7832.000000;0.618078
7831.000000;0.617863
7830.000000;0.617829
7829.000000;0.617906
7828.000000;0.617927
7827.000000;0.617794
7826.000000;0.617534
7825.000000;0.617252
7824.000000;0.617057
7823.000000;0.616998
7822.000000;0.617011
7821.000000;0.616966
7820.000000;0.616809
7819.000000;0.616599
7818.000000;0.616402
7817.000000;0.616203
7816.000000;0.615969
7815.000000;0.615710
7814.000000;0.615448
7813.000000;0.615183
7812.000000;0.614949
7811.000000;0.614815
7810.000000;0.614770
7809.000000;0.614689
7808.000000;0.614475
7807.000000;0.614181
7806.000000;0.613927
7805.000000;0.613787
7804.000000;0.613786
7803.000000;0.613908
7802.000000;0.614031
7801.000000;0.613961
7800.000000;0.613637
7799.000000;0.613220
7798.000000;0.612897
7797.000000;0.612667
7796.000000;0.612426
7795.000000;0.612186
7794.000000;0.612073
7793.000000;0.612144
7792.000000;0.612296
7791.000000;0.612354
7790.000000;0.612211
7789.000000;0.611903
7788.000000;0.611594
7787.000000;0.611435
7786.000000;0.611400
7785.000000;0.611328
7784.000000;0.611142
7783.000000;0.610926
7782.000000;0.610753
7781.000000;0.610581
7780.000000;0.610367
7779.000000;0.610160
7778.000000;0.609981
7777.000000;0.609754
7776.000000;0.609474
7775.000000;0.609303
7774.000000;0.609342
7773.000000;0.609419
7772.000000;0.609285
7771.000000;0.608951
7770.000000;0.608660
7769.000000;0.608555
7768.000000;0.608529
7767.000000;0.608405
7766.000000;0.608136
7765.000000;0.607807
7764.000000;0.607545
7763.000000;0.607413
7762.000000;0.607347
7761.000000;0.607205
7760.000000;0.606953
7759.000000;0.606721
7758.000000;0.606636
7757.000000;0.606656
7756.000000;0.606664
7755.000000;0.606646
7754.000000;0.606668
7753.000000;0.606735
7752.000000;0.606774
7751.000000;0.606729
7750.000000;0.606593
7749.000000;0.606390
7748.000000;0.606184
7747.000000;0.606058
7746.000000;0.605982
7745.000000;0.605813
7744.000000;0.605503
7743.000000;0.605220
7742.000000;0.605143
7741.000000;0.605216
7740.000000;0.605233
7739.000000;0.605099
7738.000000;0.604880
7737.000000;0.604657
7736.000000;0.604447
7735.000000;0.604250
7734.000000;0.604051
7733.000000;0.603817
7732.000000;0.603583
7731.000000;0.603480
7730.000000;0.603572
7729.000000;0.603740
7728.000000;0.603805
7727.000000;0.603718
7726.000000;0.603550
7725.000000;0.603356
7724.000000;0.603187
7723.000000;0.603129
7722.000000;0.603194
7721.000000;0.603234
7720.000000;0.603103
7719.000000;0.602852
7718.000000;0.602630
7717.000000;0.602467
7716.000000;0.602288
7715.000000;0.602098
7714.000000;0.601975
7713.000000;0.601923
7712.000000;0.601871
7711.000000;0.601807
7710.000000;0.601769
7709.000000;0.601728
7708.000000;0.601622
7707.000000;0.601488
7706.000000;0.601431
7705.000000;0.601454
7704.000000;0.601457
7703.000000;0.601384
7702.000000;0.601259
7701.000000;0.601094
7700.000000;0.600877
7699.000000;0.600654
7698.000000;0.600494
7697.000000;0.600380
7696.000000;0.600239
7695.000000;0.600082
7694.000000;0.600004
7693.000000;0.600051
7692.000000;0.600180
7691.000000;0.600326
7690.000000;0.600427
7689.000000;0.600405
7688.000000;0.600240
7687.000000;0.600036
7686.000000;0.599914
7685.000000;0.599874
7684.000000;0.599847
7683.000000;0.599825
7682.000000;0.599830
7681.000000;0.599791
7680.000000;0.599605
7679.000000;0.599310
7678.000000;0.599062
7677.000000;0.598956
7676.000000;0.598965
7675.000000;0.599035
7674.000000;0.599124
7673.000000;0.599151
7672.000000;0.599063
7671.000000;0.598936
7670.000000;0.598902
7669.000000;0.598982
7668.000000;0.599084
7667.000000;0.599148
7666.000000;0.599179
7665.000000;0.599160
7664.000000;0.599069
7663.000000;0.598957
7662.000000;0.598900
7661.000000;0.598849
7660.000000;0.598699
7659.000000;0.598479
7658.000000;0.598347
7657.000000;0.598373
7656.000000;0.598461
7655.000000;0.598515
7654.000000;0.598535
7653.000000;0.598528
7652.000000;0.598446
7651.000000;0.598283
7650.000000;0.598128
7649.000000;0.598052
7648.000000;0.598018
7647.000000;0.597976
7646.000000;0.597943
7645.000000;0.597968
7644.000000;0.598044
7643.000000;0.598128
7642.000000;0.598180
7641.000000;0.598180
7640.000000;0.598127
7639.000000;0.598061
7638.000000;0.598028
7637.000000;0.598027
7636.000000;0.598013
7635.000000;0.597959
7634.000000;0.597879
7633.000000;0.597802
7632.000000;0.597768
7631.000000;0.597818
7630.000000;0.597950
7629.000000;0.598101
7628.000000;0.598203
7627.000000;0.598232
7626.000000;0.598177
7625.000000;0.598022
7624.000000;0.597816
7623.000000;0.597702
7622.000000;0.597787
7621.000000;0.598019
7620.000000;0.598240
7619.000000;0.598341
7618.000000;0.598306
7617.000000;0.598178
7616.000000;0.598046
7615.000000;0.597999
7614.000000;0.598043
7613.000000;0.598084
7612.000000;0.598080
7611.000000;0.598117
7610.000000;0.598269
7609.000000;0.598452
7608.000000;0.598530
7607.000000;0.598494
7606.000000;0.598446
7605.000000;0.598448
7604.000000;0.598519
7603.000000;0.598706
7602.000000;0.599015
7601.000000;0.599316
7600.000000;0.599437
7599.000000;0.599347
7598.000000;0.599156
7597.000000;0.598986
7596.000000;0.598917
7595.000000;0.599005
7594.000000;0.599219
7593.000000;0.599400
7592.000000;0.599411
7591.000000;0.599300
7590.000000;0.599215
7589.000000;0.599202
7588.000000;0.599204
7587.000000;0.599204
7586.000000;0.599232
7585.000000;0.599273
7584.000000;0.599309
7583.000000;0.599409
7582.000000;0.599659
7581.000000;0.599990
7580.000000;0.600243
7579.000000;0.600358
7578.000000;0.600389
7577.000000;0.600360
7576.000000;0.600256
7575.000000;0.600157
7574.000000;0.600196
7573.000000;0.600380
7572.000000;0.600583
7571.000000;0.600732
7570.000000;0.600873
7569.000000;0.601027
7568.000000;0.601151
7567.000000;0.601256
7566.000000;0.601428
7565.000000;0.601675
7564.000000;0.601873
7563.000000;0.601929
7562.000000;0.601893
7561.000000;0.601882
7560.000000;0.601960
7559.000000;0.602122
7558.000000;0.602318
7557.000000;0.602459
7556.000000;0.602483
7555.000000;0.602437
7554.000000;0.602422
7553.000000;0.602481
7552.000000;0.602596
7551.000000;0.602780
7550.000000;0.603055
7549.000000;0.603346
7548.000000;0.603547
7547.000000;0.603679
7546.000000;0.603875
7545.000000;0.604170
7544.000000;0.604437
7543.000000;0.604565
7542.000000;0.604590
7541.000000;0.604610
7540.000000;0.604655
7539.000000;0.604707
7538.000000;0.604763
7537.000000;0.604834
7536.000000;0.604926
7535.000000;0.605061
7534.000000;0.605263
7533.000000;0.605515
7532.000000;0.605778
7531.000000;0.606042
7530.000000;0.606320
7529.000000;0.606580
7528.000000;0.606772
7527.000000;0.606911
7526.000000;0.607062
7525.000000;0.607243
7524.000000;0.607412
7523.000000;0.607545
7522.000000;0.607666
7521.000000;0.607783
7520.000000;0.607884
7519.000000;0.607976
7518.000000;0.608074
7517.000000;0.608162
7516.000000;0.608230
7515.000000;0.608340
7514.000000;0.608581
7513.000000;0.608962
7512.000000;0.609407
7511.000000;0.609830
7510.000000;0.610162
7509.000000;0.610332
7508.000000;0.610332
7507.000000;0.610270
7506.000000;0.610283
7505.000000;0.610402
7504.000000;0.610575
7503.000000;0.610776
7502.000000;0.611009
7501.000000;0.611232
7500.000000;0.611393
7499.000000;0.611511
7498.000000;0.611657
7497.000000;0.611852
7496.000000;0.612071
7495.000000;0.612307
7494.000000;0.612551
7493.000000;0.612749
7492.000000;0.612871
7491.000000;0.612986
7490.000000;0.613179
7489.000000;0.613436
7488.000000;0.613699
7487.000000;0.613982
7486.000000;0.614323
7485.000000;0.614666
7484.000000;0.614919
7483.000000;0.615102
7482.000000;0.615311
7481.000000;0.615559
7480.000000;0.615777
7479.000000;0.615970
7478.000000;0.616214
7477.000000;0.616517
7476.000000;0.616790
7475.000000;0.616980
7474.000000;0.617111
7473.000000;0.617211
7472.000000;0.617300
7471.000000;0.617448
7470.000000;0.617722
7469.000000;0.618073
7468.000000;0.618380
7467.000000;0.618619
7466.000000;0.618855
7465.000000;0.619094
7464.000000;0.619265
7463.000000;0.619353
7462.000000;0.619439
7461.000000;0.619580
7460.000000;0.619777
7459.000000;0.620048
7458.000000;0.620413
7457.000000;0.620795
7456.000000;0.621072
7455.000000;0.621225
7454.000000;0.621348
7453.000000;0.621495
7452.000000;0.621655
7451.000000;0.621835
7450.000000;0.622039
7449.000000;0.622188
7448.000000;0.622215
7447.000000;0.622221
7446.000000;0.622399
7445.000000;0.622782
7444.000000;0.623213
7443.000000;0.623562
7442.000000;0.623819
7441.000000;0.623975
7440.000000;0.624008
7439.000000;0.624018
7438.000000;0.624198
7437.000000;0.624608
7436.000000;0.625082
7435.000000;0.625442
7434.000000;0.625672
7433.000000;0.625842
7432.000000;0.626000
7431.000000;0.626195
7430.000000;0.626475
7429.000000;0.626796
7428.000000;0.627064
7427.000000;0.627273
7426.000000;0.627500
7425.000000;0.627753
7424.000000;0.627983
7423.000000;0.628228
7422.000000;0.628607
7421.000000;0.629120
7420.000000;0.629592
7419.000000;0.629854
7418.000000;0.629889
7417.000000;0.629788
7416.000000;0.629676
7415.000000;0.629698
7414.000000;0.629933
7413.000000;0.630284
7412.000000;0.630558
7411.000000;0.630708
7410.000000;0.630870
7409.000000;0.631106
7408.000000;0.631296
7407.000000;0.631343
7406.000000;0.631345
7405.000000;0.631469
7404.000000;0.631761
7403.000000;0.632118
7402.000000;0.632432
7401.000000;0.632659
7400.000000;0.632793
7399.000000;0.632907
7398.000000;0.633137
7397.000000;0.633479
7396.000000;0.633783
7395.000000;0.633998
7394.000000;0.634198
7393.000000;0.634317
7392.000000;0.634155
7391.000000;0.633749
7390.000000;0.633508
7389.000000;0.633771
7388.000000;0.634435
7387.000000;0.635204
7386.000000;0.635927
7385.000000;0.636507
7384.000000;0.636785
7383.000000;0.636725
7382.000000;0.636562
7381.000000;0.636620
7380.000000;0.636989
7379.000000;0.637476
7378.000000;0.637833
7377.000000;0.637954
7376.000000;0.637987
7375.000000;0.638221
7374.000000;0.638769
7373.000000;0.639392
7372.000000;0.639697
7371.000000;0.639501
7370.000000;0.639017
7369.000000;0.638629
7368.000000;0.638573
7367.000000;0.638945
7366.000000;0.639718
7365.000000;0.640525
7364.000000;0.640852
7363.000000;0.640622
7362.000000;0.640300
7361.000000;0.640418
7360.000000;0.641125
7359.000000;0.642112
7358.000000;0.642851
7357.000000;0.642985
7356.000000;0.642680
7355.000000;0.642512
7354.000000;0.642945
7353.000000;0.643815
7352.000000;0.644503
7351.000000;0.644576
7350.000000;0.644203
7349.000000;0.643934
7348.000000;0.644143
7347.000000;0.644712
7346.000000;0.645198
7345.000000;0.645338
7344.000000;0.645335
7343.000000;0.645648
7342.000000;0.646432
7341.000000;0.647314
7340.000000;0.647851
7339.000000;0.648038
7338.000000;0.648212
7337.000000;0.648468
7336.000000;0.648611
7335.000000;0.648615
7334.000000;0.648766
7333.000000;0.649309
7332.000000;0.650135
7331.000000;0.650779
7330.000000;0.650822
7329.000000;0.650426
7328.000000;0.650341
7327.000000;0.651039
7326.000000;0.652070
7325.000000;0.652674
7324.000000;0.652664
7323.000000;0.652527
7322.000000;0.652809
7321.000000;0.653581
7320.000000;0.654480
7319.000000;0.655186
7318.000000;0.655799
7317.000000;0.656603
7316.000000;0.657586
7315.000000;0.658403
7314.000000;0.658744
7313.000000;0.658793
7312.000000;0.659198
7311.000000;0.660310
7310.000000;0.661590
7309.000000;0.662138
7308.000000;0.661789
7307.000000;0.661311
7306.000000;0.661525
7305.000000;0.662589
7304.000000;0.664065
7303.000000;0.665252
7302.000000;0.665646
7301.000000;0.665342
7300.000000;0.665071
7299.000000;0.665660
7298.000000;0.667162
7297.000000;0.668702
7296.000000;0.669398
7295.000000;0.669440
7294.000000;0.669849
7293.000000;0.671201
7292.000000;0.673095
7291.000000;0.674812
7290.000000;0.676044
7289.000000;0.676980
7288.000000;0.677930
7287.000000;0.678929
7286.000000;0.679740
7285.000000;0.680274
7284.000000;0.680823
7283.000000;0.681695
7282.000000;0.682892
7281.000000;0.684157
7280.000000;0.685302
7279.000000;0.686410
7278.000000;0.687618
7277.000000;0.688918
7276.000000;0.690252
7275.000000;0.691605
7274.000000;0.692942
7273.000000;0.694222
7272.000000;0.695496
7271.000000;0.696851
7270.000000;0.698262
7269.000000;0.699640
7268.000000;0.700973
7267.000000;0.702333
7266.000000;0.703744
7265.000000;0.705183
7264.000000;0.706707
7263.000000;0.708408
7262.000000;0.710222
7261.000000;0.711968
7260.000000;0.713567
7259.000000;0.715103
7258.000000;0.716689
7257.000000;0.718386
7256.000000;0.720193
7255.000000;0.722060
7254.000000;0.723952
7253.000000;0.725867
7252.000000;0.727743
7251.000000;0.729528
7250.000000;0.731246
7249.000000;0.732995
7248.000000;0.735023
7247.000000;0.737453
7246.000000;0.739916
7245.000000;0.741864
7244.000000;0.743412
7243.000000;0.745394
7242.000000;0.748282
7241.000000;0.751502
7240.000000;0.754212
7239.000000;0.756281
7238.000000;0.758238
7237.000000;0.760622
7236.000000;0.763454
7235.000000;0.766270
7234.000000;0.768726
7233.000000;0.770987
7232.000000;0.773444
7231.000000;0.776304
7230.000000;0.779340
7229.000000;0.782092
7228.000000;0.784501
7227.000000;0.786968
7226.000000;0.789759
7225.000000;0.792731
7224.000000;0.795743
7223.000000;0.798851
7222.000000;0.801988
7221.000000;0.804937
7220.000000;0.807742
7219.000000;0.810694
7218.000000;0.813873
7217.000000;0.817068
7216.000000;0.820152
7215.000000;0.823223
7214.000000;0.826399
7213.000000;0.829687
7212.000000;0.833115
7211.000000;0.836814
7210.000000;0.840786
7209.000000;0.844806
7208.000000;0.848755
7207.000000;0.852784
7206.000000;0.857032
7205.000000;0.861431
7204.000000;0.865853
7203.000000;0.870191
7202.000000;0.874231
7201.000000;0.877798
7200.000000;0.881078
7199.000000;0.884530
7198.000000;0.888410
7197.000000;0.892639
7196.000000;0.897120
7195.000000;0.901873
7194.000000;0.906735
7193.000000;0.911373
7192.000000;0.915703
7191.000000;0.920053
7190.000000;0.924669
7189.000000;0.929444
7188.000000;0.934238
7187.000000;0.939187
7186.000000;0.944424
7185.000000;0.949623
7184.000000;0.954236
7183.000000;0.958200
7182.000000;0.962125
7181.000000;0.966685
7180.000000;0.972073
7179.000000;0.977997
7178.000000;0.983926
7177.000000;0.989461
7176.000000;0.994642
7175.000000;0.999783
7174.000000;1.005017
7173.000000;1.010218
7172.000000;1.015375
7171.000000;1.020802
7170.000000;1.026704
7169.000000;1.032845
7168.000000;1.038703
7167.000000;1.044050
7166.000000;1.049228
7165.000000;1.054582
7164.000000;1.059920
7163.000000;1.064835
7162.000000;1.069410
7161.000000;1.074241
7160.000000;1.079749
7159.000000;1.085767
7158.000000;1.091822
7157.000000;1.097677
7156.000000;1.103506
7155.000000;1.109457
7154.000000;1.115301
7153.000000;1.120756
7152.000000;1.125897
7151.000000;1.131223
7150.000000;1.137200
7149.000000;1.143701
7148.000000;1.149985
7147.000000;1.155460
7146.000000;1.160295
7145.000000;1.165224
7144.000000;1.170858
7143.000000;1.177138
7142.000000;1.183422
7141.000000;1.189140
7140.000000;1.194368
7139.000000;1.199605
7138.000000;1.205003
7137.000000;1.210225
7136.000000;1.215130
7135.000000;1.220116
7134.000000;1.225508
7133.000000;1.231046
7132.000000;1.236287
7131.000000;1.241365
7130.000000;1.246864
7129.000000;1.252995
7128.000000;1.259341
7127.000000;1.265349
7126.000000;1.270704
7125.000000;1.275325
7124.000000;1.279428
7123.000000;1.283670
7122.000000;1.288723
7121.000000;1.294491
7120.000000;1.300084
7119.000000;1.304734
7118.000000;1.308570
7117.000000;1.312401
7116.000000;1.316970
7115.000000;1.322376
7114.000000;1.328018
7113.000000;1.333101
7112.000000;1.337423
7111.000000;1.341566
7110.000000;1.346113
7109.000000;1.350906
7108.000000;1.355344
7107.000000;1.359209
7106.000000;1.362879
7105.000000;1.366632
7104.000000;1.370163
7103.000000;1.373240
7102.000000;1.376368
7101.000000;1.380272
7100.000000;1.384956
7099.000000;1.389562
7098.000000;1.393192
7097.000000;1.395826
7096.000000;1.398375
7095.000000;1.401805
7094.000000;1.406268
7093.000000;1.411191
7092.000000;1.416042
7091.000000;1.420660
7090.000000;1.424873
7089.000000;1.428337
7088.000000;1.431035
7087.000000;1.433515
7086.000000;1.436309
7085.000000;1.439288
7084.000000;1.441932
7083.000000;1.444148
7082.000000;1.446505
7081.000000;1.449663
7080.000000;1.453761
7079.000000;1.458209
7078.000000;1.461962
7077.000000;1.464422
7076.000000;1.466117
7075.000000;1.468064
7074.000000;1.470490
7073.000000;1.472716
7072.000000;1.474414
7071.000000;1.476212
7070.000000;1.478742
7069.000000;1.481794
7068.000000;1.484887
7067.000000;1.487980
7066.000000;1.491043
7065.000000;1.493560
7064.000000;1.495192
7063.000000;1.496558
7062.000000;1.498587
7061.000000;1.501237
7060.000000;1.503577
7059.000000;1.505046
7058.000000;1.505981
7057.000000;1.506972
7056.000000;1.508264
7055.000000;1.509745
7054.000000;1.511196
7053.000000;1.512601
7052.000000;1.514328
7051.000000;1.516765
7050.000000;1.519694
7049.000000;1.522388
7048.000000;1.524526
7047.000000;1.526545
7046.000000;1.528756
7045.000000;1.530694
7044.000000;1.531840
7043.000000;1.532509
7042.000000;1.533463
7041.000000;1.534921
7040.000000;1.536487
7039.000000;1.537781
7038.000000;1.538690
7037.000000;1.539269
7036.000000;1.539833
7035.000000;1.540834
7034.000000;1.542259
7033.000000;1.543435
7032.000000;1.543810
7031.000000;1.543621
7030.000000;1.543503
7029.000000;1.543778
7028.000000;1.544472
7027.000000;1.545561
7026.000000;1.546805
7025.000000;1.547759
7024.000000;1.548291
7023.000000;1.548741
7022.000000;1.549292
7021.000000;1.549685
7020.000000;1.549925
7019.000000;1.550687
7018.000000;1.552435
7017.000000;1.554593
7016.000000;1.556188
7015.000000;1.557048
7014.000000;1.557797
7013.000000;1.558925
7012.000000;1.560396
7011.000000;1.561914
7010.000000;1.563082
7009.000000;1.563515
7008.000000;1.563200
7007.000000;1.562547
7006.000000;1.561815
7005.000000;1.560871
7004.000000;1.559815
7003.000000;1.559318
7002.000000;1.559870
7001.000000;1.561149
7000.000000;1.562589
6999.000000;1.564102
6998.000000;1.565710
6997.000000;1.566871
6996.000000;1.566898
6995.000000;1.565878
6994.000000;1.564613
6993.000000;1.563790
6992.000000;1.563587
6991.000000;1.563847
6990.000000;1.564271
6989.000000;1.564639
6988.000000;1.565051
6987.000000;1.565753
6986.000000;1.566592
6985.000000;1.567061
6984.000000;1.567075
6983.000000;1.567171
6982.000000;1.567636
6981.000000;1.568010
6980.000000;1.567834
6979.000000;1.567343
6978.000000;1.566897
6977.000000;1.566321
6976.000000;1.565368
6975.000000;1.564407
6974.000000;1.564057
6973.000000;1.564443
6972.000000;1.565145
6971.000000;1.565587
6970.000000;1.565229
6969.000000;1.563855
6968.000000;1.562026
6967.000000;1.560811
6966.000000;1.560760
6965.000000;1.561498
6964.000000;1.562485
6963.000000;1.563580
6962.000000;1.564501
6961.000000;1.564507
6960.000000;1.563258
6959.000000;1.561425
6958.000000;1.559880
6957.000000;1.558861
6956.000000;1.558400
6955.000000;1.558905
6954.000000;1.560520
6953.000000;1.562368
6952.000000;1.563218
6951.000000;1.562719
6950.000000;1.561440
6949.000000;1.560026
6948.000000;1.558821
6947.000000;1.557959
6946.000000;1.557248
6945.000000;1.556243
6944.000000;1.554910
6943.000000;1.553976
6942.000000;1.554158
6941.000000;1.555298
6940.000000;1.556608
6939.000000;1.557392
6938.000000;1.557221
6937.000000;1.555895
6936.000000;1.553829
6935.000000;1.552107
6934.000000;1.551583
6933.000000;1.552066
6932.000000;1.552652
6931.000000;1.552612
6930.000000;1.551770
6929.000000;1.550409
6928.000000;1.549111
6927.000000;1.548293
6926.000000;1.547652
6925.000000;1.546470
6924.000000;1.544627
6923.000000;1.542837
6922.000000;1.541716
6921.000000;1.541237
6920.000000;1.541223
6919.000000;1.541622
6918.000000;1.542015
6917.000000;1.541662
6916.000000;1.540556
6915.000000;1.539629
6914.000000;1.539367
6913.000000;1.539036
6912.000000;1.537961
6911.000000;1.536767
6910.000000;1.536479
6909.000000;1.536927
6908.000000;1.536995
6907.000000;1.536171
6906.000000;1.535016
6905.000000;1.534207
6904.000000;1.533807
6903.000000;1.533432
6902.000000;1.532698
6901.000000;1.531514
6900.000000;1.530200
6899.000000;1.529193
6898.000000;1.528513
6897.000000;1.527841
6896.000000;1.527200
6895.000000;1.526950
6894.000000;1.526949
6893.000000;1.526460
6892.000000;1.525280
6891.000000;1.524215
6890.000000;1.523879
6889.000000;1.523735
6888.000000;1.522979
6887.000000;1.521761
6886.000000;1.520799
6885.000000;1.520264
6884.000000;1.519732
6883.000000;1.518893
6882.000000;1.517752
6881.000000;1.516432
6880.000000;1.515257
6879.000000;1.514616
6878.000000;1.514315
6877.000000;1.513595
6876.000000;1.512282
6875.000000;1.511248
6874.000000;1.511126
6873.000000;1.511272
6872.000000;1.510726
6871.000000;1.509620
6870.000000;1.508769
6869.000000;1.508337
6868.000000;1.507802
6867.000000;1.506879
6866.000000;1.505627
6865.000000;1.503930
6864.000000;1.501739
6863.000000;1.499649
6862.000000;1.498398
6861.000000;1.497876
6860.000000;1.497273
6859.000000;1.496124
6858.000000;1.494647
6857.000000;1.493193
6856.000000;1.491978
6855.000000;1.491257
6854.000000;1.491166
6853.000000;1.491428
6852.000000;1.491623
6851.000000;1.491625
6850.000000;1.491415
6849.000000;1.490703
6848.000000;1.489187
6847.000000;1.487011
6846.000000;1.484569
6845.000000;1.482117
6844.000000;1.479920
6843.000000;1.478372
6842.000000;1.477479
6841.000000;1.476538
6840.000000;1.474863
6839.000000;1.472616
6838.000000;1.470444
6837.000000;1.468624
6836.000000;1.467066
6835.000000;1.465870
6834.000000;1.465219
6833.000000;1.464828
6832.000000;1.464047
6831.000000;1.462527
6830.000000;1.460467
6829.000000;1.458274
6828.000000;1.456277
6827.000000;1.454604
6826.000000;1.453036
6825.000000;1.451161
6824.000000;1.448931
6823.000000;1.446830
6822.000000;1.445240
6821.000000;1.443961
6820.000000;1.442601
6819.000000;1.441099
6818.000000;1.439539
6817.000000;1.437815
6816.000000;1.435877
6815.000000;1.433960
6814.000000;1.432153
6813.000000;1.430093
6812.000000;1.427502
6811.000000;1.424700
6810.000000;1.422190
6809.000000;1.420062
6808.000000;1.418200
6807.000000;1.416704
6806.000000;1.415587
6805.000000;1.414336
6804.000000;1.412323
6803.000000;1.409527
6802.000000;1.406427
6801.000000;1.403366
6800.000000;1.400458
6799.000000;1.397863
6798.000000;1.395661
6797.000000;1.393599
6796.000000;1.391396
6795.000000;1.389188
6794.000000;1.387265
6793.000000;1.385509
6792.000000;1.383505
6791.000000;1.381143
6790.000000;1.378754
6789.000000;1.376620
6788.000000;1.374637
6787.000000;1.372508
6786.000000;1.370078
6785.000000;1.367470
6784.000000;1.364957
6783.000000;1.362639
6782.000000;1.360264
6781.000000;1.357562
6780.000000;1.354722
6779.000000;1.352182
6778.000000;1.349964
6777.000000;1.347646
6776.000000;1.345053
6775.000000;1.342459
6774.000000;1.339958
6773.000000;1.337230
6772.000000;1.334255
6771.000000;1.331644
6770.000000;1.329787
6769.000000;1.328167
6768.000000;1.326048
6767.000000;1.323462
6766.000000;1.320940
6765.000000;1.318590
6764.000000;1.316078
6763.000000;1.313355
6762.000000;1.310729
6761.000000;1.308301
6760.000000;1.305840
6759.000000;1.303244
6758.000000;1.300668
6757.000000;1.298188
6756.000000;1.295661
6755.000000;1.292986
6754.000000;1.290224
6753.000000;1.287461
6752.000000;1.284758
6751.000000;1.282173
6750.000000;1.279641
6749.000000;1.276947
6748.000000;1.273984
6747.000000;1.270957
6746.000000;1.268152
6745.000000;1.265685
6744.000000;1.263602
6743.000000;1.261959
6742.000000;1.260551
6741.000000;1.258825
6740.000000;1.256392
6739.000000;1.253466
6738.000000;1.250527
6737.000000;1.247722
6736.000000;1.244874
6735.000000;1.241905
6734.000000;1.238929
6733.000000;1.236026
6732.000000;1.233230
6731.000000;1.230615
6730.000000;1.228164
6729.000000;1.225663
6728.000000;1.222983
6727.000000;1.220349
6726.000000;1.218039
6725.000000;1.215913
6724.000000;1.213523
6723.000000;1.210686
6722.000000;1.207718
6721.000000;1.205097
6720.000000;1.203032
6719.000000;1.201334
6718.000000;1.199522
6717.000000;1.197217
6716.000000;1.194455
6715.000000;1.191704
6714.000000;1.189308
6713.000000;1.187112
6712.000000;1.184703
6711.000000;1.181903
6710.000000;1.178833
6709.000000;1.175800
6708.000000;1.172995
6707.000000;1.170412
6706.000000;1.167955
6705.000000;1.165503
6704.000000;1.163064
6703.000000;1.160731
6702.000000;1.158404
6701.000000;1.155799
6700.000000;1.152810
6699.000000;1.149701
6698.000000;1.146837
6697.000000;1.144365
6696.000000;1.142220
6695.000000;1.140248
6694.000000;1.138226
6693.000000;1.135991
6692.000000;1.133651
6691.000000;1.131472
6690.000000;1.129434
6689.000000;1.127140
6688.000000;1.124312
6687.000000;1.121152
6686.000000;1.118061
6685.000000;1.115246
6684.000000;1.112745
6683.000000;1.110592
6682.000000;1.108660
6681.000000;1.106590
6680.000000;1.104140
6679.000000;1.101511
6678.000000;1.099082
6677.000000;1.096918
6676.000000;1.094769
6675.000000;1.092449
6674.000000;1.090021
6673.000000;1.087638
6672.000000;1.085355
6671.000000;1.083080
6670.000000;1.080620
6669.000000;1.077871
6668.000000;1.075029
6667.000000;1.072464
6666.000000;1.070292
6665.000000;1.068228
6664.000000;1.065961
6663.000000;1.063521
6662.000000;1.061130
6661.000000;1.058882
6660.000000;1.056732
6659.000000;1.054664
6658.000000;1.052664
6657.000000;1.050620
6656.000000;1.048426
6655.000000;1.046125
6654.000000;1.043854
6653.000000;1.041685
6652.000000;1.039589
6651.000000;1.037460
6650.000000;1.035149
6649.000000;1.032606
6648.000000;1.030010
6647.000000;1.027597
6646.000000;1.025321
6645.000000;1.022894
6644.000000;1.020256
6643.000000;1.017755
6642.000000;1.015717
6641.000000;1.014026
6640.000000;1.012270
6639.000000;1.010166
6638.000000;1.007712
6637.000000;1.005079
6636.000000;1.002518
6635.000000;1.000232
6634.000000;0.998206
6633.000000;0.996254
6632.000000;0.994293
6631.000000;0.992405
6630.000000;0.990563
6629.000000;0.988523
6628.000000;0.986140
6627.000000;0.983602
6626.000000;0.981195
6625.000000;0.978999
6624.000000;0.976946
6623.000000;0.974989
6622.000000;0.973036
6621.000000;0.970909
6620.000000;0.968570
6619.000000;0.966272
6618.000000;0.964289
6617.000000;0.962587
6616.000000;0.960892
6615.000000;0.958985
6614.000000;0.956794
6613.000000;0.954346
6612.000000;0.951808
6611.000000;0.949450
6610.000000;0.947417
6609.000000;0.945592
6608.000000;0.943783
6607.000000;0.941946
6606.000000;0.940087
6605.000000;0.938117
6604.000000;0.935958
6603.000000;0.933710
6602.000000;0.931546
6601.000000;0.929500
6600.000000;0.927493
6599.000000;0.925478
6598.000000;0.923457
6597.000000;0.921424
6596.000000;0.919410
6595.000000;0.917493
6594.000000;0.915684
6593.000000;0.913889
6592.000000;0.912063
6591.000000;0.910278
6590.000000;0.908559
6589.000000;0.906777
6588.000000;0.904816
6587.000000;0.902721
6586.000000;0.900592
6585.000000;0.898445
6584.000000;0.896303
6583.000000;0.894287
6582.000000;0.892493
6581.000000;0.890870
6580.000000;0.889310
6579.000000;0.887733
6578.000000;0.886015
6577.000000;0.883987
6576.000000;0.881651
6575.000000;0.879273
6574.000000;0.877110
6573.000000;0.875157
6572.000000;0.873269
6571.000000;0.871393
6570.000000;0.869564
6569.000000;0.867773
6568.000000;0.866011
6567.000000;0.864339
6566.000000;0.862786
6565.000000;0.861253
6564.000000;0.859641
6563.000000;0.857983
6562.000000;0.856313
6561.000000;0.854537
6560.000000;0.852551
6559.000000;0.850422
6558.000000;0.848310
6557.000000;0.846302
6556.000000;0.844432
6555.000000;0.842761
6554.000000;0.841297
6553.000000;0.839886
6552.000000;0.838338
6551.000000;0.836615
6550.000000;0.834808
6549.000000;0.832994
6548.000000;0.831218
6547.000000;0.829540
6546.000000;0.827978
6545.000000;0.826455
6544.000000;0.824870
6543.000000;0.823196
6542.000000;0.821455
6541.000000;0.819685
6540.000000;0.817961
6539.000000;0.816347
6538.000000;0.814788
6537.000000;0.813155
6536.000000;0.811453
6535.000000;0.809834
6534.000000;0.808327
6533.000000;0.806726
6532.000000;0.804870
6531.000000;0.802890
6530.000000;0.801041
6529.000000;0.799404
6528.000000;0.797870
6527.000000;0.796335
6526.000000;0.794767
6525.000000;0.793171
6524.000000;0.791583
6523.000000;0.790049
6522.000000;0.788530
6521.000000;0.786928
6520.000000;0.785274
6519.000000;0.783762
6518.000000;0.782488
6517.000000;0.781279
6516.000000;0.779904
6515.000000;0.778327
6514.000000;0.776658
6513.000000;0.774953
6512.000000;0.773229
6511.000000;0.771563
6510.000000;0.770022
6509.000000;0.768568
6508.000000;0.767136
6507.000000;0.765738
6506.000000;0.764369
6505.000000;0.762916
6504.000000;0.761290
6503.000000;0.759582
6502.000000;0.757961
6501.000000;0.756487
6500.000000;0.755108
6499.000000;0.753778
6498.000000;0.752461
6497.000000;0.751079
6496.000000;0.749598
6495.000000;0.748093
6494.000000;0.746631
6493.000000;0.745175
6492.000000;0.743681
6491.000000;0.742228
6490.000000;0.740913
6489.000000;0.739679
6488.000000;0.738372
6487.000000;0.736927
6486.000000;0.735394
6485.000000;0.733856
6484.000000;0.732391
6483.000000;0.731060
6482.000000;0.729828
6481.000000;0.728551
6480.000000;0.727129
6479.000000;0.725628
6478.000000;0.724158
6477.000000;0.722735
6476.000000;0.721324
6475.000000;0.719948
6474.000000;0.718637
6473.000000;0.717337
6472.000000;0.715983
6471.000000;0.714591
6470.000000;0.713215
6469.000000;0.711863
6468.000000;0.710539
6467.000000;0.709283
6466.000000;0.708092
6465.000000;0.706868
6464.000000;0.705544
6463.000000;0.704181
6462.000000;0.702859
6461.000000;0.701576
6460.000000;0.700315
6459.000000;0.699128
6458.000000;0.698039
6457.000000;0.696973
6456.000000;0.695846
6455.000000;0.694658
6454.000000;0.693408
6453.000000;0.692044
6452.000000;0.690590
6451.000000;0.689208
6450.000000;0.688006
6449.000000;0.686873
6448.000000;0.685636
6447.000000;0.684281
6446.000000;0.682905
6445.000000;0.681547
6444.000000;0.680202
6443.000000;0.678913
6442.000000;0.677703
6441.000000;0.676493
6440.000000;0.675212
6439.000000;0.673945
6438.000000;0.672817
6437.000000;0.671795
6436.000000;0.670739
6435.000000;0.669587
6434.000000;0.668383
6433.000000;0.667163
6432.000000;0.665952
6431.000000;0.664810
6430.000000;0.663753
6429.000000;0.662679
6428.000000;0.661500
6427.000000;0.660300
6426.000000;0.659230
6425.000000;0.658283
6424.000000;0.657312
6423.000000;0.656220
6422.000000;0.655013
6421.000000;0.653718
6420.000000;0.652375
6419.000000;0.651087
6418.000000;0.649920
6417.000000;0.648794
6416.000000;0.647579
6415.000000;0.646292
6414.000000;0.645079
6413.000000;0.644010
6412.000000;0.643032
6411.000000;0.642089
6410.000000;0.641167
6409.000000;0.640213
6408.000000;0.639146
6407.000000;0.637967
6406.000000;0.636767
6405.000000;0.635624
6404.000000;0.634555
6403.000000;0.633553
6402.000000;0.632580
6401.000000;0.631552
6400.000000;0.630416
6399.000000;0.629243
6398.000000;0.628145
6397.000000;0.627139
6396.000000;0.626157
6395.000000;0.625162
6394.000000;0.624167
6393.000000;0.623171
6392.000000;0.622172
6391.000000;0.621228
6390.000000;0.620388
6389.000000;0.619576
6388.000000;0.618645
6387.000000;0.617551
6386.000000;0.616395
6385.000000;0.615293
6384.000000;0.614281
6383.000000;0.613328
6382.000000;0.612378
6381.000000;0.611364
6380.000000;0.610273
6379.000000;0.609185
6378.000000;0.608191
6377.000000;0.607266
6376.000000;0.606313
6375.000000;0.605287
6374.000000;0.604233
6373.000000;0.603198
6372.000000;0.602197
6371.000000;0.601246
6370.000000;0.600372
6369.000000;0.599572
6368.000000;0.598811
6367.000000;0.598051
6366.000000;0.597256
6365.000000;0.596388
6364.000000;0.595451
6363.000000;0.594508
6362.000000;0.593609
6361.000000;0.592728
6360.000000;0.591821
6359.000000;0.590895
6358.000000;0.589970
6357.000000;0.589011
6356.000000;0.587972
6355.000000;0.586885
6354.000000;0.585828
6353.000000;0.584851
6352.000000;0.583962
6351.000000;0.583159
6350.000000;0.582400
6349.000000;0.581595
6348.000000;0.580707
6347.000000;0.579802
6346.000000;0.578957
6345.000000;0.578141
6344.000000;0.577286
6343.000000;0.576409
6342.000000;0.575577
6341.000000;0.574780
6340.000000;0.573933
6339.000000;0.573011
6338.000000;0.572068
6337.000000;0.571163
6336.000000;0.570322
6335.000000;0.569576
6334.000000;0.568936
6333.000000;0.568322
6332.000000;0.567596
6331.000000;0.566692
6330.000000;0.565675
6329.000000;0.564662
6328.000000;0.563736
6327.000000;0.562918
6326.000000;0.562166
6325.000000;0.561393
6324.000000;0.560537
6323.000000;0.559623
6322.000000;0.558731
6321.000000;0.557914
6320.000000;0.557177
6319.000000;0.556496
6318.000000;0.555836
6317.000000;0.555140
6316.000000;0.554371
6315.000000;0.553551
6314.000000;0.552739
6313.000000;0.551970
6312.000000;0.551247
6311.000000;0.550552
6310.000000;0.549845
6309.000000;0.549075
6308.000000;0.548242
6307.000000;0.547417
6306.000000;0.546670
6305.000000;0.545998
6304.000000;0.545346
6303.000000;0.544673
6302.000000;0.543961
6301.000000;0.543214
6300.000000;0.542447
6299.000000;0.541686
6298.000000;0.540931
6297.000000;0.540179
6296.000000;0.539458
6295.000000;0.538814
6294.000000;0.538232
6293.000000;0.537633
6292.000000;0.536970
6291.000000;0.536264
6290.000000;0.535532
6289.000000;0.534764
6288.000000;0.533989
6287.000000;0.533290
6286.000000;0.532686
6285.000000;0.532083
6284.000000;0.531387
6283.000000;0.530608
6282.000000;0.529799
6281.000000;0.528972
6280.000000;0.528135
6279.000000;0.527346
6278.000000;0.526640
6277.000000;0.525969
6276.000000;0.525273
6275.000000;0.524568
6274.000000;0.523903
6273.000000;0.523282
6272.000000;0.522692
6271.000000;0.522156
6270.000000;0.521669
6269.000000;0.521146
6268.000000;0.520506
6267.000000;0.519776
6266.000000;0.519042
6265.000000;0.518331
6264.000000;0.517613
6263.000000;0.516886
6262.000000;0.516182
6261.000000;0.515512
6260.000000;0.514858
6259.000000;0.514217
6258.000000;0.513587
6257.000000;0.512945
6256.000000;0.512273
6255.000000;0.511595
6254.000000;0.510934
6253.000000;0.510261
6252.000000;0.509544
6251.000000;0.508802
6250.000000;0.508078
6249.000000;0.507386
6248.000000;0.506740
6247.000000;0.506170
6246.000000;0.505680
6245.000000;0.505205
6244.000000;0.504675
6243.000000;0.504092
6242.000000;0.503496
6241.000000;0.502907
6240.000000;0.502322
6239.000000;0.501728
6238.000000;0.501088
6237.000000;0.500369
6236.000000;0.499620
6235.000000;0.498954
6234.000000;0.498410
6233.000000;0.497899
6232.000000;0.497337
6231.000000;0.496754
6230.000000;0.496212
6229.000000;0.495669
6228.000000;0.495044
6227.000000;0.494351
6226.000000;0.493692
6225.000000;0.493127
6224.000000;0.492627
6223.000000;0.492129
6222.000000;0.491590
6221.000000;0.491004
6220.000000;0.490413
6219.000000;0.489882
6218.000000;0.489412
6217.000000;0.488925
6216.000000;0.488366
6215.000000;0.487767
6214.000000;0.487185
6213.000000;0.486611
6212.000000;0.486017
6211.000000;0.485416
6210.000000;0.484840
6209.000000;0.484285
6208.000000;0.483746
6207.000000;0.483235
6206.000000;0.482740
6205.000000;0.482206
6204.000000;0.481619
6203.000000;0.481049
6202.000000;0.480547
6201.000000;0.480067
6200.000000;0.479550
6199.000000;0.479022
6198.000000;0.478519
6197.000000;0.477997
6196.000000;0.477398
6195.000000;0.476748
6194.000000;0.476114
6193.000000;0.475500
6192.000000;0.474878
6191.000000;0.474273
6190.000000;0.473740
6189.000000;0.473269
6188.000000;0.472807
6187.000000;0.472325
6186.000000;0.471822
6185.000000;0.471289
6184.000000;0.470728
6183.000000;0.470194
6182.000000;0.469728
6181.000000;0.469293
6180.000000;0.468828
6179.000000;0.468337
6178.000000;0.467854
6177.000000;0.467379
6176.000000;0.466904
6175.000000;0.466463
6174.000000;0.466078
6173.000000;0.465687
6172.000000;0.465203
6171.000000;0.464625
6170.000000;0.464031
6169.000000;0.463482
6168.000000;0.462997
6167.000000;0.462576
6166.000000;0.462180
6165.000000;0.461727
6164.000000;0.461170
6163.000000;0.460564
6162.000000;0.459998
6161.000000;0.459486
6160.000000;0.458998
6159.000000;0.458550
6158.000000;0.458174
6157.000000;0.457832
6156.000000;0.457426
6155.000000;0.456903
6154.000000;0.456291
6153.000000;0.455648
6152.000000;0.455030
6151.000000;0.454491
6150.000000;0.454047
6149.000000;0.453651
6148.000000;0.453250
6147.000000;0.452833
6146.000000;0.452395
6145.000000;0.451905
6144.000000;0.451371
6143.000000;0.450875
6142.000000;0.450468
6141.000000;0.450088
6140.000000;0.449645
6139.000000;0.449157
6138.000000;0.448712
6137.000000;0.448335
6136.000000;0.447968
6135.000000;0.447559
6134.000000;0.447095
6133.000000;0.446575
6132.000000;0.446022
6131.000000;0.445512
6130.000000;0.445101
6129.000000;0.444754
6128.000000;0.444407
6127.000000;0.444061
6126.000000;0.443760
6125.000000;0.443488
6124.000000;0.443182
6123.000000;0.442829
6122.000000;0.442467
6121.000000;0.442097
6120.000000;0.441682
6119.000000;0.441216
6118.000000;0.440722
6117.000000;0.440205
6116.000000;0.439655
6115.000000;0.439106
6114.000000;0.438611
6113.000000;0.438164
6112.000000;0.437725
6111.000000;0.437291
6110.000000;0.436886
6109.000000;0.436493
6108.000000;0.436064
6107.000000;0.435617
6106.000000;0.435229
6105.000000;0.434937
6104.000000;0.434695
6103.000000;0.434436
6102.000000;0.434119
6101.000000;0.433728
6100.000000;0.433272
6099.000000;0.432797
6098.000000;0.432337
6097.000000;0.431864
6096.000000;0.431333
6095.000000;0.430775
6094.000000;0.430283
6093.000000;0.429908
6092.000000;0.429613
6091.000000;0.429339
6090.000000;0.429068
6089.000000;0.428803
6088.000000;0.428537
6087.000000;0.428243
6086.000000;0.427881
6085.000000;0.427429
6084.000000;0.426919
6083.000000;0.426448
6082.000000;0.426088
6081.000000;0.425812
6080.000000;0.425533
6079.000000;0.425201
6078.000000;0.424818
6077.000000;0.424394
6076.000000;0.423928
6075.000000;0.423455
6074.000000;0.423038
6073.000000;0.422715
6072.000000;0.422460
6071.000000;0.422210
6070.000000;0.421904
6069.000000;0.421522
6068.000000;0.421102
6067.000000;0.420719
6066.000000;0.420398
6065.000000;0.420079
6064.000000;0.419695
6063.000000;0.419255
6062.000000;0.418833
6061.000000;0.418482
6060.000000;0.418193
6059.000000;0.417938
6058.000000;0.417694
6057.000000;0.417441
6056.000000;0.417153
6055.000000;0.416809
6054.000000;0.416401
6053.000000;0.415957
6052.000000;0.415540
6051.000000;0.415207
6050.000000;0.414943
6049.000000;0.414683
6048.000000;0.414397
6047.000000;0.414120
6046.000000;0.413874
6045.000000;0.413626
6044.000000;0.413352
6043.000000;0.413081
6042.000000;0.412836
6041.000000;0.412572
6040.000000;0.412235
6039.000000;0.411845
6038.000000;0.411454
6037.000000;0.411073
6036.000000;0.410682
6035.000000;0.410301
6034.000000;0.409988
6033.000000;0.409753
6032.000000;0.409541
6031.000000;0.409286
6030.000000;0.408968
6029.000000;0.408616
6028.000000;0.408271
6027.000000;0.407958
6026.000000;0.407666
6025.000000;0.407377
6024.000000;0.407097
6023.000000;0.406854
6022.000000;0.406643
6021.000000;0.406428
6020.000000;0.406200
6019.000000;0.405983
6018.000000;0.405776
6017.000000;0.405535
6016.000000;0.405235
6015.000000;0.404912
6014.000000;0.404604
6013.000000;0.404310
6012.000000;0.404024
6011.000000;0.403764
6010.000000;0.403527
6009.000000;0.403268
6008.000000;0.402960
6007.000000;0.402632
6006.000000;0.402324
6005.000000;0.402050
6004.000000;0.401820
6003.000000;0.401645
6002.000000;0.401478
6001.000000;0.401225
6000.000000;0.400853
5999.000000;0.400451
5998.000000;0.400128
5997.000000;0.399915
5996.000000;0.399782
5995.000000;0.399687
5994.000000;0.399572
5993.000000;0.399367
5992.000000;0.399074
5991.000000;0.398790
5990.000000;0.398592
5989.000000;0.398440
5988.000000;0.398251
5987.000000;0.398004
5986.000000;0.397731
5985.000000;0.397442
5984.000000;0.397143
5983.000000;0.396869
5982.000000;0.396650
5981.000000;0.396451
5980.000000;0.396215
5979.000000;0.395943
5978.000000;0.395675
5977.000000;0.395434
5976.000000;0.395217
5975.000000;0.395022
5974.000000;0.394835
5973.000000;0.394630
5972.000000;0.394424
5971.000000;0.394273
5970.000000;0.394177
5969.000000;0.394036
5968.000000;0.393773
5967.000000;0.393432
5966.000000;0.393111
5965.000000;0.392838
5964.000000;0.392593
5963.000000;0.392388
5962.000000;0.392252
5961.000000;0.392167
5960.000000;0.392082
5959.000000;0.391981
5958.000000;0.391879
5957.000000;0.391771
5956.000000;0.391653
5955.000000;0.391556
5954.000000;0.391499
5953.000000;0.391447
5952.000000;0.391356
5951.000000;0.391243
5950.000000;0.391130
5949.000000;0.390979
5948.000000;0.390746
5947.000000;0.390468
5946.000000;0.390227
5945.000000;0.390042
5944.000000;0.389871
5943.000000;0.389702
5942.000000;0.389565
5941.000000;0.389463
5940.000000;0.389356
5939.000000;0.389211
5938.000000;0.389024
5937.000000;0.388804
5936.000000;0.388571
5935.000000;0.388377
5934.000000;0.388257
5933.000000;0.388191
5932.000000;0.388132
5931.000000;0.388075
5930.000000;0.388039
5929.000000;0.388008
5928.000000;0.387924
5927.000000;0.387759
5926.000000;0.387544
5925.000000;0.387340
5924.000000;0.387209
5923.000000;0.387173
5922.000000;0.387193
5921.000000;0.387194
5920.000000;0.387136
5919.000000;0.387037
5918.000000;0.386921
5917.000000;0.386785
5916.000000;0.386642
5915.000000;0.386527
5914.000000;0.386439
5913.000000;0.386325
5912.000000;0.386165
5911.000000;0.386012
5910.000000;0.385900
5909.000000;0.385793
5908.000000;0.385651
5907.000000;0.385501
5906.000000;0.385379
5905.000000;0.385255
5904.000000;0.385094
5903.000000;0.384941
5902.000000;0.384864
5901.000000;0.384853
5900.000000;0.384836
5899.000000;0.384789
5898.000000;0.384738
5897.000000;0.384696
5896.000000;0.384640
5895.000000;0.384563
5894.000000;0.384477
5893.000000;0.384386
5892.000000;0.384294
5891.000000;0.384224
5890.000000;0.384186
5889.000000;0.384155
5888.000000;0.384103
5887.000000;0.384035
5886.000000;0.383973
5885.000000;0.383923
5884.000000;0.383894
5883.000000;0.383907
5882.000000;0.383939
5881.000000;0.383930
5880.000000;0.383857
5879.000000;0.383772
5878.000000;0.383709
5877.000000;0.383625
5876.000000;0.383491
5875.000000;0.383362
5874.000000;0.383311
5873.000000;0.383335
5872.000000;0.383396
5871.000000;0.383497
5870.000000;0.383642
5869.000000;0.383770
5868.000000;0.383814
5867.000000;0.383790
5866.000000;0.383763
5865.000000;0.383750
5864.000000;0.383730
5863.000000;0.383708
5862.000000;0.383696
5861.000000;0.383664
5860.000000;0.383582
5859.000000;0.383490
5858.000000;0.383449
5857.000000;0.383458
5856.000000;0.383477
5855.000000;0.383511
5854.000000;0.383584
5853.000000;0.383669
5852.000000;0.383713
5851.000000;0.383722
5850.000000;0.383753
5849.000000;0.383830
5848.000000;0.383939
5847.000000;0.384085
5846.000000;0.384276
5845.000000;0.384465
5844.000000;0.384575
5843.000000;0.384590
5842.000000;0.384565
5841.000000;0.384552
5840.000000;0.384567
5839.000000;0.384608
5838.000000;0.384659
5837.000000;0.384692
5836.000000;0.384702
5835.000000;0.384736
5834.000000;0.384835
5833.000000;0.384978
5832.000000;0.385125
5831.000000;0.385279
5830.000000;0.385454
5829.000000;0.385619
5828.000000;0.385728
5827.000000;0.385796
5826.000000;0.385874
5825.000000;0.385982
5824.000000;0.386116
5823.000000;0.386291
5822.000000;0.386522
5821.000000;0.386770
5820.000000;0.386977
5819.000000;0.387138
5818.000000;0.387280
5817.000000;0.387395
5816.000000;0.387471
5815.000000;0.387547
5814.000000;0.387684
5813.000000;0.387883
5812.000000;0.388092
5811.000000;0.388291
5810.000000;0.388493
5809.000000;0.388695
5808.000000;0.388874
5807.000000;0.389038
5806.000000;0.389219
5805.000000;0.389418
5804.000000;0.389605
5803.000000;0.389759
5802.000000;0.389884
5801.000000;0.389985
5800.000000;0.390087
5799.000000;0.390246
5798.000000;0.390503
5797.000000;0.390823
5796.000000;0.391120
5795.000000;0.391348
5794.000000;0.391520
5793.000000;0.391684
5792.000000;0.391886
5791.000000;0.392153
5790.000000;0.392457
5789.000000;0.392735
5788.000000;0.392965
5787.000000;0.393198
5786.000000;0.393474
5785.000000;0.393768
5784.000000;0.394035
5783.000000;0.394280
5782.000000;0.394527
5781.000000;0.394769
5780.000000;0.395002
5779.000000;0.395263
5778.000000;0.395580
5777.000000;0.395914
5776.000000;0.396214
5775.000000;0.396481
5774.000000;0.396742
5773.000000;0.397002
5772.000000;0.397275
5771.000000;0.397618
5770.000000;0.398053
5769.000000;0.398501
5768.000000;0.398858
5767.000000;0.399114
5766.000000;0.399332
5765.000000;0.399551
5764.000000;0.399782
5763.000000;0.400059
5762.000000;0.400407
5761.000000;0.400776
5760.000000;0.401089
5759.000000;0.401348
5758.000000;0.401625
5757.000000;0.401957
5756.000000;0.402328
5755.000000;0.402734
5754.000000;0.403196
5753.000000;0.403694
5752.000000;0.404168
5751.000000;0.404597
5750.000000;0.405006
5749.000000;0.405397
5748.000000;0.405735
5747.000000;0.406022
5746.000000;0.406322
5745.000000;0.406698
5744.000000;0.407158
5743.000000;0.407673
5742.000000;0.408216
5741.000000;0.408781
5740.000000;0.409364
5739.000000;0.409944
5738.000000;0.410464
5737.000000;0.410875
5736.000000;0.411211
5735.000000;0.411588
5734.000000;0.412089
5733.000000;0.412669
5732.000000;0.413216
5731.000000;0.413664
5730.000000;0.414033
5729.000000;0.414383
5728.000000;0.414785
5727.000000;0.415291
5726.000000;0.415884
5725.000000;0.416474
5724.000000;0.416980
5723.000000;0.417416
5722.000000;0.417856
5721.000000;0.418354
5720.000000;0.418916
5719.000000;0.419518
5718.000000;0.420120
5717.000000;0.420675
5716.000000;0.421177
5715.000000;0.421676
5714.000000;0.422217
5713.000000;0.422795
5712.000000;0.423386
5711.000000;0.423983
5710.000000;0.424565
5709.000000;0.425090
5708.000000;0.425564
5707.000000;0.426077
5706.000000;0.426708
5705.000000;0.427432
5704.000000;0.428147
5703.000000;0.428776
5702.000000;0.429313
5701.000000;0.429791
5700.000000;0.430277
5699.000000;0.430830
5698.000000;0.431452
5697.000000;0.432091
5696.000000;0.432719
5695.000000;0.433369
5694.000000;0.434055
5693.000000;0.434718
5692.000000;0.435289
5691.000000;0.435766
5690.000000;0.436197
5689.000000;0.436635
5688.000000;0.437151
5687.000000;0.437821
5686.000000;0.438638
5685.000000;0.439478
5684.000000;0.440230
5683.000000;0.440895
5682.000000;0.441532
5681.000000;0.442145
5680.000000;0.442709
5679.000000;0.443243
5678.000000;0.443795
5677.000000;0.444381
5676.000000;0.444981
5675.000000;0.445592
5674.000000;0.446217
5673.000000;0.446843
5672.000000;0.447466
5671.000000;0.448110
5670.000000;0.448779
5669.000000;0.449443
5668.000000;0.450087
5667.000000;0.450731
5666.000000;0.451365
5665.000000;0.451934
5664.000000;0.452425
5663.000000;0.452905
5662.000000;0.453420
5661.000000;0.453927
5660.000000;0.454399
5659.000000;0.454912
5658.000000;0.455541
5657.000000;0.456249
5656.000000;0.456941
5655.000000;0.457590
5654.000000;0.458217
5653.000000;0.458800
5652.000000;0.459312
5651.000000;0.459794
5650.000000;0.460319
5649.000000;0.460882
5648.000000;0.461427
5647.000000;0.461947
5646.000000;0.462495
5645.000000;0.463106
5644.000000;0.463764
5643.000000;0.464430
5642.000000;0.465046
5641.000000;0.465541
5640.000000;0.465896
5639.000000;0.466195
5638.000000;0.466554
5637.000000;0.467022
5636.000000;0.467575
5635.000000;0.468163
5634.000000;0.468719
5633.000000;0.469171
5632.000000;0.469502
5631.000000;0.469769
5630.000000;0.470039
5629.000000;0.470329
5628.000000;0.470647
5627.000000;0.471019
5626.000000;0.471453
5625.000000;0.471912
5624.000000;0.472380
5623.000000;0.472877
5622.000000;0.473397
5621.000000;0.473859
5620.000000;0.474210
5619.000000;0.474491
5618.000000;0.474766
5617.000000;0.475035
5616.000000;0.475273
5615.000000;0.475507
5614.000000;0.475770
5613.000000;0.476046
5612.000000;0.476304
5611.000000;0.476562
5610.000000;0.476849
5609.000000;0.477154
5608.000000;0.477469
5607.000000;0.477823
5606.000000;0.478218
5605.000000;0.478587
5604.000000;0.478882
5603.000000;0.479147
5602.000000;0.479437
5601.000000;0.479717
5600.000000;0.479914
5599.000000;0.480032
5598.000000;0.480146
5597.000000;0.480329
5596.000000;0.480601
5595.000000;0.480923
5594.000000;0.481192
5593.000000;0.481320
5592.000000;0.481342
5591.000000;0.481385
5590.000000;0.481491
5589.000000;0.481555
5588.000000;0.481496
5587.000000;0.481392
5586.000000;0.481381
5585.000000;0.481500
5584.000000;0.481688
5583.000000;0.481866
5582.000000;0.481967
5581.000000;0.481952
5580.000000;0.481869
5579.000000;0.481824
5578.000000;0.481842
5577.000000;0.481846
5576.000000;0.481817
5575.000000;0.481855
5574.000000;0.482008
5573.000000;0.482168
5572.000000;0.482229
5571.000000;0.482238
5570.000000;0.482285
5569.000000;0.482322
5568.000000;0.482234
5567.000000;0.482018
5566.000000;0.481794
5565.000000;0.481656
5564.000000;0.481615
5563.000000;0.481650
5562.000000;0.481722
5561.000000;0.481782
5560.000000;0.481823
5559.000000;0.481883
5558.000000;0.481949
5557.000000;0.481936
5556.000000;0.481807
5555.000000;0.481642
5554.000000;0.481523
5553.000000;0.481451
5552.000000;0.481406
5551.000000;0.481397
5550.000000;0.481402
5549.000000;0.481344
5548.000000;0.481198
5547.000000;0.481032
5546.000000;0.480907
5545.000000;0.480796
5544.000000;0.480673
5543.000000;0.480563
5542.000000;0.480475
5541.000000;0.480386
5540.000000;0.480322
5539.000000;0.480342
5538.000000;0.480409
5537.000000;0.480398
5536.000000;0.480269
5535.000000;0.480116
5534.000000;0.480016
5533.000000;0.479923
5532.000000;0.479787
5531.000000;0.479644
5530.000000;0.479536
5529.000000;0.479445
5528.000000;0.479358
5527.000000;0.479331
5526.000000;0.479398
5525.000000;0.479482
5524.000000;0.479498
5523.000000;0.479438
5522.000000;0.479326
5521.000000;0.479175
5520.000000;0.479028
5519.000000;0.478956
5518.000000;0.478974
5517.000000;0.479004
5516.000000;0.478983
5515.000000;0.478916
5514.000000;0.478796
5513.000000;0.478621
5512.000000;0.478470
5511.000000;0.478441
5510.000000;0.478504
5509.000000;0.478556
5508.000000;0.478591
5507.000000;0.478696
5506.000000;0.478843
5505.000000;0.478865
5504.000000;0.478734
5503.000000;0.478605
5502.000000;0.478552
5501.000000;0.478508
5500.000000;0.478439
5499.000000;0.478447
5498.000000;0.478680
5497.000000;0.479097
5496.000000;0.479495
5495.000000;0.479720
5494.000000;0.479812
5493.000000;0.479943
5492.000000;0.480177
5491.000000;0.480401
5490.000000;0.480445
5489.000000;0.480277
5488.000000;0.480049
5487.000000;0.479939
5486.000000;0.479966
5485.000000;0.480006
5484.000000;0.480021
5483.000000;0.480118
5482.000000;0.480295
5481.000000;0.480509
5480.000000;0.480888
5479.000000;0.481508
5478.000000;0.482148
5477.000000;0.482491
5476.000000;0.482592
5475.000000;0.482765
5474.000000;0.483065
5473.000000;0.483296
5472.000000;0.483405
5471.000000;0.483505
5470.000000;0.483611
5469.000000;0.483715
5468.000000;0.483902
5467.000000;0.484237
5466.000000;0.484682
5465.000000;0.485201
5464.000000;0.485849
5463.000000;0.486586
5462.000000;0.487141
5461.000000;0.487392
5460.000000;0.487612
5459.000000;0.487987
5458.000000;0.488333
5457.000000;0.488528
5456.000000;0.488809
5455.000000;0.489395
5454.000000;0.490194
5453.000000;0.491011
5452.000000;0.491806
5451.000000;0.492617
5450.000000;0.493402
5449.000000;0.494171
5448.000000;0.494932
5447.000000;0.495554
5446.000000;0.496056
5445.000000;0.496688
5444.000000;0.497533
5443.000000;0.498323
5442.000000;0.498799
5441.000000;0.499120
5440.000000;0.499731
5439.000000;0.500793
5438.000000;0.501998
5437.000000;0.503012
5436.000000;0.503853
5435.000000;0.504741
5434.000000;0.505839
5433.000000;0.507164
5432.000000;0.508494
5431.000000;0.509511
5430.000000;0.510275
5429.000000;0.511229
5428.000000;0.512520
5427.000000;0.513840
5426.000000;0.514963
5425.000000;0.515988
5424.000000;0.517128
5423.000000;0.518505
5422.000000;0.520107
5421.000000;0.521759
5420.000000;0.523309
5419.000000;0.524927
5418.000000;0.526871
5417.000000;0.529068
5416.000000;0.531162
5415.000000;0.533011
5414.000000;0.534875
5413.000000;0.536921
5412.000000;0.538993
5411.000000;0.540931
5410.000000;0.542801
5409.000000;0.544755
5408.000000;0.546815
5407.000000;0.548915
5406.000000;0.551008
5405.000000;0.553161
5404.000000;0.555507
5403.000000;0.558046
5402.000000;0.560794
5401.000000;0.563707
5400.000000;0.566534
5399.000000;0.569246
5398.000000;0.572083
5397.000000;0.575165
5396.000000;0.578391
5395.000000;0.581708
5394.000000;0.585241
5393.000000;0.588911
5392.000000;0.592440
5391.000000;0.595880
5390.000000;0.599555
5389.000000;0.603525
5388.000000;0.607527
5387.000000;0.611443
5386.000000;0.615438
5385.000000;0.619683
5384.000000;0.624049
5383.000000;0.628348
5382.000000;0.632819
5381.000000;0.637755
5380.000000;0.642944
5379.000000;0.648035
5378.000000;0.653111
5377.000000;0.658482
5376.000000;0.664127
5375.000000;0.669815
5374.000000;0.675573
5373.000000;0.681510
5372.000000;0.687570
5371.000000;0.693780
5370.000000;0.700321
5369.000000;0.707239
5368.000000;0.714355
5367.000000;0.721566
5366.000000;0.728943
5365.000000;0.736570
5364.000000;0.744392
5363.000000;0.752395
5362.000000;0.760762
5361.000000;0.769465
5360.000000;0.778220
5359.000000;0.787059
5358.000000;0.796356
5357.000000;0.806138
5356.000000;0.815944
5355.000000;0.825676
5354.000000;0.835919
5353.000000;0.846983
5352.000000;0.858223
5351.000000;0.868941
5350.000000;0.879479
5349.000000;0.890670
5348.000000;0.902658
5347.000000;0.915013
5346.000000;0.927593
5345.000000;0.940572
5344.000000;0.953881
5343.000000;0.967317
5342.000000;0.981049
5341.000000;0.995137
5340.000000;1.009287
5339.000000;1.023565
5338.000000;1.038442
5337.000000;1.053985
5336.000000;1.069681
5335.000000;1.085193
5334.000000;1.100741
5333.000000;1.116716
5332.000000;1.133163
5331.000000;1.149894
5330.000000;1.166945
5329.000000;1.184349
5328.000000;1.201906
5327.000000;1.219683
5326.000000;1.238068
5325.000000;1.256932
5324.000000;1.275576
5323.000000;1.293774
5322.000000;1.312118
5321.000000;1.330877
5320.000000;1.349307
5319.000000;1.366748
5318.000000;1.383685
5317.000000;1.400973
5316.000000;1.418700
5315.000000;1.436564
5314.000000;1.454546
5313.000000;1.472654
5312.000000;1.490557
5311.000000;1.508000
5310.000000;1.525078
5309.000000;1.541638
5308.000000;1.557130
5307.000000;1.571489
5306.000000;1.585316
5305.000000;1.598597
5304.000000;1.610276
5303.000000;1.619806
5302.000000;1.628113
5301.000000;1.636344
5300.000000;1.644762
5299.000000;1.653376
5298.000000;1.662338
5297.000000;1.671072
5296.000000;1.678513
5295.000000;1.684712
5294.000000;1.690671
5293.000000;1.696487
5292.000000;1.701232
5291.000000;1.704833
5290.000000;1.708260
5289.000000;1.711570
5288.000000;1.713884
5287.000000;1.715503
5286.000000;1.717843
5285.000000;1.720964
5284.000000;1.723220
5283.000000;1.724080
5282.000000;1.725091
5281.000000;1.727212
5280.000000;1.729426
5279.000000;1.730866
5278.000000;1.732208
5277.000000;1.733886
5276.000000;1.734953
5275.000000;1.734951
5274.000000;1.735082
5273.000000;1.736389
5272.000000;1.738433
5271.000000;1.740388
5270.000000;1.742090
5269.000000;1.743317
5268.000000;1.743423
5267.000000;1.742479
5266.000000;1.741430
5265.000000;1.740764
5264.000000;1.740367
5263.000000;1.740779
5262.000000;1.742727
5261.000000;1.745244
5260.000000;1.746392
5259.000000;1.746037
5258.000000;1.745853
5257.000000;1.746551
5256.000000;1.747185
5255.000000;1.747247
5254.000000;1.747441
5253.000000;1.747842
5252.000000;1.747461
5251.000000;1.746041
5250.000000;1.744684
5249.000000;1.744307
5248.000000;1.744621
5247.000000;1.745335
5246.000000;1.746775
5245.000000;1.748490
5244.000000;1.749121
5243.000000;1.748597
5242.000000;1.748612
5241.000000;1.750031
5240.000000;1.751673
5239.000000;1.752295
5238.000000;1.752074
5237.000000;1.751596
5236.000000;1.751017
5235.000000;1.750761
5234.000000;1.751649
5233.000000;1.753586
5232.000000;1.755257
5231.000000;1.755983
5230.000000;1.756659
5229.000000;1.758060
5228.000000;1.759529
5227.000000;1.760176
5226.000000;1.760162
5225.000000;1.760030
5224.000000;1.759999
5223.000000;1.760415
5222.000000;1.761618
5221.000000;1.762970
5220.000000;1.763302
5219.000000;1.762589
5218.000000;1.761834
5217.000000;1.761294
5216.000000;1.760351
5215.000000;1.759264
5214.000000;1.759399
5213.000000;1.761157
5212.000000;1.763195
5211.000000;1.764342
5210.000000;1.764794
5209.000000;1.765024
5208.000000;1.765239
5207.000000;1.766196
5206.000000;1.768600
5205.000000;1.771246
5204.000000;1.771751
5203.000000;1.769637
5202.000000;1.766899
5201.000000;1.765268
5200.000000;1.764686
5199.000000;1.764604
5198.000000;1.765016
5197.000000;1.765686
5196.000000;1.765815
5195.000000;1.765279
5194.000000;1.765028
5193.000000;1.765601
5192.000000;1.766544
5191.000000;1.767498
5190.000000;1.768558
5189.000000;1.769519
5188.000000;1.770049
5187.000000;1.770631
5186.000000;1.771960
5185.000000;1.773335
5184.000000;1.773132
5183.000000;1.771077
5182.000000;1.768539
5181.000000;1.766644
5180.000000;1.765714
5179.000000;1.766109
5178.000000;1.767842
5177.000000;1.769633
5176.000000;1.770142
5175.000000;1.769955
5174.000000;1.770492
5173.000000;1.771432
5172.000000;1.771393
5171.000000;1.770795
5170.000000;1.771590
5169.000000;1.774091
5168.000000;1.776452
5167.000000;1.777519
5166.000000;1.777905
5165.000000;1.777977
5164.000000;1.777191
5163.000000;1.775874
5162.000000;1.775427
5161.000000;1.776195
5160.000000;1.777062
5159.000000;1.777474
5158.000000;1.777928
5157.000000;1.778204
5156.000000;1.777246
5155.000000;1.775216
5154.000000;1.773581
5153.000000;1.772877
5152.000000;1.772501
5151.000000;1.772671
5150.000000;1.774432
5149.000000;1.777312
5148.000000;1.779039
5147.000000;1.778295
5146.000000;1.775957
5145.000000;1.773370
5144.000000;1.771397
5143.000000;1.771230
5142.000000;1.773734
5141.000000;1.777461
5140.000000;1.779504
5139.000000;1.779138
5138.000000;1.778495
5137.000000;1.779013
5136.000000;1.779579
5135.000000;1.778952
5134.000000;1.777870
5133.000000;1.777591
5132.000000;1.778072
5131.000000;1.778628
5130.000000;1.778955
5129.000000;1.778630
5128.000000;1.777070
5127.000000;1.774754
5126.000000;1.773142
5125.000000;1.772840
5124.000000;1.773142
5123.000000;1.773694
5122.000000;1.775125
5121.000000;1.777542
5120.000000;1.779791
5119.000000;1.780902
5118.000000;1.781156
5117.000000;1.781279
5116.000000;1.781585
5115.000000;1.782208
5114.000000;1.783092
5113.000000;1.783597
5112.000000;1.783186
5111.000000;1.782396
5110.000000;1.781986
5109.000000;1.781460
5108.000000;1.779857
5107.000000;1.777710
5106.000000;1.776652
5105.000000;1.777335
5104.000000;1.779187
5103.000000;1.781750
5102.000000;1.784612
5101.000000;1.786441
5100.000000;1.786068
5099.000000;1.784439
5098.000000;1.783638
5097.000000;1.784154
5096.000000;1.784842
5095.000000;1.785234
5094.000000;1.785887
5093.000000;1.786719
5092.000000;1.787168
5091.000000;1.787811
5090.000000;1.789601
5089.000000;1.791582
5088.000000;1.791637
5087.000000;1.789703
5086.000000;1.787900
5085.000000;1.787369
5084.000000;1.787220
5083.000000;1.786779
5082.000000;1.786625
5081.000000;1.786845
5080.000000;1.786326
5079.000000;1.784554
5078.000000;1.782423
5077.000000;1.780708
5076.000000;1.779316
5075.000000;1.778363
5074.000000;1.778375
5073.000000;1.779072
5072.000000;1.779477
5071.000000;1.779576
5070.000000;1.780403
5069.000000;1.782256
5068.000000;1.784180
5067.000000;1.785323
5066.000000;1.785542
5065.000000;1.784701
5064.000000;1.782853
5063.000000;1.781055
5062.000000;1.780471
5061.000000;1.780849
5060.000000;1.781173
5059.000000;1.781438
5058.000000;1.782404
5057.000000;1.783952
5056.000000;1.785316
5055.000000;1.786516
5054.000000;1.787850
5053.000000;1.788531
5052.000000;1.787711
5051.000000;1.786319
5050.000000;1.785829
5049.000000;1.785874
5048.000000;1.785212
5047.000000;1.784444
5046.000000;1.785217
5045.000000;1.787105
5044.000000;1.787976
5043.000000;1.787316
5042.000000;1.786629
5041.000000;1.786448
5040.000000;1.785547
5039.000000;1.783488
5038.000000;1.781460
5037.000000;1.780032
5036.000000;1.778340
5035.000000;1.776133
5034.000000;1.774613
5033.000000;1.774693
5032.000000;1.776022
5031.000000;1.778022
5030.000000;1.780360
5029.000000;1.782229
5028.000000;1.782819
5027.000000;1.782560
5026.000000;1.782218
5025.000000;1.781112
5024.000000;1.778250
5023.000000;1.774799
5022.000000;1.773048
5021.000000;1.773090
5020.000000;1.772846
5019.000000;1.771513
5018.000000;1.770492
5017.000000;1.770488
5016.000000;1.770268
5015.000000;1.769012
5014.000000;1.767747
5013.000000;1.767493
5012.000000;1.767794
5011.000000;1.767856
5010.000000;1.767535
5009.000000;1.766737
5008.000000;1.765312
5007.000000;1.763939
5006.000000;1.763750
5005.000000;1.764478
5004.000000;1.764454
5003.000000;1.762875
5002.000000;1.760755
5001.000000;1.759366
5000.000000;1.759012
4999.000000;1.759475
4998.000000;1.760250
4997.000000;1.760362
4996.000000;1.759327
4995.000000;1.758093
4994.000000;1.757641
4993.000000;1.757137
4992.000000;1.755238
4991.000000;1.752873
4990.000000;1.752469
4989.000000;1.754340
4988.000000;1.755942
4987.000000;1.755076
4986.000000;1.752108
4985.000000;1.748609
4984.000000;1.745676
4983.000000;1.744024
4982.000000;1.743798
4981.000000;1.743775
4980.000000;1.742260
4979.000000;1.739233
4978.000000;1.736300
4977.000000;1.734343
4976.000000;1.732847
4975.000000;1.731561
4974.000000;1.731049
4973.000000;1.731197
4972.000000;1.730710
4971.000000;1.728710
4970.000000;1.725654
4969.000000;1.722397
4968.000000;1.719581
4967.000000;1.717958
4966.000000;1.717898
4965.000000;1.718316
4964.000000;1.717395
4963.000000;1.714675
4962.000000;1.711288
4961.000000;1.708163
4960.000000;1.705278
4959.000000;1.702580
4958.000000;1.700255
4957.000000;1.698104
4956.000000;1.696004
4955.000000;1.694770
4954.000000;1.695211
4953.000000;1.696443
4952.000000;1.696585
4951.000000;1.695180
4950.000000;1.693370
4949.000000;1.691676
4948.000000;1.689267
4947.000000;1.685725
4946.000000;1.682026
4945.000000;1.679308
4944.000000;1.677777
4943.000000;1.676926
4942.000000;1.675812
4941.000000;1.673244
4940.000000;1.668950
4939.000000;1.664450
4938.000000;1.661543
4937.000000;1.660112
4936.000000;1.658642
4935.000000;1.656674
4934.000000;1.655228
4933.000000;1.654723
4932.000000;1.654012
4931.000000;1.651870
4930.000000;1.648255
4929.000000;1.643793
4928.000000;1.639148
4927.000000;1.635126
4926.000000;1.632345
4925.000000;1.630493
4924.000000;1.628662
4923.000000;1.626430
4922.000000;1.623936
4921.000000;1.621134
4920.000000;1.617955
4919.000000;1.614985
4918.000000;1.612941
4917.000000;1.611592
4916.000000;1.610084
4915.000000;1.608125
4914.000000;1.605959
4913.000000;1.603392
4912.000000;1.599903
4911.000000;1.595601
4910.000000;1.591095
4909.000000;1.586674
4908.000000;1.582537
4907.000000;1.579436
4906.000000;1.577946
4905.000000;1.577345
4904.000000;1.576272
4903.000000;1.574319
4902.000000;1.571983
4901.000000;1.569406
4900.000000;1.566363
4899.000000;1.563244
4898.000000;1.560764
4897.000000;1.558771
4896.000000;1.556430
4895.000000;1.553532
4894.000000;1.550602
4893.000000;1.547865
4892.000000;1.545119
4891.000000;1.542479
4890.000000;1.540231
4889.000000;1.538054
4888.000000;1.535346
4887.000000;1.532139
4886.000000;1.528804
4885.000000;1.525214
4884.000000;1.521191
4883.000000;1.517370
4882.000000;1.514501
4881.000000;1.512192
4880.000000;1.509480
4879.000000;1.506331
4878.000000;1.503420
4877.000000;1.500716
4876.000000;1.497646
4875.000000;1.494501
4874.000000;1.492252
4873.000000;1.490896
4872.000000;1.489233
4871.000000;1.486484
4870.000000;1.483060
4869.000000;1.479542
4868.000000;1.476008
4867.000000;1.472552
4866.000000;1.469458
4865.000000;1.466581
4864.000000;1.463372
4863.000000;1.459751
4862.000000;1.456247
4861.000000;1.453203
4860.000000;1.450492
4859.000000;1.447987
4858.000000;1.445573
4857.000000;1.442780
4856.000000;1.439234
4855.000000;1.435445
4854.000000;1.432351
4853.000000;1.430035
4852.000000;1.427612
4851.000000;1.424418
4850.000000;1.420647
4849.000000;1.416849
4848.000000;1.413453
4847.000000;1.410743
4846.000000;1.408621
4845.000000;1.406394
4844.000000;1.403428
4843.000000;1.399925
4842.000000;1.396532
4841.000000;1.393349
4840.000000;1.389989
4839.000000;1.386428
4838.000000;1.383074
4837.000000;1.380103
4836.000000;1.377368
4835.000000;1.374847
4834.000000;1.372559
4833.000000;1.370181
4832.000000;1.367390
4831.000000;1.364462
4830.000000;1.361889
4829.000000;1.359562
4828.000000;1.356967
4827.000000;1.354013
4826.000000;1.351027
4825.000000;1.348125
4824.000000;1.345251
4823.000000;1.342583
4822.000000;1.340242
4821.000000;1.337796
4820.000000;1.334773
4819.000000;1.331477
4818.000000;1.328582
4817.000000;1.326087
4816.000000;1.323412
4815.000000;1.320321
4814.000000;1.317079
4813.000000;1.313832
4812.000000;1.310540
4811.000000;1.307423
4810.000000;1.304725
4809.000000;1.302174
4808.000000;1.299307
4807.000000;1.296193
4806.000000;1.293197
4805.000000;1.290201
4804.000000;1.286804
4803.000000;1.283170
4802.000000;1.279932
4801.000000;1.277272
4800.000000;1.274840
4799.000000;1.272491
4798.000000;1.270382
4797.000000;1.268365
4796.000000;1.265997
4795.000000;1.263242
4794.000000;1.260527
4793.000000;1.258040
4792.000000;1.255522
4791.000000;1.252790
4790.000000;1.249935
4789.000000;1.247034
4788.000000;1.244136
4787.000000;1.241463
4786.000000;1.239098
4785.000000;1.236608
4784.000000;1.233531
4783.000000;1.230110
4782.000000;1.226999
4781.000000;1.224341
4780.000000;1.221750
4779.000000;1.219058
4778.000000;1.216440
4777.000000;1.213863
4776.000000;1.211070
4775.000000;1.208143
4774.000000;1.205487
4773.000000;1.203222
4772.000000;1.201078
4771.000000;1.198851
4770.000000;1.196512
4769.000000;1.193918
4768.000000;1.191007
4767.000000;1.188188
4766.000000;1.185984
4765.000000;1.184268
4764.000000;1.182366
4763.000000;1.179915
4762.000000;1.177104
4761.000000;1.174148
4760.000000;1.171112
4759.000000;1.168243
4758.000000;1.165881
4757.000000;1.163912
4756.000000;1.161795
4755.000000;1.159233
4754.000000;1.156420
4753.000000;1.153628
4752.000000;1.150956
4751.000000;1.148522
4750.000000;1.146444
4749.000000;1.144577
4748.000000;1.142632
4747.000000;1.140560
4746.000000;1.138509
4745.000000;1.136489
4744.000000;1.134406
4743.000000;1.132307
4742.000000;1.130204
4741.000000;1.127819
4740.000000;1.124993
4739.000000;1.122185
4738.000000;1.120027
4737.000000;1.118469
4736.000000;1.116891
4735.000000;1.114997
4734.000000;1.113050
4733.000000;1.111218
4732.000000;1.109267
4731.000000;1.107032
4730.000000;1.104678
4729.000000;1.102364
4728.000000;1.100035
4727.000000;1.097680
4726.000000;1.095474
4725.000000;1.093574
4724.000000;1.092001
4723.000000;1.090709
4722.000000;1.089506
4721.000000;1.088011
4720.000000;1.086009
4719.000000;1.083789
4718.000000;1.081778
4717.000000;1.079977
4716.000000;1.078106
4715.000000;1.076161
4714.000000;1.074357
4713.000000;1.072619
4712.000000;1.070640
4711.000000;1.068433
4710.000000;1.066384
4709.000000;1.064723
4708.000000;1.063333
4707.000000;1.062070
4706.000000;1.060858
4705.000000;1.059471
4704.000000;1.057681
4703.000000;1.055673
4702.000000;1.053928
4701.000000;1.052630
4700.000000;1.051501
4699.000000;1.050226
4698.000000;1.048731
4697.000000;1.047041
4696.000000;1.045199
4695.000000;1.043364
4694.000000;1.041694
4693.000000;1.040153
4692.000000;1.038665
4691.000000;1.037341
4690.000000;1.036243
4689.000000;1.035081
4688.000000;1.033535
4687.000000;1.031780
4686.000000;1.030266
4685.000000;1.029045
4684.000000;1.027771
4683.000000;1.026304
4682.000000;1.024859
4681.000000;1.023543
4680.000000;1.022202
4679.000000;1.020788
4678.000000;1.019477
4677.000000;1.018331
4676.000000;1.017197
4675.000000;1.015986
4674.000000;1.014732
4673.000000;1.013387
4672.000000;1.011877
4671.000000;1.010390
4670.000000;1.009222
4669.000000;1.008335
4668.000000;1.007444
4667.000000;1.006529
4666.000000;1.005848
4665.000000;1.005376
4664.000000;1.004664
4663.000000;1.003424
4662.000000;1.001886
4661.000000;1.000419
4660.000000;0.999095
4659.000000;0.997829
4658.000000;0.996666
4657.000000;0.995734
4656.000000;0.995037
4655.000000;0.994444
4654.000000;0.993794
4653.000000;0.992990
4652.000000;0.992087
4651.000000;0.991271
4650.000000;0.990629
4649.000000;0.989995
4648.000000;0.989140
4647.000000;0.988044
4646.000000;0.986849
4645.000000;0.985674
4644.000000;0.984636
4643.000000;0.983882
4642.000000;0.983374
4641.000000;0.982813
4640.000000;0.982008
4639.000000;0.981147
4638.000000;0.980464
4637.000000;0.979856
4636.000000;0.979118
4635.000000;0.978353
4634.000000;0.977775
4633.000000;0.977280
4632.000000;0.976604
4631.000000;0.975761
4630.000000;0.974954
4629.000000;0.974179
4628.000000;0.973339
4627.000000;0.972639
4626.000000;0.972392
4625.000000;0.972490
4624.000000;0.972473
4623.000000;0.972130
4622.000000;0.971634
4621.000000;0.971097
4620.000000;0.970437
4619.000000;0.969704
4618.000000;0.969132
4617.000000;0.968781
4616.000000;0.968438
4615.000000;0.967946
4614.000000;0.967342
4613.000000;0.966675
4612.000000;0.966000
4611.000000;0.965527
4610.000000;0.965445
4609.000000;0.965561
4608.000000;0.965448
4607.000000;0.964996
4606.000000;0.964524
4605.000000;0.964286
4604.000000;0.964161
4603.000000;0.963879
4602.000000;0.963336
4601.000000;0.962656
4600.000000;0.962105
4599.000000;0.961932
4598.000000;0.962100
4597.000000;0.962252
4596.000000;0.962129
4595.000000;0.961895
4594.000000;0.961824
4593.000000;0.961855
4592.000000;0.961779
4591.000000;0.961665
4590.000000;0.961717
4589.000000;0.961810
4588.000000;0.961629
4587.000000;0.961203
4586.000000;0.960919
4585.000000;0.960987
4584.000000;0.961261
4583.000000;0.961564
4582.000000;0.961829
4581.000000;0.961931
4580.000000;0.961752
4579.000000;0.961456
4578.000000;0.961378
4577.000000;0.961623
4576.000000;0.962056
4575.000000;0.962617
4574.000000;0.963328
4573.000000;0.964026
4572.000000;0.964464
4571.000000;0.964677
4570.000000;0.964916
4569.000000;0.965238
4568.000000;0.965522
4567.000000;0.965839
4566.000000;0.966387
4565.000000;0.967062
4564.000000;0.967496
4563.000000;0.967618
4562.000000;0.967798
4561.000000;0.968343
4560.000000;0.969180
4559.000000;0.970093
4558.000000;0.970984
4557.000000;0.971790
4556.000000;0.972458
4555.000000;0.973075
4554.000000;0.973797
4553.000000;0.974597
4552.000000;0.975313
4551.000000;0.975955
4550.000000;0.976678
4549.000000;0.977473
4548.000000;0.978157
4547.000000;0.978686
4546.000000;0.979216
4545.000000;0.979829
4544.000000;0.980468
4543.000000;0.981158
4542.000000;0.982018
4541.000000;0.983044
4540.000000;0.984111
4539.000000;0.985202
4538.000000;0.986390
4537.000000;0.987618
4536.000000;0.988707
4535.000000;0.989575
4534.000000;0.990254
4533.000000;0.990785
4532.000000;0.991298
4531.000000;0.992069
4530.000000;0.993223
4529.000000;0.994483
4528.000000;0.995474
4527.000000;0.996176
4526.000000;0.996840
4525.000000;0.997620
4524.000000;0.998563
4523.000000;0.999781
4522.000000;1.001257
4521.000000;1.002629
4520.000000;1.003545
4519.000000;1.004135
4518.000000;1.004788
4517.000000;1.005612
4516.000000;1.006468
4515.000000;1.007360
4514.000000;1.008363
4513.000000;1.009293
4512.000000;1.009905
4511.000000;1.010324
4510.000000;1.010890
4509.000000;1.011653
4508.000000;1.012448
4507.000000;1.013310
4506.000000;1.014383
4505.000000;1.015515
4504.000000;1.016421
4503.000000;1.017195
4502.000000;1.018200
4501.000000;1.019500
4500.000000;1.020841
4499.000000;1.022140
4498.000000;1.023526
4497.000000;1.024953
4496.000000;1.026198
4495.000000;1.027251
4494.000000;1.028283
4493.000000;1.029297
4492.000000;1.030208
4491.000000;1.031183
4490.000000;1.032462
4489.000000;1.033919
4488.000000;1.035254
4487.000000;1.036511
4486.000000;1.037934
4485.000000;1.039421
4484.000000;1.040668
4483.000000;1.041788
4482.000000;1.043216
4481.000000;1.045007
4480.000000;1.046757
4479.000000;1.048234
4478.000000;1.049577
4477.000000;1.050890
4476.000000;1.052162
4475.000000;1.053582
4474.000000;1.055374
4473.000000;1.057321
4472.000000;1.058991
4471.000000;1.060454
4470.000000;1.062217
4469.000000;1.064398
4468.000000;1.066539
4467.000000;1.068291
4466.000000;1.069758
4465.000000;1.071097
4464.000000;1.072355
4463.000000;1.073785
4462.000000;1.075734
4461.000000;1.078057
4460.000000;1.080179
4459.000000;1.081912
4458.000000;1.083715
4457.000000;1.085997
4456.000000;1.088623
4455.000000;1.091254
4454.000000;1.093689
4453.000000;1.095752
4452.000000;1.097299
4451.000000;1.098539
4450.000000;1.099908
4449.000000;1.101531
4448.000000;1.103199
4447.000000;1.104955
4446.000000;1.107165
4445.000000;1.109917
4444.000000;1.112823
4443.000000;1.115560
4442.000000;1.118151
4441.000000;1.120603
4440.000000;1.122741
4439.000000;1.124598
4438.000000;1.126542
4437.000000;1.128817
4436.000000;1.131306
4435.000000;1.133842
4434.000000;1.136377
4433.000000;1.138759
4432.000000;1.140783
4431.000000;1.142569
4430.000000;1.144520
4429.000000;1.146807
4428.000000;1.149259
4427.000000;1.151802
4426.000000;1.154581
4425.000000;1.157611
4424.000000;1.160683
4423.000000;1.163656
4422.000000;1.166483
4421.000000;1.169031
4420.000000;1.171262
4419.000000;1.173527
4418.000000;1.176198
4417.000000;1.179104
4416.000000;1.181848
4415.000000;1.184542
4414.000000;1.187622
4413.000000;1.190977
4412.000000;1.193974
4411.000000;1.196402
4410.000000;1.198768
4409.000000;1.201535
4408.000000;1.204661
4407.000000;1.207994
4406.000000;1.211485
4405.000000;1.214887
4404.000000;1.217785
4403.000000;1.220167
4402.000000;1.222520
4401.000000;1.225249
4400.000000;1.228388
4399.000000;1.231878
4398.000000;1.235612
4397.000000;1.239231
4396.000000;1.242405
4395.000000;1.245320
4394.000000;1.248391
4393.000000;1.251569
4392.000000;1.254483
4391.000000;1.257196
4390.000000;1.260140
4389.000000;1.263343
4388.000000;1.266413
4387.000000;1.269305
4386.000000;1.272434
4385.000000;1.275922
4384.000000;1.279413
4383.000000;1.282710
4382.000000;1.286030
4381.000000;1.289571
4380.000000;1.293344
4379.000000;1.297411
4378.000000;1.301715
4377.000000;1.305736
4376.000000;1.308954
4375.000000;1.311639
4374.000000;1.314537
4373.000000;1.317848
4372.000000;1.321161
4371.000000;1.324318
4370.000000;1.327616
4369.000000;1.331170
4368.000000;1.334777
4367.000000;1.338395
4366.000000;1.342147
4365.000000;1.345925
4364.000000;1.349601
4363.000000;1.353444
4362.000000;1.357650
4361.000000;1.361711
4360.000000;1.365079
4359.000000;1.368208
4358.000000;1.372043
4357.000000;1.376674
4356.000000;1.381437
4355.000000;1.386112
4354.000000;1.391022
4353.000000;1.396121
4352.000000;1.401008
4351.000000;1.405754
4350.000000;1.410629
4349.000000;1.415161
4348.000000;1.418603
4347.000000;1.421280
4346.000000;1.424336
4345.000000;1.428185
4344.000000;1.432345
4343.000000;1.436627
4342.000000;1.441235
4341.000000;1.445786
4340.000000;1.449608
4339.000000;1.453123
4338.000000;1.457582
4337.000000;1.463254
4336.000000;1.469111
4335.000000;1.474447
4334.000000;1.479568
4333.000000;1.484681
4332.000000;1.489401
4331.000000;1.493733
4330.000000;1.498308
4329.000000;1.503258
4328.000000;1.507932
4327.000000;1.511999
4326.000000;1.515860
4325.000000;1.519873
4324.000000;1.524151
4323.000000;1.529040
4322.000000;1.534678
4321.000000;1.540167
4320.000000;1.544511
4319.000000;1.548315
4318.000000;1.553168
4317.000000;1.559359
4316.000000;1.565587
4315.000000;1.570925
4314.000000;1.575697
4313.000000;1.580384
4312.000000;1.585147
4311.000000;1.590382
4310.000000;1.596200
4309.000000;1.601426
4308.000000;1.604842
4307.000000;1.607450
4306.000000;1.611629
4305.000000;1.617931
4304.000000;1.624438
4303.000000;1.629488
4302.000000;1.633476
4301.000000;1.637694
4300.000000;1.643042
4299.000000;1.650088
4298.000000;1.658616
4297.000000;1.666800
4296.000000;1.672537
4295.000000;1.675984
4294.000000;1.679157
4293.000000;1.683077
4292.000000;1.687124
4291.000000;1.691059
4290.000000;1.695644
4289.000000;1.701013
4288.000000;1.706362
4287.000000;1.711591
4286.000000;1.717474
4285.000000;1.724086
4284.000000;1.730835
4283.000000;1.737873
4282.000000;1.745429
4281.000000;1.752060
4280.000000;1.756026
4279.000000;1.758320
4278.000000;1.761626
4277.000000;1.766382
4276.000000;1.770648
4275.000000;1.773874
4274.000000;1.777833
4273.000000;1.783319
4272.000000;1.788815
4271.000000;1.793222
4270.000000;1.797393
4269.000000;1.802249
4268.000000;1.807661
4267.000000;1.813747
4266.000000;1.821070
4265.000000;1.828973
4264.000000;1.835976
4263.000000;1.842109
4262.000000;1.848551
4261.000000;1.855109
4260.000000;1.860783
4259.000000;1.866528
4258.000000;1.874176
4257.000000;1.882791
4256.000000;1.889689
4255.000000;1.895131
4254.000000;1.901973
4253.000000;1.910209
4252.000000;1.916189
4251.000000;1.918404
4250.000000;1.919809
4249.000000;1.922896
4248.000000;1.926767
4247.000000;1.930701
4246.000000;1.936538
4245.000000;1.945355
4244.000000;1.954886
4243.000000;1.962182
4242.000000;1.966792
4241.000000;1.969915
4240.000000;1.972805
4239.000000;1.977170
4238.000000;1.984423
4237.000000;1.993342
4236.000000;2.000903
4235.000000;2.006471
4234.000000;2.012404
4233.000000;2.019696
4232.000000;2.026218
4231.000000;2.030258
4230.000000;2.032949
4229.000000;2.036350
4228.000000;2.041581
4227.000000;2.048876
4226.000000;2.057004
4225.000000;2.063267
4224.000000;2.066726
4223.000000;2.070601
4222.000000;2.078112
4221.000000;2.087111
4220.000000;2.093307
4219.000000;2.097636
4218.000000;2.104567
4217.000000;2.113796
4216.000000;2.120027
4215.000000;2.121695
4214.000000;2.123155
4213.000000;2.127033
4212.000000;2.131373
4211.000000;2.135331
4210.000000;2.141465
4209.000000;2.150689
4208.000000;2.160144
4207.000000;2.168250
4206.000000;2.177255
4205.000000;2.188156
4204.000000;2.198421
4203.000000;2.206833
4202.000000;2.215101
4201.000000;2.222802
4200.000000;2.226124
4199.000000;2.224406
4198.000000;2.222466
4197.000000;2.223508
4196.000000;2.225520
4195.000000;2.226345
4194.000000;2.227588
4193.000000;2.231741
4192.000000;2.238920
4191.000000;2.247617
4190.000000;2.255568
4189.000000;2.259574
4188.000000;2.258936
4187.000000;2.259032
4186.000000;2.266744
4185.000000;2.282573
4184.000000;2.300552
4183.000000;2.314588
4182.000000;2.321111
4181.000000;2.319555
4180.000000;2.314690
4179.000000;2.314892
4178.000000;2.323798
4177.000000;2.334350
4176.000000;2.337111
4175.000000;2.333784
4174.000000;2.333365
4173.000000;2.338031
4172.000000;2.342568
4171.000000;2.345203
4170.000000;2.349139
4169.000000;2.354961
4168.000000;2.360107
4167.000000;2.366136
4166.000000;2.378028
4165.000000;2.394130
4164.000000;2.407557
4163.000000;2.417752
4162.000000;2.429420
4161.000000;2.441361
4160.000000;2.448533
4159.000000;2.454619
4158.000000;2.467815
4157.000000;2.483126
4156.000000;2.484428
4155.000000;2.468510
4154.000000;2.449109
4153.000000;2.435693
4152.000000;2.427631
4151.000000;2.426626
4150.000000;2.438129
4149.000000;2.459108
4148.000000;2.477470
4147.000000;2.487692
4146.000000;2.496641
4145.000000;2.509167
4144.000000;2.521765
4143.000000;2.534293
4142.000000;2.551781
4141.000000;2.571718
4140.000000;2.583779
4139.000000;2.586060
4138.000000;2.587594
4137.000000;2.590701
4136.000000;2.588235
4135.000000;2.580606
4134.000000;2.576649
4133.000000;2.577005
4132.000000;2.573462
4131.000000;2.565866
4130.000000;2.564654
4129.000000;2.573840
4128.000000;2.586181
4127.000000;2.597328
4126.000000;2.611120
4125.000000;2.624394
4124.000000;2.624618
4123.000000;2.611950
4122.000000;2.604914
4121.000000;2.615719
4120.000000;2.636750
4119.000000;2.652209
4118.000000;2.654303
4117.000000;2.644551
4116.000000;2.630182
4115.000000;2.625029
4114.000000;2.639514
4113.000000;2.667868
4112.000000;2.694425
4111.000000;2.711640
4110.000000;2.721058
4109.000000;2.717311
4108.000000;2.695753
4107.000000;2.672274
4106.000000;2.670083
4105.000000;2.693155
4104.000000;2.723514
4103.000000;2.743433
4102.000000;2.748491
4101.000000;2.735392
4100.000000;2.702228
4099.000000;2.667252
4098.000000;2.657865
4097.000000;2.683489
4096.000000;2.728730
4095.000000;2.765928
4094.000000;2.778149
4093.000000;2.766563
4092.000000;2.743054
4091.000000;2.727160
4090.000000;2.733489
4089.000000;2.754791
4088.000000;2.766638
4087.000000;2.756811
4086.000000;2.737605
4085.000000;2.722451
4084.000000;2.714042
4083.000000;2.712910
4082.000000;2.719598
4081.000000;2.727865
4080.000000;2.730399
4079.000000;2.733339
4078.000000;2.745415
4077.000000;2.762770
4076.000000;2.777210
4075.000000;2.794302
4074.000000;2.830885
4073.000000;2.885054
4072.000000;2.927164
4071.000000;2.938499
4070.000000;2.933997
4069.000000;2.922224
4068.000000;2.891420
4067.000000;2.846528
4066.000000;2.812927
4065.000000;2.802617
4064.000000;2.808591
4063.000000;2.825478
4062.000000;2.848564
4061.000000;2.863182
4060.000000;2.858034
4059.000000;2.844545
4058.000000;2.847897
4057.000000;2.872922
4056.000000;2.898290
4055.000000;2.908116
4054.000000;2.911229
4053.000000;2.914357
4052.000000;2.913673
4051.000000;2.917476
4050.000000;2.940379
4049.000000;2.970502
4048.000000;2.971012
4047.000000;2.938766
4046.000000;2.903166
4045.000000;2.878741
4044.000000;2.868522
4043.000000;2.876434
4042.000000;2.899660
4041.000000;2.913397
4040.000000;2.888538
4039.000000;2.837985
4038.000000;2.802925
4037.000000;2.803907
4036.000000;2.832222
4035.000000;2.870801
4034.000000;2.909769
4033.000000;2.938719
4032.000000;2.948391
4031.000000;2.945796
4030.000000;2.939212
4029.000000;2.922961
4028.000000;2.893735
4027.000000;2.868899
4026.000000;2.868907
4025.000000;2.889245
4024.000000;2.908958
4023.000000;2.922938
4022.000000;2.942147
4021.000000;2.964078
4020.000000;2.973668
4019.000000;2.971508
4018.000000;2.970621
4017.000000;2.976754
4016.000000;2.984006
4015.000000;2.993550
4014.000000;3.010369
4013.000000;3.021842
4012.000000;3.015479
4011.000000;2.999041
4010.000000;2.993115
4009.000000;2.994718
4008.000000;2.984065
4007.000000;2.973733
4006.000000;2.991558
4005.000000;3.024195
4004.000000;3.024560
4003.000000;2.988151
4002.000000;2.964250
4001.000000;2.977166
4000.000000;3.006441
3999.000000;3.037296
3998.000000;3.081243
3997.000000;3.130095
3996.000000;3.138026
3995.000000;3.080555
3994.000000;3.002423
3993.000000;2.951240
3992.000000;2.933731
3991.000000;2.940568
3990.000000;2.969944
3989.000000;3.010490
3988.000000;3.036961
3987.000000;3.045153
3986.000000;3.055297
3985.000000;3.070498
3984.000000;3.063607
3983.000000;3.028681
3982.000000;2.995800
3981.000000;2.978288
3980.000000;2.968581
3979.000000;2.967547
3978.000000;2.983149
3977.000000;2.998241
3976.000000;2.995919
3975.000000;2.998101
3974.000000;3.007528
3973.000000;3.005564
3972.000000;3.009398
3971.000000;3.054352
3970.000000;3.128736
3969.000000;3.163966
3968.000000;3.142161
3967.000000;3.096211
3966.000000;3.062581
3965.000000;3.080201
3964.000000;3.126401
3963.000000;3.111765
3962.000000;3.051789
3961.000000;3.025214
3960.000000;3.044320
3959.000000;3.075820
3958.000000;3.103208
3957.000000;3.160105
3956.000000;3.221203
3955.000000;3.209395
3954.000000;3.169358
3953.000000;3.159280
3952.000000;3.158678
3951.000000;3.121278
3950.000000;3.059351
3949.000000;3.009320
3948.000000;2.983329
3947.000000;2.999289
3946.000000;3.068816
3945.000000;3.157989
3944.000000;3.201097
3943.000000;3.195793
3942.000000;3.198819
3941.000000;3.218417
3940.000000;3.242290
3939.000000;3.285866
3938.000000;3.346181
3937.000000;3.361751
3936.000000;3.287300
3935.000000;3.193951
3934.000000;3.172318
3933.000000;3.227260
3932.000000;3.295548
3931.000000;3.329062
3930.000000;3.352827
3929.000000;3.348473
3928.000000;3.269613
3927.000000;3.169821
3926.000000;3.121624
3925.000000;3.146150
3924.000000;3.208179
3923.000000;3.247547
3922.000000;3.253277
3921.000000;3.242804
3920.000000;3.210479
3919.000000;3.185396
3918.000000;3.217867
3917.000000;3.299380
3916.000000;3.371721
3915.000000;3.406959
3914.000000;3.427873
3913.000000;3.418618
3912.000000;3.348744
3911.000000;3.258641
3910.000000;3.226276
3909.000000;3.292637
3908.000000;3.348730
3907.000000;3.262448
3906.000000;3.189106
3905.000000;3.159627
3904.000000;3.311159
3903.000000;3.881426
3902.000000;3.862897
3901.000000;3.748608
3900.000000;3.884394
3899.000000;3.915202
3898.000000;3.802437
3897.000000;3.605960
3896.000000;3.424179
3895.000000;3.336653
3894.000000;3.354016
3893.000000;3.373909
3892.000000;3.299739
3891.000000;3.180721
3890.000000;3.130743
3889.000000;3.211149
3888.000000;3.378928
3887.000000;3.392610
3886.000000;3.266759
3885.000000;3.248958
3884.000000;3.340844
3883.000000;3.430979
3882.000000;3.461868
3881.000000;3.498925
3880.000000;3.593361
3879.000000;3.672203
3878.000000;3.705004
3877.000000;3.738310
3876.000000;3.761288
3875.000000;3.775430
3874.000000;3.653229
3873.000000;3.452391
3872.000000;3.333606
3871.000000;3.250935
3870.000000;3.259961
3869.000000;3.579671
3868.000000;4.265487
3867.000000;3.903313
3866.000000;3.779151
3865.000000;3.767992
3864.000000;3.777181
3863.000000;3.745248
3862.000000;3.576580
3861.000000;3.576589
3860.000000;3.573536
3859.000000;3.629418
3858.000000;3.805431
3857.000000;3.856668
3856.000000;3.801690
3855.000000;3.838785
3854.000000;4.238351
3853.000000;4.015432
3852.000000;3.805254
3851.000000;3.649579
3850.000000;3.598789
3849.000000;3.593514
3848.000000;3.673272
3847.000000;3.922834
3846.000000;4.214867
3845.000000;4.720907
3844.000000;4.268140
3843.000000;4.037998
3842.000000;3.632098
3841.000000;3.595317
3840.000000;3.591429
3839.000000;3.401533
3838.000000;3.526872
3837.000000;3.907316
3836.000000;4.247871
3835.000000;4.437295
3834.000000;4.225726
3833.000000;4.118907
3832.000000;4.046036
3831.000000;3.695821
3830.000000;3.518891
3829.000000;3.487607
3828.000000;3.468270
3827.000000;3.457213
3826.000000;3.462945
3825.000000;3.563926
3824.000000;3.811500
3823.000000;4.134313
3822.000000;4.179645
3821.000000;3.951772
3820.000000;4.173217
3819.000000;4.186981
3818.000000;4.192281
3817.000000;3.708595
3816.000000;3.384186
3815.000000;3.316858
3814.000000;3.327579
3813.000000;3.365072
3812.000000;3.561580
3811.000000;3.999671
3810.000000;3.954075
3809.000000;3.784616
3808.000000;3.664998
3807.000000;3.520596
3806.000000;3.678853
3805.000000;4.160115
3804.000000;4.033028
3803.000000;3.802278
3802.000000;3.965051
3801.000000;4.320071
3800.000000;4.092716
3799.000000;3.997406
3798.000000;3.902159
3797.000000;3.693094
3796.000000;3.594727
3795.000000;3.611578
3794.000000;3.632918
3793.000000;3.607900
3792.000000;3.673080
3791.000000;3.892317
3790.000000;3.910922
3789.000000;3.788198
3788.000000;3.769833
3787.000000;4.063418
3786.000000;4.535895
3785.000000;3.924449
3784.000000;3.839924
3783.000000;3.850568
3782.000000;3.749004
3781.000000;3.673367
3780.000000;3.722113
3779.000000;4.025503
3778.000000;4.143998
3777.000000;3.908384
3776.000000;3.803073
3775.000000;3.865836
3774.000000;3.851524
3773.000000;3.707115
3772.000000;3.688083
3771.000000;3.725899
3770.000000;3.808831
3769.000000;4.079736
3768.000000;4.200616
3767.000000;4.165543
3766.000000;4.183848
3765.000000;3.911816
3764.000000;3.669424
3763.000000;3.546481
3762.000000;3.473267
3761.000000;3.411881
3760.000000;3.382955
3759.000000;3.399372
3758.000000;3.514478
3757.000000;3.687029
3756.000000;3.913750
3755.000000;3.574861
3754.000000;3.827217
3753.000000;4.864326
3752.000000;3.831115
3751.000000;3.620299
3750.000000;3.542509
3749.000000;3.570920
3748.000000;3.627103
3747.000000;3.707282
3746.000000;3.810222
3745.000000;3.675346
3744.000000;3.569209
3743.000000;3.614349
3742.000000;3.769099
3741.000000;3.589976
3740.000000;3.424023
3739.000000;3.606447
3738.000000;4.054145
3737.000000;3.651024
3736.000000;3.504953
3735.000000;3.602636
3734.000000;3.671073
3733.000000;3.621451
3732.000000;3.510350
3731.000000;3.617986
3730.000000;3.718294
3729.000000;3.439599
3728.000000;3.340074
3727.000000;3.539085
3726.000000;4.106655
3725.000000;4.712871
3724.000000;4.340291
3723.000000;4.049344
3722.000000;3.886201
3721.000000;4.033403
3720.000000;4.215246
3719.000000;4.087311
3718.000000;3.903035
3717.000000;3.815209
3716.000000;3.745314
3715.000000;3.874214
3714.000000;4.191301
3713.000000;4.060592
3712.000000;4.016714
3711.000000;3.974991
3710.000000;3.814171
3709.000000;3.610735
3708.000000;3.472298
3707.000000;3.491587
3706.000000;3.637121
3705.000000;3.999065
3704.000000;4.326686
3703.000000;3.849311
3702.000000;3.595136
3701.000000;3.481598
3700.000000;3.496216
3699.000000;3.590012
3698.000000;3.634507
3697.000000;3.631730
3696.000000;3.599043
3695.000000;3.534009
3694.000000;3.450037
3693.000000;3.412600
3692.000000;3.457389
3691.000000;3.537641
3690.000000;3.386580
3689.000000;3.365291
3688.000000;3.786224
3687.000000;3.833814
3686.000000;3.546190
3685.000000;3.530905
3684.000000;3.584489
3683.000000;3.648153
3682.000000;3.877320
3681.000000;4.306215
3680.000000;3.685797
3679.000000;3.618319
3678.000000;3.822166
3677.000000;3.762160
3676.000000;3.570169
3675.000000;3.360097
3674.000000;3.315815
3673.000000;3.721103
3672.000000;4.075757
3671.000000;3.563200
3670.000000;3.438807
3669.000000;3.449790
3668.000000;3.646818
3667.000000;3.829201
3666.000000;3.913169
3665.000000;4.022590
3664.000000;3.889516
3663.000000;3.923982
3662.000000;4.317016
3661.000000;4.342444
3660.000000;3.808216
3659.000000;3.603584
3658.000000;3.621253
3657.000000;3.753230
3656.000000;3.846516
3655.000000;3.857698
3654.000000;3.729793
3653.000000;3.741785
3652.000000;3.931977
3651.000000;3.740362
3650.000000;3.713234
3649.000000;3.827466
3648.000000;3.976753
3647.000000;4.342478
3646.000000;3.969864
3645.000000;3.972155
3644.000000;4.298511
3643.000000;4.491339
3642.000000;4.080761
3641.000000;3.982535
3640.000000;4.129371
3639.000000;4.027760
3638.000000;4.489776
3637.000000;3.860612
3636.000000;3.459260
3635.000000;3.374218
3634.000000;3.327330
3633.000000;3.394038
3632.000000;3.687037
3631.000000;3.761218
3630.000000;3.631056
3629.000000;3.643031
3628.000000;3.818146
3627.000000;4.168684
3626.000000;3.760012
3625.000000;3.452428
3624.000000;3.417051
3623.000000;3.645106
3622.000000;4.079093
3621.000000;3.952151
3620.000000;3.798483
3619.000000;4.085741
3618.000000;3.912659
3617.000000;3.539773
3616.000000;3.466443
3615.000000;3.443561
3614.000000;3.399599
3613.000000;3.320291
3612.000000;3.372148
3611.000000;3.564157
3610.000000;3.711816
3609.000000;3.739031
3608.000000;3.849268
3607.000000;4.260727
3606.000000;3.774757
3605.000000;3.456378
3604.000000;3.370916
3603.000000;3.355296
3602.000000;3.348881
3601.000000;3.350872
3600.000000;3.390637
3599.000000;3.433495
3598.000000;3.426380
3597.000000;3.333846
3596.000000;3.280882
3595.000000;3.281084
3594.000000;3.300944
3593.000000;3.515861
3592.000000;3.634847
3591.000000;3.697655
3590.000000;3.771415
3589.000000;3.316183
3588.000000;3.182738
3587.000000;3.234449
3586.000000;3.292370
3585.000000;3.363356
3584.000000;3.426353
3583.000000;3.577992
3582.000000;3.906514
3581.000000;3.935157
3580.000000;3.661353
3579.000000;3.532215
3578.000000;3.553530
3577.000000;3.757608
3576.000000;4.221440
3575.000000;4.240239
3574.000000;3.710485
3573.000000;3.605288
3572.000000;3.536949
3571.000000;3.264581
3570.000000;3.123743
3569.000000;3.140284
3568.000000;3.207208
3567.000000;3.309752
3566.000000;3.565955
3565.000000;3.763680
3564.000000;3.567336
3563.000000;3.537327
3562.000000;3.509493
3561.000000;3.588501
3560.000000;4.145162
3559.000000;3.963714
3558.000000;3.658289
3557.000000;3.518389
3556.000000;3.455183
3555.000000;3.532065
3554.000000;3.717018
3553.000000;3.960046
3552.000000;4.171856
3551.000000;4.472639
3550.000000;3.762757
3549.000000;3.574401
3548.000000;3.588041
3547.000000;3.675982
3546.000000;3.911686
3545.000000;3.765812
3544.000000;3.608689
3543.000000;3.526950
3542.000000;3.429330
3541.000000;3.380221
3540.000000;3.436225
3539.000000;3.659244
3538.000000;4.107947
3537.000000;4.280560
3536.000000;3.902290
3535.000000;3.913215
3534.000000;4.217737
3533.000000;3.690839
3532.000000;3.390870
3531.000000;3.303197
3530.000000;3.258358
3529.000000;3.250884
3528.000000;3.274824
3527.000000;3.347840
3526.000000;3.454690
3525.000000;3.512642
3524.000000;3.547745
3523.000000;3.549550
3522.000000;3.460711
3521.000000;3.372761
3520.000000;3.393653
3519.000000;3.546598
3518.000000;3.638378
3517.000000;3.650879
3516.000000;3.802799
3515.000000;3.958080
3514.000000;4.088848
3513.000000;3.996163
3512.000000;3.689916
3511.000000;3.583816
3510.000000;3.606723
3509.000000;3.618663
3508.000000;3.536076
3507.000000;3.508865
3506.000000;3.636782
3505.000000;3.963362
3504.000000;4.233457
3503.000000;3.733060
3502.000000;3.529077
3501.000000;3.550164
3500.000000;3.589748
3499.000000;3.546765
3498.000000;3.503720
3497.000000;3.564137
3496.000000;3.671172
3495.000000;3.683139
3494.000000;3.642770
3493.000000;3.658839
3492.000000;3.751389
3491.000000;3.878454
3490.000000;3.814517
3489.000000;3.874629
3488.000000;4.213704
3487.000000;4.300805
3486.000000;4.336309
3485.000000;3.828424
3484.000000;3.490308
3483.000000;3.390708
3482.000000;3.367605
3481.000000;3.382058
3480.000000;3.418831
3479.000000;3.488486
3478.000000;3.549460
3477.000000;3.530409
3476.000000;3.475843
3475.000000;3.520014
3474.000000;3.699628
3473.000000;3.755402
3472.000000;3.673146
3471.000000;3.560119
3470.000000;3.476733
3469.000000;3.517562
3468.000000;3.624568
3467.000000;3.662887
3466.000000;3.587426
3465.000000;3.626902
3464.000000;3.716843
3463.000000;3.563236
3462.000000;3.492521
3461.000000;3.552425
3460.000000;3.577253
3459.000000;3.558655
3458.000000;3.522994
3457.000000;3.507202
3456.000000;3.496900
3455.000000;3.665766
3454.000000;4.260339
3453.000000;4.265788
3452.000000;4.213084
3451.000000;3.962603
3450.000000;3.696633
3449.000000;3.639286
3448.000000;3.505602
3447.000000;3.374533
3446.000000;3.350946
3445.000000;3.406232
3444.000000;3.449438
3443.000000;3.500058
3442.000000;3.546695
3441.000000;3.547077
3440.000000;3.561818
3439.000000;3.553171
3438.000000;3.472590
3437.000000;3.407239
3436.000000;3.395161
3435.000000;3.415491
3434.000000;3.425298
3433.000000;3.414139
3432.000000;3.386157
3431.000000;3.431307
3430.000000;3.795522
3429.000000;3.965617
3428.000000;3.627531
3427.000000;3.623012
3426.000000;3.625856
3425.000000;3.596335
3424.000000;3.643844
3423.000000;3.662310
3422.000000;3.569769
3421.000000;3.492244
3420.000000;3.519172
3419.000000;3.540085
3418.000000;3.494360
3417.000000;3.479742
3416.000000;3.552763
3415.000000;3.694016
3414.000000;3.875917
3413.000000;3.963667
3412.000000;3.815885
3411.000000;3.640098
3410.000000;3.555115
3409.000000;3.623136
3408.000000;3.855334
3407.000000;3.984633
3406.000000;3.938636
3405.000000;3.909283
3404.000000;3.912416
3403.000000;3.826316
3402.000000;3.826660
3401.000000;4.333334
3400.000000;3.939128
3399.000000;3.539945
3398.000000;3.471865
3397.000000;3.456672
3396.000000;3.460479
3395.000000;3.528562
3394.000000;3.613699
3393.000000;3.562011
3392.000000;3.507117
3391.000000;3.554129
3390.000000;3.722794
3389.000000;3.988013
3388.000000;3.904221
3387.000000;3.673042
3386.000000;3.587922
3385.000000;3.643732
3384.000000;3.766399
3383.000000;3.701738
3382.000000;3.527409
3381.000000;3.459209
3380.000000;3.494324
3379.000000;3.595796
3378.000000;3.726443
3377.000000;3.617883
3376.000000;3.417334
3375.000000;3.379737
3374.000000;3.440024
3373.000000;3.436322
3372.000000;3.377431
3371.000000;3.371516
3370.000000;3.438581
3369.000000;3.532982
3368.000000;3.573215
3367.000000;3.566710
3366.000000;3.543116
3365.000000;3.457322
3364.000000;3.366733
3363.000000;3.353566
3362.000000;3.430802
3361.000000;3.558498
3360.000000;3.720229
3359.000000;3.826736
3358.000000;3.666717
3357.000000;3.543678
3356.000000;3.556500
3355.000000;3.581289
3354.000000;3.682939
3353.000000;3.764322
3352.000000;3.647780
3351.000000;3.544317
3350.000000;3.535319
3349.000000;3.843826
3348.000000;3.955405
3347.000000;3.565006
3346.000000;3.494304
3345.000000;3.514874
3344.000000;3.478814
3343.000000;3.463669
3342.000000;3.571235
3341.000000;3.839016
3340.000000;4.132234
3339.000000;4.269423
3338.000000;4.246610
3337.000000;3.962217
3336.000000;3.728063
3335.000000;3.677160
3334.000000;3.682713
3333.000000;3.593595
3332.000000;3.580438
3331.000000;3.720961
3330.000000;3.953942
3329.000000;4.061122
3328.000000;3.992898
3327.000000;3.908206
3326.000000;3.659340
3325.000000;3.459060
3324.000000;3.429030
3323.000000;3.513607
3322.000000;3.644635
3321.000000;3.854314
3320.000000;4.058052
3319.000000;3.960574
3318.000000;3.837313
3317.000000;3.872261
3316.000000;4.155444
3315.000000;4.569133
3314.000000;4.651823
3313.000000;4.558349
3312.000000;3.828452
3311.000000;3.510103
3310.000000;3.452337
3309.000000;3.507459
3308.000000;3.587696
3307.000000;3.662097
3306.000000;3.618204
3305.000000;3.568715
3304.000000;3.632597
3303.000000;3.805263
3302.000000;3.983055
3301.000000;4.074766
3300.000000;4.274275
3299.000000;3.810474
3298.000000;3.520529
3297.000000;3.586841
3296.000000;3.800841
3295.000000;3.735705
3294.000000;3.557760
3293.000000;3.465425
3292.000000;3.530734
3291.000000;3.863173
3290.000000;3.839887
3289.000000;3.676235
3288.000000;3.724697
3287.000000;3.725784
3286.000000;3.809433
3285.000000;3.848937
3284.000000;3.730499
3283.000000;3.675947
3282.000000;3.749893
3281.000000;4.095774
3280.000000;4.167425
3279.000000;3.860239
3278.000000;3.914191
3277.000000;3.867245
3276.000000;3.557449
3275.000000;3.402306
3274.000000;3.368576
3273.000000;3.378885
3272.000000;3.409394
3271.000000;3.512202
3270.000000;3.656640
3269.000000;3.786539
3268.000000;3.747881
3267.000000;3.713184
3266.000000;4.119261
3265.000000;3.897757
3264.000000;3.542690
3263.000000;3.445171
3262.000000;3.441831
3261.000000;3.547985
3260.000000;3.819655
3259.000000;4.124045
3258.000000;3.769677
3257.000000;3.651168
3256.000000;3.690269
3255.000000;3.668585
3254.000000;3.612719
3253.000000;3.660834
3252.000000;3.785422
3251.000000;3.770976
3250.000000;3.648955
3249.000000;3.492023
3248.000000;3.427654
3247.000000;3.461921
3246.000000;3.548596
3245.000000;3.922509
3244.000000;3.903593
3243.000000;3.474014
3242.000000;3.412132
3241.000000;3.413826
3240.000000;3.409046
3239.000000;3.401302
3238.000000;3.464389
3237.000000;3.694263
3236.000000;3.546196
3235.000000;3.316291
3234.000000;3.268396
3233.000000;3.320787
3232.000000;3.488276
3231.000000;3.801090
3230.000000;4.180272
3229.000000;4.076557
3228.000000;3.842446
3227.000000;3.725438
3226.000000;3.622773
3225.000000;3.597111
3224.000000;3.628552
3223.000000;3.864348
3222.000000;4.310551
3221.000000;3.944129
3220.000000;3.854201
3219.000000;3.752659
3218.000000;3.708196
3217.000000;4.102863
3216.000000;4.474229
3215.000000;4.023680
3214.000000;3.802332
3213.000000;3.734242
3212.000000;3.669801
3211.000000;3.516655
3210.000000;3.469375
3209.000000;3.650922
3208.000000;4.148655
3207.000000;3.662361
3206.000000;3.481775
3205.000000;3.578705
3204.000000;3.737769
3203.000000;4.007274
3202.000000;4.075805
3201.000000;3.907298
3200.000000;3.972248
3199.000000;4.136863
3198.000000;4.024991
3197.000000;3.742204
3196.000000;3.564955
3195.000000;3.489299
3194.000000;3.463145
3193.000000;3.490163
3192.000000;3.498846
3191.000000;3.446898
3190.000000;3.414080
3189.000000;3.458629
3188.000000;3.594868
3187.000000;3.643585
3186.000000;3.631863
3185.000000;3.585553
3184.000000;3.443768
3183.000000;3.423982
3182.000000;3.583801
3181.000000;3.888037
3180.000000;3.829335
3179.000000;3.529034
3178.000000;3.371728
3177.000000;3.264610
3176.000000;3.222233
3175.000000;3.290563
3174.000000;3.521880
3173.000000;4.072293
3172.000000;4.040682
3171.000000;3.656399
3170.000000;3.561462
3169.000000;3.644385
3168.000000;3.723052
3167.000000;3.619932
3166.000000;3.568927
3165.000000;3.528473
3164.000000;3.440671
3163.000000;3.412610
3162.000000;3.509713
3161.000000;3.699324
3160.000000;3.751956
3159.000000;3.630055
3158.000000;3.622074
3157.000000;3.842381
3156.000000;4.246851
3155.000000;3.979086
3154.000000;3.723679
3153.000000;3.943195
3152.000000;3.951608
3151.000000;3.461320
3150.000000;3.263264
3149.000000;3.193828
3148.000000;3.218391
3147.000000;3.352154
3146.000000;3.506511
3145.000000;3.531954
3144.000000;3.595633
3143.000000;3.961882
3142.000000;4.008325
3141.000000;3.580570
3140.000000;3.556816
3139.000000;3.597199
3138.000000;3.582212
3137.000000;3.454601
3136.000000;3.309508
3135.000000;3.288699
3134.000000;3.384211
3133.000000;3.646201
3132.000000;3.940191
3131.000000;3.604126
3130.000000;3.406531
3129.000000;3.427337
3128.000000;3.564696
3127.000000;3.717948
3126.000000;3.800157
3125.000000;3.797973
3124.000000;3.692944
3123.000000;3.653196
3122.000000;3.832817
3121.000000;3.892787
3120.000000;3.752905
3119.000000;3.875767
3118.000000;4.282824
3117.000000;4.087291
3116.000000;3.701807
3115.000000;3.540084
3114.000000;3.471138
3113.000000;3.514997
3112.000000;3.579287
3111.000000;3.588139
3110.000000;3.672259
3109.000000;3.659772
3108.000000;3.599804
3107.000000;3.653675
3106.000000;3.700410
3105.000000;3.673864
3104.000000;3.600877
3103.000000;3.536541
3102.000000;3.524734
3101.000000;3.603866
3100.000000;3.892019
3099.000000;4.055458
3098.000000;3.617569
3097.000000;3.402205
3096.000000;3.351699
3095.000000;3.378099
3094.000000;3.435629
3093.000000;3.523164
3092.000000;3.561368
3091.000000;3.467240
3090.000000;3.390417
3089.000000;3.398758
3088.000000;3.520980
3087.000000;3.626985
3086.000000;3.530826
3085.000000;3.432221
3084.000000;3.401199
3083.000000;3.406151
3082.000000;3.465205
3081.000000;3.622630
3080.000000;3.790242
3079.000000;3.818357
3078.000000;3.931916
3077.000000;3.991726
3076.000000;3.789885
3075.000000;3.713405
3074.000000;3.680146
3073.000000;3.662105
3072.000000;3.701416
3071.000000;3.791179
3070.000000;4.343350
3069.000000;4.002001
3068.000000;3.687389
3067.000000;3.625501
3066.000000;3.627889
3065.000000;3.701728
3064.000000;3.840921
3063.000000;3.839610
3062.000000;3.909331
3061.000000;3.975996
3060.000000;3.690543
3059.000000;3.482085
3058.000000;3.406134
3057.000000;3.476964
3056.000000;3.653803
3055.000000;3.744619
3054.000000;3.649583
3053.000000;3.614607
3052.000000;3.809210
3051.000000;3.797507
3050.000000;3.669034
3049.000000;3.921457
3048.000000;4.287489
3047.000000;3.940269
3046.000000;3.739286
3045.000000;3.615194
3044.000000;3.606279
3043.000000;3.762690
3042.000000;4.074273
3041.000000;4.088585
3040.000000;4.095180
3039.000000;4.387217
3038.000000;3.817605
3037.000000;3.719107
3036.000000;4.013741
3035.000000;4.281967
3034.000000;3.896792
3033.000000;3.845334
3032.000000;3.695492
3031.000000;3.607763
3030.000000;3.821693
3029.000000;3.892541
3028.000000;3.606222
3027.000000;3.534410
3026.000000;3.468993
3025.000000;3.493055
3024.000000;3.928321
3023.000000;4.130054
3022.000000;3.717269
3021.000000;3.649362
3020.000000;3.645559
3019.000000;3.693476
3018.000000;3.622353
3017.000000;3.467830
3016.000000;3.442708
3015.000000;3.501967
3014.000000;3.514180
3013.000000;3.581779
3012.000000;3.672434
3011.000000;3.595253
3010.000000;3.513660
3009.000000;3.658577
3008.000000;4.195657
3007.000000;3.710416
3006.000000;3.578505
3005.000000;3.682247
3004.000000;3.832375
3003.000000;3.911466
3002.000000;3.891978
3001.000000;3.867406
3000.000000;3.766237
2999.000000;3.593701
2998.000000;3.603425
2997.000000;3.801560
2996.000000;3.851714
2995.000000;3.883963
2994.000000;4.408158
2993.000000;4.054730
2992.000000;3.890649
2991.000000;4.101694
2990.000000;4.395712
2989.000000;4.805519
2988.000000;4.592924
2987.000000;4.396397
2986.000000;4.180690
2985.000000;4.319275
2984.000000;4.251056
2983.000000;3.801171
2982.000000;3.580450
2981.000000;3.535627
2980.000000;3.665749
2979.000000;3.850561
2978.000000;3.890865
2977.000000;4.034257
2976.000000;4.218716
2975.000000;4.095798
2974.000000;4.079764
2973.000000;3.923568
2972.000000;3.879450
2971.000000;3.797994
2970.000000;3.754633
2969.000000;4.239987
2968.000000;4.170662
2967.000000;4.155266
2966.000000;4.471578
2965.000000;4.024768
2964.000000;3.717178
2963.000000;3.572533
2962.000000;3.601508
2961.000000;3.669039
2960.000000;3.604617
2959.000000;3.539461
2958.000000;3.503958
2957.000000;3.480600
2956.000000;3.532706
2955.000000;3.827928
2954.000000;3.941683
2953.000000;3.639446
2952.000000;3.908305
2951.000000;3.997401
2950.000000;3.704247
2949.000000;3.871310
2948.000000;3.776445
2947.000000;3.559153
2946.000000;3.489853
2945.000000;3.506489
2944.000000;3.637226
2943.000000;3.988834
2942.000000;4.496057
2941.000000;4.208539
2940.000000;3.907815
2939.000000;3.706924
2938.000000;3.608040
2937.000000;3.595925
2936.000000;3.655930
2935.000000;3.796377
2934.000000;4.325997
2933.000000;3.874047
2932.000000;3.656552
2931.000000;3.625895
2930.000000;3.612454
2929.000000;3.625809
2928.000000;3.797609
2927.000000;4.133456
2926.000000;4.183003
2925.000000;4.010969
2924.000000;3.817163
2923.000000;3.669372
2922.000000;3.558959
2921.000000;3.426073
2920.000000;3.334358
2919.000000;3.368468
2918.000000;3.535481
2917.000000;3.639885
2916.000000;3.721086
2915.000000;3.913400
2914.000000;4.049404
2913.000000;3.942549
2912.000000;3.770442
2911.000000;3.632772
2910.000000;3.497138
2909.000000;3.469484
2908.000000;3.620988
2907.000000;3.913110
2906.000000;4.244576
2905.000000;4.610938
2904.000000;4.148340
2903.000000;3.988650
2902.000000;3.743715
2901.000000;3.540983
2900.000000;3.479314
2899.000000;3.538846
2898.000000;3.609051
2897.000000;3.611080
2896.000000;3.666028
2895.000000;3.911434
2894.000000;4.250510
2893.000000;4.096695
2892.000000;3.959709
2891.000000;4.004271
2890.000000;4.550025
2889.000000;4.155832
2888.000000;3.868071
2887.000000;3.934962
2886.000000;4.091635
2885.000000;3.880940
2884.000000;3.553767
2883.000000;3.402627
2882.000000;3.367854
2881.000000;3.387884
2880.000000;3.397750
2879.000000;3.449009
2878.000000;3.632155
2877.000000;3.896032
2876.000000;4.014557
2875.000000;4.157574
2874.000000;4.095434
2873.000000;3.961175
2872.000000;4.102730
2871.000000;3.657194
2870.000000;3.536331
2869.000000;3.632881
2868.000000;3.853854
2867.000000;3.868552
2866.000000;3.676592
2865.000000;3.586819
2864.000000;3.659281
2863.000000;3.731327
2862.000000;3.648268
2861.000000;3.642613
2860.000000;3.679034
2859.000000;3.626939
2858.000000;3.632944
2857.000000;3.678962
2856.000000;3.642352
2855.000000;3.557292
2854.000000;3.523060
2853.000000;3.592962
2852.000000;3.742123
2851.000000;3.816831
2850.000000;3.754572
2849.000000;3.649655
2848.000000;3.636382
2847.000000;3.702419
2846.000000;3.855374
2845.000000;3.908464
2844.000000;3.584309
2843.000000;3.370289
2842.000000;3.355244
2841.000000;3.586081
2840.000000;3.934881
2839.000000;4.021697
2838.000000;3.696815
2837.000000;3.385722
2836.000000;3.330491
2835.000000;3.423296
2834.000000;3.449667
2833.000000;3.353002
2832.000000;3.309971
2831.000000;3.380771
2830.000000;3.513471
2829.000000;3.577212
2828.000000;3.851720
2827.000000;3.976541
2826.000000;3.704267
2825.000000;3.552827
2824.000000;3.535831
2823.000000;3.718847
2822.000000;3.851075
2821.000000;3.661130
2820.000000;3.488929
2819.000000;3.346016
2818.000000;3.285636
2817.000000;3.325381
2816.000000;3.439200
2815.000000;3.569230
2814.000000;3.620431
2813.000000;3.636941
2812.000000;3.874277
2811.000000;4.091316
2810.000000;3.970057
2809.000000;4.198658
2808.000000;4.202434
2807.000000;4.160225
2806.000000;3.850174
2805.000000;3.623644
2804.000000;3.648068
2803.000000;4.478636
2802.000000;3.876294
2801.000000;3.607450
2800.000000;3.572863
2799.000000;3.628070
2798.000000;3.793154
2797.000000;4.200805
2796.000000;4.202523
2795.000000;3.773577
2794.000000;3.670413
2793.000000;3.565930
2792.000000;3.440591
2791.000000;3.354767
2790.000000;3.366564
2789.000000;3.552009
2788.000000;3.768888
2787.000000;3.636457
2786.000000;3.560411
2785.000000;3.494652
2784.000000;3.396001
2783.000000;3.353977
2782.000000;3.417952
2781.000000;3.493871
2780.000000;3.507282
2779.000000;3.572661
2778.000000;3.746603
2777.000000;3.707132
2776.000000;3.609085
2775.000000;3.675696
2774.000000;3.878693
2773.000000;4.043578
2772.000000;4.000200
2771.000000;3.984145
2770.000000;4.175645
2769.000000;4.028723
2768.000000;3.846782
2767.000000;3.721590
2766.000000;3.551462
2765.000000;3.521246
2764.000000;3.641328
2763.000000;3.710735
2762.000000;3.724570
2761.000000;3.889924
2760.000000;3.789946
2759.000000;3.627682
2758.000000;3.599168
2757.000000;3.569569
2756.000000;3.565498
2755.000000;3.648032
2754.000000;3.828502
2753.000000;4.326440
2752.000000;4.242228
2751.000000;3.904148
2750.000000;3.918610
2749.000000;4.058448
2748.000000;3.935478
2747.000000;3.889454
2746.000000;4.272881
2745.000000;4.576938
2744.000000;4.481648
2743.000000;4.208772
2742.000000;3.818188
2741.000000;3.593413
2740.000000;3.440194
2739.000000;3.349768
2738.000000;3.320156
2737.000000;3.366711
2736.000000;3.506613
2735.000000;3.641618
2734.000000;3.654281
2733.000000;3.656623
2732.000000;4.004873
2731.000000;3.972069
2730.000000;3.514482
2729.000000;3.380956
2728.000000;3.374687
2727.000000;3.441525
2726.000000;3.533676
2725.000000;3.735687
2724.000000;3.890040
2723.000000;3.770822
2722.000000;3.699196
2721.000000;3.744181
2720.000000;3.970156
2719.000000;3.959664
2718.000000;3.866402
2717.000000;4.109293
2716.000000;4.257556
2715.000000;3.950733
2714.000000;4.208042
2713.000000;4.467272
2712.000000;4.082677
2711.000000;4.113889
2710.000000;3.838228
2709.000000;3.691251
2708.000000;3.711969
2707.000000;3.748466
2706.000000;3.776747
2705.000000;3.840369
2704.000000;3.724454
2703.000000;3.547349
2702.000000;3.531580
2701.000000;3.543595
2700.000000;3.413804
2699.000000;3.377361
2698.000000;3.518144
2697.000000;3.674693
2696.000000;3.587633
2695.000000;3.454219
2694.000000;3.446881
2693.000000;3.546974
2692.000000;3.772959
2691.000000;4.432427
2690.000000;3.964024
2689.000000;3.927226
2688.000000;3.987419
2687.000000;3.617433
2686.000000;3.480273
2685.000000;3.524678
2684.000000;3.671816
2683.000000;3.840948
2682.000000;4.010267
2681.000000;4.068704
2680.000000;3.863374
2679.000000;4.067060
2678.000000;4.013029
2677.000000;3.542909
2676.000000;3.485150
2675.000000;3.784953
2674.000000;4.217885
2673.000000;4.522786
2672.000000;4.239549
2671.000000;3.764319
2670.000000;3.617504
2669.000000;3.637756
2668.000000;3.952174
2667.000000;4.222851
2666.000000;3.763160
2665.000000;3.667636
2664.000000;3.753978
2663.000000;3.920524
2662.000000;4.548765
2661.000000;3.878634
2660.000000;3.741998
2659.000000;3.762032
2658.000000;3.590426
2657.000000;3.491777
2656.000000;3.519314
2655.000000;3.602167
2654.000000;3.849745
2653.000000;4.101796
2652.000000;3.710137
2651.000000;3.504524
2650.000000;3.472775
2649.000000;3.477087
2648.000000;3.479730
2647.000000;3.514888
2646.000000;3.568163
2645.000000;3.699038
2644.000000;3.741934
2643.000000;3.614341
2642.000000;3.502149
2641.000000;3.360797
2640.000000;3.235509
2639.000000;3.227021
2638.000000;3.397900
2637.000000;3.797347
2636.000000;3.827416
2635.000000;3.525442
2634.000000;3.343100
2633.000000;3.283499
2632.000000;3.321120
2631.000000;3.388683
2630.000000;3.630601
2629.000000;4.096493
2628.000000;3.646020
2627.000000;3.475030
2626.000000;3.438545
2625.000000;3.435864
2624.000000;3.448801
2623.000000;3.535092
2622.000000;3.611516
2621.000000;3.582445
2620.000000;3.706229
2619.000000;3.927259
2618.000000;3.970270
2617.000000;3.826744
2616.000000;3.693633
2615.000000;3.723023
2614.000000;3.649268
2613.000000;3.622990
2612.000000;3.914348
2611.000000;4.456537
2610.000000;4.278176
2609.000000;4.364971
2608.000000;4.446213
2607.000000;4.029841
2606.000000;3.667851
2605.000000;3.513947
2604.000000;3.471591
2603.000000;3.387654
2602.000000;3.268739
2601.000000;3.224399
2600.000000;3.252602
2599.000000;3.302923
2598.000000;3.372727
2597.000000;3.492771
2596.000000;3.638562
2595.000000;3.768879
2594.000000;3.717804
2593.000000;3.583243
2592.000000;3.565000
2591.000000;3.568622
2590.000000;3.543696
2589.000000;3.619135
2588.000000;3.773217
2587.000000;3.698463
2586.000000;3.606574
2585.000000;3.531548
2584.000000;3.518792
2583.000000;3.646410
2582.000000;3.765309
2581.000000;3.702001
2580.000000;3.660124
2579.000000;3.660999
2578.000000;3.676010
2577.000000;3.788034
2576.000000;4.071965
2575.000000;4.108113
2574.000000;3.903618
2573.000000;3.789248
2572.000000;3.676965
2571.000000;3.626085
2570.000000;3.665414
2569.000000;3.607089
2568.000000;3.507525
2567.000000;3.462732
2566.000000;3.471492
2565.000000;3.608707
2564.000000;3.999995
2563.000000;4.541448
2562.000000;3.949792
2561.000000;3.666891
2560.000000;3.638022
2559.000000;3.693282
2558.000000;3.693986
2557.000000;3.702041
2556.000000;3.914410
2555.000000;4.241616
2554.000000;3.972353
2553.000000;3.808966
2552.000000;3.613610
2551.000000;3.664100
2550.000000;3.878370
2549.000000;3.632564
2548.000000;3.605600
2547.000000;3.897306
2546.000000;4.329505
2545.000000;3.939176
2544.000000;3.589892
2543.000000;3.456331
2542.000000;3.520966
2541.000000;3.797380
2540.000000;3.930666
2539.000000;3.654157
2538.000000;3.433984
2537.000000;3.353963
2536.000000;3.405938
2535.000000;3.558335
2534.000000;3.952199
2533.000000;3.950788
2532.000000;3.661084
2531.000000;3.769693
2530.000000;4.318342
2529.000000;4.095090
2528.000000;3.832234
2527.000000;3.607432
2526.000000;3.431716
2525.000000;3.344227
2524.000000;3.334109
2523.000000;3.362273
2522.000000;3.507956
2521.000000;3.917063
2520.000000;3.743206
2519.000000;3.479690
2518.000000;3.497772
2517.000000;3.596127
2516.000000;3.842144
2515.000000;3.878871
2514.000000;3.572076
2513.000000;3.472353
2512.000000;3.572081
2511.000000;3.739350
2510.000000;3.672291
2509.000000;3.583705
2508.000000;3.672366
2507.000000;3.876445
2506.000000;3.886347
2505.000000;3.739922
2504.000000;3.675853
2503.000000;3.694248
2502.000000;3.784545
2501.000000;3.940051
2500.000000;4.286222
2499.000000;3.853576
2498.000000;3.602172
2497.000000;3.657693
2496.000000;3.589833
2495.000000;3.471537
2494.000000;3.573513
2493.000000;3.741299
2492.000000;3.916151
2491.000000;4.223543
2490.000000;3.992668
2489.000000;3.724005
2488.000000;3.602500
2487.000000;3.649398
2486.000000;3.810244
2485.000000;3.869761
2484.000000;3.885845
2483.000000;3.860245
2482.000000;3.948953
2481.000000;4.328602
2480.000000;4.364826
2479.000000;4.052479
2478.000000;3.764438
2477.000000;3.536619
2476.000000;3.445817
2475.000000;3.453469
2474.000000;3.559747
2473.000000;3.846595
2472.000000;3.971788
2471.000000;3.759592
2470.000000;3.799686
2469.000000;4.182743
2468.000000;4.380124
2467.000000;3.788651
2466.000000;3.618797
2465.000000;3.784802
2464.000000;4.168066
2463.000000;4.050255
2462.000000;3.900400
2461.000000;3.680930
2460.000000;3.549994
2459.000000;3.595004
2458.000000;3.712144
2457.000000;3.647631
2456.000000;3.449550
2455.000000;3.379664
2454.000000;3.454708
2453.000000;3.575838
2452.000000;3.679936
2451.000000;3.813564
2450.000000;3.904882
2449.000000;4.176063
2448.000000;3.964611
2447.000000;3.586923
2446.000000;3.544403
2445.000000;3.651135
2444.000000;3.738588
2443.000000;3.731072
2442.000000;4.061468
2441.000000;4.246340
2440.000000;3.720495
2439.000000;3.687324
2438.000000;3.724673
2437.000000;3.803910
2436.000000;3.834178
2435.000000;3.869588
2434.000000;3.827332
2433.000000;3.644524
2432.000000;3.566612
2431.000000;3.528143
2430.000000;3.513844
2429.000000;3.567306
2428.000000;3.808655
2427.000000;3.817405
2426.000000;3.555362
2425.000000;3.510550
2424.000000;3.633515
2423.000000;3.795477
2422.000000;3.814465
2421.000000;3.780271
2420.000000;3.796150
2419.000000;3.836504
2418.000000;3.706030
2417.000000;3.489193
2416.000000;3.394833
2415.000000;3.377238
2414.000000;3.423825
2413.000000;3.681933
2412.000000;4.093681
2411.000000;3.865713
2410.000000;3.734150
2409.000000;3.649242
2408.000000;3.564648
2407.000000;3.621817
2406.000000;3.803259
2405.000000;3.891344
2404.000000;3.747856
2403.000000;3.588243
2402.000000;3.540459
2401.000000;3.587454
2400.000000;3.622532
2399.000000;3.609375
2398.000000;3.605715
2397.000000;3.646655
2396.000000;3.703721
2395.000000;3.988854
2394.000000;4.287617
2393.000000;4.016474
2392.000000;4.030074
2391.000000;3.796240
2390.000000;3.686042
2389.000000;3.857415
2388.000000;4.149741
2387.000000;4.092819
2386.000000;3.997491
2385.000000;3.926026
2384.000000;3.946207
2383.000000;4.061370
2382.000000;4.217838
2381.000000;4.359456
2380.000000;4.094733
2379.000000;3.913898
2378.000000;3.959595
2377.000000;4.358711
2376.000000;4.748577
2375.000000;4.647735
2374.000000;4.730148
2373.000000;4.320510
2372.000000;4.182943
2371.000000;4.152419
2370.000000;4.135228
2369.000000;4.191439
2368.000000;4.189613
2367.000000;4.146723
2366.000000;4.176609
2365.000000;4.265621
2364.000000;4.300192
2363.000000;4.299432
2362.000000;4.507865
2361.000000;4.760233
2360.000000;4.386280
2359.000000;4.210585
2358.000000;4.083853
2357.000000;3.997459
2356.000000;4.047527
2355.000000;4.296330
2354.000000;4.806153
2353.000000;4.510937
2352.000000;4.290018
2351.000000;4.308099
2350.000000;4.313894
2349.000000;4.342446
2348.000000;4.295296
2347.000000;4.464708
2346.000000;4.584779
2345.000000;4.367884
2344.000000;4.597984
2343.000000;4.960252
2342.000000;4.806320
2341.000000;4.527754
2340.000000;4.574221
2339.000000;4.648558
2338.000000;4.310642
2337.000000;4.206182
2336.000000;4.221004
2335.000000;4.279271
2334.000000;4.523225
2333.000000;4.929027
2332.000000;4.438244
2331.000000;4.168832
2330.000000;4.143936
2329.000000;4.222677
2328.000000;4.252793
2327.000000;4.173484
2326.000000;4.310392
2325.000000;4.367238
2324.000000;4.109117
2323.000000;4.056729
2322.000000;4.065024
2321.000000;4.010164
2320.000000;4.013941
2319.000000;4.112554
2318.000000;4.357136
2317.000000;4.583841
2316.000000;4.170292
2315.000000;3.982077
2314.000000;3.988066
2313.000000;4.193172
2312.000000;4.790722
2311.000000;4.402289
2310.000000;4.238177
2309.000000;4.523190
2308.000000;4.489015
2307.000000;4.175320
2306.000000;4.011323
2305.000000;3.892221
2304.000000;3.860831
2303.000000;3.864355
2302.000000;3.783742
2301.000000;3.748840
2300.000000;3.872654
2299.000000;3.947464
2298.000000;3.916237
2297.000000;4.077052
2296.000000;4.153381
2295.000000;3.993685
2294.000000;3.875651
2293.000000;3.711066
2292.000000;3.764786
2291.000000;3.977420
2290.000000;3.945161
2289.000000;4.017445
2288.000000;3.716421
2287.000000;3.465359
2286.000000;3.454904
2285.000000;3.590518
2284.000000;3.890421
2283.000000;4.185350
2282.000000;3.924748
2281.000000;3.891222
2280.000000;4.271647
2279.000000;4.050456
2278.000000;3.863199
2277.000000;3.993718
2276.000000;3.956151
2275.000000;4.138060
2274.000000;4.373743
2273.000000;4.057429
2272.000000;3.991138
2271.000000;4.029353
2270.000000;4.046502
2269.000000;4.062280
2268.000000;4.287677
2267.000000;3.830981
2266.000000;3.456808
2265.000000;3.337602
2264.000000;3.333451
2263.000000;3.399100
2262.000000;3.501026
2261.000000;3.680003
2260.000000;3.978948
2259.000000;3.774669
2258.000000;3.808374
2257.000000;4.336353
2256.000000;3.751885
2255.000000;3.569391
2254.000000;3.628373
2253.000000;3.708490
2252.000000;3.835676
2251.000000;3.780599
2250.000000;3.571236
2249.000000;3.453043
2248.000000;3.504522
2247.000000;3.638096
2246.000000;3.698986
2245.000000;3.741786
2244.000000;3.683062
2243.000000;3.533011
2242.000000;3.511897
2241.000000;3.658281
2240.000000;3.894139
2239.000000;4.092819
2238.000000;4.148875
2237.000000;3.913268
2236.000000;3.871695
2235.000000;3.924929
2234.000000;3.688184
2233.000000;3.600583
2232.000000;3.722720
2231.000000;3.885903
2230.000000;3.867646
2229.000000;3.705895
2228.000000;3.610583
2227.000000;3.617777
2226.000000;3.904274
2225.000000;4.410905
2224.000000;3.821074
2223.000000;3.556023
2222.000000;3.502893
2221.000000;3.576414
2220.000000;3.802361
2219.000000;3.996547
2218.000000;3.809342
2217.000000;3.630174
2216.000000;3.594862
2215.000000;3.561053
2214.000000;3.592460
2213.000000;3.640523
2212.000000;3.825102
2211.000000;4.454273
2210.000000;4.174256
2209.000000;4.143968
2208.000000;4.490223
2207.000000;4.348910
2206.000000;4.427350
2205.000000;4.259971
2204.000000;3.836871
2203.000000;3.746770
2202.000000;3.736866
2201.000000;3.628811
2200.000000;3.698994
2199.000000;3.705881
2198.000000;3.525768
2197.000000;3.510069
2196.000000;3.659482
2195.000000;3.901397
2194.000000;4.051750
2193.000000;4.172796
2192.000000;4.203113
2191.000000;4.000895
2190.000000;3.826071
2189.000000;3.845416
2188.000000;4.244848
2187.000000;3.917025
2186.000000;3.639009
2185.000000;3.554156
2184.000000;3.652815
2183.000000;4.081663
2182.000000;3.788364
2181.000000;3.693197
2180.000000;4.094400
2179.000000;4.379375
2178.000000;4.161385
2177.000000;4.132068
2176.000000;4.033013
2175.000000;3.897180
2174.000000;3.863661
2173.000000;3.836708
2172.000000;3.778291
2171.000000;3.791482
2170.000000;3.991654
2169.000000;4.017715
2168.000000;3.794055
2167.000000;3.659539
2166.000000;3.575061
2165.000000;3.525644
2164.000000;3.599927
2163.000000;3.895812
2162.000000;4.189681
2161.000000;3.991841
2160.000000;4.100980
2159.000000;4.153791
2158.000000;4.115486
2157.000000;4.960301
2156.000000;4.151833
2155.000000;3.770510
2154.000000;3.626757
2153.000000;3.522862
2152.000000;3.482877
2151.000000;3.517749
2150.000000;3.703603
2149.000000;3.780789
2148.000000;3.799298
2147.000000;4.061602
2146.000000;3.963377
2145.000000;3.834438
2144.000000;4.097991
2143.000000;4.069230
2142.000000;3.793641
2141.000000;3.674057
2140.000000;3.694380
2139.000000;3.956231
2138.000000;4.234600
2137.000000;4.706803
2136.000000;4.363538
2135.000000;3.944091
2134.000000;3.827812
2133.000000;3.655454
2132.000000;3.611185
2131.000000;3.771215
2130.000000;4.261306
2129.000000;4.183132
2128.000000;3.770060
2127.000000;3.708314
2126.000000;3.755263
2125.000000;3.773437
2124.000000;3.877282
2123.000000;4.245993
2122.000000;3.902180
2121.000000;3.532000
2120.000000;3.528000
2119.000000;3.740109
2118.000000;3.791007
2117.000000;3.625621
2116.000000;3.555249
2115.000000;3.530098
2114.000000;3.571886
2113.000000;3.630454
2112.000000;3.650914
2111.000000;3.949365
2110.000000;4.095124
2109.000000;3.603371
2108.000000;3.496460
2107.000000;3.516833
2106.000000;3.586357
2105.000000;4.051710
2104.000000;3.940047
2103.000000;3.598805
2102.000000;3.641254
2101.000000;3.878839
2100.000000;4.129408
2099.000000;3.905710
2098.000000;3.651198
2097.000000;3.669734
2096.000000;3.847645
2095.000000;3.700895
2094.000000;3.640680
2093.000000;3.797732
2092.000000;4.023450
2091.000000;3.943171
2090.000000;3.705805
2089.000000;3.637988
2088.000000;3.575547
2087.000000;3.492472
2086.000000;3.452257
2085.000000;3.480488
2084.000000;3.579712
2083.000000;3.766401
2082.000000;3.836423
2081.000000;3.602960
2080.000000;3.480410
2079.000000;3.502017
2078.000000;3.538550
2077.000000;3.588646
2076.000000;3.890519
2075.000000;4.476771
2074.000000;4.417632
2073.000000;4.202987
2072.000000;3.897558
2071.000000;3.716357
2070.000000;3.568816
2069.000000;3.575929
2068.000000;3.932783
2067.000000;4.030795
2066.000000;3.988958
2065.000000;4.356724
2064.000000;3.806621
2063.000000;3.486031
2062.000000;3.312210
2061.000000;3.265371
2060.000000;3.406527
2059.000000;3.716328
2058.000000;4.169420
2057.000000;4.439120
2056.000000;4.152218
2055.000000;3.832450
2054.000000;3.746613
2053.000000;3.765341
2052.000000;3.660605
2051.000000;3.559797
2050.000000;3.723642
2049.000000;4.089757
2048.000000;3.903598
2047.000000;3.832113
2046.000000;3.887334
2045.000000;3.945104
2044.000000;4.062009
2043.000000;3.927857
2042.000000;3.703312
2041.000000;3.783787
2040.000000;4.283508
2039.000000;4.090882
2038.000000;4.057101
2037.000000;4.363986
2036.000000;4.474648
2035.000000;4.252856
2034.000000;4.068545
2033.000000;4.433001
2032.000000;4.120595
2031.000000;3.888835
2030.000000;4.169500
2029.000000;4.248889
2028.000000;3.898008
2027.000000;3.742637
2026.000000;3.785737
2025.000000;3.766542
2024.000000;3.687612
2023.000000;3.737052
2022.000000;3.839263
2021.000000;3.916344
2020.000000;3.848071
2019.000000;3.764430
2018.000000;3.935388
2017.000000;4.373605
2016.000000;4.174092
2015.000000;3.816469
2014.000000;3.635467
2013.000000;3.669760
2012.000000;3.958866
2011.000000;3.999646
2010.000000;4.031158
2009.000000;4.348505
2008.000000;3.843126
2007.000000;3.640349
2006.000000;3.588723
2005.000000;3.510816
2004.000000;3.530017
2003.000000;3.549153
2002.000000;3.464500
2001.000000;3.385460
2000.000000;3.453457
1999.000000;3.714691
1998.000000;3.980613
1997.000000;3.933240
1996.000000;3.802332
1995.000000;3.811805
1994.000000;3.672726
1993.000000;3.421731
1992.000000;3.358925
1991.000000;3.413839
1990.000000;3.447764
1989.000000;3.445932
1988.000000;3.497876
1987.000000;3.568446
1986.000000;3.477223
1985.000000;3.346542
1984.000000;3.343541
1983.000000;3.469163
1982.000000;3.707827
1981.000000;4.143140
1980.000000;3.803546
1979.000000;3.488553
1978.000000;3.486585
1977.000000;3.565838
1976.000000;3.638991
1975.000000;3.724702
1974.000000;3.869692
1973.000000;4.093429
1972.000000;4.361399
1971.000000;4.025857
1970.000000;3.857684
1969.000000;4.130655
1968.000000;4.309625
1967.000000;4.306083
1966.000000;4.047905
1965.000000;3.918084
1964.000000;3.993868
1963.000000;3.806185
1962.000000;3.879080
1961.000000;4.031923
1960.000000;3.755530
1959.000000;3.581567
1958.000000;3.445282
1957.000000;3.402167
1956.000000;3.532196
1955.000000;3.755570
1954.000000;3.993163
1953.000000;4.335501
1952.000000;3.874495
1951.000000;3.607889
1950.000000;3.668627
1949.000000;3.741076
1948.000000;3.748340
1947.000000;3.858872
1946.000000;4.046734
1945.000000;3.961372
1944.000000;3.719429
1943.000000;3.656567
1942.000000;3.682294
1941.000000;3.621425
1940.000000;3.513705
1939.000000;3.490949
1938.000000;3.549501
1937.000000;3.553228
1936.000000;3.525912
1935.000000;3.523054
1934.000000;3.555305
1933.000000;3.668754
1932.000000;3.789641
1931.000000;4.081751
1930.000000;4.234459
1929.000000;3.735039
1928.000000;3.592177
1927.000000;3.553833
1926.000000;3.474252
1925.000000;3.390627
1924.000000;3.349933
1923.000000;3.428757
1922.000000;3.624422
1921.000000;3.730523
1920.000000;3.657749
1919.000000;3.577857
1918.000000;3.564744
1917.000000;3.583627
1916.000000;3.519877
1915.000000;3.522315
1914.000000;3.691834
1913.000000;3.755240
1912.000000;3.705573
1911.000000;3.738917
1910.000000;3.733755
1909.000000;3.673988
1908.000000;3.678869
1907.000000;3.792377
1906.000000;3.717758
1905.000000;3.684584
1904.000000;4.090965
1903.000000;4.029249
1902.000000;3.937684
1901.000000;4.325882
1900.000000;3.825789
1899.000000;3.630674
1898.000000;3.569172
1897.000000;3.518253
1896.000000;3.580282
1895.000000;3.715746
1894.000000;3.645662
1893.000000;3.548879
1892.000000;3.765812
1891.000000;3.905214
1890.000000;3.633730
1889.000000;3.512822
1888.000000;3.517854
1887.000000;3.640484
1886.000000;3.763438
1885.000000;3.776114
1884.000000;3.719655
1883.000000;3.657764
1882.000000;3.695047
1881.000000;3.817469
1880.000000;3.848785
1879.000000;3.724242
1878.000000;3.595156
1877.000000;3.507434
1876.000000;3.441217
1875.000000;3.385450
1874.000000;3.385986
1873.000000;3.480476
1872.000000;3.605098
1871.000000;3.624153
1870.000000;3.636335
1869.000000;3.776500
1868.000000;4.102812
1867.000000;4.392841
1866.000000;4.094841
1865.000000;3.913721
1864.000000;3.776546
1863.000000;3.540040
1862.000000;3.363002
1861.000000;3.318255
1860.000000;3.393474
1859.000000;3.490590
1858.000000;3.603165
1857.000000;3.776104
1856.000000;3.620400
1855.000000;3.548680
1854.000000;3.886808
1853.000000;4.142938
1852.000000;3.959412
1851.000000;4.320711
1850.000000;4.227703
1849.000000;3.921767
1848.000000;3.786734
1847.000000;3.670032
1846.000000;3.698376
1845.000000;3.978159
1844.000000;3.817888
1843.000000;3.716742
1842.000000;4.029863
1841.000000;3.844443
1840.000000;3.661031
1839.000000;3.615961
1838.000000;3.514126
1837.000000;3.439161
1836.000000;3.385424
1835.000000;3.389686
1834.000000;3.443675
1833.000000;3.560114
1832.000000;3.804369
1831.000000;4.047081
1830.000000;3.972531
1829.000000;3.790548
1828.000000;3.736623
1827.000000;3.703612
1826.000000;3.804207
1825.000000;4.232058
1824.000000;3.967392
1823.000000;3.755520
1822.000000;3.717819
1821.000000;3.591768
1820.000000;3.473207
1819.000000;3.430034
1818.000000;3.475470
1817.000000;3.581927
1816.000000;3.687335
1815.000000;3.910222
1814.000000;4.049189
1813.000000;3.862191
1812.000000;4.082520
1811.000000;4.458953
1810.000000;4.050037
1809.000000;3.909104
1808.000000;3.948598
1807.000000;4.138538
1806.000000;4.126153
1805.000000;4.153036
1804.000000;4.156146
1803.000000;3.586588
1802.000000;3.443238
1801.000000;3.555539
1800.000000;3.700275
1799.000000;3.860384
1798.000000;4.005457
1797.000000;3.761650
1796.000000;3.738932
1795.000000;3.967155
1794.000000;3.753259
1793.000000;3.732516
1792.000000;3.728287
1791.000000;3.553490
1790.000000;3.519227
1789.000000;3.536720
1788.000000;3.634975
1787.000000;3.670558
1786.000000;3.696901
1785.000000;3.798719
1784.000000;3.794113
1783.000000;3.799202
1782.000000;3.852335
1781.000000;3.901446
1780.000000;4.010444
1779.000000;4.088935
1778.000000;4.040967
1777.000000;4.176774
1776.000000;4.091664
1775.000000;3.576206
1774.000000;3.465496
1773.000000;3.548003
1772.000000;3.617826
1771.000000;3.694892
1770.000000;3.761750
1769.000000;3.670542
1768.000000;3.717533
1767.000000;4.096180
1766.000000;3.986731
1765.000000;3.822890
1764.000000;4.126878
1763.000000;4.249264
1762.000000;3.936365
1761.000000;3.788555
1760.000000;3.687577
1759.000000;3.579308
1758.000000;3.465605
1757.000000;3.453421
1756.000000;3.552075
1755.000000;3.545480
1754.000000;3.354159
1753.000000;3.278702
1752.000000;3.365160
1751.000000;3.504586
1750.000000;3.663639
1749.000000;3.556774
1748.000000;3.474681
1747.000000;3.520766
1746.000000;3.596384
1745.000000;3.624263
1744.000000;3.443657
1743.000000;3.263979
1742.000000;3.236288
1741.000000;3.318020
1740.000000;3.473016
1739.000000;3.741783
1738.000000;4.046557
1737.000000;4.060856
1736.000000;3.742798
1735.000000;3.658657
1734.000000;4.025358
1733.000000;3.969214
1732.000000;3.709370
1731.000000;3.684626
1730.000000;3.879835
1729.000000;4.094709
1728.000000;4.626192
1727.000000;4.018876
1726.000000;3.744456
1725.000000;3.783882
1724.000000;3.815916
1723.000000;3.678381
1722.000000;3.491444
1721.000000;3.483089
1720.000000;3.799120
1719.000000;4.087059
1718.000000;4.116311
1717.000000;4.318486
1716.000000;4.097374
1715.000000;3.929948
1714.000000;3.814330
1713.000000;3.696909
1712.000000;3.515689
1711.000000;3.473138
1710.000000;3.702559
1709.000000;4.027727
1708.000000;3.761812
1707.000000;3.585443
1706.000000;3.507951
1705.000000;3.507662
1704.000000;4.036058
1703.000000;3.535315
1702.000000;3.265345
1701.000000;3.467159
1700.000000;3.439425
1699.000000;3.521112
1698.000000;3.498456
1697.000000;3.434315
1696.000000;3.508733
1695.000000;3.701764
1694.000000;3.641023
1693.000000;3.513049
1692.000000;3.532253
1691.000000;3.756929
1690.000000;3.973588
1689.000000;3.728649
1688.000000;3.679613
1687.000000;3.706104
1686.000000;4.025064
1685.000000;4.333522
1684.000000;3.734126
1683.000000;3.829963
1682.000000;4.273151
1681.000000;4.359948
1680.000000;3.843358
1679.000000;3.687130
1678.000000;3.737142
1677.000000;3.873468
1676.000000;3.871036
1675.000000;3.822422
1674.000000;3.948070
1673.000000;3.873750
1672.000000;3.595268
1671.000000;3.485429
1670.000000;3.524905
1669.000000;3.553584
1668.000000;3.609332
1667.000000;3.778576
1666.000000;4.025086
1665.000000;3.747479
1664.000000;3.622241
1663.000000;3.612010
1662.000000;3.553033
1661.000000;3.522338
1660.000000;3.590765
1659.000000;3.643430
1658.000000;3.603595
1657.000000;3.640678
1656.000000;3.727894
1655.000000;3.880288
1654.000000;3.878562
1653.000000;3.801416
1652.000000;3.768086
1651.000000;3.648276
1650.000000;3.515365
1649.000000;3.450293
1648.000000;3.512098
1647.000000;3.805800
1646.000000;4.161825
1645.000000;3.992429
1644.000000;4.033362
1643.000000;4.161107
1642.000000;4.083428
1641.000000;3.939124
1640.000000;3.767508
1639.000000;3.874289
1638.000000;4.691541
1637.000000;3.826633
1636.000000;3.727226
1635.000000;3.671268
1634.000000;3.609507
1633.000000;3.602828
1632.000000;3.885431
1631.000000;4.431203
1630.000000;4.217422
1629.000000;4.069630
1628.000000;3.714666
1627.000000;3.512279
1626.000000;3.367633
1625.000000;3.277914
1624.000000;3.332605
1623.000000;3.569734
1622.000000;3.874641
1621.000000;4.083269
1620.000000;4.599865
1619.000000;4.328791
1618.000000;3.950938
1617.000000;3.957875
1616.000000;4.084854
1615.000000;4.208636
1614.000000;3.882492
1613.000000;3.697592
1612.000000;3.706063
1611.000000;3.677777
1610.000000;3.683391
1609.000000;3.803217
1608.000000;4.017780
1607.000000;3.908359
1606.000000;3.543652
1605.000000;3.399227
1604.000000;3.406283
1603.000000;3.488566
1602.000000;3.548621
1601.000000;3.836526
1600.000000;3.830944
1599.000000;3.463441
1598.000000;3.420107
1597.000000;3.513727
1596.000000;3.574806
1595.000000;3.620481
1594.000000;3.702405
1593.000000;3.673732
1592.000000;3.672349
1591.000000;3.857985
1590.000000;3.902928
1589.000000;3.624742
1588.000000;3.668774
1587.000000;4.108533
1586.000000;3.838427
1585.000000;3.756581
1584.000000;4.006827
1583.000000;4.317887
1582.000000;3.731917
1581.000000;3.706406
1580.000000;4.042148
1579.000000;4.362521
1578.000000;4.112170
1577.000000;4.053258
1576.000000;3.902926
1575.000000;4.175675
1574.000000;4.467936
1573.000000;4.224864
1572.000000;4.536528
1571.000000;4.142082
1570.000000;3.869421
1569.000000;3.823354
1568.000000;3.837302
1567.000000;4.027525
1566.000000;3.641686
1565.000000;3.419629
1564.000000;3.419824
1563.000000;3.499719
1562.000000;3.527573
1561.000000;3.346898
1560.000000;3.336888
1559.000000;3.347361
1558.000000;3.314714
1557.000000;3.314772
1556.000000;3.385452
1555.000000;3.539975
1554.000000;3.587520
1553.000000;3.464106
1552.000000;3.463495
1551.000000;3.821892
1550.000000;4.751702
1549.000000;4.156216
1548.000000;3.687449
1547.000000;3.384689
1546.000000;3.243980
1545.000000;3.162502
1544.000000;3.130611
1543.000000;3.188184
1542.000000;3.342019
1541.000000;3.341990
1540.000000;3.321387
1539.000000;3.422137
1538.000000;3.574280
1537.000000;3.591572
1536.000000;3.467588
1535.000000;3.407266
1534.000000;3.434288
1533.000000;3.427578
1532.000000;3.375908
1531.000000;3.367804
1530.000000;3.453108
1529.000000;3.748107
1528.000000;4.391669
1527.000000;3.847132
1526.000000;3.700735
1525.000000;3.978093
1524.000000;3.917027
1523.000000;3.518772
1522.000000;3.583085
1521.000000;3.620560
1520.000000;3.716330
1519.000000;3.719248
1518.000000;3.537100
1517.000000;3.461381
1516.000000;3.915163
1515.000000;3.929599
1514.000000;3.732814
1513.000000;3.584435
1512.000000;3.373235
1511.000000;3.395455
1510.000000;3.719684
1509.000000;3.556199
1508.000000;3.414002
1507.000000;3.387084
1506.000000;3.395010
1505.000000;3.408611
1504.000000;3.419191
1503.000000;3.455555
1502.000000;3.475095
1501.000000;3.565564
1500.000000;3.976263
1499.000000;3.928830
1498.000000;3.721478
1497.000000;3.932613
1496.000000;3.858145
1495.000000;3.650104
1494.000000;3.484226
1493.000000;3.585174
1492.000000;3.738730
1491.000000;3.296706
1490.000000;3.293203
1489.000000;3.597827
1488.000000;3.826668
1487.000000;3.927420
1486.000000;3.856672
1485.000000;3.566492
1484.000000;3.346216
1483.000000;3.299258
1482.000000;3.453449
1481.000000;3.690497
1480.000000;3.622013
1479.000000;3.347324
1478.000000;3.196446
1477.000000;3.160230
1476.000000;3.158700
1475.000000;3.272019
1474.000000;3.531836
1473.000000;3.583530
1472.000000;3.636371
1471.000000;3.745152
1470.000000;3.707447
1469.000000;3.700952
1468.000000;3.919142
1467.000000;3.840966
1466.000000;3.545044
1465.000000;3.529512
1464.000000;3.584566
1463.000000;3.561197
1462.000000;3.440685
1461.000000;3.367213
1460.000000;3.356290
1459.000000;3.343673
1458.000000;3.401711
1457.000000;3.511836
1456.000000;3.496696
1455.000000;3.393948
1454.000000;3.333787
1453.000000;3.366904
1452.000000;3.366038
1451.000000;3.383778
1450.000000;3.453137
1449.000000;3.543327
1448.000000;3.923348
1447.000000;3.691489
1446.000000;3.582901
1445.000000;3.721679
1444.000000;3.753760
1443.000000;3.595801
1442.000000;3.533549
1441.000000;3.381649
1440.000000;3.238321
1439.000000;3.144927
1438.000000;3.071461
1437.000000;3.090872
1436.000000;3.262087
1435.000000;3.564217
1434.000000;3.902030
1433.000000;3.962020
1432.000000;4.036287
1431.000000;3.726798
1430.000000;3.522515
1429.000000;3.499612
1428.000000;3.556253
1427.000000;3.592274
1426.000000;3.607184
1425.000000;3.746529
1424.000000;3.622775
1423.000000;3.379859
1422.000000;3.301731
1421.000000;3.289672
1420.000000;3.172754
1419.000000;3.063212
1418.000000;3.074640
1417.000000;3.145684
1416.000000;3.239405
1415.000000;3.441753
1414.000000;3.524022
1413.000000;3.322648
1412.000000;3.270711
1411.000000;3.279993
1410.000000;3.261012
1409.000000;3.245801
1408.000000;3.268506
1407.000000;3.267074
1406.000000;3.328629
1405.000000;3.623426
1404.000000;4.345220
1403.000000;3.923983
1402.000000;3.529929
1401.000000;3.340462
1400.000000;3.365637
1399.000000;3.563372
1398.000000;3.609191
1397.000000;3.403143
1396.000000;3.331208
1395.000000;3.442151
1394.000000;3.688954
1393.000000;4.082847
1392.000000;3.722589
1391.000000;3.737290
1390.000000;3.944776
1389.000000;3.544093
1388.000000;3.434619
1387.000000;3.579554
1386.000000;3.808186
1385.000000;3.727472
1384.000000;3.566057
1383.000000;3.615500
1382.000000;3.610455
1381.000000;3.485601
1380.000000;3.503629
1379.000000;3.610226
1378.000000;3.720816
1377.000000;3.882041
1376.000000;3.700047
1375.000000;3.614966
1374.000000;3.455830
1373.000000;3.329068
1372.000000;3.330509
1371.000000;3.332406
1370.000000;3.431405
1369.000000;3.877028
1368.000000;3.780829
1367.000000;3.386980
1366.000000;3.229638
1365.000000;3.188634
1364.000000;3.309999
1363.000000;3.569010
1362.000000;3.668093
1361.000000;3.659953
1360.000000;3.858666
1359.000000;3.674292
1358.000000;3.419603
1357.000000;3.420567
1356.000000;3.578674
1355.000000;3.641729
1354.000000;3.515721
1353.000000;3.495249
1352.000000;3.685785
1351.000000;3.908876
1350.000000;3.672322
1349.000000;3.394702
1348.000000;3.252775
1347.000000;3.195783
1346.000000;3.158081
1345.000000;3.161407
1344.000000;3.273811
1343.000000;3.508576
1342.000000;3.869301
1341.000000;4.152374
1340.000000;3.872573
1339.000000;3.499680
1338.000000;3.428608
1337.000000;3.604640
1336.000000;3.505971
1335.000000;3.295113
1334.000000;3.290581
1333.000000;3.354291
1332.000000;3.461807
1331.000000;3.778195
1330.000000;4.339576
1329.000000;4.900680
1328.000000;4.085450
1327.000000;3.744429
1326.000000;3.510871
1325.000000;3.341456
1324.000000;3.372599
1323.000000;3.656556
1322.000000;4.195732
1321.000000;3.865869
1320.000000;3.662917
1319.000000;3.542508
1318.000000;3.485568
1317.000000;3.568684
1316.000000;3.821155
1315.000000;4.164362
1314.000000;3.911694
1313.000000;3.554393
1312.000000;3.570477
1311.000000;3.724514
1310.000000;3.857669
1309.000000;3.679600
1308.000000;3.416569
1307.000000;3.313793
1306.000000;3.374730
1305.000000;3.601357
1304.000000;3.790419
1303.000000;3.543055
1302.000000;3.318494
1301.000000;3.291974
1300.000000;3.484774
1299.000000;3.838992
1298.000000;3.878446
1297.000000;3.570944
1296.000000;3.496073
1295.000000;3.501582
1294.000000;3.439329
1293.000000;3.546333
1292.000000;4.009972
1291.000000;3.669490
1290.000000;3.534872
1289.000000;3.567851
1288.000000;3.631886
1287.000000;3.530318
1286.000000;3.461179
1285.000000;3.455978
1284.000000;3.304264
1283.000000;3.222058
1282.000000;3.319275
1281.000000;3.841625
1280.000000;4.087269
1279.000000;3.571546
1278.000000;3.629503
1277.000000;3.952518
1276.000000;4.038362
1275.000000;4.332704
1274.000000;3.756671
1273.000000;3.418821
1272.000000;3.492370
1271.000000;3.650146
1270.000000;3.642067
1269.000000;3.649698
1268.000000;3.771955
1267.000000;3.661988
1266.000000;3.442273
1265.000000;3.271349
1264.000000;3.208054
1263.000000;3.235223
1262.000000;3.330107
1261.000000;3.413340
1260.000000;3.591519
1259.000000;3.806469
1258.000000;3.498689
1257.000000;3.531953
1256.000000;3.948873
1255.000000;3.738660
1254.000000;3.413422
1253.000000;3.416455
1252.000000;3.607035
1251.000000;4.129045
1250.000000;4.353226
1249.000000;4.332868
1248.000000;4.201940
1247.000000;3.874475
1246.000000;3.542091
1245.000000;3.361815
1244.000000;3.386622
1243.000000;3.584793
1242.000000;4.053634
1241.000000;3.939112
1240.000000;3.542985
1239.000000;3.407915
1238.000000;3.381137
1237.000000;3.360357
1236.000000;3.280390
1235.000000;3.167658
1234.000000;3.146204
1233.000000;3.267176
1232.000000;3.497939
1231.000000;3.760548
1230.000000;4.248365
1229.000000;4.395597
1228.000000;3.913727
1227.000000;3.691900
1226.000000;3.616167
1225.000000;3.489456
1224.000000;3.409517
1223.000000;3.481877
1222.000000;3.657293
1221.000000;3.842744
1220.000000;3.581772
1219.000000;3.417429
1218.000000;3.496391
1217.000000;3.735245
1216.000000;4.303084
1215.000000;4.395509
1214.000000;3.823793
1213.000000;3.365793
1212.000000;3.157503
1211.000000;3.152518
1210.000000;3.304725
1209.000000;3.626486
1208.000000;4.175348
1207.000000;3.641642
1206.000000;3.470293
1205.000000;3.685992
1204.000000;4.202651
1203.000000;3.831014
1202.000000;3.748560
1201.000000;3.519215
1200.000000;3.339844
