Criado como novo conjunto de dados;"e2410_daniel_v2.spp","3421.7 Secs"
cm-1;Abs
10000.000000;0.132043
9999.000000;0.131741
9998.000000;0.126881
9997.000000;0.124826
9996.000000;0.128762
9995.000000;0.130705
9994.000000;0.126458
9993.000000;0.121982
9992.000000;0.123961
9991.000000;0.128037
9990.000000;0.126405
9989.000000;0.121031
9988.000000;0.120265
9987.000000;0.124615
9986.000000;0.125948
9985.000000;0.121292
9984.000000;0.118013
9983.000000;0.121029
9982.000000;0.124550
9981.000000;0.121733
9980.000000;0.116577
9979.000000;0.116991
9978.000000;0.121498
9977.000000;0.121680
9976.000000;0.116506
9975.000000;0.114101
9974.000000;0.117778
9973.000000;0.120583
9972.000000;0.116942
9971.000000;0.112290
9970.000000;0.113544
9969.000000;0.117482
9968.000000;0.116242
9967.000000;0.110924
9966.000000;0.109671
9965.000000;0.113755
9964.000000;0.115411
9963.000000;0.110972
9962.000000;0.107306
9961.000000;0.109960
9960.000000;0.113917
9959.000000;0.111896
9958.000000;0.106854
9957.000000;0.106745
9956.000000;0.111038
9955.000000;0.111645
9954.000000;0.106728
9953.000000;0.103855
9952.000000;0.106917
9951.000000;0.109695
9950.000000;0.106405
9949.000000;0.101893
9948.000000;0.103238
9947.000000;0.107768
9946.000000;0.107341
9945.000000;0.102108
9944.000000;0.100176
9943.000000;0.103739
9942.000000;0.105564
9941.000000;0.101372
9940.000000;0.097392
9939.000000;0.099566
9938.000000;0.103551
9937.000000;0.101879
9936.000000;0.096793
9935.000000;0.096299
9934.000000;0.100553
9933.000000;0.101582
9932.000000;0.096785
9931.000000;0.093477
9930.000000;0.096312
9929.000000;0.099597
9928.000000;0.096869
9927.000000;0.092073
9926.000000;0.092602
9925.000000;0.096795
9924.000000;0.096693
9923.000000;0.091675
9922.000000;0.089573
9921.000000;0.093200
9920.000000;0.095660
9919.000000;0.091883
9918.000000;0.087408
9917.000000;0.088807
9916.000000;0.092742
9915.000000;0.091627
9914.000000;0.086678
9913.000000;0.085705
9912.000000;0.089735
9911.000000;0.091249
9910.000000;0.086867
9909.000000;0.083208
9908.000000;0.085421
9907.000000;0.088665
9906.000000;0.086350
9905.000000;0.081628
9904.000000;0.081882
9903.000000;0.086121
9902.000000;0.086456
9901.000000;0.081474
9900.000000;0.078722
9899.000000;0.081824
9898.000000;0.084613
9897.000000;0.081534
9896.000000;0.077277
9895.000000;0.078511
9894.000000;0.082551
9893.000000;0.081799
9892.000000;0.076791
9891.000000;0.075320
9890.000000;0.079144
9889.000000;0.081054
9888.000000;0.077011
9887.000000;0.073148
9886.000000;0.075135
9885.000000;0.078738
9884.000000;0.076938
9883.000000;0.072039
9882.000000;0.071604
9881.000000;0.075559
9880.000000;0.076293
9879.000000;0.071643
9878.000000;0.068740
9877.000000;0.071814
9876.000000;0.075189
9875.000000;0.072696
9874.000000;0.068202
9873.000000;0.068696
9872.000000;0.072468
9871.000000;0.072011
9870.000000;0.066981
9869.000000;0.064897
9868.000000;0.068265
9867.000000;0.070446
9866.000000;0.066848
9865.000000;0.062902
9864.000000;0.064617
9863.000000;0.068500
9862.000000;0.067360
9861.000000;0.062650
9860.000000;0.061887
9859.000000;0.065795
9858.000000;0.067075
9857.000000;0.062777
9856.000000;0.059457
9855.000000;0.061874
9854.000000;0.065065
9853.000000;0.062657
9852.000000;0.057899
9851.000000;0.057970
9850.000000;0.061830
9849.000000;0.061944
9848.000000;0.057173
9847.000000;0.054799
9846.000000;0.058036
9845.000000;0.060708
9844.000000;0.057552
9843.000000;0.053292
9842.000000;0.054369
9841.000000;0.058137
9840.000000;0.057357
9839.000000;0.052656
9838.000000;0.051423
9837.000000;0.055151
9836.000000;0.056930
9835.000000;0.053108
9834.000000;0.049645
9833.000000;0.051757
9832.000000;0.055191
9831.000000;0.053333
9830.000000;0.048622
9829.000000;0.048274
9828.000000;0.051996
9827.000000;0.052479
9826.000000;0.047888
9825.000000;0.045121
9824.000000;0.047996
9823.000000;0.050920
9822.000000;0.048219
9821.000000;0.043937
9820.000000;0.044692
9819.000000;0.048477
9818.000000;0.047997
9817.000000;0.043190
9816.000000;0.041384
9815.000000;0.044732
9814.000000;0.046638
9813.000000;0.042885
9812.000000;0.039008
9811.000000;0.040721
9810.000000;0.044383
9809.000000;0.043048
9808.000000;0.038420
9807.000000;0.037835
9806.000000;0.041721
9805.000000;0.042859
9804.000000;0.038566
9803.000000;0.035388
9802.000000;0.037863
9801.000000;0.041024
9800.000000;0.038751
9799.000000;0.034296
9798.000000;0.034476
9797.000000;0.038113
9796.000000;0.038050
9795.000000;0.033496
9794.000000;0.031488
9793.000000;0.034787
9792.000000;0.037205
9791.000000;0.033895
9790.000000;0.029745
9789.000000;0.030906
9788.000000;0.034574
9787.000000;0.033740
9786.000000;0.029202
9785.000000;0.028072
9784.000000;0.031527
9783.000000;0.032832
9782.000000;0.028802
9781.000000;0.025467
9780.000000;0.027688
9779.000000;0.031022
9778.000000;0.029056
9777.000000;0.024430
9776.000000;0.024244
9775.000000;0.028072
9774.000000;0.028698
9773.000000;0.024377
9772.000000;0.021815
9771.000000;0.024600
9770.000000;0.027289
9769.000000;0.024585
9768.000000;0.020574
9767.000000;0.021562
9766.000000;0.025384
9765.000000;0.024950
9764.000000;0.020334
9763.000000;0.018609
9762.000000;0.021753
9761.000000;0.023443
9760.000000;0.019806
9759.000000;0.016215
9758.000000;0.017952
9757.000000;0.021359
9756.000000;0.019925
9755.000000;0.015506
9754.000000;0.015055
9753.000000;0.018767
9752.000000;0.019724
9751.000000;0.015598
9750.000000;0.012699
9749.000000;0.015111
9748.000000;0.017927
9747.000000;0.015498
9746.000000;0.011227
9745.000000;0.011579
9744.000000;0.015148
9743.000000;0.014994
9742.000000;0.010534
9741.000000;0.008614
9740.000000;0.011785
9739.000000;0.014054
9738.000000;0.010883
9737.000000;0.007012
9736.000000;0.008197
9735.000000;0.011617
9734.000000;0.010666
9733.000000;0.006354
9732.000000;0.005490
9731.000000;0.008959
9730.000000;0.010187
9729.000000;0.006274
9728.000000;0.003157
9727.000000;0.005405
9726.000000;0.008605
9725.000000;0.006676
9724.000000;0.002324
9723.000000;0.002310
9722.000000;0.006006
9721.000000;0.006440
9720.000000;0.002144
9719.000000;-0.000349
9718.000000;0.002226
9717.000000;0.004515
9716.000000;0.001607
9715.000000;-0.002381
9714.000000;-0.001508
9713.000000;0.001958
9712.000000;0.001352
9711.000000;-0.002896
9710.000000;-0.003993
9709.000000;-0.000453
9708.000000;0.001308
9707.000000;-0.002313
9706.000000;-0.005816
9705.000000;-0.004105
9704.000000;-0.000935
9703.000000;-0.002630
9702.000000;-0.007175
9701.000000;-0.007716
9700.000000;-0.004148
9699.000000;-0.003231
9698.000000;-0.007131
9697.000000;-0.009708
9696.000000;-0.007177
9695.000000;-0.004460
9694.000000;-0.006963
9693.000000;-0.011160
9692.000000;-0.010678
9691.000000;-0.006973
9690.000000;-0.006918
9689.000000;-0.011137
9688.000000;-0.013031
9687.000000;-0.010183
9686.000000;-0.008301
9685.000000;-0.011483
9684.000000;-0.014978
9683.000000;-0.013455
9682.000000;-0.010019
9681.000000;-0.011139
9680.000000;-0.015549
9679.000000;-0.016470
9678.000000;-0.013164
9677.000000;-0.012112
9676.000000;-0.015989
9675.000000;-0.018920
9674.000000;-0.016622
9673.000000;-0.013568
9672.000000;-0.015563
9671.000000;-0.019756
9670.000000;-0.019659
9669.000000;-0.016120
9668.000000;-0.015928
9667.000000;-0.020257
9666.000000;-0.022608
9665.000000;-0.019921
9664.000000;-0.017535
9663.000000;-0.020185
9662.000000;-0.023840
9661.000000;-0.022848
9660.000000;-0.019495
9659.000000;-0.020165
9658.000000;-0.024321
9657.000000;-0.025466
9656.000000;-0.022305
9655.000000;-0.020914
9654.000000;-0.024442
9653.000000;-0.027490
9652.000000;-0.025424
9651.000000;-0.022183
9650.000000;-0.023868
9649.000000;-0.028329
9648.000000;-0.028894
9647.000000;-0.025564
9646.000000;-0.024852
9645.000000;-0.028669
9644.000000;-0.031034
9643.000000;-0.028468
9642.000000;-0.025837
9641.000000;-0.028235
9640.000000;-0.032147
9639.000000;-0.031605
9638.000000;-0.028259
9637.000000;-0.028621
9636.000000;-0.032870
9635.000000;-0.034512
9634.000000;-0.031546
9633.000000;-0.029845
9632.000000;-0.033272
9631.000000;-0.036860
9630.000000;-0.035322
9629.000000;-0.031799
9628.000000;-0.032680
9627.000000;-0.036732
9626.000000;-0.037434
9625.000000;-0.034198
9624.000000;-0.033308
9623.000000;-0.037176
9622.000000;-0.040017
9621.000000;-0.037777
9620.000000;-0.034857
9619.000000;-0.036770
9618.000000;-0.040666
9617.000000;-0.040429
9616.000000;-0.037114
9615.000000;-0.037217
9614.000000;-0.041522
9613.000000;-0.043619
9612.000000;-0.040829
9611.000000;-0.038606
9610.000000;-0.041398
9609.000000;-0.044964
9608.000000;-0.043777
9607.000000;-0.040309
9606.000000;-0.040954
9605.000000;-0.045096
9604.000000;-0.046266
9603.000000;-0.043203
9602.000000;-0.041856
9601.000000;-0.045242
9600.000000;-0.048109
9599.000000;-0.046101
9598.000000;-0.043140
9597.000000;-0.044974
9596.000000;-0.049245
9595.000000;-0.049500
9594.000000;-0.046014
9593.000000;-0.045302
9592.000000;-0.049124
9591.000000;-0.051529
9590.000000;-0.049181
9589.000000;-0.046842
9588.000000;-0.049288
9587.000000;-0.052969
9586.000000;-0.052231
9585.000000;-0.048922
9584.000000;-0.049356
9583.000000;-0.053490
9582.000000;-0.054969
9581.000000;-0.051965
9580.000000;-0.050189
9579.000000;-0.053264
9578.000000;-0.056407
9577.000000;-0.054786
9576.000000;-0.051649
9575.000000;-0.052979
9574.000000;-0.057213
9573.000000;-0.057960
9572.000000;-0.054822
9571.000000;-0.053947
9570.000000;-0.057534
9569.000000;-0.060009
9568.000000;-0.057718
9567.000000;-0.055094
9566.000000;-0.057294
9565.000000;-0.061250
9564.000000;-0.060982
9563.000000;-0.057644
9562.000000;-0.057585
9561.000000;-0.061559
9560.000000;-0.063437
9559.000000;-0.060741
9558.000000;-0.058712
9557.000000;-0.061444
9556.000000;-0.064769
9555.000000;-0.063552
9554.000000;-0.060373
9553.000000;-0.061269
9552.000000;-0.065337
9551.000000;-0.066284
9550.000000;-0.063126
9549.000000;-0.061782
9548.000000;-0.065104
9547.000000;-0.067932
9546.000000;-0.066069
9545.000000;-0.063280
9544.000000;-0.064949
9543.000000;-0.068720
9542.000000;-0.068610
9541.000000;-0.065197
9540.000000;-0.064746
9539.000000;-0.068619
9538.000000;-0.070905
9537.000000;-0.068560
9536.000000;-0.066390
9535.000000;-0.068938
9534.000000;-0.072596
9533.000000;-0.071906
9532.000000;-0.068748
9531.000000;-0.069173
9530.000000;-0.072997
9529.000000;-0.074141
9528.000000;-0.071061
9527.000000;-0.069409
9526.000000;-0.072576
9525.000000;-0.075788
9524.000000;-0.074368
9523.000000;-0.071488
9522.000000;-0.072836
9521.000000;-0.076812
9520.000000;-0.077336
9519.000000;-0.074189
9518.000000;-0.073349
9517.000000;-0.076829
9516.000000;-0.079173
9515.000000;-0.076901
9514.000000;-0.074333
9513.000000;-0.076380
9512.000000;-0.080033
9511.000000;-0.079639
9510.000000;-0.076471
9509.000000;-0.076582
9508.000000;-0.080429
9507.000000;-0.082032
9506.000000;-0.079231
9505.000000;-0.077310
9504.000000;-0.080134
9503.000000;-0.083434
9502.000000;-0.082211
9501.000000;-0.079088
9500.000000;-0.079960
9499.000000;-0.083897
9498.000000;-0.084807
9497.000000;-0.081812
9496.000000;-0.080651
9495.000000;-0.083964
9494.000000;-0.086721
9493.000000;-0.084974
9492.000000;-0.082438
9491.000000;-0.084197
9490.000000;-0.087848
9489.000000;-0.087692
9488.000000;-0.084424
9487.000000;-0.084054
9486.000000;-0.087727
9485.000000;-0.089720
9484.000000;-0.087260
9483.000000;-0.085114
9482.000000;-0.087574
9481.000000;-0.091028
9480.000000;-0.090236
9479.000000;-0.087131
9478.000000;-0.087591
9477.000000;-0.091370
9476.000000;-0.092573
9475.000000;-0.089754
9474.000000;-0.088307
9473.000000;-0.091301
9472.000000;-0.094087
9471.000000;-0.092365
9470.000000;-0.089455
9469.000000;-0.090850
9468.000000;-0.094789
9467.000000;-0.095303
9466.000000;-0.092256
9465.000000;-0.091477
9464.000000;-0.094835
9463.000000;-0.097034
9462.000000;-0.094853
9461.000000;-0.092560
9460.000000;-0.094727
9459.000000;-0.098250
9458.000000;-0.097713
9457.000000;-0.094552
9456.000000;-0.094698
9455.000000;-0.098478
9454.000000;-0.100051
9453.000000;-0.097364
9452.000000;-0.095502
9451.000000;-0.098100
9450.000000;-0.101092
9449.000000;-0.099868
9448.000000;-0.097043
9447.000000;-0.098047
9446.000000;-0.101716
9445.000000;-0.102305
9444.000000;-0.099312
9443.000000;-0.098366
9442.000000;-0.101710
9441.000000;-0.104275
9440.000000;-0.102370
9439.000000;-0.099788
9438.000000;-0.101431
9437.000000;-0.104871
9436.000000;-0.104647
9435.000000;-0.101576
9434.000000;-0.101442
9433.000000;-0.105142
9432.000000;-0.107073
9431.000000;-0.104674
9430.000000;-0.102604
9429.000000;-0.104887
9428.000000;-0.107999
9427.000000;-0.107076
9426.000000;-0.104194
9425.000000;-0.104921
9424.000000;-0.108725
9423.000000;-0.109831
9422.000000;-0.107022
9421.000000;-0.105617
9420.000000;-0.108479
9419.000000;-0.111051
9418.000000;-0.109297
9417.000000;-0.106546
9416.000000;-0.107992
9415.000000;-0.111757
9414.000000;-0.112124
9413.000000;-0.109149
9412.000000;-0.108501
9411.000000;-0.111804
9410.000000;-0.113856
9409.000000;-0.111669
9408.000000;-0.109503
9407.000000;-0.111715
9406.000000;-0.115169
9405.000000;-0.114617
9404.000000;-0.111516
9403.000000;-0.111593
9402.000000;-0.115102
9401.000000;-0.116458
9400.000000;-0.113834
9399.000000;-0.112204
9398.000000;-0.114920
9397.000000;-0.117881
9396.000000;-0.116630
9395.000000;-0.113828
9394.000000;-0.114786
9393.000000;-0.118331
9392.000000;-0.118887
9391.000000;-0.116038
9390.000000;-0.115270
9389.000000;-0.118648
9388.000000;-0.121167
9387.000000;-0.119307
9386.000000;-0.116877
9385.000000;-0.118655
9384.000000;-0.122166
9383.000000;-0.121995
9382.000000;-0.118910
9381.000000;-0.118503
9380.000000;-0.121664
9379.000000;-0.123110
9378.000000;-0.120580
9377.000000;-0.118695
9376.000000;-0.121165
9375.000000;-0.124294
9374.000000;-0.123309
9373.000000;-0.120364
9372.000000;-0.120965
9371.000000;-0.124583
9370.000000;-0.125628
9369.000000;-0.122993
9368.000000;-0.121818
9367.000000;-0.124718
9366.000000;-0.127218
9365.000000;-0.125523
9364.000000;-0.122943
9363.000000;-0.124371
9362.000000;-0.127829
9361.000000;-0.127887
9360.000000;-0.124872
9359.000000;-0.124359
9358.000000;-0.127735
9357.000000;-0.129797
9356.000000;-0.127648
9355.000000;-0.125447
9354.000000;-0.127366
9353.000000;-0.130417
9352.000000;-0.129714
9351.000000;-0.126799
9350.000000;-0.127074
9349.000000;-0.130552
9348.000000;-0.131850
9347.000000;-0.129412
9346.000000;-0.128099
9345.000000;-0.130908
9344.000000;-0.133689
9343.000000;-0.132255
9342.000000;-0.129409
9341.000000;-0.130297
9340.000000;-0.133660
9339.000000;-0.134117
9338.000000;-0.131364
9337.000000;-0.130659
9336.000000;-0.133819
9335.000000;-0.136005
9334.000000;-0.134041
9333.000000;-0.131727
9332.000000;-0.133467
9331.000000;-0.136647
9330.000000;-0.136182
9329.000000;-0.133174
9328.000000;-0.133140
9327.000000;-0.136668
9326.000000;-0.138387
9325.000000;-0.136089
9324.000000;-0.134287
9323.000000;-0.136529
9322.000000;-0.139288
9321.000000;-0.138168
9320.000000;-0.135396
9319.000000;-0.136115
9318.000000;-0.139528
9317.000000;-0.140235
9316.000000;-0.137434
9315.000000;-0.136288
9314.000000;-0.139219
9313.000000;-0.141748
9312.000000;-0.140217
9311.000000;-0.137910
9310.000000;-0.139495
9309.000000;-0.142949
9308.000000;-0.143036
9307.000000;-0.140138
9306.000000;-0.139572
9305.000000;-0.142551
9304.000000;-0.144134
9303.000000;-0.141821
9302.000000;-0.139823
9301.000000;-0.141993
9300.000000;-0.145135
9299.000000;-0.144449
9298.000000;-0.141564
9297.000000;-0.141774
9296.000000;-0.145014
9295.000000;-0.146065
9294.000000;-0.143535
9293.000000;-0.142174
9292.000000;-0.144794
9291.000000;-0.147362
9290.000000;-0.145970
9289.000000;-0.143453
9288.000000;-0.144659
9287.000000;-0.148119
9286.000000;-0.148579
9285.000000;-0.145877
9284.000000;-0.145172
9283.000000;-0.148144
9282.000000;-0.150076
9281.000000;-0.147979
9280.000000;-0.145637
9279.000000;-0.147316
9278.000000;-0.150473
9277.000000;-0.150199
9276.000000;-0.147526
9275.000000;-0.147629
9274.000000;-0.150924
9273.000000;-0.152302
9272.000000;-0.149850
9271.000000;-0.148076
9270.000000;-0.150348
9269.000000;-0.153127
9268.000000;-0.152119
9267.000000;-0.149508
9266.000000;-0.150234
9265.000000;-0.153473
9264.000000;-0.154069
9263.000000;-0.151385
9262.000000;-0.150437
9261.000000;-0.153398
9260.000000;-0.155805
9259.000000;-0.154181
9258.000000;-0.151833
9257.000000;-0.153253
9256.000000;-0.156352
9255.000000;-0.156113
9254.000000;-0.153173
9253.000000;-0.152835
9252.000000;-0.156092
9251.000000;-0.157897
9250.000000;-0.155772
9249.000000;-0.153881
9248.000000;-0.155932
9247.000000;-0.158758
9246.000000;-0.157823
9245.000000;-0.154927
9244.000000;-0.155237
9243.000000;-0.158502
9242.000000;-0.159530
9241.000000;-0.157055
9240.000000;-0.155790
9239.000000;-0.158381
9238.000000;-0.160804
9237.000000;-0.159310
9236.000000;-0.156775
9235.000000;-0.157895
9234.000000;-0.161147
9233.000000;-0.161455
9232.000000;-0.158810
9231.000000;-0.158261
9230.000000;-0.161294
9229.000000;-0.163229
9228.000000;-0.161238
9227.000000;-0.159067
9226.000000;-0.160738
9225.000000;-0.163657
9224.000000;-0.163147
9223.000000;-0.160404
9222.000000;-0.160498
9221.000000;-0.163686
9220.000000;-0.164932
9219.000000;-0.162484
9218.000000;-0.160799
9217.000000;-0.163039
9216.000000;-0.165664
9215.000000;-0.164595
9214.000000;-0.162111
9213.000000;-0.162969
9212.000000;-0.166176
9211.000000;-0.166667
9210.000000;-0.163955
9209.000000;-0.163004
9208.000000;-0.165840
9207.000000;-0.168053
9206.000000;-0.166358
9205.000000;-0.164071
9204.000000;-0.165505
9203.000000;-0.168551
9202.000000;-0.168371
9201.000000;-0.165635
9200.000000;-0.165396
9199.000000;-0.168465
9198.000000;-0.170006
9197.000000;-0.167855
9196.000000;-0.166165
9195.000000;-0.168368
9194.000000;-0.171205
9193.000000;-0.170299
9192.000000;-0.167518
9191.000000;-0.167864
9190.000000;-0.170968
9189.000000;-0.171774
9188.000000;-0.169177
9187.000000;-0.167852
9186.000000;-0.170337
9185.000000;-0.172683
9184.000000;-0.171278
9183.000000;-0.168925
9182.000000;-0.170064
9181.000000;-0.173097
9180.000000;-0.173165
9179.000000;-0.170445
9178.000000;-0.169913
9177.000000;-0.172899
9176.000000;-0.174741
9175.000000;-0.172740
9174.000000;-0.170645
9173.000000;-0.172342
9172.000000;-0.175214
9171.000000;-0.174730
9170.000000;-0.172156
9169.000000;-0.172394
9168.000000;-0.175527
9167.000000;-0.176603
9166.000000;-0.174092
9165.000000;-0.172489
9164.000000;-0.174786
9163.000000;-0.177346
9162.000000;-0.176204
9161.000000;-0.173747
9160.000000;-0.174664
9159.000000;-0.177876
9158.000000;-0.178378
9157.000000;-0.175739
9156.000000;-0.174830
9155.000000;-0.177555
9154.000000;-0.179591
9153.000000;-0.177826
9152.000000;-0.175573
9151.000000;-0.176981
9150.000000;-0.179906
9149.000000;-0.179647
9148.000000;-0.176932
9147.000000;-0.176690
9146.000000;-0.179650
9145.000000;-0.181116
9144.000000;-0.179030
9143.000000;-0.177414
9142.000000;-0.179511
9141.000000;-0.182118
9140.000000;-0.181089
9139.000000;-0.178367
9138.000000;-0.178789
9137.000000;-0.181882
9136.000000;-0.182705
9135.000000;-0.180256
9134.000000;-0.179091
9133.000000;-0.181561
9132.000000;-0.183767
9131.000000;-0.182306
9130.000000;-0.180031
9129.000000;-0.181226
9128.000000;-0.184192
9127.000000;-0.184177
9126.000000;-0.181475
9125.000000;-0.180974
9124.000000;-0.183845
9123.000000;-0.185489
9122.000000;-0.183401
9121.000000;-0.181390
9120.000000;-0.183172
9119.000000;-0.186000
9118.000000;-0.185421
9117.000000;-0.182793
9116.000000;-0.182969
9115.000000;-0.185969
9114.000000;-0.186948
9113.000000;-0.184515
9112.000000;-0.183098
9111.000000;-0.185479
9110.000000;-0.187979
9109.000000;-0.186755
9108.000000;-0.184234
9107.000000;-0.184990
9106.000000;-0.187921
9105.000000;-0.188221
9104.000000;-0.185615
9103.000000;-0.184874
9102.000000;-0.187710
9101.000000;-0.189788
9100.000000;-0.188139
9099.000000;-0.186071
9098.000000;-0.187540
9097.000000;-0.190332
9096.000000;-0.189911
9095.000000;-0.187167
9094.000000;-0.186974
9093.000000;-0.189895
9092.000000;-0.191208
9091.000000;-0.188963
9090.000000;-0.187238
9089.000000;-0.189262
9088.000000;-0.191851
9087.000000;-0.190925
9086.000000;-0.188384
9085.000000;-0.188878
9084.000000;-0.191844
9083.000000;-0.192493
9082.000000;-0.190016
9081.000000;-0.188939
9080.000000;-0.191407
9079.000000;-0.193460
9078.000000;-0.191852
9077.000000;-0.189560
9076.000000;-0.190798
9075.000000;-0.193763
9074.000000;-0.193734
9073.000000;-0.191079
9072.000000;-0.190620
9071.000000;-0.193436
9070.000000;-0.194996
9069.000000;-0.192912
9068.000000;-0.190935
9067.000000;-0.192619
9066.000000;-0.195246
9065.000000;-0.194599
9064.000000;-0.192111
9063.000000;-0.192419
9062.000000;-0.195370
9061.000000;-0.196265
9060.000000;-0.193929
9059.000000;-0.192715
9058.000000;-0.195137
9057.000000;-0.197497
9056.000000;-0.196214
9055.000000;-0.193850
9054.000000;-0.194812
9053.000000;-0.197801
9052.000000;-0.198051
9051.000000;-0.195407
9050.000000;-0.194568
9049.000000;-0.197131
9048.000000;-0.198876
9047.000000;-0.197062
9046.000000;-0.195060
9045.000000;-0.196652
9044.000000;-0.199488
9043.000000;-0.199096
9042.000000;-0.196423
9041.000000;-0.196239
9040.000000;-0.199023
9039.000000;-0.200192
9038.000000;-0.197985
9037.000000;-0.196401
9036.000000;-0.198389
9035.000000;-0.200711
9034.000000;-0.199556
9033.000000;-0.197067
9032.000000;-0.197803
9031.000000;-0.200935
9030.000000;-0.201599
9029.000000;-0.199084
9028.000000;-0.197979
9027.000000;-0.200423
9026.000000;-0.202502
9025.000000;-0.201039
9024.000000;-0.198918
9023.000000;-0.200153
9022.000000;-0.202945
9021.000000;-0.202797
9020.000000;-0.200199
9019.000000;-0.199830
9018.000000;-0.202586
9017.000000;-0.204031
9016.000000;-0.201989
9015.000000;-0.200204
9014.000000;-0.202021
9013.000000;-0.204627
9012.000000;-0.203900
9011.000000;-0.201347
9010.000000;-0.201530
9009.000000;-0.204270
9008.000000;-0.204988
9007.000000;-0.202588
9006.000000;-0.201313
9005.000000;-0.203536
9004.000000;-0.205653
9003.000000;-0.204309
9002.000000;-0.202099
9001.000000;-0.203210
9000.000000;-0.206173
8999.000000;-0.206320
8998.000000;-0.203663
8997.000000;-0.202888
8996.000000;-0.205461
8995.000000;-0.207154
8994.000000;-0.205317
8993.000000;-0.203306
8992.000000;-0.204776
8991.000000;-0.207390
8990.000000;-0.206881
8989.000000;-0.204303
8988.000000;-0.204272
8987.000000;-0.207069
8986.000000;-0.208150
8985.000000;-0.205911
8984.000000;-0.204369
8983.000000;-0.206377
8982.000000;-0.208735
8981.000000;-0.207739
8980.000000;-0.205450
8979.000000;-0.206177
8978.000000;-0.209060
8977.000000;-0.209550
8976.000000;-0.207170
8975.000000;-0.206333
8974.000000;-0.208835
8973.000000;-0.210726
8972.000000;-0.209068
8971.000000;-0.206856
8970.000000;-0.207981
8969.000000;-0.210578
8968.000000;-0.210286
8967.000000;-0.207696
8966.000000;-0.207378
8965.000000;-0.210095
8964.000000;-0.211487
8963.000000;-0.209504
8962.000000;-0.207818
8961.000000;-0.209594
8960.000000;-0.212021
8959.000000;-0.211180
8958.000000;-0.208673
8957.000000;-0.208935
8956.000000;-0.211679
8955.000000;-0.212425
8954.000000;-0.210184
8953.000000;-0.209101
8952.000000;-0.211369
8951.000000;-0.213410
8950.000000;-0.212016
8949.000000;-0.209761
8948.000000;-0.210686
8947.000000;-0.213371
8946.000000;-0.213416
8945.000000;-0.210937
8944.000000;-0.210362
8943.000000;-0.212892
8942.000000;-0.214432
8941.000000;-0.212635
8940.000000;-0.210864
8939.000000;-0.212482
8938.000000;-0.215011
8937.000000;-0.214350
8936.000000;-0.211700
8935.000000;-0.211605
8934.000000;-0.214289
8933.000000;-0.215359
8932.000000;-0.213342
8931.000000;-0.212088
8930.000000;-0.214161
8929.000000;-0.216332
8928.000000;-0.215112
8927.000000;-0.212671
8926.000000;-0.213242
8925.000000;-0.215924
8924.000000;-0.216291
8923.000000;-0.213957
8922.000000;-0.213213
8921.000000;-0.215692
8920.000000;-0.217484
8919.000000;-0.215810
8918.000000;-0.213698
8917.000000;-0.214899
8916.000000;-0.217453
8915.000000;-0.217044
8914.000000;-0.214295
8913.000000;-0.213724
8912.000000;-0.216104
8911.000000;-0.217230
8910.000000;-0.215207
8909.000000;-0.213661
8908.000000;-0.215577
8907.000000;-0.218094
8906.000000;-0.217406
8905.000000;-0.215171
8904.000000;-0.215680
8903.000000;-0.218487
8902.000000;-0.219153
8901.000000;-0.216780
8900.000000;-0.215504
8899.000000;-0.217509
8898.000000;-0.219354
8897.000000;-0.217999
8896.000000;-0.215970
8895.000000;-0.217059
8894.000000;-0.219724
8893.000000;-0.219703
8892.000000;-0.217261
8891.000000;-0.216776
8890.000000;-0.219315
8889.000000;-0.220783
8888.000000;-0.218851
8887.000000;-0.216804
8886.000000;-0.217983
8885.000000;-0.220136
8884.000000;-0.219476
8883.000000;-0.217204
8882.000000;-0.217471
8881.000000;-0.220165
8880.000000;-0.220981
8879.000000;-0.218734
8878.000000;-0.217401
8877.000000;-0.219479
8876.000000;-0.221719
8875.000000;-0.220670
8874.000000;-0.218399
8873.000000;-0.218929
8872.000000;-0.221346
8871.000000;-0.221484
8870.000000;-0.219134
8869.000000;-0.218432
8868.000000;-0.220772
8867.000000;-0.222293
8866.000000;-0.220464
8865.000000;-0.218391
8864.000000;-0.219650
8863.000000;-0.222194
8862.000000;-0.221866
8861.000000;-0.219394
8860.000000;-0.219119
8859.000000;-0.221580
8858.000000;-0.222626
8857.000000;-0.220556
8856.000000;-0.218996
8855.000000;-0.220751
8854.000000;-0.222922
8853.000000;-0.221868
8852.000000;-0.219352
8851.000000;-0.219609
8850.000000;-0.222162
8849.000000;-0.222703
8848.000000;-0.220453
8847.000000;-0.219444
8846.000000;-0.221620
8845.000000;-0.223435
8844.000000;-0.221913
8843.000000;-0.219657
8842.000000;-0.220486
8841.000000;-0.222929
8840.000000;-0.222811
8839.000000;-0.220392
8838.000000;-0.219922
8837.000000;-0.222377
8836.000000;-0.223734
8835.000000;-0.221819
8834.000000;-0.219956
8833.000000;-0.221362
8832.000000;-0.223631
8831.000000;-0.222922
8830.000000;-0.220469
8829.000000;-0.220480
8828.000000;-0.222900
8827.000000;-0.223486
8826.000000;-0.221073
8825.000000;-0.219567
8824.000000;-0.221351
8823.000000;-0.223191
8822.000000;-0.221825
8821.000000;-0.219482
8820.000000;-0.220135
8819.000000;-0.222654
8818.000000;-0.222738
8817.000000;-0.220203
8816.000000;-0.219234
8815.000000;-0.221232
8814.000000;-0.222373
8813.000000;-0.220234
8812.000000;-0.218009
8811.000000;-0.219261
8810.000000;-0.221881
8809.000000;-0.221721
8808.000000;-0.219516
8807.000000;-0.219500
8806.000000;-0.222060
8805.000000;-0.222999
8804.000000;-0.220673
8803.000000;-0.218762
8802.000000;-0.220142
8801.000000;-0.222081
8800.000000;-0.221085
8799.000000;-0.218860
8798.000000;-0.219366
8797.000000;-0.221896
8796.000000;-0.222188
8795.000000;-0.219635
8794.000000;-0.218340
8793.000000;-0.220229
8792.000000;-0.221783
8791.000000;-0.220140
8790.000000;-0.217932
8789.000000;-0.218830
8788.000000;-0.221202
8787.000000;-0.220874
8786.000000;-0.218187
8785.000000;-0.217423
8784.000000;-0.219553
8783.000000;-0.220643
8782.000000;-0.218669
8781.000000;-0.216938
8780.000000;-0.218430
8779.000000;-0.220546
8778.000000;-0.219527
8777.000000;-0.216832
8776.000000;-0.216753
8775.000000;-0.219150
8774.000000;-0.219724
8773.000000;-0.217353
8772.000000;-0.215942
8771.000000;-0.217768
8770.000000;-0.219534
8769.000000;-0.218058
8768.000000;-0.215635
8767.000000;-0.216166
8766.000000;-0.218447
8765.000000;-0.218258
8764.000000;-0.215589
8763.000000;-0.214697
8762.000000;-0.216902
8761.000000;-0.218312
8760.000000;-0.216473
8759.000000;-0.214439
8758.000000;-0.215566
8757.000000;-0.217712
8756.000000;-0.216955
8755.000000;-0.214275
8754.000000;-0.213950
8753.000000;-0.216285
8752.000000;-0.217095
8751.000000;-0.214868
8750.000000;-0.213276
8749.000000;-0.214916
8748.000000;-0.216783
8747.000000;-0.215421
8746.000000;-0.212758
8745.000000;-0.212890
8744.000000;-0.215101
8743.000000;-0.215159
8742.000000;-0.212562
8741.000000;-0.211370
8740.000000;-0.213269
8739.000000;-0.214627
8738.000000;-0.212801
8737.000000;-0.210676
8736.000000;-0.211844
8735.000000;-0.214372
8734.000000;-0.214028
8733.000000;-0.211370
8732.000000;-0.210784
8731.000000;-0.213041
8730.000000;-0.214007
8729.000000;-0.211748
8728.000000;-0.209777
8727.000000;-0.211145
8726.000000;-0.213213
8725.000000;-0.212237
8724.000000;-0.209686
8723.000000;-0.209716
8722.000000;-0.212028
8721.000000;-0.212385
8720.000000;-0.209869
8719.000000;-0.208461
8718.000000;-0.210312
8717.000000;-0.212023
8716.000000;-0.210491
8715.000000;-0.208118
8714.000000;-0.208776
8713.000000;-0.211176
8712.000000;-0.211109
8711.000000;-0.208603
8710.000000;-0.207843
8709.000000;-0.210021
8708.000000;-0.211246
8707.000000;-0.209211
8706.000000;-0.207084
8705.000000;-0.208184
8704.000000;-0.210280
8703.000000;-0.209476
8702.000000;-0.206846
8701.000000;-0.206653
8700.000000;-0.209053
8699.000000;-0.209765
8698.000000;-0.207361
8697.000000;-0.205692
8696.000000;-0.207437
8695.000000;-0.209533
8694.000000;-0.208461
8693.000000;-0.206127
8692.000000;-0.206593
8691.000000;-0.209064
8690.000000;-0.209283
8689.000000;-0.206822
8688.000000;-0.205810
8687.000000;-0.207913
8686.000000;-0.209439
8685.000000;-0.207717
8684.000000;-0.205634
8683.000000;-0.206769
8682.000000;-0.209200
8681.000000;-0.208768
8680.000000;-0.206088
8679.000000;-0.205518
8678.000000;-0.207761
8677.000000;-0.208694
8676.000000;-0.206487
8675.000000;-0.204720
8674.000000;-0.206388
8673.000000;-0.208752
8672.000000;-0.208030
8671.000000;-0.205694
8670.000000;-0.205883
8669.000000;-0.208274
8668.000000;-0.208679
8667.000000;-0.206264
8666.000000;-0.205015
8665.000000;-0.206995
8664.000000;-0.208752
8663.000000;-0.207262
8662.000000;-0.205033
8661.000000;-0.205926
8660.000000;-0.208537
8659.000000;-0.208595
8658.000000;-0.206170
8657.000000;-0.205511
8656.000000;-0.207811
8655.000000;-0.209166
8654.000000;-0.207307
8653.000000;-0.205423
8652.000000;-0.206784
8651.000000;-0.209087
8650.000000;-0.208453
8649.000000;-0.206022
8648.000000;-0.206050
8647.000000;-0.208628
8646.000000;-0.209489
8645.000000;-0.207278
8644.000000;-0.205835
8643.000000;-0.207724
8642.000000;-0.209845
8641.000000;-0.208811
8640.000000;-0.206634
8639.000000;-0.207297
8638.000000;-0.209863
8637.000000;-0.210093
8636.000000;-0.207694
8635.000000;-0.206844
8634.000000;-0.209125
8633.000000;-0.210777
8632.000000;-0.209146
8631.000000;-0.207116
8630.000000;-0.208233
8629.000000;-0.210603
8628.000000;-0.210202
8627.000000;-0.207721
8626.000000;-0.207437
8625.000000;-0.209941
8624.000000;-0.211130
8623.000000;-0.209224
8622.000000;-0.207717
8621.000000;-0.209419
8620.000000;-0.211581
8619.000000;-0.210637
8618.000000;-0.208269
8617.000000;-0.208629
8616.000000;-0.211253
8615.000000;-0.211873
8614.000000;-0.209668
8613.000000;-0.208619
8612.000000;-0.210752
8611.000000;-0.212640
8610.000000;-0.211315
8609.000000;-0.209258
8608.000000;-0.210216
8607.000000;-0.212755
8606.000000;-0.212755
8605.000000;-0.210415
8604.000000;-0.209922
8603.000000;-0.212322
8602.000000;-0.213704
8601.000000;-0.211922
8600.000000;-0.210188
8599.000000;-0.211658
8598.000000;-0.213993
8597.000000;-0.213426
8596.000000;-0.211139
8595.000000;-0.211247
8594.000000;-0.213739
8593.000000;-0.214490
8592.000000;-0.212328
8591.000000;-0.211040
8590.000000;-0.212982
8589.000000;-0.215007
8588.000000;-0.213880
8587.000000;-0.211704
8586.000000;-0.212373
8585.000000;-0.214894
8584.000000;-0.215129
8583.000000;-0.212860
8582.000000;-0.212160
8581.000000;-0.214469
8580.000000;-0.216094
8579.000000;-0.214533
8578.000000;-0.212665
8577.000000;-0.213912
8576.000000;-0.216365
8575.000000;-0.216106
8574.000000;-0.213826
8573.000000;-0.213627
8572.000000;-0.216017
8571.000000;-0.217058
8570.000000;-0.215160
8569.000000;-0.213771
8568.000000;-0.215530
8567.000000;-0.217677
8566.000000;-0.216801
8565.000000;-0.214603
8564.000000;-0.215062
8563.000000;-0.217610
8562.000000;-0.218106
8561.000000;-0.215901
8560.000000;-0.214943
8559.000000;-0.217126
8558.000000;-0.219025
8557.000000;-0.217771
8556.000000;-0.215824
8555.000000;-0.216790
8554.000000;-0.219234
8553.000000;-0.219212
8552.000000;-0.216998
8551.000000;-0.216615
8550.000000;-0.218947
8549.000000;-0.220177
8548.000000;-0.218340
8547.000000;-0.216630
8546.000000;-0.218039
8545.000000;-0.220199
8544.000000;-0.219492
8543.000000;-0.217195
8542.000000;-0.217374
8541.000000;-0.219966
8540.000000;-0.220901
8539.000000;-0.219007
8538.000000;-0.217905
8537.000000;-0.219830
8536.000000;-0.221756
8535.000000;-0.220655
8534.000000;-0.218621
8533.000000;-0.219366
8532.000000;-0.221838
8531.000000;-0.222031
8530.000000;-0.219802
8529.000000;-0.219134
8528.000000;-0.221386
8527.000000;-0.222961
8526.000000;-0.221487
8525.000000;-0.219774
8524.000000;-0.221048
8523.000000;-0.223351
8522.000000;-0.222923
8521.000000;-0.220596
8520.000000;-0.220441
8519.000000;-0.222883
8518.000000;-0.223996
8517.000000;-0.222231
8516.000000;-0.220969
8515.000000;-0.222734
8514.000000;-0.224789
8513.000000;-0.223863
8512.000000;-0.221706
8511.000000;-0.222194
8510.000000;-0.224686
8509.000000;-0.225116
8508.000000;-0.222906
8507.000000;-0.221946
8506.000000;-0.224036
8505.000000;-0.225804
8504.000000;-0.224510
8503.000000;-0.222622
8502.000000;-0.223619
8501.000000;-0.225990
8500.000000;-0.225873
8499.000000;-0.223625
8498.000000;-0.223232
8497.000000;-0.225531
8496.000000;-0.226769
8495.000000;-0.225064
8494.000000;-0.223545
8493.000000;-0.225043
8492.000000;-0.227181
8491.000000;-0.226484
8490.000000;-0.224286
8489.000000;-0.224527
8488.000000;-0.227018
8487.000000;-0.227765
8486.000000;-0.225761
8485.000000;-0.224656
8484.000000;-0.226583
8483.000000;-0.228480
8482.000000;-0.227381
8481.000000;-0.225406
8480.000000;-0.226176
8479.000000;-0.228595
8478.000000;-0.228753
8477.000000;-0.226586
8476.000000;-0.225982
8475.000000;-0.228166
8474.000000;-0.229607
8473.000000;-0.228115
8472.000000;-0.226535
8471.000000;-0.227933
8470.000000;-0.230248
8469.000000;-0.229802
8468.000000;-0.227499
8467.000000;-0.227331
8466.000000;-0.229623
8465.000000;-0.230525
8464.000000;-0.228617
8463.000000;-0.227275
8462.000000;-0.228952
8461.000000;-0.230948
8460.000000;-0.230094
8459.000000;-0.228093
8458.000000;-0.228640
8457.000000;-0.231066
8456.000000;-0.231483
8455.000000;-0.229408
8454.000000;-0.228565
8453.000000;-0.230567
8452.000000;-0.232161
8451.000000;-0.230849
8450.000000;-0.229110
8449.000000;-0.230208
8448.000000;-0.232536
8447.000000;-0.232377
8446.000000;-0.230194
8445.000000;-0.229869
8444.000000;-0.232113
8443.000000;-0.233258
8442.000000;-0.231565
8441.000000;-0.230142
8440.000000;-0.231673
8439.000000;-0.233761
8438.000000;-0.233043
8437.000000;-0.230860
8436.000000;-0.231013
8435.000000;-0.233288
8434.000000;-0.233865
8433.000000;-0.231868
8432.000000;-0.230828
8431.000000;-0.232689
8430.000000;-0.234439
8429.000000;-0.233300
8428.000000;-0.231416
8427.000000;-0.232232
8426.000000;-0.234570
8425.000000;-0.234665
8424.000000;-0.232568
8423.000000;-0.232071
8422.000000;-0.234261
8421.000000;-0.235643
8420.000000;-0.234142
8419.000000;-0.232564
8418.000000;-0.233849
8417.000000;-0.235995
8416.000000;-0.235526
8415.000000;-0.233406
8414.000000;-0.233432
8413.000000;-0.235761
8412.000000;-0.236628
8411.000000;-0.234755
8410.000000;-0.233474
8409.000000;-0.235110
8408.000000;-0.237013
8407.000000;-0.236177
8406.000000;-0.234316
8405.000000;-0.234932
8404.000000;-0.237256
8403.000000;-0.237551
8402.000000;-0.235495
8401.000000;-0.234762
8400.000000;-0.236807
8399.000000;-0.238343
8398.000000;-0.236949
8397.000000;-0.235113
8396.000000;-0.236048
8395.000000;-0.238210
8394.000000;-0.238030
8393.000000;-0.235999
8392.000000;-0.235830
8391.000000;-0.238114
8390.000000;-0.239288
8389.000000;-0.237743
8388.000000;-0.236508
8387.000000;-0.238084
8386.000000;-0.240085
8385.000000;-0.239326
8384.000000;-0.237214
8383.000000;-0.237425
8382.000000;-0.239681
8381.000000;-0.240283
8380.000000;-0.238448
8379.000000;-0.237586
8378.000000;-0.239456
8377.000000;-0.241080
8376.000000;-0.239852
8375.000000;-0.237972
8374.000000;-0.238790
8373.000000;-0.241087
8372.000000;-0.241174
8371.000000;-0.239106
8370.000000;-0.238565
8369.000000;-0.240614
8368.000000;-0.241918
8367.000000;-0.240516
8366.000000;-0.239104
8365.000000;-0.240425
8364.000000;-0.242490
8363.000000;-0.241992
8362.000000;-0.239944
8361.000000;-0.240030
8360.000000;-0.242358
8359.000000;-0.243281
8358.000000;-0.241589
8357.000000;-0.240473
8356.000000;-0.242084
8355.000000;-0.243822
8354.000000;-0.242861
8353.000000;-0.240962
8352.000000;-0.241521
8351.000000;-0.243746
8350.000000;-0.244015
8349.000000;-0.242063
8348.000000;-0.241446
8347.000000;-0.243509
8346.000000;-0.245074
8345.000000;-0.243886
8344.000000;-0.242380
8343.000000;-0.243527
8342.000000;-0.245678
8341.000000;-0.245403
8340.000000;-0.243332
8339.000000;-0.243139
8338.000000;-0.245317
8337.000000;-0.246348
8336.000000;-0.244726
8335.000000;-0.243475
8334.000000;-0.245026
8333.000000;-0.247022
8332.000000;-0.246380
8331.000000;-0.244473
8330.000000;-0.244788
8329.000000;-0.246950
8328.000000;-0.247394
8327.000000;-0.245496
8326.000000;-0.244655
8325.000000;-0.246526
8324.000000;-0.248140
8323.000000;-0.246971
8322.000000;-0.245187
8321.000000;-0.246010
8320.000000;-0.248233
8319.000000;-0.248347
8318.000000;-0.246512
8317.000000;-0.246251
8316.000000;-0.248414
8315.000000;-0.249676
8314.000000;-0.248234
8313.000000;-0.246831
8312.000000;-0.248120
8311.000000;-0.250097
8310.000000;-0.249565
8309.000000;-0.247574
8308.000000;-0.247691
8307.000000;-0.249935
8306.000000;-0.250763
8305.000000;-0.249113
8304.000000;-0.248157
8303.000000;-0.249902
8302.000000;-0.251716
8301.000000;-0.250837
8300.000000;-0.249020
8299.000000;-0.249566
8298.000000;-0.251700
8297.000000;-0.251960
8296.000000;-0.250138
8295.000000;-0.249636
8294.000000;-0.251631
8293.000000;-0.252999
8292.000000;-0.251648
8291.000000;-0.250049
8290.000000;-0.251088
8289.000000;-0.253130
8288.000000;-0.252854
8287.000000;-0.250915
8286.000000;-0.250854
8285.000000;-0.253058
8284.000000;-0.254074
8283.000000;-0.252480
8282.000000;-0.251258
8281.000000;-0.252767
8280.000000;-0.254716
8279.000000;-0.254136
8278.000000;-0.252374
8277.000000;-0.252767
8276.000000;-0.254903
8275.000000;-0.255350
8274.000000;-0.253564
8273.000000;-0.252842
8272.000000;-0.254725
8271.000000;-0.256328
8270.000000;-0.255260
8269.000000;-0.253642
8268.000000;-0.254526
8267.000000;-0.256671
8266.000000;-0.256698
8265.000000;-0.254835
8264.000000;-0.254517
8263.000000;-0.256539
8262.000000;-0.257694
8261.000000;-0.256284
8260.000000;-0.254980
8259.000000;-0.256283
8258.000000;-0.258206
8257.000000;-0.257690
8256.000000;-0.255778
8255.000000;-0.255872
8254.000000;-0.257939
8253.000000;-0.258592
8252.000000;-0.256908
8251.000000;-0.255995
8250.000000;-0.257734
8249.000000;-0.259529
8248.000000;-0.258742
8247.000000;-0.257121
8246.000000;-0.257823
8245.000000;-0.260002
8244.000000;-0.260272
8243.000000;-0.258466
8242.000000;-0.257919
8241.000000;-0.259804
8240.000000;-0.261127
8239.000000;-0.259879
8238.000000;-0.258416
8237.000000;-0.259461
8236.000000;-0.261424
8235.000000;-0.261160
8234.000000;-0.259338
8233.000000;-0.259329
8232.000000;-0.261447
8231.000000;-0.262403
8230.000000;-0.260905
8229.000000;-0.259818
8228.000000;-0.261292
8227.000000;-0.263062
8226.000000;-0.262378
8225.000000;-0.260681
8224.000000;-0.261171
8223.000000;-0.263320
8222.000000;-0.263754
8221.000000;-0.262004
8220.000000;-0.261299
8219.000000;-0.263095
8218.000000;-0.264576
8217.000000;-0.263483
8216.000000;-0.261911
8215.000000;-0.262780
8214.000000;-0.264846
8213.000000;-0.264864
8212.000000;-0.263091
8211.000000;-0.262816
8210.000000;-0.264748
8209.000000;-0.265829
8208.000000;-0.264508
8207.000000;-0.263376
8206.000000;-0.264741
8205.000000;-0.266605
8204.000000;-0.266069
8203.000000;-0.264239
8202.000000;-0.264404
8201.000000;-0.266462
8200.000000;-0.267119
8199.000000;-0.265514
8198.000000;-0.264642
8197.000000;-0.266260
8196.000000;-0.267863
8195.000000;-0.266999
8194.000000;-0.265435
8193.000000;-0.266163
8192.000000;-0.268257
8191.000000;-0.268451
8190.000000;-0.266698
8189.000000;-0.266271
8188.000000;-0.268211
8187.000000;-0.269530
8186.000000;-0.268298
8185.000000;-0.266872
8184.000000;-0.267904
8183.000000;-0.269819
8182.000000;-0.269565
8181.000000;-0.267811
8180.000000;-0.267817
8179.000000;-0.269849
8178.000000;-0.270729
8177.000000;-0.269265
8176.000000;-0.268247
8175.000000;-0.269705
8174.000000;-0.271404
8173.000000;-0.270697
8172.000000;-0.269026
8171.000000;-0.269495
8170.000000;-0.271572
8169.000000;-0.271997
8168.000000;-0.270324
8167.000000;-0.269661
8166.000000;-0.271391
8165.000000;-0.272811
8164.000000;-0.271784
8163.000000;-0.270338
8162.000000;-0.271221
8161.000000;-0.273184
8160.000000;-0.273146
8159.000000;-0.271449
8158.000000;-0.271280
8157.000000;-0.273224
8156.000000;-0.274240
8155.000000;-0.272867
8154.000000;-0.271712
8153.000000;-0.273064
8152.000000;-0.274962
8151.000000;-0.274562
8150.000000;-0.272913
8149.000000;-0.273154
8148.000000;-0.275126
8147.000000;-0.275650
8146.000000;-0.273982
8145.000000;-0.273103
8144.000000;-0.274687
8143.000000;-0.276244
8142.000000;-0.275391
8141.000000;-0.273872
8140.000000;-0.274573
8139.000000;-0.276557
8138.000000;-0.276689
8137.000000;-0.274997
8136.000000;-0.274651
8135.000000;-0.276573
8134.000000;-0.277839
8133.000000;-0.276664
8132.000000;-0.275387
8131.000000;-0.276487
8130.000000;-0.278335
8129.000000;-0.278022
8128.000000;-0.276331
8127.000000;-0.276427
8126.000000;-0.278444
8125.000000;-0.279230
8124.000000;-0.277708
8123.000000;-0.276679
8122.000000;-0.278109
8121.000000;-0.279796
8120.000000;-0.279189
8119.000000;-0.277705
8118.000000;-0.278283
8117.000000;-0.280308
8116.000000;-0.280650
8115.000000;-0.278997
8114.000000;-0.278419
8113.000000;-0.280189
8112.000000;-0.281606
8111.000000;-0.280612
8110.000000;-0.279225
8109.000000;-0.280097
8108.000000;-0.281963
8107.000000;-0.281833
8106.000000;-0.280097
8105.000000;-0.279896
8104.000000;-0.281791
8103.000000;-0.282825
8102.000000;-0.281570
8101.000000;-0.280515
8100.000000;-0.281798
8099.000000;-0.283501
8098.000000;-0.282951
8097.000000;-0.281274
8096.000000;-0.281530
8095.000000;-0.283508
8094.000000;-0.284100
8093.000000;-0.282604
8092.000000;-0.281894
8091.000000;-0.283528
8090.000000;-0.285070
8089.000000;-0.284273
8088.000000;-0.282867
8087.000000;-0.283598
8086.000000;-0.285483
8085.000000;-0.285497
8084.000000;-0.283750
8083.000000;-0.283346
8082.000000;-0.285142
8081.000000;-0.286290
8080.000000;-0.285116
8079.000000;-0.283945
8078.000000;-0.285143
8077.000000;-0.287037
8076.000000;-0.286768
8075.000000;-0.285114
8074.000000;-0.285174
8073.000000;-0.287093
8072.000000;-0.287837
8071.000000;-0.286391
8070.000000;-0.285476
8069.000000;-0.286935
8068.000000;-0.288581
8067.000000;-0.287951
8066.000000;-0.286468
8065.000000;-0.287009
8064.000000;-0.288974
8063.000000;-0.289327
8062.000000;-0.287766
8061.000000;-0.287230
8060.000000;-0.288890
8059.000000;-0.290139
8058.000000;-0.289081
8057.000000;-0.287751
8056.000000;-0.288665
8055.000000;-0.290500
8054.000000;-0.290359
8053.000000;-0.288712
8052.000000;-0.288629
8051.000000;-0.290563
8050.000000;-0.291574
8049.000000;-0.290321
8048.000000;-0.289282
8047.000000;-0.290518
8046.000000;-0.292139
8045.000000;-0.291592
8044.000000;-0.290045
8043.000000;-0.290434
8042.000000;-0.292434
8041.000000;-0.292975
8040.000000;-0.291448
8039.000000;-0.290727
8038.000000;-0.292314
8037.000000;-0.293799
8036.000000;-0.293009
8035.000000;-0.291664
8034.000000;-0.292427
8033.000000;-0.294313
8032.000000;-0.294378
8031.000000;-0.292751
8030.000000;-0.292434
8029.000000;-0.294209
8028.000000;-0.295313
8027.000000;-0.294170
8026.000000;-0.293053
8025.000000;-0.294207
8024.000000;-0.295976
8023.000000;-0.295642
8022.000000;-0.294040
8021.000000;-0.294159
8020.000000;-0.296040
8019.000000;-0.296700
8018.000000;-0.295234
8017.000000;-0.294367
8016.000000;-0.295868
8015.000000;-0.297539
8014.000000;-0.296966
8013.000000;-0.295547
8012.000000;-0.296067
8011.000000;-0.297907
8010.000000;-0.298148
8009.000000;-0.296588
8008.000000;-0.296120
8007.000000;-0.297831
8006.000000;-0.299137
8005.000000;-0.298201
8004.000000;-0.297012
8003.000000;-0.297977
8002.000000;-0.299774
8001.000000;-0.299621
8000.000000;-0.298014
7999.000000;-0.297907
7998.000000;-0.299687
7997.000000;-0.300532
7996.000000;-0.299260
7995.000000;-0.298332
7994.000000;-0.299675
7993.000000;-0.301334
7992.000000;-0.300799
7991.000000;-0.299247
7990.000000;-0.299576
7989.000000;-0.301493
7988.000000;-0.302039
7987.000000;-0.300614
7986.000000;-0.299947
7985.000000;-0.301428
7984.000000;-0.302736
7983.000000;-0.301862
7982.000000;-0.300550
7981.000000;-0.301355
7980.000000;-0.303257
7979.000000;-0.303389
7978.000000;-0.301888
7977.000000;-0.301637
7976.000000;-0.303344
7975.000000;-0.304354
7974.000000;-0.303219
7973.000000;-0.302164
7972.000000;-0.303292
7971.000000;-0.304944
7970.000000;-0.304543
7969.000000;-0.302989
7968.000000;-0.303171
7967.000000;-0.305057
7966.000000;-0.305738
7965.000000;-0.304373
7964.000000;-0.303589
7963.000000;-0.305020
7962.000000;-0.306519
7961.000000;-0.305845
7960.000000;-0.304442
7959.000000;-0.304995
7958.000000;-0.306842
7957.000000;-0.307137
7956.000000;-0.305705
7955.000000;-0.305309
7954.000000;-0.306934
7953.000000;-0.308073
7952.000000;-0.307022
7951.000000;-0.305775
7950.000000;-0.306669
7949.000000;-0.308406
7948.000000;-0.308302
7947.000000;-0.306839
7946.000000;-0.306846
7945.000000;-0.308657
7944.000000;-0.309537
7943.000000;-0.308361
7942.000000;-0.307509
7941.000000;-0.308818
7940.000000;-0.310400
7939.000000;-0.309864
7938.000000;-0.308367
7937.000000;-0.308676
7936.000000;-0.310459
7935.000000;-0.310876
7934.000000;-0.309433
7933.000000;-0.308818
7932.000000;-0.310346
7931.000000;-0.311708
7930.000000;-0.310949
7929.000000;-0.309754
7928.000000;-0.310543
7927.000000;-0.312271
7926.000000;-0.312209
7925.000000;-0.310611
7924.000000;-0.310332
7923.000000;-0.312001
7922.000000;-0.312971
7921.000000;-0.311850
7920.000000;-0.310842
7919.000000;-0.311995
7918.000000;-0.313669
7917.000000;-0.313357
7916.000000;-0.311931
7915.000000;-0.312156
7914.000000;-0.313964
7913.000000;-0.314570
7912.000000;-0.313205
7911.000000;-0.312401
7910.000000;-0.313680
7909.000000;-0.314973
7908.000000;-0.314227
7907.000000;-0.312924
7906.000000;-0.313597
7905.000000;-0.315470
7904.000000;-0.315756
7903.000000;-0.314362
7902.000000;-0.314014
7901.000000;-0.315621
7900.000000;-0.316716
7899.000000;-0.315687
7898.000000;-0.314504
7897.000000;-0.315390
7896.000000;-0.317025
7895.000000;-0.316836
7894.000000;-0.315381
7893.000000;-0.315411
7892.000000;-0.317164
7891.000000;-0.317931
7890.000000;-0.316676
7889.000000;-0.315782
7888.000000;-0.317021
7887.000000;-0.318534
7886.000000;-0.318037
7885.000000;-0.316702
7884.000000;-0.317166
7883.000000;-0.319000
7882.000000;-0.319431
7881.000000;-0.318043
7880.000000;-0.317460
7879.000000;-0.318883
7878.000000;-0.320035
7877.000000;-0.319091
7876.000000;-0.317792
7875.000000;-0.318514
7874.000000;-0.320219
7873.000000;-0.320255
7872.000000;-0.318858
7871.000000;-0.318737
7870.000000;-0.320436
7869.000000;-0.321394
7868.000000;-0.320318
7867.000000;-0.319344
7866.000000;-0.320399
7865.000000;-0.321884
7864.000000;-0.321434
7863.000000;-0.319957
7862.000000;-0.320128
7861.000000;-0.321855
7860.000000;-0.322452
7859.000000;-0.321214
7858.000000;-0.320583
7857.000000;-0.321970
7856.000000;-0.323308
7855.000000;-0.322582
7854.000000;-0.321228
7853.000000;-0.321709
7852.000000;-0.323318
7851.000000;-0.323424
7850.000000;-0.321996
7849.000000;-0.321676
7848.000000;-0.323286
7847.000000;-0.324396
7846.000000;-0.323447
7845.000000;-0.322359
7844.000000;-0.323260
7843.000000;-0.324841
7842.000000;-0.324627
7841.000000;-0.323197
7840.000000;-0.323204
7839.000000;-0.324846
7838.000000;-0.325515
7837.000000;-0.324261
7836.000000;-0.323402
7835.000000;-0.324597
7834.000000;-0.326010
7833.000000;-0.325476
7832.000000;-0.324170
7831.000000;-0.324605
7830.000000;-0.326305
7829.000000;-0.326615
7828.000000;-0.325231
7827.000000;-0.324724
7826.000000;-0.326182
7825.000000;-0.327328
7824.000000;-0.326412
7823.000000;-0.325167
7822.000000;-0.325893
7821.000000;-0.327549
7820.000000;-0.327550
7819.000000;-0.326141
7818.000000;-0.325949
7817.000000;-0.327495
7816.000000;-0.328318
7815.000000;-0.327211
7814.000000;-0.326266
7813.000000;-0.327304
7812.000000;-0.328730
7811.000000;-0.328265
7810.000000;-0.326846
7809.000000;-0.327074
7808.000000;-0.328790
7807.000000;-0.329335
7806.000000;-0.328053
7805.000000;-0.327383
7804.000000;-0.328708
7803.000000;-0.329994
7802.000000;-0.329279
7801.000000;-0.327981
7800.000000;-0.328474
7799.000000;-0.330033
7798.000000;-0.330115
7797.000000;-0.328741
7796.000000;-0.328465
7795.000000;-0.329996
7794.000000;-0.330937
7793.000000;-0.329873
7792.000000;-0.328779
7791.000000;-0.329699
7790.000000;-0.331258
7789.000000;-0.331020
7788.000000;-0.329608
7787.000000;-0.329631
7786.000000;-0.331239
7785.000000;-0.331868
7784.000000;-0.330626
7783.000000;-0.329801
7782.000000;-0.330979
7781.000000;-0.332328
7780.000000;-0.331739
7779.000000;-0.330392
7778.000000;-0.330764
7777.000000;-0.332402
7776.000000;-0.332718
7775.000000;-0.331391
7774.000000;-0.330886
7773.000000;-0.332246
7772.000000;-0.333303
7771.000000;-0.332404
7770.000000;-0.331226
7769.000000;-0.331946
7768.000000;-0.333503
7767.000000;-0.333413
7766.000000;-0.331980
7765.000000;-0.331773
7764.000000;-0.333261
7763.000000;-0.334018
7762.000000;-0.332900
7761.000000;-0.331988
7760.000000;-0.333045
7759.000000;-0.334472
7758.000000;-0.334027
7757.000000;-0.332623
7756.000000;-0.332783
7755.000000;-0.334343
7754.000000;-0.334762
7753.000000;-0.333471
7752.000000;-0.332826
7751.000000;-0.334070
7750.000000;-0.335174
7749.000000;-0.334328
7748.000000;-0.333043
7747.000000;-0.333634
7746.000000;-0.335270
7745.000000;-0.335380
7744.000000;-0.333981
7743.000000;-0.333605
7742.000000;-0.334986
7741.000000;-0.335838
7740.000000;-0.334809
7739.000000;-0.333785
7738.000000;-0.334681
7737.000000;-0.336135
7736.000000;-0.335834
7735.000000;-0.334437
7734.000000;-0.334465
7733.000000;-0.336011
7732.000000;-0.336585
7731.000000;-0.335349
7730.000000;-0.334525
7729.000000;-0.335610
7728.000000;-0.336818
7727.000000;-0.336165
7726.000000;-0.334851
7725.000000;-0.335242
7724.000000;-0.336809
7723.000000;-0.337015
7722.000000;-0.335617
7721.000000;-0.335068
7720.000000;-0.336347
7719.000000;-0.337286
7718.000000;-0.336306
7717.000000;-0.335125
7716.000000;-0.335880
7715.000000;-0.337464
7714.000000;-0.337409
7713.000000;-0.336033
7712.000000;-0.335858
7711.000000;-0.337293
7710.000000;-0.337943
7709.000000;-0.336739
7708.000000;-0.335772
7707.000000;-0.336749
7706.000000;-0.338064
7705.000000;-0.337540
7704.000000;-0.336116
7703.000000;-0.336255
7702.000000;-0.337742
7701.000000;-0.338078
7700.000000;-0.336757
7699.000000;-0.336116
7698.000000;-0.337349
7697.000000;-0.338439
7696.000000;-0.337608
7695.000000;-0.336330
7694.000000;-0.336844
7693.000000;-0.338340
7692.000000;-0.338362
7691.000000;-0.336979
7690.000000;-0.336645
7689.000000;-0.338007
7688.000000;-0.338787
7687.000000;-0.337692
7686.000000;-0.336611
7685.000000;-0.337425
7684.000000;-0.338783
7683.000000;-0.338410
7682.000000;-0.336970
7681.000000;-0.336940
7680.000000;-0.338389
7679.000000;-0.338871
7678.000000;-0.337593
7677.000000;-0.336756
7676.000000;-0.337800
7675.000000;-0.338921
7674.000000;-0.338180
7673.000000;-0.336814
7672.000000;-0.337162
7671.000000;-0.338653
7670.000000;-0.338765
7669.000000;-0.337302
7668.000000;-0.336735
7667.000000;-0.338016
7666.000000;-0.338971
7665.000000;-0.338033
7664.000000;-0.336875
7663.000000;-0.337549
7662.000000;-0.338948
7661.000000;-0.338711
7660.000000;-0.337241
7659.000000;-0.337011
7658.000000;-0.338350
7657.000000;-0.338892
7656.000000;-0.337658
7655.000000;-0.336738
7654.000000;-0.337740
7653.000000;-0.338999
7652.000000;-0.338396
7651.000000;-0.336931
7650.000000;-0.337058
7649.000000;-0.338528
7648.000000;-0.338844
7647.000000;-0.337505
7646.000000;-0.336804
7645.000000;-0.337906
7644.000000;-0.338839
7643.000000;-0.337896
7642.000000;-0.336546
7641.000000;-0.336966
7640.000000;-0.338310
7639.000000;-0.338165
7638.000000;-0.336657
7637.000000;-0.336256
7636.000000;-0.337582
7635.000000;-0.338337
7634.000000;-0.337239
7633.000000;-0.336167
7632.000000;-0.336957
7631.000000;-0.338224
7630.000000;-0.337735
7629.000000;-0.336220
7628.000000;-0.336168
7627.000000;-0.337595
7626.000000;-0.338016
7625.000000;-0.336671
7624.000000;-0.335787
7623.000000;-0.336781
7622.000000;-0.337822
7621.000000;-0.336987
7620.000000;-0.335542
7619.000000;-0.335808
7618.000000;-0.337189
7617.000000;-0.337187
7616.000000;-0.335646
7615.000000;-0.335020
7614.000000;-0.336214
7613.000000;-0.337051
7612.000000;-0.336017
7611.000000;-0.334802
7610.000000;-0.335419
7609.000000;-0.336730
7608.000000;-0.336402
7607.000000;-0.334877
7606.000000;-0.334633
7605.000000;-0.335958
7604.000000;-0.336442
7603.000000;-0.335082
7602.000000;-0.333982
7601.000000;-0.334806
7600.000000;-0.335954
7599.000000;-0.335324
7598.000000;-0.333864
7597.000000;-0.333950
7596.000000;-0.335301
7595.000000;-0.335459
7594.000000;-0.333996
7593.000000;-0.333248
7592.000000;-0.334338
7591.000000;-0.335226
7590.000000;-0.334200
7589.000000;-0.332786
7588.000000;-0.333188
7587.000000;-0.334509
7586.000000;-0.334287
7585.000000;-0.332663
7584.000000;-0.332130
7583.000000;-0.333292
7582.000000;-0.333856
7581.000000;-0.332607
7580.000000;-0.331494
7579.000000;-0.332314
7578.000000;-0.333575
7577.000000;-0.332998
7576.000000;-0.331348
7575.000000;-0.331138
7574.000000;-0.332370
7573.000000;-0.332583
7572.000000;-0.331095
7571.000000;-0.330171
7570.000000;-0.331183
7569.000000;-0.332239
7568.000000;-0.331414
7567.000000;-0.329981
7566.000000;-0.330228
7565.000000;-0.331530
7564.000000;-0.331419
7563.000000;-0.329793
7562.000000;-0.329106
7561.000000;-0.330211
7560.000000;-0.330904
7559.000000;-0.329699
7558.000000;-0.328337
7557.000000;-0.328841
7556.000000;-0.330046
7555.000000;-0.329602
7554.000000;-0.327975
7553.000000;-0.327662
7552.000000;-0.328929
7551.000000;-0.329333
7550.000000;-0.327886
7549.000000;-0.326729
7548.000000;-0.327513
7547.000000;-0.328557
7546.000000;-0.327735
7545.000000;-0.326075
7544.000000;-0.326026
7543.000000;-0.327288
7542.000000;-0.327351
7541.000000;-0.325807
7540.000000;-0.325036
7539.000000;-0.326124
7538.000000;-0.326955
7537.000000;-0.325826
7536.000000;-0.324334
7535.000000;-0.324687
7534.000000;-0.325916
7533.000000;-0.325546
7532.000000;-0.323819
7531.000000;-0.323296
7530.000000;-0.324516
7529.000000;-0.325067
7528.000000;-0.323703
7527.000000;-0.322411
7526.000000;-0.323019
7525.000000;-0.324062
7524.000000;-0.323326
7523.000000;-0.321629
7522.000000;-0.321460
7521.000000;-0.322719
7520.000000;-0.322875
7519.000000;-0.321271
7518.000000;-0.320227
7517.000000;-0.321120
7516.000000;-0.322025
7515.000000;-0.321018
7514.000000;-0.319426
7513.000000;-0.319579
7512.000000;-0.320815
7511.000000;-0.320620
7510.000000;-0.318907
7509.000000;-0.318180
7508.000000;-0.319278
7507.000000;-0.319920
7506.000000;-0.318615
7505.000000;-0.317185
7504.000000;-0.317670
7503.000000;-0.318859
7502.000000;-0.318297
7501.000000;-0.316497
7500.000000;-0.316064
7499.000000;-0.317268
7498.000000;-0.317595
7497.000000;-0.316050
7496.000000;-0.314833
7495.000000;-0.315600
7494.000000;-0.316618
7493.000000;-0.315759
7492.000000;-0.314098
7491.000000;-0.314061
7490.000000;-0.315248
7489.000000;-0.315119
7488.000000;-0.313361
7487.000000;-0.312445
7486.000000;-0.313440
7485.000000;-0.314177
7484.000000;-0.312979
7483.000000;-0.311498
7482.000000;-0.311917
7481.000000;-0.313176
7480.000000;-0.312764
7479.000000;-0.310969
7478.000000;-0.310396
7477.000000;-0.311564
7476.000000;-0.312027
7475.000000;-0.310562
7474.000000;-0.309231
7473.000000;-0.309889
7472.000000;-0.310987
7471.000000;-0.310221
7470.000000;-0.308419
7469.000000;-0.308150
7468.000000;-0.309346
7467.000000;-0.309430
7466.000000;-0.307739
7465.000000;-0.306659
7464.000000;-0.307578
7463.000000;-0.308478
7462.000000;-0.307382
7461.000000;-0.305699
7460.000000;-0.305852
7459.000000;-0.307124
7458.000000;-0.306900
7457.000000;-0.305129
7456.000000;-0.304406
7455.000000;-0.305541
7454.000000;-0.306141
7453.000000;-0.304725
7452.000000;-0.303244
7451.000000;-0.303785
7450.000000;-0.304986
7449.000000;-0.304373
7448.000000;-0.302553
7447.000000;-0.302173
7446.000000;-0.303396
7445.000000;-0.303626
7444.000000;-0.301954
7443.000000;-0.300685
7442.000000;-0.301437
7441.000000;-0.302369
7440.000000;-0.301368
7439.000000;-0.299627
7438.000000;-0.299624
7437.000000;-0.300886
7436.000000;-0.300822
7435.000000;-0.299156
7434.000000;-0.298403
7433.000000;-0.299553
7432.000000;-0.300293
7431.000000;-0.298906
7430.000000;-0.297174
7429.000000;-0.297448
7428.000000;-0.298697
7427.000000;-0.298295
7426.000000;-0.296434
7425.000000;-0.295762
7424.000000;-0.296849
7423.000000;-0.297200
7422.000000;-0.295510
7421.000000;-0.293871
7420.000000;-0.294261
7419.000000;-0.295207
7418.000000;-0.294414
7417.000000;-0.292728
7416.000000;-0.292701
7415.000000;-0.294156
7414.000000;-0.294422
7413.000000;-0.292865
7412.000000;-0.291908
7411.000000;-0.292835
7410.000000;-0.293517
7409.000000;-0.292093
7408.000000;-0.290209
7407.000000;-0.290306
7406.000000;-0.291484
7405.000000;-0.291082
7404.000000;-0.289207
7403.000000;-0.288520
7402.000000;-0.289628
7401.000000;-0.289899
7400.000000;-0.287838
7399.000000;-0.285620
7398.000000;-0.285590
7397.000000;-0.286465
7396.000000;-0.285643
7395.000000;-0.283576
7394.000000;-0.282977
7393.000000;-0.284223
7392.000000;-0.284766
7391.000000;-0.283490
7390.000000;-0.282490
7389.000000;-0.283284
7388.000000;-0.283864
7387.000000;-0.281860
7386.000000;-0.278528
7385.000000;-0.277012
7384.000000;-0.277530
7383.000000;-0.277324
7382.000000;-0.275272
7381.000000;-0.273566
7380.000000;-0.273956
7379.000000;-0.274976
7378.000000;-0.274775
7377.000000;-0.274235
7376.000000;-0.275084
7375.000000;-0.276396
7374.000000;-0.276016
7373.000000;-0.274503
7372.000000;-0.274444
7371.000000;-0.276006
7370.000000;-0.276428
7369.000000;-0.274503
7368.000000;-0.272568
7367.000000;-0.272625
7366.000000;-0.273013
7365.000000;-0.271629
7364.000000;-0.269887
7363.000000;-0.270337
7362.000000;-0.271889
7361.000000;-0.271115
7360.000000;-0.267926
7359.000000;-0.265990
7358.000000;-0.266989
7357.000000;-0.267954
7356.000000;-0.266064
7355.000000;-0.262846
7354.000000;-0.261328
7353.000000;-0.261100
7352.000000;-0.259491
7351.000000;-0.256131
7350.000000;-0.253206
7349.000000;-0.251769
7348.000000;-0.250595
7347.000000;-0.249146
7346.000000;-0.248946
7345.000000;-0.250854
7344.000000;-0.253142
7343.000000;-0.254012
7342.000000;-0.254287
7341.000000;-0.255712
7340.000000;-0.257732
7339.000000;-0.258249
7338.000000;-0.257313
7337.000000;-0.257323
7336.000000;-0.259034
7335.000000;-0.259700
7334.000000;-0.256906
7333.000000;-0.252471
7332.000000;-0.250378
7331.000000;-0.251276
7330.000000;-0.251908
7329.000000;-0.250398
7328.000000;-0.249118
7327.000000;-0.250757
7326.000000;-0.254089
7325.000000;-0.256290
7324.000000;-0.257170
7323.000000;-0.258351
7322.000000;-0.259577
7321.000000;-0.259065
7320.000000;-0.257001
7319.000000;-0.255473
7318.000000;-0.254500
7317.000000;-0.251652
7316.000000;-0.246834
7315.000000;-0.243738
7314.000000;-0.244394
7313.000000;-0.245372
7312.000000;-0.242873
7311.000000;-0.238804
7310.000000;-0.237946
7309.000000;-0.240539
7308.000000;-0.242235
7307.000000;-0.240921
7306.000000;-0.239156
7305.000000;-0.239058
7304.000000;-0.238959
7303.000000;-0.237393
7302.000000;-0.236183
7301.000000;-0.237011
7300.000000;-0.237749
7299.000000;-0.235856
7298.000000;-0.233287
7297.000000;-0.233968
7296.000000;-0.237403
7295.000000;-0.239037
7294.000000;-0.237167
7293.000000;-0.235406
7292.000000;-0.236906
7291.000000;-0.239492
7290.000000;-0.239437
7289.000000;-0.237155
7288.000000;-0.235981
7287.000000;-0.236566
7286.000000;-0.236310
7285.000000;-0.234242
7284.000000;-0.232646
7283.000000;-0.232970
7282.000000;-0.233149
7281.000000;-0.231082
7280.000000;-0.228271
7279.000000;-0.227405
7278.000000;-0.227796
7277.000000;-0.226558
7276.000000;-0.223510
7275.000000;-0.221471
7274.000000;-0.221422
7273.000000;-0.220757
7272.000000;-0.217838
7271.000000;-0.214994
7270.000000;-0.214714
7269.000000;-0.215247
7268.000000;-0.213339
7267.000000;-0.209597
7266.000000;-0.207495
7265.000000;-0.207510
7264.000000;-0.206308
7263.000000;-0.202477
7262.000000;-0.199088
7261.000000;-0.198789
7260.000000;-0.199355
7259.000000;-0.197388
7258.000000;-0.193775
7257.000000;-0.191838
7256.000000;-0.191288
7255.000000;-0.188371
7254.000000;-0.182032
7253.000000;-0.175841
7252.000000;-0.172723
7251.000000;-0.170919
7250.000000;-0.167537
7249.000000;-0.163152
7248.000000;-0.160216
7247.000000;-0.158621
7246.000000;-0.156147
7245.000000;-0.152373
7244.000000;-0.149095
7243.000000;-0.146783
7242.000000;-0.143778
7241.000000;-0.140135
7240.000000;-0.138510
7239.000000;-0.139409
7238.000000;-0.138948
7237.000000;-0.134161
7236.000000;-0.127730
7235.000000;-0.124440
7234.000000;-0.124107
7233.000000;-0.122151
7232.000000;-0.117359
7231.000000;-0.114191
7230.000000;-0.115540
7229.000000;-0.117750
7228.000000;-0.116299
7227.000000;-0.112231
7226.000000;-0.109504
7225.000000;-0.108199
7224.000000;-0.105125
7223.000000;-0.100101
7222.000000;-0.096526
7221.000000;-0.095380
7220.000000;-0.093215
7219.000000;-0.088096
7218.000000;-0.083238
7217.000000;-0.081755
7216.000000;-0.081017
7215.000000;-0.076795
7214.000000;-0.070240
7213.000000;-0.066095
7212.000000;-0.064832
7211.000000;-0.061888
7210.000000;-0.055373
7209.000000;-0.049162
7208.000000;-0.046397
7207.000000;-0.044147
7206.000000;-0.038462
7205.000000;-0.031172
7204.000000;-0.027176
7203.000000;-0.026378
7202.000000;-0.023957
7201.000000;-0.018440
7200.000000;-0.013717
7199.000000;-0.011953
7198.000000;-0.009526
7197.000000;-0.003256
7196.000000;0.004030
7195.000000;0.008074
7194.000000;0.010705
7193.000000;0.017063
7192.000000;0.026989
7191.000000;0.034981
7190.000000;0.039053
7189.000000;0.043863
7188.000000;0.052676
7187.000000;0.061799
7186.000000;0.066547
7185.000000;0.069061
7184.000000;0.074342
7183.000000;0.081753
7182.000000;0.086272
7181.000000;0.087619
7180.000000;0.091242
7179.000000;0.098870
7178.000000;0.105459
7177.000000;0.108029
7176.000000;0.111475
7175.000000;0.120512
7174.000000;0.131588
7173.000000;0.138287
7172.000000;0.142221
7171.000000;0.150279
7170.000000;0.162559
7169.000000;0.171532
7168.000000;0.174364
7167.000000;0.177943
7166.000000;0.186982
7165.000000;0.195783
7164.000000;0.197664
7163.000000;0.196944
7162.000000;0.202233
7161.000000;0.212435
7160.000000;0.218318
7159.000000;0.218019
7158.000000;0.220285
7157.000000;0.229620
7156.000000;0.239317
7155.000000;0.243076
7154.000000;0.245941
7153.000000;0.255093
7152.000000;0.267374
7151.000000;0.274341
7150.000000;0.277110
7149.000000;0.284586
7148.000000;0.297846
7147.000000;0.307732
7146.000000;0.310140
7145.000000;0.313733
7144.000000;0.325078
7143.000000;0.337122
7142.000000;0.340366
7141.000000;0.339567
7140.000000;0.346088
7139.000000;0.358916
7138.000000;0.365780
7137.000000;0.363775
7136.000000;0.364674
7135.000000;0.375007
7134.000000;0.385708
7133.000000;0.387377
7132.000000;0.387001
7131.000000;0.395701
7130.000000;0.410012
7129.000000;0.417421
7128.000000;0.418125
7127.000000;0.424719
7126.000000;0.439988
7125.000000;0.451536
7124.000000;0.452274
7123.000000;0.453624
7122.000000;0.465816
7121.000000;0.480498
7120.000000;0.483615
7119.000000;0.479844
7118.000000;0.485051
7117.000000;0.499743
7116.000000;0.507745
7115.000000;0.503434
7114.000000;0.502102
7113.000000;0.513779
7112.000000;0.527303
7111.000000;0.528662
7110.000000;0.525683
7109.000000;0.533851
7108.000000;0.550034
7107.000000;0.556870
7106.000000;0.552508
7105.000000;0.554381
7104.000000;0.568958
7103.000000;0.580739
7102.000000;0.577903
7101.000000;0.574220
7100.000000;0.585064
7099.000000;0.602034
7098.000000;0.605588
7097.000000;0.598739
7096.000000;0.601957
7095.000000;0.618290
7094.000000;0.627795
7093.000000;0.620779
7092.000000;0.615899
7091.000000;0.627415
7090.000000;0.642362
7089.000000;0.641520
7088.000000;0.633661
7087.000000;0.639850
7086.000000;0.657959
7085.000000;0.665268
7084.000000;0.656953
7083.000000;0.655156
7082.000000;0.670422
7081.000000;0.684526
7080.000000;0.679695
7079.000000;0.670917
7078.000000;0.679250
7077.000000;0.697620
7076.000000;0.701771
7075.000000;0.692382
7074.000000;0.693705
7073.000000;0.711535
7072.000000;0.723263
7071.000000;0.714670
7070.000000;0.706550
7069.000000;0.717563
7068.000000;0.734157
7067.000000;0.731829
7066.000000;0.718789
7065.000000;0.721370
7064.000000;0.739726
7063.000000;0.747086
7062.000000;0.734752
7061.000000;0.728648
7060.000000;0.743832
7059.000000;0.760705
7058.000000;0.755846
7057.000000;0.744049
7056.000000;0.750975
7055.000000;0.770395
7054.000000;0.773154
7053.000000;0.757933
7052.000000;0.754474
7051.000000;0.772387
7050.000000;0.786145
7049.000000;0.776186
7048.000000;0.764798
7047.000000;0.775371
7046.000000;0.794779
7045.000000;0.793140
7044.000000;0.776791
7043.000000;0.776821
7042.000000;0.796273
7041.000000;0.805506
7040.000000;0.791312
7039.000000;0.781632
7038.000000;0.795364
7037.000000;0.812707
7036.000000;0.806040
7035.000000;0.789673
7034.000000;0.793580
7033.000000;0.813855
7032.000000;0.818435
7031.000000;0.801833
7030.000000;0.795569
7029.000000;0.812993
7028.000000;0.828567
7027.000000;0.818199
7026.000000;0.803262
7025.000000;0.811291
7024.000000;0.831503
7023.000000;0.830759
7022.000000;0.812027
7021.000000;0.809041
7020.000000;0.828641
7019.000000;0.840365
7018.000000;0.825657
7017.000000;0.812425
7016.000000;0.824052
7015.000000;0.842714
7014.000000;0.836931
7013.000000;0.818082
7012.000000;0.819418
7011.000000;0.840402
7010.000000;0.847272
7009.000000;0.829734
7008.000000;0.820384
7007.000000;0.836432
7006.000000;0.852977
7005.000000;0.842056
7004.000000;0.823832
7003.000000;0.829402
7002.000000;0.850437
7001.000000;0.851607
7000.000000;0.831649
6999.000000;0.825464
6998.000000;0.843512
6997.000000;0.856082
6996.000000;0.841480
6995.000000;0.826505
6994.000000;0.836931
6993.000000;0.856724
6992.000000;0.852007
6991.000000;0.831362
6990.000000;0.829901
6989.000000;0.850192
6988.000000;0.858976
6987.000000;0.841881
6986.000000;0.830253
6985.000000;0.844609
6984.000000;0.862667
6983.000000;0.853659
6982.000000;0.834133
6981.000000;0.836963
6980.000000;0.856969
6979.000000;0.858949
6978.000000;0.838144
6977.000000;0.829563
6976.000000;0.847003
6975.000000;0.862088
6974.000000;0.848899
6973.000000;0.831375
6972.000000;0.838888
6971.000000;0.859250
6970.000000;0.857000
6969.000000;0.835963
6968.000000;0.831647
6967.000000;0.850377
6966.000000;0.860101
6965.000000;0.842632
6964.000000;0.828007
6963.000000;0.839705
6962.000000;0.858023
6961.000000;0.850290
6960.000000;0.829452
6959.000000;0.829859
6958.000000;0.850135
6957.000000;0.855504
6956.000000;0.836274
6955.000000;0.825947
6954.000000;0.841330
6953.000000;0.856658
6952.000000;0.844083
6951.000000;0.824496
6950.000000;0.828847
6949.000000;0.848563
6948.000000;0.848922
6947.000000;0.829066
6946.000000;0.823024
6945.000000;0.840354
6944.000000;0.851489
6943.000000;0.835663
6942.000000;0.819750
6941.000000;0.828886
6940.000000;0.846832
6939.000000;0.840553
6938.000000;0.819054
6937.000000;0.816720
6936.000000;0.835541
6935.000000;0.842486
6934.000000;0.823992
6933.000000;0.811213
6932.000000;0.824046
6931.000000;0.840626
6930.000000;0.831260
6929.000000;0.811752
6928.000000;0.813578
6927.000000;0.831683
6926.000000;0.832749
6925.000000;0.812757
6924.000000;0.804720
6923.000000;0.821036
6922.000000;0.834262
6921.000000;0.820579
6920.000000;0.803282
6919.000000;0.809807
6918.000000;0.828148
6917.000000;0.825173
6916.000000;0.804752
6915.000000;0.800080
6914.000000;0.816775
6913.000000;0.824900
6912.000000;0.808260
6911.000000;0.794428
6910.000000;0.804502
6909.000000;0.820081
6908.000000;0.811854
6907.000000;0.792299
6906.000000;0.792574
6905.000000;0.810588
6904.000000;0.814339
6903.000000;0.795598
6902.000000;0.785100
6901.000000;0.798129
6900.000000;0.811368
6899.000000;0.800069
6898.000000;0.782936
6897.000000;0.787787
6896.000000;0.806190
6895.000000;0.806109
6894.000000;0.787045
6893.000000;0.780454
6892.000000;0.795255
6891.000000;0.804372
6890.000000;0.789192
6889.000000;0.774023
6888.000000;0.781655
6887.000000;0.797306
6886.000000;0.791456
6885.000000;0.772071
6884.000000;0.769681
6883.000000;0.785980
6882.000000;0.791631
6881.000000;0.775099
6880.000000;0.764009
6879.000000;0.775517
6878.000000;0.789475
6877.000000;0.780271
6876.000000;0.762894
6875.000000;0.765106
6874.000000;0.781524
6873.000000;0.782236
6872.000000;0.763992
6871.000000;0.756160
6870.000000;0.769426
6869.000000;0.779255
6868.000000;0.765660
6867.000000;0.749681
6866.000000;0.755171
6865.000000;0.770920
6864.000000;0.768101
6863.000000;0.750451
6862.000000;0.746892
6861.000000;0.761871
6860.000000;0.768601
6859.000000;0.753269
6858.000000;0.740451
6857.000000;0.749022
6856.000000;0.762620
6855.000000;0.755464
6854.000000;0.738104
6853.000000;0.737598
6852.000000;0.752238
6851.000000;0.754511
6850.000000;0.737674
6849.000000;0.728343
6848.000000;0.739562
6847.000000;0.750377
6846.000000;0.739449
6845.000000;0.723446
6844.000000;0.726503
6843.000000;0.740730
6842.000000;0.738649
6841.000000;0.720704
6840.000000;0.714116
6839.000000;0.725969
6838.000000;0.732604
6837.000000;0.718611
6836.000000;0.704731
6835.000000;0.710213
6834.000000;0.722061
6833.000000;0.715730
6832.000000;0.698522
6831.000000;0.696021
6830.000000;0.708881
6829.000000;0.712024
6828.000000;0.696539
6827.000000;0.685766
6826.000000;0.693815
6825.000000;0.703647
6824.000000;0.694612
6823.000000;0.679106
6822.000000;0.679688
6821.000000;0.691605
6820.000000;0.690513
6819.000000;0.674054
6818.000000;0.665940
6817.000000;0.674670
6816.000000;0.680494
6815.000000;0.668106
6814.000000;0.654170
6813.000000;0.657310
6812.000000;0.667995
6811.000000;0.663524
6810.000000;0.647227
6809.000000;0.642098
6808.000000;0.651676
6807.000000;0.654952
6806.000000;0.641487
6805.000000;0.630059
6804.000000;0.635072
6803.000000;0.643556
6802.000000;0.636109
6801.000000;0.621045
6800.000000;0.619048
6799.000000;0.628440
6798.000000;0.628185
6797.000000;0.613615
6796.000000;0.604730
6795.000000;0.611057
6794.000000;0.616680
6793.000000;0.606461
6792.000000;0.592863
6791.000000;0.593499
6790.000000;0.602128
6789.000000;0.598800
6788.000000;0.584145
6787.000000;0.577854
6786.000000;0.584781
6785.000000;0.587544
6784.000000;0.575563
6783.000000;0.563833
6782.000000;0.566177
6781.000000;0.573002
6780.000000;0.567063
6779.000000;0.553514
6778.000000;0.550293
6777.000000;0.557696
6776.000000;0.558017
6775.000000;0.545347
6774.000000;0.536135
6773.000000;0.540427
6772.000000;0.546023
6771.000000;0.538479
6770.000000;0.526189
6769.000000;0.524988
6768.000000;0.531603
6767.000000;0.529247
6766.000000;0.516446
6765.000000;0.509634
6764.000000;0.514807
6763.000000;0.518018
6762.000000;0.508539
6761.000000;0.497702
6760.000000;0.498665
6759.000000;0.504742
6758.000000;0.500349
6757.000000;0.487861
6756.000000;0.483123
6755.000000;0.488497
6754.000000;0.489374
6753.000000;0.478829
6752.000000;0.469760
6751.000000;0.472032
6750.000000;0.476425
6749.000000;0.469864
6748.000000;0.458278
6747.000000;0.455885
6746.000000;0.461272
6745.000000;0.459908
6744.000000;0.448729
6743.000000;0.441376
6742.000000;0.444478
6741.000000;0.447190
6740.000000;0.439447
6739.000000;0.429541
6738.000000;0.429240
6737.000000;0.434116
6736.000000;0.430830
6735.000000;0.419973
6734.000000;0.414832
6733.000000;0.418656
6732.000000;0.419617
6731.000000;0.410715
6730.000000;0.402037
6729.000000;0.403013
6728.000000;0.406924
6727.000000;0.402033
6726.000000;0.391838
6725.000000;0.388661
6724.000000;0.392763
6723.000000;0.392048
6722.000000;0.382512
6721.000000;0.375230
6720.000000;0.377092
6719.000000;0.379702
6718.000000;0.373418
6717.000000;0.364081
6716.000000;0.362558
6715.000000;0.366439
6714.000000;0.364115
6713.000000;0.354632
6712.000000;0.349218
6711.000000;0.351956
6710.000000;0.353171
6709.000000;0.345700
6708.000000;0.337442
6707.000000;0.337448
6706.000000;0.340890
6705.000000;0.337050
6704.000000;0.327654
6703.000000;0.323654
6702.000000;0.326658
6701.000000;0.326553
6700.000000;0.318666
6699.000000;0.311823
6698.000000;0.312761
6697.000000;0.314985
6696.000000;0.309615
6695.000000;0.300820
6694.000000;0.298461
6693.000000;0.301545
6692.000000;0.300045
6691.000000;0.291910
6690.000000;0.286477
6689.000000;0.288237
6688.000000;0.289465
6687.000000;0.283174
6686.000000;0.275246
6685.000000;0.274136
6684.000000;0.276858
6683.000000;0.274092
6682.000000;0.266106
6681.000000;0.262103
6680.000000;0.264350
6679.000000;0.264447
6678.000000;0.257490
6677.000000;0.250586
6676.000000;0.250495
6675.000000;0.252520
6674.000000;0.248466
6673.000000;0.240786
6672.000000;0.238108
6671.000000;0.240510
6670.000000;0.239424
6669.000000;0.232169
6668.000000;0.226611
6667.000000;0.227517
6666.000000;0.228727
6665.000000;0.223530
6664.000000;0.216308
6663.000000;0.214848
6662.000000;0.217282
6661.000000;0.215262
6660.000000;0.208149
6659.000000;0.203946
6658.000000;0.205443
6657.000000;0.205662
6656.000000;0.199669
6655.000000;0.193175
6654.000000;0.192632
6653.000000;0.194510
6652.000000;0.191226
6651.000000;0.184100
6650.000000;0.180893
6649.000000;0.182597
6648.000000;0.181931
6647.000000;0.175719
6646.000000;0.170358
6645.000000;0.170676
6644.000000;0.171937
6643.000000;0.167791
6642.000000;0.161224
6641.000000;0.159289
6640.000000;0.161155
6639.000000;0.159524
6638.000000;0.153012
6637.000000;0.148500
6636.000000;0.149334
6635.000000;0.149903
6634.000000;0.145117
6633.000000;0.139155
6632.000000;0.138045
6631.000000;0.139476
6630.000000;0.136754
6629.000000;0.130349
6628.000000;0.127111
6627.000000;0.128577
6626.000000;0.128400
6625.000000;0.123010
6624.000000;0.117724
6623.000000;0.117518
6622.000000;0.118789
6621.000000;0.115460
6620.000000;0.109419
6619.000000;0.107108
6618.000000;0.108520
6617.000000;0.107264
6616.000000;0.101472
6615.000000;0.097062
6614.000000;0.097574
6613.000000;0.098336
6612.000000;0.094316
6611.000000;0.088720
6610.000000;0.087290
6609.000000;0.088601
6608.000000;0.086528
6607.000000;0.080742
6606.000000;0.077255
6605.000000;0.078113
6604.000000;0.078042
6603.000000;0.073366
6602.000000;0.068343
6601.000000;0.067784
6600.000000;0.069003
6599.000000;0.066356
6598.000000;0.060880
6597.000000;0.058389
6596.000000;0.059550
6595.000000;0.058810
6594.000000;0.053820
6593.000000;0.049506
6592.000000;0.049558
6591.000000;0.050286
6590.000000;0.046812
6589.000000;0.041422
6588.000000;0.039563
6587.000000;0.040679
6586.000000;0.039262
6585.000000;0.034267
6584.000000;0.030844
6583.000000;0.031412
6582.000000;0.031610
6581.000000;0.027657
6580.000000;0.022883
6579.000000;0.021929
6578.000000;0.022942
6577.000000;0.020729
6576.000000;0.015646
6575.000000;0.012941
6574.000000;0.013788
6573.000000;0.013364
6572.000000;0.009034
6571.000000;0.004875
6570.000000;0.004595
6569.000000;0.005319
6568.000000;0.002434
6567.000000;-0.002483
6566.000000;-0.004428
6565.000000;-0.003448
6564.000000;-0.004503
6563.000000;-0.009034
6562.000000;-0.012509
6561.000000;-0.012244
6560.000000;-0.011880
6559.000000;-0.015241
6558.000000;-0.019765
6557.000000;-0.020981
6556.000000;-0.020046
6555.000000;-0.021756
6554.000000;-0.026353
6553.000000;-0.029134
6552.000000;-0.028526
6551.000000;-0.028701
6550.000000;-0.032509
6549.000000;-0.036553
6548.000000;-0.037039
6547.000000;-0.036151
6546.000000;-0.038399
6545.000000;-0.042951
6544.000000;-0.045142
6543.000000;-0.044399
6542.000000;-0.045102
6541.000000;-0.049114
6540.000000;-0.052596
6539.000000;-0.052681
6538.000000;-0.052279
6537.000000;-0.055122
6536.000000;-0.059313
6535.000000;-0.060636
6534.000000;-0.059731
6533.000000;-0.061035
6532.000000;-0.065234
6531.000000;-0.068100
6530.000000;-0.067738
6529.000000;-0.067701
6528.000000;-0.070964
6527.000000;-0.074792
6526.000000;-0.075483
6525.000000;-0.074632
6524.000000;-0.076457
6523.000000;-0.080631
6522.000000;-0.082897
6521.000000;-0.082318
6520.000000;-0.082783
6519.000000;-0.086378
6518.000000;-0.089785
6517.000000;-0.090010
6516.000000;-0.089397
6515.000000;-0.091671
6514.000000;-0.095572
6513.000000;-0.097090
6512.000000;-0.096313
6511.000000;-0.097277
6510.000000;-0.101086
6509.000000;-0.104000
6508.000000;-0.103825
6507.000000;-0.103557
6506.000000;-0.106317
6505.000000;-0.110002
6504.000000;-0.110973
6503.000000;-0.110222
6502.000000;-0.111687
6501.000000;-0.115517
6500.000000;-0.117803
6499.000000;-0.117266
6498.000000;-0.117388
6497.000000;-0.120538
6496.000000;-0.123935
6495.000000;-0.124453
6494.000000;-0.123841
6493.000000;-0.125714
6492.000000;-0.129351
6491.000000;-0.131015
6490.000000;-0.130378
6489.000000;-0.131070
6488.000000;-0.134481
6487.000000;-0.137337
6486.000000;-0.137306
6485.000000;-0.136913
6484.000000;-0.139291
6483.000000;-0.142826
6482.000000;-0.143975
6481.000000;-0.143250
6480.000000;-0.144316
6479.000000;-0.147740
6478.000000;-0.150034
6477.000000;-0.149661
6476.000000;-0.149608
6475.000000;-0.152350
6474.000000;-0.155606
6473.000000;-0.156278
6472.000000;-0.155661
6471.000000;-0.157217
6470.000000;-0.160633
6469.000000;-0.162395
6468.000000;-0.161804
6467.000000;-0.162171
6466.000000;-0.165206
6465.000000;-0.168062
6464.000000;-0.168213
6463.000000;-0.167679
6462.000000;-0.169610
6461.000000;-0.172918
6460.000000;-0.174206
6459.000000;-0.173567
6458.000000;-0.174404
6457.000000;-0.177595
6456.000000;-0.179965
6455.000000;-0.179726
6454.000000;-0.179489
6453.000000;-0.181872
6452.000000;-0.185011
6451.000000;-0.185788
6450.000000;-0.185088
6449.000000;-0.186270
6448.000000;-0.189437
6447.000000;-0.191286
6446.000000;-0.190768
6445.000000;-0.190845
6444.000000;-0.193460
6443.000000;-0.196214
6442.000000;-0.196513
6441.000000;-0.195935
6440.000000;-0.197552
6439.000000;-0.200675
6438.000000;-0.202075
6437.000000;-0.201499
6436.000000;-0.202068
6435.000000;-0.204959
6434.000000;-0.207374
6433.000000;-0.207334
6432.000000;-0.206994
6431.000000;-0.208983
6430.000000;-0.211889
6429.000000;-0.212729
6428.000000;-0.212022
6427.000000;-0.212932
6426.000000;-0.215886
6425.000000;-0.217849
6424.000000;-0.217516
6423.000000;-0.217482
6422.000000;-0.219823
6421.000000;-0.222518
6420.000000;-0.222927
6419.000000;-0.222266
6418.000000;-0.223569
6417.000000;-0.226525
6416.000000;-0.228042
6415.000000;-0.227517
6414.000000;-0.227820
6413.000000;-0.230399
6412.000000;-0.232779
6411.000000;-0.232821
6410.000000;-0.232328
6409.000000;-0.233995
6408.000000;-0.236803
6407.000000;-0.237797
6406.000000;-0.237105
6405.000000;-0.237710
6404.000000;-0.240368
6403.000000;-0.242319
6402.000000;-0.242031
6401.000000;-0.241763
6400.000000;-0.243742
6399.000000;-0.246349
6398.000000;-0.246927
6397.000000;-0.246289
6396.000000;-0.247329
6395.000000;-0.250076
6394.000000;-0.251649
6393.000000;-0.251167
6392.000000;-0.251212
6391.000000;-0.253444
6390.000000;-0.255767
6389.000000;-0.255958
6388.000000;-0.255435
6387.000000;-0.256854
6386.000000;-0.259556
6385.000000;-0.260690
6384.000000;-0.260059
6383.000000;-0.260439
6382.000000;-0.262860
6381.000000;-0.264844
6380.000000;-0.264664
6379.000000;-0.264264
6378.000000;-0.265988
6377.000000;-0.268558
6376.000000;-0.269290
6375.000000;-0.268632
6374.000000;-0.269384
6373.000000;-0.271917
6372.000000;-0.273536
6371.000000;-0.273106
6370.000000;-0.272969
6369.000000;-0.274978
6368.000000;-0.277331
6367.000000;-0.277675
6366.000000;-0.277071
6365.000000;-0.278165
6364.000000;-0.280639
6363.000000;-0.281772
6362.000000;-0.281110
6361.000000;-0.281245
6360.000000;-0.283440
6359.000000;-0.285469
6358.000000;-0.285435
6357.000000;-0.284955
6356.000000;-0.286403
6355.000000;-0.288848
6354.000000;-0.289688
6353.000000;-0.289076
6352.000000;-0.289652
6351.000000;-0.292020
6350.000000;-0.293689
6349.000000;-0.293316
6348.000000;-0.292964
6347.000000;-0.294632
6346.000000;-0.296873
6345.000000;-0.297313
6344.000000;-0.296676
6343.000000;-0.297538
6342.000000;-0.299900
6341.000000;-0.301186
6340.000000;-0.300639
6339.000000;-0.300605
6338.000000;-0.302570
6337.000000;-0.304611
6336.000000;-0.304693
6335.000000;-0.304089
6334.000000;-0.305207
6333.000000;-0.307481
6332.000000;-0.308372
6331.000000;-0.307722
6330.000000;-0.308023
6329.000000;-0.310168
6328.000000;-0.311903
6327.000000;-0.311686
6326.000000;-0.311282
6325.000000;-0.312779
6324.000000;-0.315001
6323.000000;-0.315536
6322.000000;-0.314821
6321.000000;-0.315383
6320.000000;-0.317541
6319.000000;-0.318888
6318.000000;-0.318433
6317.000000;-0.318276
6316.000000;-0.320023
6315.000000;-0.322017
6314.000000;-0.322187
6313.000000;-0.321562
6312.000000;-0.322542
6311.000000;-0.324799
6310.000000;-0.325840
6309.000000;-0.325240
6308.000000;-0.325328
6307.000000;-0.327222
6306.000000;-0.328921
6305.000000;-0.328753
6304.000000;-0.328215
6303.000000;-0.329449
6302.000000;-0.331573
6301.000000;-0.332196
6300.000000;-0.331471
6299.000000;-0.331837
6298.000000;-0.333876
6297.000000;-0.335318
6296.000000;-0.334924
6295.000000;-0.334557
6294.000000;-0.336029
6293.000000;-0.338016
6292.000000;-0.338353
6291.000000;-0.337718
6290.000000;-0.338464
6289.000000;-0.340581
6288.000000;-0.341706
6287.000000;-0.341151
6286.000000;-0.341053
6285.000000;-0.342740
6284.000000;-0.344456
6283.000000;-0.344398
6282.000000;-0.343793
6281.000000;-0.344814
6280.000000;-0.346856
6279.000000;-0.347564
6278.000000;-0.346837
6277.000000;-0.347003
6276.000000;-0.348871
6275.000000;-0.350363
6274.000000;-0.350079
6273.000000;-0.349651
6272.000000;-0.350969
6271.000000;-0.352936
6270.000000;-0.353356
6269.000000;-0.352646
6268.000000;-0.353110
6267.000000;-0.355009
6266.000000;-0.356146
6265.000000;-0.355648
6264.000000;-0.355446
6263.000000;-0.356978
6262.000000;-0.358700
6261.000000;-0.358726
6260.000000;-0.358030
6259.000000;-0.358821
6258.000000;-0.360792
6257.000000;-0.361658
6256.000000;-0.361049
6255.000000;-0.361112
6254.000000;-0.362850
6253.000000;-0.364399
6252.000000;-0.364217
6251.000000;-0.363691
6250.000000;-0.364780
6249.000000;-0.366655
6248.000000;-0.367137
6247.000000;-0.366413
6246.000000;-0.366729
6245.000000;-0.368565
6244.000000;-0.369802
6243.000000;-0.369341
6242.000000;-0.368954
6241.000000;-0.370276
6240.000000;-0.372019
6239.000000;-0.372199
6238.000000;-0.371511
6237.000000;-0.372147
6236.000000;-0.374043
6235.000000;-0.374982
6234.000000;-0.374372
6233.000000;-0.374226
6232.000000;-0.375740
6231.000000;-0.377246
6230.000000;-0.377094
6229.000000;-0.376463
6228.000000;-0.377373
6227.000000;-0.379235
6226.000000;-0.379862
6225.000000;-0.379167
6224.000000;-0.379288
6223.000000;-0.380945
6222.000000;-0.382222
6221.000000;-0.381873
6220.000000;-0.381432
6219.000000;-0.382608
6218.000000;-0.384344
6217.000000;-0.384618
6216.000000;-0.383875
6215.000000;-0.384266
6214.000000;-0.385997
6213.000000;-0.386991
6212.000000;-0.386455
6211.000000;-0.386233
6210.000000;-0.387674
6209.000000;-0.389301
6208.000000;-0.389319
6207.000000;-0.388639
6206.000000;-0.389327
6205.000000;-0.391090
6204.000000;-0.391796
6203.000000;-0.391125
6202.000000;-0.391117
6201.000000;-0.392693
6200.000000;-0.394066
6199.000000;-0.393780
6198.000000;-0.393155
6197.000000;-0.394053
6196.000000;-0.395715
6195.000000;-0.396104
6194.000000;-0.395398
6193.000000;-0.395668
6192.000000;-0.397327
6191.000000;-0.398401
6190.000000;-0.397914
6189.000000;-0.397551
6188.000000;-0.398802
6187.000000;-0.400405
6186.000000;-0.400503
6185.000000;-0.399780
6184.000000;-0.400298
6183.000000;-0.401983
6182.000000;-0.402768
6181.000000;-0.402133
6180.000000;-0.401980
6179.000000;-0.403398
6178.000000;-0.404795
6177.000000;-0.404626
6176.000000;-0.404012
6175.000000;-0.404832
6174.000000;-0.406501
6173.000000;-0.406963
6172.000000;-0.406177
6171.000000;-0.406193
6170.000000;-0.407689
6169.000000;-0.408837
6168.000000;-0.408445
6167.000000;-0.407968
6166.000000;-0.409020
6165.000000;-0.410602
6164.000000;-0.410818
6163.000000;-0.410100
6162.000000;-0.410475
6161.000000;-0.412092
6160.000000;-0.412959
6159.000000;-0.412349
6158.000000;-0.412039
6157.000000;-0.413309
6156.000000;-0.414755
6155.000000;-0.414693
6154.000000;-0.414004
6153.000000;-0.414625
6152.000000;-0.416235
6151.000000;-0.416815
6150.000000;-0.416094
6149.000000;-0.416010
6148.000000;-0.417411
6147.000000;-0.418617
6146.000000;-0.418309
6145.000000;-0.417764
6144.000000;-0.418677
6143.000000;-0.420241
6142.000000;-0.420521
6141.000000;-0.419744
6140.000000;-0.419926
6139.000000;-0.421449
6138.000000;-0.422418
6137.000000;-0.421888
6136.000000;-0.421450
6135.000000;-0.422519
6134.000000;-0.423923
6133.000000;-0.423932
6132.000000;-0.423218
6131.000000;-0.423722
6130.000000;-0.425340
6129.000000;-0.426078
6128.000000;-0.425431
6127.000000;-0.425214
6126.000000;-0.426475
6125.000000;-0.427712
6124.000000;-0.427459
6123.000000;-0.426786
6122.000000;-0.427489
6121.000000;-0.429022
6120.000000;-0.429442
6119.000000;-0.428716
6118.000000;-0.428767
6117.000000;-0.430181
6116.000000;-0.431191
6115.000000;-0.430710
6114.000000;-0.430191
6113.000000;-0.431171
6112.000000;-0.432645
6111.000000;-0.432780
6110.000000;-0.432012
6109.000000;-0.432293
6108.000000;-0.433748
6107.000000;-0.434470
6106.000000;-0.433791
6105.000000;-0.433428
6104.000000;-0.434586
6103.000000;-0.435913
6102.000000;-0.435828
6101.000000;-0.435191
6100.000000;-0.435809
6099.000000;-0.437314
6098.000000;-0.437777
6097.000000;-0.436999
6096.000000;-0.436871
6095.000000;-0.438180
6094.000000;-0.439281
6093.000000;-0.438904
6092.000000;-0.438294
6091.000000;-0.439086
6090.000000;-0.440516
6089.000000;-0.440734
6088.000000;-0.439963
6087.000000;-0.440120
6086.000000;-0.441552
6085.000000;-0.442443
6084.000000;-0.441908
6083.000000;-0.441484
6082.000000;-0.442512
6081.000000;-0.443827
6080.000000;-0.443755
6079.000000;-0.442963
6078.000000;-0.443339
6077.000000;-0.444782
6076.000000;-0.445377
6075.000000;-0.444657
6074.000000;-0.444387
6073.000000;-0.445555
6072.000000;-0.446681
6071.000000;-0.446364
6070.000000;-0.445668
6069.000000;-0.446323
6068.000000;-0.447760
6067.000000;-0.448079
6066.000000;-0.447276
6065.000000;-0.447242
6064.000000;-0.448549
6063.000000;-0.449486
6062.000000;-0.449002
6061.000000;-0.448488
6060.000000;-0.449394
6059.000000;-0.450732
6058.000000;-0.450763
6057.000000;-0.449951
6056.000000;-0.450184
6055.000000;-0.451562
6054.000000;-0.452235
6053.000000;-0.451569
6052.000000;-0.451207
6051.000000;-0.452272
6050.000000;-0.453436
6049.000000;-0.453201
6048.000000;-0.452449
6047.000000;-0.452952
6046.000000;-0.454347
6045.000000;-0.454751
6044.000000;-0.453958
6043.000000;-0.453784
6042.000000;-0.454979
6041.000000;-0.455948
6040.000000;-0.455482
6039.000000;-0.454809
6038.000000;-0.455511
6037.000000;-0.456828
6036.000000;-0.456967
6035.000000;-0.456158
6034.000000;-0.456265
6033.000000;-0.457603
6032.000000;-0.458396
6031.000000;-0.457804
6030.000000;-0.457335
6029.000000;-0.458275
6028.000000;-0.459474
6027.000000;-0.459319
6026.000000;-0.458482
6025.000000;-0.458780
6024.000000;-0.460081
6023.000000;-0.460531
6022.000000;-0.459731
6021.000000;-0.459424
6020.000000;-0.460535
6019.000000;-0.461590
6018.000000;-0.461235
6017.000000;-0.460527
6016.000000;-0.461127
6015.000000;-0.462447
6014.000000;-0.462647
6013.000000;-0.461767
6012.000000;-0.461668
6011.000000;-0.462886
6010.000000;-0.463732
6009.000000;-0.463183
6008.000000;-0.462601
6007.000000;-0.463396
6006.000000;-0.464602
6005.000000;-0.464536
6004.000000;-0.463673
6003.000000;-0.463862
6002.000000;-0.465173
6001.000000;-0.465774
6000.000000;-0.465041
5999.000000;-0.464605
5998.000000;-0.465574
5997.000000;-0.466641
5996.000000;-0.466326
5995.000000;-0.465496
5994.000000;-0.465900
5993.000000;-0.467178
5992.000000;-0.467484
5991.000000;-0.466631
5990.000000;-0.466407
5989.000000;-0.467530
5988.000000;-0.468414
5987.000000;-0.467880
5986.000000;-0.467146
5985.000000;-0.467747
5984.000000;-0.468913
5983.000000;-0.468903
5982.000000;-0.467991
5981.000000;-0.468019
5980.000000;-0.469256
5979.000000;-0.469931
5978.000000;-0.469252
5977.000000;-0.468734
5976.000000;-0.469614
5975.000000;-0.470717
5974.000000;-0.470460
5973.000000;-0.469538
5972.000000;-0.469754
5971.000000;-0.470955
5970.000000;-0.471304
5969.000000;-0.470419
5968.000000;-0.470022
5967.000000;-0.471022
5966.000000;-0.471964
5965.000000;-0.471519
5964.000000;-0.470730
5963.000000;-0.471230
5962.000000;-0.472440
5961.000000;-0.472549
5960.000000;-0.471599
5959.000000;-0.471420
5958.000000;-0.472525
5957.000000;-0.473245
5956.000000;-0.472581
5955.000000;-0.471897
5954.000000;-0.472598
5953.000000;-0.473720
5952.000000;-0.473585
5951.000000;-0.472661
5950.000000;-0.472765
5949.000000;-0.473959
5948.000000;-0.474432
5947.000000;-0.473590
5946.000000;-0.473062
5945.000000;-0.473929
5944.000000;-0.474876
5943.000000;-0.474448
5942.000000;-0.473532
5941.000000;-0.473848
5940.000000;-0.475004
5939.000000;-0.475174
5938.000000;-0.474218
5937.000000;-0.473921
5936.000000;-0.474957
5935.000000;-0.475720
5934.000000;-0.475062
5933.000000;-0.474236
5932.000000;-0.474775
5931.000000;-0.475893
5930.000000;-0.475853
5929.000000;-0.474921
5928.000000;-0.474892
5927.000000;-0.476003
5926.000000;-0.476511
5925.000000;-0.475668
5924.000000;-0.474993
5923.000000;-0.475707
5922.000000;-0.476654
5921.000000;-0.476288
5920.000000;-0.475311
5919.000000;-0.475479
5918.000000;-0.476607
5917.000000;-0.476883
5916.000000;-0.475959
5915.000000;-0.475545
5914.000000;-0.476501
5913.000000;-0.477341
5912.000000;-0.476763
5911.000000;-0.475851
5910.000000;-0.476245
5909.000000;-0.477357
5908.000000;-0.477387
5907.000000;-0.476397
5906.000000;-0.476202
5905.000000;-0.477259
5904.000000;-0.477875
5903.000000;-0.477093
5902.000000;-0.476326
5901.000000;-0.476961
5900.000000;-0.477980
5899.000000;-0.477705
5898.000000;-0.476657
5897.000000;-0.476684
5896.000000;-0.477813
5895.000000;-0.478201
5894.000000;-0.477270
5893.000000;-0.476674
5892.000000;-0.477478
5891.000000;-0.478337
5890.000000;-0.477807
5889.000000;-0.476807
5888.000000;-0.477064
5887.000000;-0.478173
5886.000000;-0.478290
5885.000000;-0.477268
5884.000000;-0.476877
5883.000000;-0.477773
5882.000000;-0.478371
5881.000000;-0.477576
5880.000000;-0.476668
5879.000000;-0.477155
5878.000000;-0.478202
5877.000000;-0.478064
5876.000000;-0.477039
5875.000000;-0.476947
5874.000000;-0.478002
5873.000000;-0.478422
5872.000000;-0.477467
5871.000000;-0.476697
5870.000000;-0.477340
5869.000000;-0.478195
5868.000000;-0.477694
5867.000000;-0.476570
5866.000000;-0.476630
5865.000000;-0.477672
5864.000000;-0.477838
5863.000000;-0.476779
5862.000000;-0.476246
5861.000000;-0.477105
5860.000000;-0.477835
5859.000000;-0.477119
5858.000000;-0.476072
5857.000000;-0.476345
5856.000000;-0.477313
5855.000000;-0.477159
5854.000000;-0.475985
5853.000000;-0.475646
5852.000000;-0.476585
5851.000000;-0.477067
5850.000000;-0.476143
5849.000000;-0.475255
5848.000000;-0.475781
5847.000000;-0.476666
5846.000000;-0.476223
5845.000000;-0.475006
5844.000000;-0.474881
5843.000000;-0.475855
5842.000000;-0.476069
5841.000000;-0.474965
5840.000000;-0.474221
5839.000000;-0.474894
5838.000000;-0.475612
5837.000000;-0.474934
5836.000000;-0.473798
5835.000000;-0.473929
5834.000000;-0.474877
5833.000000;-0.474772
5832.000000;-0.473512
5831.000000;-0.472951
5830.000000;-0.473767
5829.000000;-0.474306
5828.000000;-0.473409
5827.000000;-0.472359
5826.000000;-0.472693
5825.000000;-0.473552
5824.000000;-0.473159
5823.000000;-0.471851
5822.000000;-0.471534
5821.000000;-0.472446
5820.000000;-0.472751
5819.000000;-0.471676
5818.000000;-0.470806
5817.000000;-0.471366
5816.000000;-0.472084
5815.000000;-0.471349
5814.000000;-0.469954
5813.000000;-0.469789
5812.000000;-0.470649
5811.000000;-0.470618
5810.000000;-0.469350
5809.000000;-0.468644
5808.000000;-0.469369
5807.000000;-0.469951
5806.000000;-0.469060
5805.000000;-0.467856
5804.000000;-0.468017
5803.000000;-0.468862
5802.000000;-0.468521
5801.000000;-0.467121
5800.000000;-0.466579
5799.000000;-0.467346
5798.000000;-0.467644
5797.000000;-0.466521
5796.000000;-0.465467
5795.000000;-0.465882
5794.000000;-0.466652
5793.000000;-0.466032
5792.000000;-0.464604
5791.000000;-0.464297
5790.000000;-0.465119
5789.000000;-0.465158
5788.000000;-0.463851
5787.000000;-0.462937
5786.000000;-0.463492
5785.000000;-0.464059
5784.000000;-0.463132
5783.000000;-0.461718
5782.000000;-0.461644
5781.000000;-0.462454
5780.000000;-0.462206
5779.000000;-0.460795
5778.000000;-0.460139
5777.000000;-0.460886
5776.000000;-0.461265
5775.000000;-0.460074
5774.000000;-0.458705
5773.000000;-0.458799
5772.000000;-0.459467
5771.000000;-0.458848
5770.000000;-0.457293
5769.000000;-0.456759
5768.000000;-0.457460
5767.000000;-0.457503
5766.000000;-0.456144
5765.000000;-0.455066
5764.000000;-0.455500
5763.000000;-0.456079
5762.000000;-0.455154
5761.000000;-0.453594
5760.000000;-0.453343
5759.000000;-0.454128
5758.000000;-0.453937
5757.000000;-0.452441
5756.000000;-0.451522
5755.000000;-0.452044
5754.000000;-0.452355
5753.000000;-0.451113
5752.000000;-0.449592
5751.000000;-0.449552
5750.000000;-0.450248
5749.000000;-0.449709
5748.000000;-0.448073
5747.000000;-0.447345
5746.000000;-0.447967
5745.000000;-0.448048
5744.000000;-0.446600
5743.000000;-0.445226
5742.000000;-0.445413
5741.000000;-0.445987
5740.000000;-0.445111
5739.000000;-0.443403
5738.000000;-0.442898
5737.000000;-0.443580
5736.000000;-0.443421
5735.000000;-0.441842
5734.000000;-0.440680
5733.000000;-0.441034
5732.000000;-0.441351
5731.000000;-0.440095
5730.000000;-0.438393
5729.000000;-0.438152
5728.000000;-0.438805
5727.000000;-0.438263
5726.000000;-0.436462
5725.000000;-0.435468
5724.000000;-0.435958
5723.000000;-0.436068
5722.000000;-0.434595
5721.000000;-0.433046
5720.000000;-0.433083
5719.000000;-0.433665
5718.000000;-0.432818
5717.000000;-0.430986
5716.000000;-0.430268
5715.000000;-0.430839
5714.000000;-0.430650
5713.000000;-0.428936
5712.000000;-0.427530
5711.000000;-0.427752
5710.000000;-0.428136
5709.000000;-0.426926
5708.000000;-0.425056
5707.000000;-0.424593
5706.000000;-0.425217
5705.000000;-0.424764
5704.000000;-0.422900
5703.000000;-0.421676
5702.000000;-0.422034
5701.000000;-0.422202
5700.000000;-0.420728
5699.000000;-0.418968
5698.000000;-0.418797
5697.000000;-0.419381
5696.000000;-0.418590
5695.000000;-0.416612
5694.000000;-0.415647
5693.000000;-0.416160
5692.000000;-0.416078
5691.000000;-0.414344
5690.000000;-0.412732
5689.000000;-0.412839
5688.000000;-0.413340
5687.000000;-0.412233
5686.000000;-0.410240
5685.000000;-0.409591
5684.000000;-0.410218
5683.000000;-0.409879
5682.000000;-0.407982
5681.000000;-0.406584
5680.000000;-0.406879
5679.000000;-0.407140
5678.000000;-0.405693
5677.000000;-0.403787
5676.000000;-0.403499
5675.000000;-0.404178
5674.000000;-0.403538
5673.000000;-0.401524
5672.000000;-0.400398
5671.000000;-0.400887
5670.000000;-0.400944
5669.000000;-0.399254
5668.000000;-0.397465
5667.000000;-0.397401
5666.000000;-0.397942
5665.000000;-0.396950
5664.000000;-0.394917
5663.000000;-0.394145
5662.000000;-0.394821
5661.000000;-0.394676
5660.000000;-0.392840
5659.000000;-0.391318
5658.000000;-0.391585
5657.000000;-0.392058
5656.000000;-0.390816
5655.000000;-0.388873
5654.000000;-0.388473
5653.000000;-0.389232
5652.000000;-0.388770
5651.000000;-0.386768
5650.000000;-0.385536
5649.000000;-0.386101
5648.000000;-0.386453
5647.000000;-0.384981
5646.000000;-0.383195
5645.000000;-0.383158
5644.000000;-0.383932
5643.000000;-0.383201
5642.000000;-0.381231
5641.000000;-0.380426
5640.000000;-0.381218
5639.000000;-0.381294
5638.000000;-0.379550
5637.000000;-0.377975
5636.000000;-0.378288
5635.000000;-0.378999
5634.000000;-0.377954
5633.000000;-0.375975
5632.000000;-0.375469
5631.000000;-0.376333
5630.000000;-0.376177
5629.000000;-0.374430
5628.000000;-0.373300
5627.000000;-0.373977
5626.000000;-0.374530
5625.000000;-0.373178
5624.000000;-0.371327
5623.000000;-0.371251
5622.000000;-0.372262
5621.000000;-0.371919
5620.000000;-0.370164
5619.000000;-0.369385
5618.000000;-0.370308
5617.000000;-0.370714
5616.000000;-0.369236
5615.000000;-0.367697
5614.000000;-0.368059
5613.000000;-0.369071
5612.000000;-0.368402
5611.000000;-0.366603
5610.000000;-0.366174
5609.000000;-0.367295
5608.000000;-0.367503
5607.000000;-0.365889
5606.000000;-0.364640
5605.000000;-0.365326
5604.000000;-0.366202
5603.000000;-0.365227
5602.000000;-0.363560
5601.000000;-0.363613
5600.000000;-0.364911
5599.000000;-0.364881
5598.000000;-0.363225
5597.000000;-0.362411
5596.000000;-0.363462
5595.000000;-0.364199
5594.000000;-0.362991
5593.000000;-0.361540
5592.000000;-0.362015
5591.000000;-0.363341
5590.000000;-0.363040
5589.000000;-0.361430
5588.000000;-0.361058
5587.000000;-0.362359
5586.000000;-0.362906
5585.000000;-0.361563
5584.000000;-0.360396
5583.000000;-0.361163
5582.000000;-0.362291
5581.000000;-0.361576
5580.000000;-0.359925
5579.000000;-0.359857
5578.000000;-0.361239
5577.000000;-0.361532
5576.000000;-0.360118
5575.000000;-0.359326
5574.000000;-0.360460
5573.000000;-0.361536
5572.000000;-0.360655
5571.000000;-0.359212
5570.000000;-0.359550
5569.000000;-0.360968
5568.000000;-0.360951
5567.000000;-0.359463
5566.000000;-0.359014
5565.000000;-0.360373
5564.000000;-0.361229
5563.000000;-0.360164
5562.000000;-0.359069
5561.000000;-0.359927
5560.000000;-0.361359
5559.000000;-0.360933
5558.000000;-0.359251
5557.000000;-0.358925
5556.000000;-0.360140
5555.000000;-0.360422
5554.000000;-0.358960
5553.000000;-0.358052
5552.000000;-0.359220
5551.000000;-0.360555
5550.000000;-0.359939
5549.000000;-0.358589
5548.000000;-0.358980
5547.000000;-0.360645
5546.000000;-0.361026
5545.000000;-0.359843
5544.000000;-0.359515
5543.000000;-0.360943
5542.000000;-0.361852
5541.000000;-0.360621
5540.000000;-0.359024
5539.000000;-0.359316
5538.000000;-0.360496
5537.000000;-0.360183
5536.000000;-0.358792
5535.000000;-0.358901
5534.000000;-0.360804
5533.000000;-0.361854
5532.000000;-0.360815
5531.000000;-0.359845
5530.000000;-0.360833
5529.000000;-0.362219
5528.000000;-0.361699
5527.000000;-0.360099
5526.000000;-0.359909
5525.000000;-0.360987
5524.000000;-0.360857
5523.000000;-0.359072
5522.000000;-0.358134
5521.000000;-0.359362
5520.000000;-0.360627
5519.000000;-0.359923
5518.000000;-0.358623
5517.000000;-0.359044
5516.000000;-0.360484
5515.000000;-0.360517
5514.000000;-0.359154
5513.000000;-0.358714
5512.000000;-0.359698
5511.000000;-0.359795
5510.000000;-0.357886
5509.000000;-0.356152
5508.000000;-0.356724
5507.000000;-0.358342
5506.000000;-0.358664
5505.000000;-0.358103
5504.000000;-0.358715
5503.000000;-0.360125
5502.000000;-0.359736
5501.000000;-0.357109
5500.000000;-0.354927
5499.000000;-0.354759
5498.000000;-0.354548
5497.000000;-0.352178
5496.000000;-0.349109
5495.000000;-0.348053
5494.000000;-0.348657
5493.000000;-0.348538
5492.000000;-0.347729
5491.000000;-0.348771
5490.000000;-0.352095
5489.000000;-0.354790
5488.000000;-0.355120
5487.000000;-0.355136
5486.000000;-0.356904
5485.000000;-0.358480
5484.000000;-0.356807
5483.000000;-0.352780
5482.000000;-0.349997
5481.000000;-0.349258
5480.000000;-0.347884
5479.000000;-0.344796
5478.000000;-0.342526
5477.000000;-0.342953
5476.000000;-0.344271
5475.000000;-0.344372
5474.000000;-0.344525
5473.000000;-0.346772
5472.000000;-0.349556
5471.000000;-0.349408
5470.000000;-0.346083
5469.000000;-0.342994
5468.000000;-0.342235
5467.000000;-0.341973
5466.000000;-0.340198
5465.000000;-0.338173
5464.000000;-0.338156
5463.000000;-0.339487
5462.000000;-0.339773
5461.000000;-0.339055
5460.000000;-0.339763
5459.000000;-0.342286
5458.000000;-0.343733
5457.000000;-0.342312
5456.000000;-0.339873
5455.000000;-0.338520
5454.000000;-0.337085
5453.000000;-0.333490
5452.000000;-0.328670
5451.000000;-0.325189
5450.000000;-0.323015
5449.000000;-0.319966
5448.000000;-0.316069
5447.000000;-0.314098
5446.000000;-0.315183
5445.000000;-0.316707
5444.000000;-0.316259
5443.000000;-0.315131
5442.000000;-0.315719
5441.000000;-0.317322
5440.000000;-0.317328
5439.000000;-0.315432
5438.000000;-0.313704
5437.000000;-0.312691
5436.000000;-0.310485
5435.000000;-0.306556
5434.000000;-0.303795
5433.000000;-0.304626
5432.000000;-0.307005
5431.000000;-0.307343
5430.000000;-0.305841
5429.000000;-0.306127
5428.000000;-0.309554
5427.000000;-0.313192
5426.000000;-0.314672
5425.000000;-0.315138
5424.000000;-0.315766
5423.000000;-0.314617
5422.000000;-0.309686
5421.000000;-0.302615
5420.000000;-0.296501
5419.000000;-0.291225
5418.000000;-0.284402
5417.000000;-0.276371
5416.000000;-0.270504
5415.000000;-0.268347
5414.000000;-0.267733
5413.000000;-0.267006
5412.000000;-0.267892
5411.000000;-0.271921
5410.000000;-0.276558
5409.000000;-0.278230
5408.000000;-0.277314
5407.000000;-0.276896
5406.000000;-0.277255
5405.000000;-0.275326
5404.000000;-0.269914
5403.000000;-0.263764
5402.000000;-0.259398
5401.000000;-0.255306
5400.000000;-0.248984
5399.000000;-0.241656
5398.000000;-0.236844
5397.000000;-0.234899
5396.000000;-0.232333
5395.000000;-0.227403
5394.000000;-0.222921
5393.000000;-0.221457
5392.000000;-0.220801
5391.000000;-0.217588
5390.000000;-0.212693
5389.000000;-0.209412
5388.000000;-0.207521
5387.000000;-0.203401
5386.000000;-0.196206
5385.000000;-0.189741
5384.000000;-0.186149
5383.000000;-0.182062
5382.000000;-0.174444
5381.000000;-0.165885
5380.000000;-0.160460
5379.000000;-0.156907
5378.000000;-0.151083
5377.000000;-0.143665
5376.000000;-0.139727
5375.000000;-0.139952
5374.000000;-0.138711
5373.000000;-0.132789
5372.000000;-0.125782
5371.000000;-0.121304
5370.000000;-0.116576
5369.000000;-0.107551
5368.000000;-0.096343
5367.000000;-0.088173
5366.000000;-0.082589
5365.000000;-0.074296
5364.000000;-0.062132
5363.000000;-0.050918
5362.000000;-0.043034
5361.000000;-0.033933
5360.000000;-0.019916
5359.000000;-0.004381
5358.000000;0.007573
5357.000000;0.017654
5356.000000;0.031247
5355.000000;0.048211
5354.000000;0.062750
5353.000000;0.073033
5352.000000;0.084685
5351.000000;0.101053
5350.000000;0.117519
5349.000000;0.129479
5348.000000;0.141235
5347.000000;0.159327
5346.000000;0.181385
5345.000000;0.198514
5344.000000;0.209280
5343.000000;0.222279
5342.000000;0.241409
5341.000000;0.259550
5340.000000;0.271198
5339.000000;0.283399
5338.000000;0.304103
5337.000000;0.327721
5336.000000;0.342645
5335.000000;0.352587
5334.000000;0.371997
5333.000000;0.402455
5332.000000;0.428672
5331.000000;0.442699
5330.000000;0.458771
5329.000000;0.488683
5328.000000;0.521584
5327.000000;0.539501
5326.000000;0.551094
5325.000000;0.577888
5324.000000;0.618038
5323.000000;0.646500
5322.000000;0.658627
5321.000000;0.682499
5320.000000;0.730684
5319.000000;0.777169
5318.000000;0.794840
5317.000000;0.810136
5316.000000;0.857199
5315.000000;0.922101
5314.000000;0.953677
5313.000000;0.958575
5312.000000;0.993875
5311.000000;1.071540
5310.000000;1.128919
5309.000000;1.124081
5308.000000;1.134532
5307.000000;1.212408
5306.000000;1.312277
5305.000000;1.312786
5304.000000;1.287935
5303.000000;1.348014
5302.000000;1.491962
5301.000000;1.528233
5300.000000;1.453636
5299.000000;1.478000
5298.000000;1.647660
5297.000000;1.777327
5296.000000;1.629992
5295.000000;1.597513
5294.000000;1.755194
5293.000000;2.005127
5292.000000;1.797350
5291.000000;1.683009
5290.000000;1.793431
5289.000000;2.120449
5288.000000;1.940407
5287.000000;1.733022
5286.000000;1.772511
5285.000000;2.134644
5284.000000;2.112823
5283.000000;1.788939
5282.000000;1.770076
5281.000000;2.006041
5280.000000;2.236851
5279.000000;1.857176
5278.000000;1.749444
5277.000000;1.866289
5276.000000;2.340333
5275.000000;1.987716
5274.000000;1.775579
5273.000000;1.809930
5272.000000;2.125786
5271.000000;2.173650
5270.000000;1.813662
5269.000000;1.760931
5268.000000;1.951887
5267.000000;2.310588
5266.000000;1.912150
5265.000000;1.769674
5264.000000;1.842023
5263.000000;2.216439
5262.000000;2.082358
5261.000000;1.783525
5260.000000;1.786095
5259.000000;2.073306
5258.000000;2.279524
5257.000000;1.873320
5256.000000;1.772803
5255.000000;1.877637
5254.000000;2.329147
5253.000000;2.007995
5252.000000;1.780984
5251.000000;1.820993
5250.000000;2.158253
5249.000000;2.186609
5248.000000;1.836285
5247.000000;1.778441
5246.000000;1.948988
5245.000000;2.435357
5244.000000;1.935415
5243.000000;1.771354
5242.000000;1.838010
5241.000000;2.206611
5240.000000;2.113893
5239.000000;1.792017
5238.000000;1.764090
5237.000000;2.000793
5236.000000;2.268744
5235.000000;1.857667
5234.000000;1.754881
5233.000000;1.868912
5232.000000;2.295153
5231.000000;2.047073
5230.000000;1.780901
5229.000000;1.793243
5228.000000;2.107305
5227.000000;2.182182
5226.000000;1.822472
5225.000000;1.754125
5224.000000;1.902218
5223.000000;2.370389
5222.000000;1.957154
5221.000000;1.762255
5220.000000;1.810854
5219.000000;2.138912
5218.000000;2.128366
5217.000000;1.802959
5216.000000;1.759638
5215.000000;1.973664
5214.000000;2.380785
5213.000000;1.906316
5212.000000;1.770964
5211.000000;1.857140
5210.000000;2.254916
5209.000000;2.115140
5208.000000;1.805217
5207.000000;1.801111
5206.000000;2.111864
5205.000000;2.302334
5204.000000;1.861305
5203.000000;1.767272
5202.000000;1.875128
5201.000000;2.347318
5200.000000;2.011266
5199.000000;1.764938
5198.000000;1.798972
5197.000000;2.132064
5196.000000;2.157330
5195.000000;1.813504
5194.000000;1.755243
5193.000000;1.934273
5192.000000;2.392809
5191.000000;1.919609
5190.000000;1.759814
5189.000000;1.832867
5188.000000;2.187095
5187.000000;2.090011
5186.000000;1.784082
5185.000000;1.757688
5184.000000;2.012713
5183.000000;2.308544
5182.000000;1.860674
5181.000000;1.753221
5180.000000;1.849845
5179.000000;2.269060
5178.000000;2.068191
5177.000000;1.774110
5176.000000;1.782352
5175.000000;2.091954
5174.000000;2.212889
5173.000000;1.835274
5172.000000;1.751569
5171.000000;1.893210
5170.000000;2.331798
5169.000000;1.943617
5168.000000;1.747823
5167.000000;1.807782
5166.000000;2.154653
5165.000000;2.116942
5164.000000;1.793780
5163.000000;1.748595
5162.000000;1.959981
5161.000000;2.337519
5160.000000;1.883351
5159.000000;1.746477
5158.000000;1.831448
5157.000000;2.195235
5156.000000;2.062116
5155.000000;1.763203
5154.000000;1.754199
5153.000000;2.030779
5152.000000;2.235649
5151.000000;1.841762
5150.000000;1.735594
5149.000000;1.850120
5148.000000;2.260759
5147.000000;1.982688
5146.000000;1.745571
5145.000000;1.779944
5144.000000;2.100301
5143.000000;2.146993
5142.000000;1.806137
5141.000000;1.745179
5140.000000;1.934030
5139.000000;2.369464
5138.000000;1.918394
5137.000000;1.750534
5136.000000;1.825368
5135.000000;2.183255
5134.000000;2.104695
5133.000000;1.786462
5132.000000;1.747765
5131.000000;1.990551
5130.000000;2.287099
5129.000000;1.848498
5128.000000;1.733632
5127.000000;1.850840
5126.000000;2.237324
5125.000000;2.022377
5124.000000;1.755518
5123.000000;1.769864
5122.000000;2.099312
5121.000000;2.225017
5120.000000;1.842929
5119.000000;1.754145
5118.000000;1.893001
5117.000000;2.344432
5116.000000;1.952039
5115.000000;1.740175
5114.000000;1.800649
5113.000000;2.144766
5112.000000;2.089517
5111.000000;1.778794
5110.000000;1.739169
5109.000000;1.967679
5108.000000;2.325993
5107.000000;1.865944
5106.000000;1.728997
5105.000000;1.820952
5104.000000;2.178527
5103.000000;2.050257
5102.000000;1.760385
5101.000000;1.753847
5100.000000;2.049187
5099.000000;2.222794
5098.000000;1.824949
5097.000000;1.736038
5096.000000;1.871158
5095.000000;2.287586
5094.000000;1.993939
5093.000000;1.746738
5092.000000;1.784395
5091.000000;2.128054
5090.000000;2.153126
5089.000000;1.812965
5088.000000;1.752571
5087.000000;1.945751
5086.000000;2.392165
5085.000000;1.910034
5084.000000;1.728939
5083.000000;1.800230
5082.000000;2.120930
5081.000000;2.033718
5080.000000;1.749918
5079.000000;1.726080
5078.000000;1.982245
5077.000000;2.272011
5076.000000;1.849802
5075.000000;1.735441
5074.000000;1.843134
5073.000000;2.240501
5072.000000;2.059677
5071.000000;1.759521
5070.000000;1.764380
5069.000000;2.075157
5068.000000;2.192348
5067.000000;1.820605
5066.000000;1.730888
5065.000000;1.874119
5064.000000;2.312152
5063.000000;1.965569
5062.000000;1.737172
5061.000000;1.787627
5060.000000;2.117904
5059.000000;2.114968
5058.000000;1.781020
5057.000000;1.719525
5056.000000;1.921246
5055.000000;2.264076
5054.000000;1.865482
5053.000000;1.713998
5052.000000;1.786590
5051.000000;2.114078
5050.000000;2.064175
5049.000000;1.747723
5048.000000;1.724149
5047.000000;1.985039
5046.000000;2.203089
5045.000000;1.833191
5044.000000;1.715949
5043.000000;1.817193
5042.000000;2.221235
5041.000000;2.022471
5040.000000;1.737382
5039.000000;1.750148
5038.000000;2.029583
5037.000000;2.162468
5036.000000;1.816361
5035.000000;1.712658
5034.000000;1.853048
5033.000000;2.255002
5032.000000;1.926187
5031.000000;1.710908
5030.000000;1.748786
5029.000000;2.038339
5028.000000;2.112655
5027.000000;1.764788
5026.000000;1.692131
5025.000000;1.870890
5024.000000;2.181802
5023.000000;1.883669
5022.000000;1.710845
5021.000000;1.762146
5020.000000;2.103868
5019.000000;2.092567
5018.000000;1.743465
5017.000000;1.703296
5016.000000;1.898846
5015.000000;2.146328
5014.000000;1.844431
5013.000000;1.678651
5012.000000;1.750467
5011.000000;2.088635
5010.000000;1.983242
5009.000000;1.711634
5008.000000;1.687982
5007.000000;1.895428
5006.000000;2.128244
5005.000000;1.793898
5004.000000;1.659985
5003.000000;1.760520
5002.000000;2.056650
5001.000000;1.917912
5000.000000;1.680428
4999.000000;1.666940
4998.000000;1.887885
4997.000000;2.036785
4996.000000;1.728057
4995.000000;1.630412
4994.000000;1.742553
4993.000000;2.000586
4992.000000;1.850368
4991.000000;1.632198
4990.000000;1.636596
4989.000000;1.856784
4988.000000;1.926250
4987.000000;1.673978
4986.000000;1.589423
4985.000000;1.700753
4984.000000;1.921480
4983.000000;1.751129
4982.000000;1.581018
4981.000000;1.612088
4980.000000;1.818550
4979.000000;1.843986
4978.000000;1.619759
4977.000000;1.554138
4976.000000;1.677157
4975.000000;1.851276
4974.000000;1.676478
4973.000000;1.537026
4972.000000;1.576014
4971.000000;1.753132
4970.000000;1.732818
4969.000000;1.539472
4968.000000;1.502220
4967.000000;1.629938
4966.000000;1.737463
4965.000000;1.582176
4964.000000;1.478269
4963.000000;1.532994
4962.000000;1.689735
4961.000000;1.638151
4960.000000;1.480388
4959.000000;1.464106
4958.000000;1.589562
4957.000000;1.657278
4956.000000;1.509137
4955.000000;1.424774
4954.000000;1.486514
4953.000000;1.614106
4952.000000;1.541207
4951.000000;1.411338
4950.000000;1.409324
4949.000000;1.524064
4948.000000;1.560279
4947.000000;1.428063
4946.000000;1.368619
4945.000000;1.437284
4944.000000;1.528207
4943.000000;1.445379
4942.000000;1.343134
4941.000000;1.357251
4940.000000;1.458334
4939.000000;1.459272
4938.000000;1.345324
4937.000000;1.309448
4936.000000;1.382146
4935.000000;1.445514
4934.000000;1.361573
4933.000000;1.282267
4932.000000;1.309212
4931.000000;1.395024
4930.000000;1.371433
4929.000000;1.274312
4928.000000;1.254694
4927.000000;1.323819
4926.000000;1.360069
4925.000000;1.277275
4924.000000;1.219036
4923.000000;1.254213
4922.000000;1.321011
4921.000000;1.283208
4920.000000;1.203134
4919.000000;1.198415
4918.000000;1.263328
4917.000000;1.279991
4916.000000;1.203907
4915.000000;1.163649
4914.000000;1.204962
4913.000000;1.254451
4912.000000;1.207486
4911.000000;1.141912
4910.000000;1.150123
4909.000000;1.209466
4908.000000;1.207226
4907.000000;1.137296
4906.000000;1.111098
4905.000000;1.154532
4904.000000;1.187918
4903.000000;1.136478
4902.000000;1.084435
4901.000000;1.100268
4900.000000;1.148432
4899.000000;1.131144
4898.000000;1.070636
4897.000000;1.058863
4896.000000;1.102826
4895.000000;1.121088
4894.000000;1.068265
4893.000000;1.029971
4892.000000;1.053968
4891.000000;1.093821
4890.000000;1.067937
4889.000000;1.014749
4888.000000;1.011635
4887.000000;1.051675
4886.000000;1.056181
4885.000000;1.005447
4884.000000;0.978567
4883.000000;1.005918
4882.000000;1.033585
4881.000000;1.000923
4880.000000;0.957706
4879.000000;0.963349
4878.000000;0.998740
4877.000000;0.992570
4876.000000;0.946683
4875.000000;0.930558
4874.000000;0.959520
4873.000000;0.976911
4872.000000;0.941018
4871.000000;0.907061
4870.000000;0.919316
4869.000000;0.949357
4868.000000;0.935250
4867.000000;0.894275
4866.000000;0.887077
4865.000000;0.915730
4864.000000;0.923100
4863.000000;0.885668
4862.000000;0.859917
4861.000000;0.876741
4860.000000;0.899934
4859.000000;0.879363
4858.000000;0.843593
4857.000000;0.843234
4856.000000;0.869901
4855.000000;0.869354
4854.000000;0.833840
4853.000000;0.816475
4852.000000;0.836038
4851.000000;0.851610
4850.000000;0.826143
4849.000000;0.796198
4848.000000;0.801667
4847.000000;0.825224
4846.000000;0.817828
4845.000000;0.784968
4844.000000;0.774653
4843.000000;0.794706
4842.000000;0.803047
4841.000000;0.775728
4840.000000;0.752491
4839.000000;0.762437
4838.000000;0.781159
4837.000000;0.767630
4836.000000;0.738121
4835.000000;0.734400
4834.000000;0.754486
4833.000000;0.756739
4832.000000;0.729280
4831.000000;0.712132
4830.000000;0.724910
4829.000000;0.738475
4828.000000;0.720669
4827.000000;0.694963
4826.000000;0.695995
4825.000000;0.714089
4824.000000;0.710364
4823.000000;0.683928
4822.000000;0.672771
4821.000000;0.687565
4820.000000;0.696474
4819.000000;0.676342
4818.000000;0.655502
4817.000000;0.661180
4816.000000;0.677141
4815.000000;0.668596
4814.000000;0.643504
4813.000000;0.636854
4812.000000;0.651572
4811.000000;0.655319
4810.000000;0.634128
4809.000000;0.618154
4808.000000;0.626768
4807.000000;0.638888
4806.000000;0.626148
4805.000000;0.603743
4804.000000;0.602062
4803.000000;0.616690
4802.000000;0.615973
4801.000000;0.594756
4800.000000;0.583410
4799.000000;0.594244
4798.000000;0.602810
4797.000000;0.587406
4796.000000;0.568184
4795.000000;0.569916
4794.000000;0.582414
4793.000000;0.576928
4792.000000;0.556396
4791.000000;0.549547
4790.000000;0.561588
4789.000000;0.566481
4788.000000;0.549608
4787.000000;0.534340
4786.000000;0.539696
4785.000000;0.550531
4784.000000;0.541711
4783.000000;0.522415
4782.000000;0.518870
4781.000000;0.530422
4780.000000;0.531194
4779.000000;0.513592
4778.000000;0.502024
4777.000000;0.509674
4776.000000;0.518026
4775.000000;0.506855
4774.000000;0.490090
4773.000000;0.490150
4772.000000;0.501099
4771.000000;0.498388
4770.000000;0.481085
4769.000000;0.473148
4768.000000;0.481878
4767.000000;0.486802
4766.000000;0.473471
4765.000000;0.459509
4764.000000;0.462880
4763.000000;0.472896
4762.000000;0.467165
4761.000000;0.450510
4760.000000;0.445768
4759.000000;0.455110
4758.000000;0.457195
4757.000000;0.442947
4756.000000;0.431881
4755.000000;0.437336
4754.000000;0.445251
4753.000000;0.436890
4752.000000;0.421760
4751.000000;0.420260
4750.000000;0.429671
4749.000000;0.428886
4748.000000;0.414320
4747.000000;0.406103
4746.000000;0.412931
4745.000000;0.418371
4744.000000;0.408007
4743.000000;0.395091
4742.000000;0.396618
4741.000000;0.405377
4740.000000;0.401589
4739.000000;0.387062
4738.000000;0.381721
4737.000000;0.389589
4736.000000;0.392712
4735.000000;0.381162
4734.000000;0.370651
4733.000000;0.374474
4732.000000;0.382033
4731.000000;0.376036
4730.000000;0.362756
4729.000000;0.360536
4728.000000;0.368767
4727.000000;0.369116
4726.000000;0.356568
4725.000000;0.348459
4724.000000;0.354226
4723.000000;0.360306
4722.000000;0.352306
4721.000000;0.340200
4720.000000;0.340353
4719.000000;0.348424
4718.000000;0.346619
4717.000000;0.334205
4716.000000;0.328602
4715.000000;0.335314
4714.000000;0.339245
4713.000000;0.329817
4712.000000;0.319652
4711.000000;0.322091
4710.000000;0.329345
4709.000000;0.325256
4708.000000;0.313417
4707.000000;0.310551
4706.000000;0.318006
4705.000000;0.319613
4704.000000;0.308835
4703.000000;0.300481
4702.000000;0.304820
4701.000000;0.311151
4700.000000;0.305355
4699.000000;0.294421
4698.000000;0.293754
4697.000000;0.301256
4696.000000;0.300957
4695.000000;0.290316
4694.000000;0.284668
4693.000000;0.290593
4692.000000;0.295251
4691.000000;0.287603
4690.000000;0.277865
4689.000000;0.279380
4688.000000;0.286572
4687.000000;0.284127
4686.000000;0.273398
4685.000000;0.269856
4684.000000;0.276644
4683.000000;0.279586
4682.000000;0.270933
4681.000000;0.263020
4680.000000;0.266485
4679.000000;0.272925
4678.000000;0.268685
4677.000000;0.258676
4676.000000;0.257542
4675.000000;0.264827
4674.000000;0.265788
4673.000000;0.256353
4672.000000;0.250369
4671.000000;0.255527
4670.000000;0.260875
4669.000000;0.254889
4668.000000;0.245642
4667.000000;0.246422
4666.000000;0.253587
4665.000000;0.252624
4664.000000;0.243045
4663.000000;0.239219
4662.000000;0.245618
4661.000000;0.249514
4660.000000;0.242174
4659.000000;0.234237
4658.000000;0.236969
4657.000000;0.243735
4656.000000;0.240918
4655.000000;0.231544
4654.000000;0.229748
4653.000000;0.236677
4652.000000;0.238660
4651.000000;0.230267
4650.000000;0.224042
4649.000000;0.228605
4648.000000;0.234597
4647.000000;0.230084
4646.000000;0.221307
4645.000000;0.221552
4644.000000;0.228825
4643.000000;0.229176
4642.000000;0.220495
4641.000000;0.216184
4640.000000;0.221975
4639.000000;0.226688
4638.000000;0.220882
4637.000000;0.213461
4636.000000;0.215868
4635.000000;0.222881
4634.000000;0.221105
4633.000000;0.212146
4632.000000;0.209826
4631.000000;0.216758
4630.000000;0.220108
4629.000000;0.212996
4628.000000;0.206545
4627.000000;0.210303
4626.000000;0.216644
4625.000000;0.213418
4624.000000;0.205197
4623.000000;0.205137
4622.000000;0.212621
4621.000000;0.214147
4620.000000;0.206116
4619.000000;0.201238
4618.000000;0.206540
4617.000000;0.211977
4616.000000;0.207093
4615.000000;0.199356
4614.000000;0.200937
4613.000000;0.208369
4612.000000;0.208230
4611.000000;0.200135
4610.000000;0.197387
4609.000000;0.204060
4608.000000;0.208281
4607.000000;0.202074
4606.000000;0.195427
4605.000000;0.198768
4604.000000;0.205776
4603.000000;0.203746
4602.000000;0.195642
4601.000000;0.194767
4600.000000;0.202148
4599.000000;0.204889
4598.000000;0.197927
4597.000000;0.193071
4596.000000;0.198371
4595.000000;0.204853
4594.000000;0.201265
4593.000000;0.193727
4592.000000;0.194880
4591.000000;0.202631
4590.000000;0.203561
4589.000000;0.195834
4588.000000;0.192498
4587.000000;0.198984
4586.000000;0.204275
4585.000000;0.199204
4584.000000;0.192582
4583.000000;0.195663
4582.000000;0.203404
4581.000000;0.202701
4580.000000;0.195027
4579.000000;0.193799
4578.000000;0.201453
4577.000000;0.205379
4576.000000;0.199053
4575.000000;0.193665
4574.000000;0.198543
4573.000000;0.205849
4572.000000;0.203405
4571.000000;0.195923
4570.000000;0.196640
4569.000000;0.204935
4568.000000;0.207290
4567.000000;0.200245
4566.000000;0.196644
4565.000000;0.203368
4564.000000;0.210057
4563.000000;0.206103
4562.000000;0.199274
4561.000000;0.201993
4560.000000;0.210573
4559.000000;0.211224
4558.000000;0.203724
4557.000000;0.201838
4556.000000;0.209699
4555.000000;0.215085
4554.000000;0.209851
4553.000000;0.204379
4552.000000;0.209278
4551.000000;0.217781
4550.000000;0.216674
4549.000000;0.209316
4548.000000;0.209692
4547.000000;0.218646
4546.000000;0.222403
4545.000000;0.215766
4544.000000;0.211481
4543.000000;0.218073
4542.000000;0.225931
4541.000000;0.223019
4540.000000;0.216003
4539.000000;0.218386
4538.000000;0.227787
4537.000000;0.229706
4536.000000;0.222296
4535.000000;0.219804
4534.000000;0.227981
4533.000000;0.234716
4532.000000;0.230055
4531.000000;0.223816
4530.000000;0.228251
4529.000000;0.237660
4528.000000;0.237551
4527.000000;0.229779
4526.000000;0.229297
4525.000000;0.238643
4524.000000;0.243680
4523.000000;0.237210
4522.000000;0.231891
4521.000000;0.238051
4520.000000;0.246825
4519.000000;0.244550
4518.000000;0.236729
4517.000000;0.238183
4516.000000;0.248076
4515.000000;0.251245
4514.000000;0.243969
4513.000000;0.240715
4512.000000;0.248865
4511.000000;0.256630
4510.000000;0.252345
4509.000000;0.245221
4508.000000;0.249065
4507.000000;0.259290
4506.000000;0.260230
4505.000000;0.252105
4504.000000;0.250723
4503.000000;0.260390
4502.000000;0.266840
4501.000000;0.260895
4500.000000;0.254919
4499.000000;0.260974
4498.000000;0.271010
4497.000000;0.269776
4496.000000;0.261516
4495.000000;0.262433
4494.000000;0.273245
4493.000000;0.277880
4492.000000;0.270504
4491.000000;0.266157
4490.000000;0.274493
4489.000000;0.284148
4488.000000;0.281055
4487.000000;0.273338
4486.000000;0.276752
4485.000000;0.288311
4484.000000;0.290963
4483.000000;0.282736
4482.000000;0.280465
4481.000000;0.290632
4480.000000;0.298855
4479.000000;0.293570
4478.000000;0.286789
4477.000000;0.292758
4476.000000;0.304440
4475.000000;0.304575
4474.000000;0.295776
4473.000000;0.295967
4472.000000;0.307915
4471.000000;0.314691
4470.000000;0.307851
4469.000000;0.302760
4468.000000;0.311406
4467.000000;0.322823
4466.000000;0.320525
4465.000000;0.311785
4464.000000;0.314626
4463.000000;0.327665
4462.000000;0.332110
4461.000000;0.323640
4460.000000;0.320490
4459.000000;0.331597
4458.000000;0.342218
4457.000000;0.337619
4456.000000;0.329537
4455.000000;0.335206
4454.000000;0.348920
4453.000000;0.350897
4452.000000;0.341467
4451.000000;0.340623
4450.000000;0.353652
4449.000000;0.362557
4448.000000;0.355727
4447.000000;0.349164
4446.000000;0.357999
4445.000000;0.371959
4444.000000;0.371355
4443.000000;0.361861
4442.000000;0.364251
4441.000000;0.379147
4440.000000;0.385584
4439.000000;0.376316
4438.000000;0.371522
4437.000000;0.383389
4436.000000;0.396815
4435.000000;0.393158
4434.000000;0.383746
4433.000000;0.389161
4432.000000;0.405019
4431.000000;0.408577
4430.000000;0.397884
4429.000000;0.395955
4428.000000;0.410924
4427.000000;0.423042
4426.000000;0.416400
4425.000000;0.407977
4424.000000;0.416961
4423.000000;0.433651
4422.000000;0.434221
4421.000000;0.422720
4420.000000;0.423857
4419.000000;0.441017
4418.000000;0.450675
4417.000000;0.441280
4416.000000;0.434852
4415.000000;0.447530
4414.000000;0.463911
4413.000000;0.460707
4412.000000;0.448949
4411.000000;0.453758
4410.000000;0.472728
4409.000000;0.479113
4408.000000;0.467192
4407.000000;0.463444
4406.000000;0.479774
4405.000000;0.494947
4404.000000;0.487955
4403.000000;0.476978
4402.000000;0.486188
4401.000000;0.506636
4400.000000;0.509172
4399.000000;0.495370
4398.000000;0.495045
4397.000000;0.514945
4396.000000;0.528141
4395.000000;0.517560
4394.000000;0.508312
4393.000000;0.522062
4392.000000;0.542981
4391.000000;0.541046
4390.000000;0.526245
4389.000000;0.529912
4388.000000;0.552429
4387.000000;0.561983
4386.000000;0.547906
4385.000000;0.541653
4384.000000;0.560336
4383.000000;0.580618
4382.000000;0.573585
4381.000000;0.558771
4380.000000;0.567443
4379.000000;0.592464
4378.000000;0.598021
4377.000000;0.581386
4376.000000;0.578890
4375.000000;0.601844
4374.000000;0.619382
4373.000000;0.607011
4372.000000;0.593932
4371.000000;0.608914
4370.000000;0.635792
4369.000000;0.635678
4368.000000;0.616853
4367.000000;0.619119
4366.000000;0.646497
4365.000000;0.660576
4364.000000;0.643396
4363.000000;0.633162
4362.000000;0.654276
4361.000000;0.681160
4360.000000;0.674205
4359.000000;0.654600
4358.000000;0.663272
4357.000000;0.695036
4356.000000;0.704181
4355.000000;0.682554
4354.000000;0.676815
4353.000000;0.704633
4352.000000;0.729785
4351.000000;0.715245
4350.000000;0.695999
4349.000000;0.711792
4348.000000;0.746602
4347.000000;0.748588
4346.000000;0.723193
4345.000000;0.723024
4344.000000;0.757027
4343.000000;0.777586
4342.000000;0.755145
4341.000000;0.738626
4340.000000;0.762839
4339.000000;0.799168
4338.000000;0.792114
4337.000000;0.764941
4336.000000;0.772817
4335.000000;0.814030
4334.000000;0.829077
4333.000000;0.799917
4332.000000;0.788424
4331.000000;0.821346
4330.000000;0.856258
4329.000000;0.838058
4328.000000;0.810621
4327.000000;0.827963
4326.000000;0.874301
4325.000000;0.879490
4324.000000;0.844092
4323.000000;0.840194
4322.000000;0.884158
4321.000000;0.916143
4320.000000;0.886887
4319.000000;0.862168
4318.000000;0.891371
4317.000000;0.942322
4316.000000;0.934769
4315.000000;0.895379
4314.000000;0.901597
4313.000000;0.955667
4312.000000;0.977964
4311.000000;0.935864
4310.000000;0.916603
4309.000000;0.959508
4308.000000;1.012543
4307.000000;0.988033
4306.000000;0.946493
4305.000000;0.965002
4304.000000;1.029415
4303.000000;1.039467
4302.000000;0.986496
4301.000000;0.975392
4300.000000;1.031370
4299.000000;1.078972
4298.000000;1.036307
4297.000000;0.998430
4296.000000;1.034327
4295.000000;1.107774
4294.000000;1.097656
4293.000000;1.037319
4292.000000;1.040714
4291.000000;1.115566
4290.000000;1.152912
4289.000000;1.090466
4288.000000;1.058155
4287.000000;1.111003
4286.000000;1.187602
4285.000000;1.150433
4284.000000;1.089146
4283.000000;1.111702
4282.000000;1.204781
4281.000000;1.219126
4280.000000;1.139233
4279.000000;1.122405
4278.000000;1.201560
4277.000000;1.279171
4276.000000;1.209365
4275.000000;1.151300
4274.000000;1.196455
4273.000000;1.305121
4272.000000;1.285484
4271.000000;1.192863
4270.000000;1.195727
4269.000000;1.304635
4268.000000;1.364308
4267.000000;1.260819
4266.000000;1.215303
4265.000000;1.291655
4264.000000;1.411267
4263.000000;1.341398
4262.000000;1.245770
4261.000000;1.274678
4260.000000;1.419081
4259.000000;1.436945
4258.000000;1.308808
4257.000000;1.286360
4256.000000;1.402627
4255.000000;1.524760
4254.000000;1.392234
4253.000000;1.309340
4252.000000;1.374771
4251.000000;1.550105
4250.000000;1.488032
4249.000000;1.347773
4248.000000;1.356790
4247.000000;1.522002
4246.000000;1.604126
4245.000000;1.421261
4244.000000;1.371534
4243.000000;1.493545
4242.000000;1.690071
4241.000000;1.533384
4240.000000;1.404822
4239.000000;1.453504
4238.000000;1.686363
4237.000000;1.664597
4236.000000;1.457504
4235.000000;1.445432
4234.000000;1.634828
4233.000000;1.785698
4232.000000;1.538880
4231.000000;1.449421
4230.000000;1.556813
4229.000000;1.852942
4228.000000;1.647395
4227.000000;1.475478
4226.000000;1.516973
4225.000000;1.789974
4224.000000;1.810462
4223.000000;1.541838
4222.000000;1.505061
4221.000000;1.695726
4220.000000;1.988397
4219.000000;1.623107
4218.000000;1.513462
4217.000000;1.621841
4216.000000;1.958488
4215.000000;1.753980
4214.000000;1.538746
4213.000000;1.562333
4212.000000;1.892560
4211.000000;1.950968
4210.000000;1.587567
4209.000000;1.547591
4208.000000;1.746183
4207.000000;2.035367
4206.000000;1.677908
4205.000000;1.545697
4204.000000;1.639814
4203.000000;2.102153
4202.000000;1.803649
4201.000000;1.556233
4200.000000;1.578860
4199.000000;1.875538
4198.000000;1.953094
4197.000000;1.603973
4196.000000;1.549099
4195.000000;1.746089
4194.000000;2.142473
4193.000000;1.673677
4192.000000;1.549816
4191.000000;1.641584
4190.000000;2.013206
4189.000000;1.841555
4188.000000;1.569860
4187.000000;1.572116
4186.000000;1.884925
4185.000000;2.022079
4184.000000;1.607107
4183.000000;1.546615
4182.000000;1.707749
4181.000000;2.065304
4180.000000;1.723592
4179.000000;1.539716
4178.000000;1.595841
4177.000000;1.994111
4176.000000;1.863259
4175.000000;1.572497
4174.000000;1.559052
4173.000000;1.789027
4172.000000;2.037557
4171.000000;1.636187
4170.000000;1.530493
4169.000000;1.652540
4168.000000;2.044259
4167.000000;1.736138
4166.000000;1.534337
4165.000000;1.562711
4164.000000;1.860949
4163.000000;1.930202
4162.000000;1.570613
4161.000000;1.523662
4160.000000;1.723418
4159.000000;2.000622
4158.000000;1.650824
4157.000000;1.517971
4156.000000;1.588495
4155.000000;1.948056
4154.000000;1.799799
4153.000000;1.528089
4152.000000;1.528989
4151.000000;1.772250
4150.000000;1.929440
4149.000000;1.602255
4148.000000;1.509099
4147.000000;1.629020
4146.000000;2.022716
4145.000000;1.713061
4144.000000;1.508280
4143.000000;1.541175
4142.000000;1.822236
4141.000000;1.862669
4140.000000;1.551399
4139.000000;1.498498
4138.000000;1.680713
4137.000000;1.973185
4136.000000;1.627324
4135.000000;1.493810
4134.000000;1.565328
4133.000000;1.876183
4132.000000;1.772150
4131.000000;1.505802
4130.000000;1.500289
4129.000000;1.742860
4128.000000;1.903116
4127.000000;1.584886
4126.000000;1.490281
4125.000000;1.600741
4124.000000;1.933922
4123.000000;1.688345
4122.000000;1.483709
4121.000000;1.518072
4120.000000;1.790959
4119.000000;1.826357
4118.000000;1.540937
4117.000000;1.484991
4116.000000;1.651263
4115.000000;1.964168
4114.000000;1.622011
4113.000000;1.473234
4112.000000;1.542270
4111.000000;1.835945
4110.000000;1.766063
4109.000000;1.504347
4108.000000;1.482506
4107.000000;1.705784
4106.000000;1.896545
4105.000000;1.574387
4104.000000;1.477303
4103.000000;1.575706
4102.000000;1.880088
4101.000000;1.703028
4100.000000;1.477689
4099.000000;1.493050
4098.000000;1.755466
4097.000000;1.829902
4096.000000;1.539571
4095.000000;1.472465
4094.000000;1.618719
4093.000000;1.944199
4092.000000;1.646212
4091.000000;1.475047
4090.000000;1.532866
4089.000000;1.824749
4088.000000;1.777712
4087.000000;1.509162
4086.000000;1.473905
4085.000000;1.669625
4084.000000;1.905601
4083.000000;1.578296
4082.000000;1.459883
4081.000000;1.549468
4080.000000;1.830770
4079.000000;1.698768
4078.000000;1.472191
4077.000000;1.475077
4076.000000;1.718305
4075.000000;1.835875
4074.000000;1.538408
4073.000000;1.456243
4072.000000;1.586409
4071.000000;1.881656
4070.000000;1.645475
4069.000000;1.455697
4068.000000;1.495521
4067.000000;1.768184
4066.000000;1.760215
4065.000000;1.503730
4064.000000;1.463418
4063.000000;1.641918
4062.000000;1.909606
4061.000000;1.592290
4060.000000;1.452543
4059.000000;1.530840
4058.000000;1.819527
4057.000000;1.729527
4056.000000;1.484624
4055.000000;1.471274
4054.000000;1.697812
4053.000000;1.859228
4052.000000;1.539946
4051.000000;1.443045
4050.000000;1.555179
4049.000000;1.826824
4048.000000;1.650124
4047.000000;1.449335
4046.000000;1.473144
4045.000000;1.732504
4044.000000;1.785298
4043.000000;1.509746
4042.000000;1.444001
4041.000000;1.590645
4040.000000;1.857759
4039.000000;1.599539
4038.000000;1.439874
4037.000000;1.505928
4036.000000;1.796643
4035.000000;1.734139
4034.000000;1.485878
4033.000000;1.459114
4032.000000;1.660851
4031.000000;1.869898
4030.000000;1.552895
4029.000000;1.441628
4028.000000;1.544857
4027.000000;1.826696
4026.000000;1.688194
4025.000000;1.463429
4024.000000;1.466439
4023.000000;1.716532
4022.000000;1.816683
4021.000000;1.519037
4020.000000;1.442491
4019.000000;1.576368
4018.000000;1.856154
4017.000000;1.632563
4016.000000;1.443449
4015.000000;1.486436
4014.000000;1.765588
4013.000000;1.763048
4012.000000;1.498205
4011.000000;1.451183
4010.000000;1.628442
4009.000000;1.877676
4008.000000;1.574499
4007.000000;1.437488
4006.000000;1.529990
4005.000000;1.817141
4004.000000;1.693431
4003.000000;1.463105
4002.000000;1.454213
4001.000000;1.682932
4000.000000;1.837930
3999.000000;1.527735
3998.000000;1.432498
3997.000000;1.551307
3996.000000;1.837197
3995.000000;1.666772
3994.000000;1.455284
3993.000000;1.479524
3992.000000;1.751458
3991.000000;1.779707
3990.000000;1.499628
3989.000000;1.439979
3988.000000;1.594134
3987.000000;1.854006
3986.000000;1.591486
3985.000000;1.427496
3984.000000;1.494046
3983.000000;1.776152
3982.000000;1.715800
3981.000000;1.469454
3980.000000;1.442122
3979.000000;1.645757
3978.000000;1.852040
3977.000000;1.542648
3976.000000;1.426395
3975.000000;1.532275
3974.000000;1.806771
3973.000000;1.665983
3972.000000;1.445512
3971.000000;1.449187
3970.000000;1.691170
3969.000000;1.797131
3968.000000;1.508785
3967.000000;1.429483
3966.000000;1.570267
3965.000000;1.845290
3964.000000;1.626609
3963.000000;1.434814
3962.000000;1.479579
3961.000000;1.759658
3960.000000;1.735787
3959.000000;1.472489
3958.000000;1.426561
3957.000000;1.604756
3956.000000;1.838661
3955.000000;1.556743
3954.000000;1.422497
3953.000000;1.516288
3952.000000;1.803357
3951.000000;1.692636
3950.000000;1.457580
3949.000000;1.447475
3948.000000;1.680865
3947.000000;1.839753
3946.000000;1.524233
3945.000000;1.426427
3944.000000;1.549140
3943.000000;1.822307
3942.000000;1.645358
3941.000000;1.434189
3940.000000;1.460575
3939.000000;1.734011
3938.000000;1.760908
3937.000000;1.481967
3936.000000;1.422086
3935.000000;1.580166
3934.000000;1.842198
3933.000000;1.589078
3932.000000;1.421916
3931.000000;1.493555
3930.000000;1.785691
3929.000000;1.710877
3928.000000;1.461124
3927.000000;1.430443
3926.000000;1.633220
3925.000000;1.849155
3924.000000;1.538630
3923.000000;1.419355
3922.000000;1.533551
3921.000000;1.801450
3920.000000;1.644041
3919.000000;1.430550
3918.000000;1.443502
3917.000000;1.698987
3916.000000;1.779280
3915.000000;1.484731
3914.000000;1.410938
3913.000000;1.554867
3912.000000;1.814491
3911.000000;1.601744
3910.000000;1.413767
3909.000000;1.462159
3908.000000;1.739288
3907.000000;1.713821
3906.000000;1.459938
3905.000000;1.419354
3904.000000;1.606500
3903.000000;1.832874
3902.000000;1.547364
3901.000000;1.412794
3900.000000;1.510669
3899.000000;1.797364
3898.000000;1.677700
3897.000000;1.440122
3896.000000;1.426940
3895.000000;1.655912
3894.000000;1.803159
3893.000000;1.497686
3892.000000;1.406360
3891.000000;1.542119
3890.000000;1.806942
3889.000000;1.624053
3888.000000;1.421462
3887.000000;1.454255
3886.000000;1.738262
3885.000000;1.756441
3884.000000;1.471359
3883.000000;1.418072
3882.000000;1.589732
3881.000000;1.832850
3880.000000;1.572367
3879.000000;1.407047
3878.000000;1.481199
3877.000000;1.774605
3876.000000;1.683252
3875.000000;1.441096
3874.000000;1.420984
3873.000000;1.634183
3872.000000;1.840524
3871.000000;1.523923
3870.000000;1.401945
3869.000000;1.516115
3868.000000;1.791171
3867.000000;1.641631
3866.000000;1.427178
3865.000000;1.441117
3864.000000;1.706216
3863.000000;1.799353
3862.000000;1.485142
3861.000000;1.405110
3860.000000;1.550579
3859.000000;1.803002
3858.000000;1.589220
3857.000000;1.401602
3856.000000;1.455181
3855.000000;1.749534
3854.000000;1.714931
3853.000000;1.453026
3852.000000;1.417391
3851.000000;1.613201
3850.000000;1.836372
3849.000000;1.538758
3848.000000;1.397588
3847.000000;1.497782
3846.000000;1.792961
3845.000000;1.659308
3844.000000;1.425865
3843.000000;1.417394
3842.000000;1.649991
3841.000000;1.801097
3840.000000;1.487871
3839.000000;1.394137
3838.000000;1.530999
3837.000000;1.800429
3836.000000;1.622259
3835.000000;1.414094
3834.000000;1.440781
3833.000000;1.718287
3832.000000;1.747500
3831.000000;1.460849
3830.000000;1.406431
3829.000000;1.583969
3828.000000;1.823235
3827.000000;1.558665
3826.000000;1.392542
3825.000000;1.473537
3824.000000;1.784363
3823.000000;1.685779
3822.000000;1.434381
3821.000000;1.408267
3820.000000;1.613514
3819.000000;1.802811
3818.000000;1.501147
3817.000000;1.385705
3816.000000;1.505163
3815.000000;1.781958
3814.000000;1.625770
3813.000000;1.411204
3812.000000;1.428392
3811.000000;1.701904
3810.000000;1.786097
3809.000000;1.471445
3808.000000;1.399012
3807.000000;1.552811
3806.000000;1.814829
3805.000000;1.591395
3804.000000;1.398329
3803.000000;1.452869
3802.000000;1.760650
3801.000000;1.730471
3800.000000;1.452444
3799.000000;1.410875
3798.000000;1.605376
3797.000000;1.827799
3796.000000;1.533414
3795.000000;1.389609
3794.000000;1.491635
3793.000000;1.794248
3792.000000;1.650817
3791.000000;1.420697
3790.000000;1.415997
3789.000000;1.647907
3788.000000;1.797413
3787.000000;1.480275
3786.000000;1.384464
3785.000000;1.527389
3784.000000;1.796380
3783.000000;1.601714
3782.000000;1.403986
3781.000000;1.443638
3780.000000;1.746235
3779.000000;1.769127
3778.000000;1.460983
3777.000000;1.401963
3776.000000;1.570695
3775.000000;1.812506
3774.000000;1.554530
3773.000000;1.384190
3772.000000;1.462487
3771.000000;1.767940
3770.000000;1.668695
3769.000000;1.421481
3768.000000;1.403540
3767.000000;1.619784
3766.000000;1.813761
3765.000000;1.501358
3764.000000;1.380473
3763.000000;1.500985
3762.000000;1.796007
3761.000000;1.629130
3760.000000;1.408433
3759.000000;1.421931
3758.000000;1.685573
3757.000000;1.779434
3756.000000;1.456667
3755.000000;1.378208
3754.000000;1.538553
3753.000000;1.792617
3752.000000;1.569322
3751.000000;1.382209
3750.000000;1.442580
3749.000000;1.767084
3748.000000;1.710330
3747.000000;1.430551
3746.000000;1.396054
3745.000000;1.588650
3744.000000;1.801586
3743.000000;1.512498
3742.000000;1.371570
3741.000000;1.473467
3740.000000;1.788058
3739.000000;1.648744
3738.000000;1.408742
3737.000000;1.403269
3736.000000;1.641536
3735.000000;1.798932
3734.000000;1.471484
3733.000000;1.371344
3732.000000;1.507538
3731.000000;1.776336
3730.000000;1.591645
3729.000000;1.388518
3728.000000;1.423265
3727.000000;1.719643
3726.000000;1.748339
3725.000000;1.438502
3724.000000;1.382637
3723.000000;1.563654
3722.000000;1.798965
3721.000000;1.529555
3720.000000;1.352461
3719.000000;1.421078
3718.000000;1.734831
3717.000000;1.641139
3716.000000;1.398283
3715.000000;1.388356
3714.000000;1.603894
3713.000000;1.817449
3712.000000;1.499183
3711.000000;1.371191
3710.000000;1.489548
3709.000000;1.782541
3708.000000;1.611528
3707.000000;1.390099
3706.000000;1.401931
3705.000000;1.666052
3704.000000;1.772347
3703.000000;1.449383
3702.000000;1.373298
3701.000000;1.536125
3700.000000;1.793026
3699.000000;1.560679
3698.000000;1.371715
3697.000000;1.423705
3696.000000;1.730341
3695.000000;1.698437
3694.000000;1.417886
3693.000000;1.380264
3692.000000;1.579573
3691.000000;1.816848
3690.000000;1.524426
3689.000000;1.373838
3688.000000;1.476391
3687.000000;1.805917
3686.000000;1.646256
3685.000000;1.405904
3684.000000;1.403501
3683.000000;1.641871
3682.000000;1.802797
3681.000000;1.466192
3680.000000;1.364970
3679.000000;1.516539
3678.000000;1.803068
3677.000000;1.590782
3676.000000;1.389094
3675.000000;1.421939
3674.000000;1.714662
3673.000000;1.742240
3672.000000;1.431245
3671.000000;1.380038
3670.000000;1.564258
3669.000000;1.809210
3668.000000;1.547396
3667.000000;1.374411
3666.000000;1.450675
3665.000000;1.772761
3664.000000;1.657724
3663.000000;1.405541
3662.000000;1.392283
3661.000000;1.610460
3660.000000;1.816773
3659.000000;1.494570
3658.000000;1.366565
3657.000000;1.492690
3656.000000;1.801890
3655.000000;1.611675
3654.000000;1.393432
3653.000000;1.406727
3652.000000;1.676931
3651.000000;1.790805
3650.000000;1.452185
3649.000000;1.378798
3648.000000;1.555194
3647.000000;1.815132
3646.000000;1.562957
3645.000000;1.377044
3644.000000;1.435332
3643.000000;1.759579
3642.000000;1.702492
3641.000000;1.410325
3640.000000;1.381572
3639.000000;1.591478
3638.000000;1.806880
3637.000000;1.510400
3636.000000;1.362580
3635.000000;1.461046
3634.000000;1.790982
3633.000000;1.631711
3632.000000;1.393288
3631.000000;1.393862
3630.000000;1.631657
3629.000000;1.791627
3628.000000;1.462445
3627.000000;1.363337
3626.000000;1.514848
3625.000000;1.806692
3624.000000;1.583560
3623.000000;1.377183
3622.000000;1.409142
3621.000000;1.704421
3620.000000;1.741458
3619.000000;1.421319
3618.000000;1.360368
3617.000000;1.537233
3616.000000;1.784364
3615.000000;1.527231
3614.000000;1.359297
3613.000000;1.437889
3612.000000;1.767990
3611.000000;1.661492
3610.000000;1.399261
3609.000000;1.381881
3608.000000;1.598157
3607.000000;1.805125
3606.000000;1.484192
3605.000000;1.352842
3604.000000;1.479016
3603.000000;1.796343
3602.000000;1.594918
3601.000000;1.379355
3600.000000;1.397236
3599.000000;1.659423
3598.000000;1.755287
3597.000000;1.428873
3596.000000;1.358896
3595.000000;1.538143
3594.000000;1.810311
3593.000000;1.554422
3592.000000;1.368982
3591.000000;1.422777
3590.000000;1.735680
3589.000000;1.697749
3588.000000;1.406959
3587.000000;1.372965
3586.000000;1.579556
3585.000000;1.802531
3584.000000;1.506941
3583.000000;1.360657
3582.000000;1.467774
3581.000000;1.816234
3580.000000;1.630105
3579.000000;1.386468
3578.000000;1.386244
3577.000000;1.620061
3576.000000;1.782101
3575.000000;1.455259
3574.000000;1.352741
3573.000000;1.498949
3572.000000;1.796666
3571.000000;1.576022
3570.000000;1.373757
3569.000000;1.407494
3568.000000;1.700598
3567.000000;1.743194
3566.000000;1.420629
3565.000000;1.365150
3564.000000;1.554393
3563.000000;1.799662
3562.000000;1.530675
3561.000000;1.363733
3560.000000;1.440180
3559.000000;1.780004
3558.000000;1.668932
3557.000000;1.397864
3556.000000;1.383658
3555.000000;1.608351
3554.000000;1.791057
3553.000000;1.474357
3552.000000;1.353314
3551.000000;1.479535
3550.000000;1.810474
3549.000000;1.598264
3548.000000;1.378826
3547.000000;1.399016
3546.000000;1.665188
3545.000000;1.761950
3544.000000;1.429259
3543.000000;1.354780
3542.000000;1.522607
3541.000000;1.795354
3540.000000;1.547106
3539.000000;1.362375
3538.000000;1.420248
3537.000000;1.756199
3536.000000;1.717001
3535.000000;1.408271
3534.000000;1.374320
3533.000000;1.577965
3532.000000;1.801865
3531.000000;1.505125
3530.000000;1.354422
3529.000000;1.451977
3528.000000;1.801406
3527.000000;1.626236
3526.000000;1.381814
3525.000000;1.386337
3524.000000;1.631310
3523.000000;1.790562
3522.000000;1.457483
3521.000000;1.358067
3520.000000;1.506126
3519.000000;1.824397
3518.000000;1.584380
3517.000000;1.379127
3516.000000;1.410219
3515.000000;1.712592
3514.000000;1.763798
3513.000000;1.420263
3512.000000;1.366954
3511.000000;1.561471
3510.000000;1.809921
3509.000000;1.526289
3508.000000;1.360980
3507.000000;1.438176
3506.000000;1.791094
3505.000000;1.661385
3504.000000;1.387071
3503.000000;1.376843
3502.000000;1.601674
3501.000000;1.799567
3500.000000;1.473737
3499.000000;1.348727
3498.000000;1.474532
3497.000000;1.821218
3496.000000;1.594740
3495.000000;1.376692
3494.000000;1.396350
3493.000000;1.666579
3492.000000;1.787349
3491.000000;1.435286
3490.000000;1.357436
3489.000000;1.535657
3488.000000;1.828605
3487.000000;1.546464
3486.000000;1.366029
3485.000000;1.420814
3484.000000;1.749107
3483.000000;1.700535
3482.000000;1.390597
3481.000000;1.362031
3480.000000;1.573547
3479.000000;1.793595
3478.000000;1.494709
3477.000000;1.350729
3476.000000;1.443179
3475.000000;1.801753
3474.000000;1.627779
3473.000000;1.375026
3472.000000;1.375511
3471.000000;1.616553
3470.000000;1.770990
3469.000000;1.438697
3468.000000;1.341657
3467.000000;1.490283
3466.000000;1.813921
3465.000000;1.558641
3464.000000;1.362979
3463.000000;1.399883
3462.000000;1.702081
3461.000000;1.753061
3460.000000;1.413159
3459.000000;1.360890
3458.000000;1.550855
3457.000000;1.820847
3456.000000;1.528863
3455.000000;1.358194
3454.000000;1.426105
3453.000000;1.779856
3452.000000;1.660065
3451.000000;1.376244
3450.000000;1.363941
3449.000000;1.588729
3448.000000;1.774393
3447.000000;1.457762
3446.000000;1.341102
3445.000000;1.463974
3444.000000;1.823555
3443.000000;1.585249
3442.000000;1.366865
3441.000000;1.385670
3440.000000;1.651565
3439.000000;1.768807
3438.000000;1.418984
3437.000000;1.345755
3436.000000;1.518625
3435.000000;1.810347
3434.000000;1.530612
3433.000000;1.359357
3432.000000;1.414222
3431.000000;1.760384
3430.000000;1.722955
3429.000000;1.394850
3428.000000;1.364334
3427.000000;1.570144
3426.000000;1.799945
3425.000000;1.488082
3424.000000;1.344448
3423.000000;1.438790
3422.000000;1.817977
3421.000000;1.622912
3420.000000;1.371978
3419.000000;1.374900
3418.000000;1.616854
3417.000000;1.795135
3416.000000;1.444310
3415.000000;1.343330
3414.000000;1.483388
3413.000000;1.826579
3412.000000;1.565414
3411.000000;1.365132
3410.000000;1.395683
3409.000000;1.695665
3408.000000;1.756678
3407.000000;1.402504
3406.000000;1.350232
3405.000000;1.545865
3404.000000;1.805470
3403.000000;1.498560
3402.000000;1.348705
3401.000000;1.420700
3400.000000;1.793245
3399.000000;1.665778
3398.000000;1.376429
3397.000000;1.368716
3396.000000;1.597411
3395.000000;1.788575
3394.000000;1.456992
3393.000000;1.338789
3392.000000;1.454549
3391.000000;1.833695
3390.000000;1.583903
3389.000000;1.360711
3388.000000;1.377833
3387.000000;1.644133
3386.000000;1.756799
3385.000000;1.412401
3384.000000;1.345824
3383.000000;1.524554
3382.000000;1.845426
3381.000000;1.522434
3380.000000;1.347947
3379.000000;1.396127
3378.000000;1.720403
3377.000000;1.682433
3376.000000;1.373722
3375.000000;1.348017
3374.000000;1.553700
3373.000000;1.793603
3372.000000;1.477751
3371.000000;1.340419
3370.000000;1.430773
3369.000000;1.825135
3368.000000;1.623024
3367.000000;1.366442
3366.000000;1.371092
3365.000000;1.616621
3364.000000;1.797544
3363.000000;1.439519
3362.000000;1.340045
3361.000000;1.474753
3360.000000;1.834892
3359.000000;1.549723
3358.000000;1.351964
3357.000000;1.386603
3356.000000;1.685497
3355.000000;1.733623
3354.000000;1.391966
3353.000000;1.345736
3352.000000;1.540495
3351.000000;1.823131
3350.000000;1.495343
3349.000000;1.340051
3348.000000;1.403722
3347.000000;1.772628
3346.000000;1.658296
3345.000000;1.368947
3344.000000;1.359434
3343.000000;1.585174
3342.000000;1.795609
3341.000000;1.452639
3340.000000;1.338972
3339.000000;1.454680
3338.000000;1.851772
3337.000000;1.567931
3336.000000;1.348029
3335.000000;1.367630
3334.000000;1.634621
3333.000000;1.769518
3332.000000;1.412048
3331.000000;1.341116
3330.000000;1.511612
3329.000000;1.857756
3328.000000;1.521031
3327.000000;1.350069
3326.000000;1.394941
3325.000000;1.729771
3324.000000;1.701446
3323.000000;1.371889
3322.000000;1.349054
3321.000000;1.566675
3320.000000;1.812727
3319.000000;1.472854
3318.000000;1.341109
3317.000000;1.428225
3316.000000;1.837924
3315.000000;1.615567
3314.000000;1.357327
3313.000000;1.361933
3312.000000;1.605645
3311.000000;1.785708
3310.000000;1.426158
3309.000000;1.333548
3308.000000;1.471375
3307.000000;1.862735
3306.000000;1.548922
3305.000000;1.358576
3304.000000;1.389260
3303.000000;1.696801
3302.000000;1.777547
3301.000000;1.397283
3300.000000;1.346662
3299.000000;1.538178
3298.000000;1.848267
3297.000000;1.498354
3296.000000;1.350590
3295.000000;1.416231
3294.000000;1.810280
3293.000000;1.678007
3292.000000;1.363696
3291.000000;1.349884
3290.000000;1.575795
3289.000000;1.793372
3288.000000;1.447694
3287.000000;1.338200
3286.000000;1.449451
3285.000000;1.888777
3284.000000;1.579726
3283.000000;1.353531
3282.000000;1.372362
3281.000000;1.643883
3280.000000;1.767964
3279.000000;1.403101
3278.000000;1.338073
3277.000000;1.514389
3276.000000;1.898175
3275.000000;1.519179
3274.000000;1.350288
3273.000000;1.391012
3272.000000;1.733041
3271.000000;1.718696
3270.000000;1.373059
3269.000000;1.344373
3268.000000;1.549415
3267.000000;1.812908
3266.000000;1.465846
3265.000000;1.332096
3264.000000;1.411315
3263.000000;1.821588
3262.000000;1.610201
3261.000000;1.346264
3260.000000;1.351372
3259.000000;1.605464
3258.000000;1.759789
3257.000000;1.409752
3256.000000;1.326900
3255.000000;1.465826
3254.000000;1.879708
3253.000000;1.537731
3252.000000;1.343277
3251.000000;1.372919
3250.000000;1.673942
3249.000000;1.733809
3248.000000;1.377809
3247.000000;1.331422
3246.000000;1.521479
3245.000000;1.838650
3244.000000;1.482390
3243.000000;1.336529
3242.000000;1.398668
3241.000000;1.789187
3240.000000;1.664969
3239.000000;1.356046
3238.000000;1.349099
3237.000000;1.584455
3236.000000;1.797994
3235.000000;1.438924
3234.000000;1.332505
3233.000000;1.439081
3232.000000;1.891714
3231.000000;1.578034
3230.000000;1.346902
3229.000000;1.366584
3228.000000;1.644280
3227.000000;1.759811
3226.000000;1.394601
3225.000000;1.325072
3224.000000;1.487417
3223.000000;1.883804
3222.000000;1.517512
3221.000000;1.345231
3220.000000;1.388481
3219.000000;1.732718
3218.000000;1.712723
3217.000000;1.367278
3216.000000;1.344631
3215.000000;1.564549
3214.000000;1.845006
3213.000000;1.466599
3212.000000;1.333320
3211.000000;1.410662
3210.000000;1.841509
3209.000000;1.616426
3208.000000;1.350693
3207.000000;1.361641
3206.000000;1.625568
3205.000000;1.790909
3204.000000;1.418278
3203.000000;1.329985
3202.000000;1.463092
3201.000000;1.909788
3200.000000;1.530832
3199.000000;1.343169
3198.000000;1.382362
3197.000000;1.698119
3196.000000;1.755791
3195.000000;1.379991
3194.000000;1.328657
3193.000000;1.518514
3192.000000;1.841942
3191.000000;1.471136
3190.000000;1.333482
3189.000000;1.401578
3188.000000;1.810627
3187.000000;1.676929
3186.000000;1.357960
3185.000000;1.351019
3184.000000;1.594947
3183.000000;1.799269
3182.000000;1.431044
3181.000000;1.326841
3180.000000;1.432555
3179.000000;1.900423
3178.000000;1.572092
3177.000000;1.342790
3176.000000;1.365430
3175.000000;1.651586
3174.000000;1.764908
3173.000000;1.396808
3172.000000;1.328216
3171.000000;1.493584
3170.000000;1.897244
3169.000000;1.493115
3168.000000;1.333917
3167.000000;1.380973
3166.000000;1.723615
3165.000000;1.711414
3164.000000;1.363204
3163.000000;1.337820
3162.000000;1.563403
3161.000000;1.832668
3160.000000;1.452059
3159.000000;1.329505
3158.000000;1.409217
3157.000000;1.856916
3156.000000;1.626101
3155.000000;1.347505
3154.000000;1.355331
3153.000000;1.619435
3152.000000;1.771670
3151.000000;1.407099
3150.000000;1.323555
3149.000000;1.462453
3148.000000;1.927608
3147.000000;1.530448
3146.000000;1.339655
3145.000000;1.381419
3144.000000;1.705349
3143.000000;1.750235
3142.000000;1.383320
3141.000000;1.332985
3140.000000;1.531217
3139.000000;1.872177
3138.000000;1.467594
3137.000000;1.327129
3136.000000;1.388459
3135.000000;1.777127
3134.000000;1.667988
3133.000000;1.352423
3132.000000;1.346457
3131.000000;1.600674
3130.000000;1.818324
3129.000000;1.436912
3128.000000;1.330570
3127.000000;1.434447
3126.000000;1.913063
3125.000000;1.578697
3124.000000;1.342144
3123.000000;1.369758
3122.000000;1.668007
3121.000000;1.753341
3120.000000;1.389822
3119.000000;1.322010
3118.000000;1.491438
3117.000000;1.892062
3116.000000;1.482621
3115.000000;1.324686
3114.000000;1.377051
3113.000000;1.727951
3112.000000;1.727898
3111.000000;1.371028
3110.000000;1.337888
3109.000000;1.556741
3108.000000;1.843517
3107.000000;1.459105
3106.000000;1.330312
3105.000000;1.411721
3104.000000;1.853640
3103.000000;1.621320
3102.000000;1.339953
3101.000000;1.353882
3100.000000;1.637892
3099.000000;1.767138
3098.000000;1.405313
3097.000000;1.319857
3096.000000;1.456164
3095.000000;1.914045
3094.000000;1.526426
3093.000000;1.334077
3092.000000;1.376829
3091.000000;1.695858
3090.000000;1.750286
3089.000000;1.381367
3088.000000;1.328335
3087.000000;1.530974
3086.000000;1.887067
3085.000000;1.470316
3084.000000;1.325329
3083.000000;1.391751
3082.000000;1.774035
3081.000000;1.663226
3080.000000;1.344411
3079.000000;1.332618
3078.000000;1.577989
3077.000000;1.798984
3076.000000;1.432340
3075.000000;1.323769
3074.000000;1.438766
3073.000000;1.920938
3072.000000;1.576672
3071.000000;1.339389
3070.000000;1.370643
3069.000000;1.669506
3068.000000;1.781436
3067.000000;1.404708
3066.000000;1.326935
3065.000000;1.491833
3064.000000;1.929578
3063.000000;1.505793
3062.000000;1.330290
3061.000000;1.381734
3060.000000;1.719777
3059.000000;1.703147
3058.000000;1.357541
3057.000000;1.326985
3056.000000;1.569336
3055.000000;1.854778
3054.000000;1.453659
3053.000000;1.327251
3052.000000;1.414024
3051.000000;1.830459
3050.000000;1.606351
3049.000000;1.328823
3048.000000;1.342361
3047.000000;1.624174
3046.000000;1.775493
3045.000000;1.414988
3044.000000;1.324642
3043.000000;1.466416
3042.000000;1.943704
3041.000000;1.532456
3040.000000;1.330943
3039.000000;1.376557
3038.000000;1.696629
3037.000000;1.739824
3036.000000;1.379920
3035.000000;1.327682
3034.000000;1.544968
3033.000000;1.924957
3032.000000;1.480501
3031.000000;1.334204
3030.000000;1.403920
3029.000000;1.786628
3028.000000;1.675158
3027.000000;1.350744
3026.000000;1.342836
3025.000000;1.618635
3024.000000;1.821594
3023.000000;1.432351
3022.000000;1.320694
3021.000000;1.429206
3020.000000;1.875735
3019.000000;1.572348
3018.000000;1.327484
3017.000000;1.355902
3016.000000;1.653059
3015.000000;1.752090
3014.000000;1.397655
3013.000000;1.324286
3012.000000;1.500202
3011.000000;1.954484
3010.000000;1.509338
3009.000000;1.329342
3008.000000;1.387471
3007.000000;1.729696
3006.000000;1.708415
3005.000000;1.363375
3004.000000;1.329245
3003.000000;1.577879
3002.000000;1.854756
3001.000000;1.446166
3000.000000;1.322057
2999.000000;1.413064
2998.000000;1.840899
2997.000000;1.637602
2996.000000;1.338686
2995.000000;1.348188
2994.000000;1.636910
2993.000000;1.775896
2992.000000;1.414588
2991.000000;1.317885
2990.000000;1.458380
2989.000000;1.950401
2988.000000;1.547702
2987.000000;1.332060
2986.000000;1.381104
2985.000000;1.704627
2984.000000;1.727588
2983.000000;1.378269
2982.000000;1.319980
2981.000000;1.530120
2980.000000;1.895218
2979.000000;1.472301
2978.000000;1.319911
2977.000000;1.393086
2976.000000;1.766751
2975.000000;1.679909
2974.000000;1.347244
2973.000000;1.331482
2972.000000;1.598413
2971.000000;1.806797
2970.000000;1.433044
2969.000000;1.317628
2968.000000;1.432088
2967.000000;1.886449
2966.000000;1.589911
2965.000000;1.329270
2964.000000;1.357490
2963.000000;1.660914
2962.000000;1.748362
2961.000000;1.394951
2960.000000;1.313338
2959.000000;1.488253
2958.000000;1.934795
2957.000000;1.510189
2956.000000;1.325710
2955.000000;1.391600
2954.000000;1.737631
2953.000000;1.708945
2952.000000;1.362261
2951.000000;1.324739
2950.000000;1.577447
2949.000000;1.859877
2948.000000;1.450053
2947.000000;1.318741
2946.000000;1.415371
2945.000000;1.817492
2944.000000;1.619925
2943.000000;1.331618
2942.000000;1.348416
2941.000000;1.656430
2940.000000;1.771842
2939.000000;1.412038
2938.000000;1.319539
2937.000000;1.468545
2936.000000;1.948047
2935.000000;1.548341
2934.000000;1.324516
2933.000000;1.373553
2932.000000;1.693829
2931.000000;1.737748
2930.000000;1.382716
2929.000000;1.316158
2928.000000;1.531407
2927.000000;1.910755
2926.000000;1.474542
2925.000000;1.319820
2924.000000;1.401383
2923.000000;1.767790
2922.000000;1.679484
2921.000000;1.350068
2920.000000;1.333807
2919.000000;1.617204
2918.000000;1.824194
2917.000000;1.435946
2916.000000;1.320587
2915.000000;1.444342
2914.000000;1.879043
2913.000000;1.577807
2912.000000;1.317652
2911.000000;1.351604
2910.000000;1.663587
2909.000000;1.727446
2908.000000;1.390641
2907.000000;1.315067
2906.000000;1.504154
2905.000000;1.956417
2904.000000;1.504477
2903.000000;1.316643
2902.000000;1.388423
2901.000000;1.732054
2900.000000;1.701880
2899.000000;1.364667
2898.000000;1.323967
2897.000000;1.576028
2896.000000;1.883170
2895.000000;1.464666
2894.000000;1.324333
2893.000000;1.431155
2892.000000;1.842798
2891.000000;1.637732
2890.000000;1.335787
2889.000000;1.348451
2888.000000;1.667563
2887.000000;1.791392
2886.000000;1.422095
2885.000000;1.323321
2884.000000;1.474405
2883.000000;1.944187
2882.000000;1.548154
2881.000000;1.319030
2880.000000;1.378394
2879.000000;1.719210
2878.000000;1.732487
2877.000000;1.385923
2876.000000;1.323526
2875.000000;1.551367
2874.000000;1.943574
2873.000000;1.473710
2872.000000;1.313640
2871.000000;1.401094
2870.000000;1.756010
2869.000000;1.662787
2868.000000;1.341990
2867.000000;1.327937
2866.000000;1.626448
2865.000000;1.830300
2864.000000;1.432659
2863.000000;1.318870
2862.000000;1.446756
2861.000000;1.880179
2860.000000;1.594182
2859.000000;1.325726
2858.000000;1.358465
2857.000000;1.681576
2856.000000;1.756733
2855.000000;1.402746
2854.000000;1.315572
2853.000000;1.503127
2852.000000;1.990063
2851.000000;1.524551
2850.000000;1.323229
2849.000000;1.392900
2848.000000;1.731457
2847.000000;1.711074
2846.000000;1.365428
2845.000000;1.320626
2844.000000;1.583383
2843.000000;1.901235
2842.000000;1.464035
2841.000000;1.323526
2840.000000;1.424735
2839.000000;1.832725
2838.000000;1.666162
2837.000000;1.343623
2836.000000;1.348932
2835.000000;1.668886
2834.000000;1.795879
2833.000000;1.421231
2832.000000;1.318249
2831.000000;1.469943
2830.000000;1.936137
2829.000000;1.551325
2828.000000;1.310743
2827.000000;1.369410
2826.000000;1.708743
2825.000000;1.715980
2824.000000;1.380005
2823.000000;1.316262
2822.000000;1.543288
2821.000000;1.964657
2820.000000;1.482651
2819.000000;1.312906
2818.000000;1.406799
2817.000000;1.761872
2816.000000;1.662155
2815.000000;1.342055
2814.000000;1.325839
2813.000000;1.632064
2812.000000;1.836524
2811.000000;1.426243
2810.000000;1.312273
2809.000000;1.439865
2808.000000;1.863699
2807.000000;1.596315
2806.000000;1.321708
2805.000000;1.355587
2804.000000;1.686733
2803.000000;1.748619
2802.000000;1.397041
2801.000000;1.310542
2800.000000;1.500658
2799.000000;1.970498
2798.000000;1.517926
2797.000000;1.318346
2796.000000;1.403315
2795.000000;1.765130
2794.000000;1.714978
2793.000000;1.372113
2792.000000;1.324529
2791.000000;1.587286
2790.000000;1.916490
2789.000000;1.459276
2788.000000;1.318569
2787.000000;1.429875
2786.000000;1.833486
2785.000000;1.659510
2784.000000;1.338303
2783.000000;1.343624
2782.000000;1.668247
2781.000000;1.791617
2780.000000;1.414326
2779.000000;1.310612
2778.000000;1.463867
2777.000000;1.928781
2776.000000;1.557910
2775.000000;1.312413
2774.000000;1.376671
2773.000000;1.738112
2772.000000;1.735892
2771.000000;1.393527
2770.000000;1.324174
2769.000000;1.554935
2768.000000;2.005699
2767.000000;1.486242
2766.000000;1.319772
2765.000000;1.423652
2764.000000;1.788311
2763.000000;1.674229
2762.000000;1.347349
2761.000000;1.327822
2760.000000;1.633758
2759.000000;1.856878
2758.000000;1.432740
2757.000000;1.314008
2756.000000;1.438334
2755.000000;1.875749
2754.000000;1.620486
2753.000000;1.329693
2752.000000;1.364516
2751.000000;1.717157
2750.000000;1.770115
2749.000000;1.405957
2748.000000;1.319258
2747.000000;1.509778
2746.000000;2.001816
2745.000000;1.523549
2744.000000;1.315919
2743.000000;1.397913
2742.000000;1.754382
2741.000000;1.722382
2740.000000;1.371960
2739.000000;1.318950
2738.000000;1.584464
2737.000000;1.916843
2736.000000;1.444760
2735.000000;1.306734
2734.000000;1.424613
2733.000000;1.815160
2732.000000;1.651666
2731.000000;1.341761
2730.000000;1.348206
2729.000000;1.685248
2728.000000;1.831854
2727.000000;1.429017
2726.000000;1.319182
2725.000000;1.470378
2724.000000;1.948199
2723.000000;1.574326
2722.000000;1.318079
2721.000000;1.377553
2720.000000;1.735179
2719.000000;1.716301
2718.000000;1.378961
2717.000000;1.316175
2716.000000;1.551103
2715.000000;2.014856
2714.000000;1.488482
2713.000000;1.313661
2712.000000;1.418796
2711.000000;1.785856
2710.000000;1.665086
2709.000000;1.348074
2708.000000;1.331993
2707.000000;1.650494
2706.000000;1.882125
2705.000000;1.426043
2704.000000;1.311472
2703.000000;1.445693
2702.000000;1.868739
2701.000000;1.610786
2700.000000;1.327182
2699.000000;1.365876
2698.000000;1.738282
2697.000000;1.782556
2696.000000;1.404887
2695.000000;1.317270
2694.000000;1.507907
2693.000000;2.003757
2692.000000;1.525197
2691.000000;1.313300
2690.000000;1.397711
2689.000000;1.764644
2688.000000;1.713256
2687.000000;1.381120
2686.000000;1.336201
2685.000000;1.620895
2684.000000;2.016103
2683.000000;1.456936
2682.000000;1.311900
2681.000000;1.436405
2680.000000;1.816831
2679.000000;1.633584
2678.000000;1.333176
2677.000000;1.342159
2676.000000;1.691386
2675.000000;1.826372
2674.000000;1.414507
2673.000000;1.315200
2672.000000;1.471188
2671.000000;1.945497
2670.000000;1.575311
2669.000000;1.318233
2668.000000;1.378611
2667.000000;1.750489
2666.000000;1.732482
2665.000000;1.383980
2664.000000;1.314736
2663.000000;1.541765
2662.000000;2.016735
2661.000000;1.488705
2660.000000;1.314807
2659.000000;1.424959
2658.000000;1.799218
2657.000000;1.672564
2656.000000;1.345664
2655.000000;1.321581
2654.000000;1.627139
2653.000000;1.877373
2652.000000;1.426295
2651.000000;1.311756
2650.000000;1.447232
2649.000000;1.871677
2648.000000;1.621254
2647.000000;1.326092
2646.000000;1.356405
2645.000000;1.728214
2644.000000;1.765101
2643.000000;1.394988
2642.000000;1.316881
2641.000000;1.506547
2640.000000;2.025460
2639.000000;1.545189
2638.000000;1.321567
2637.000000;1.404290
2636.000000;1.783378
2635.000000;1.724035
2634.000000;1.379874
2633.000000;1.329488
2632.000000;1.606409
2631.000000;2.020739
2630.000000;1.462137
2629.000000;1.313155
2628.000000;1.434105
2627.000000;1.819366
2626.000000;1.655162
2625.000000;1.345361
2624.000000;1.351793
2623.000000;1.723847
2622.000000;1.860274
2621.000000;1.416557
2620.000000;1.322162
2619.000000;1.484278
2618.000000;1.955551
2617.000000;1.585690
2616.000000;1.324969
2615.000000;1.385645
2614.000000;1.776359
2613.000000;1.733898
2612.000000;1.387235
2611.000000;1.324300
2610.000000;1.550934
2609.000000;2.022037
2608.000000;1.484088
2607.000000;1.310504
2606.000000;1.424344
2605.000000;1.803848
2604.000000;1.670595
2603.000000;1.353113
2602.000000;1.331629
2601.000000;1.657195
2600.000000;1.946159
2599.000000;1.434412
2598.000000;1.319454
2597.000000;1.460881
2596.000000;1.879698
2595.000000;1.623097
2594.000000;1.331243
2593.000000;1.359168
2592.000000;1.730788
2591.000000;1.778583
2590.000000;1.398122
2589.000000;1.317713
2588.000000;1.507109
2587.000000;2.011677
2586.000000;1.544508
2585.000000;1.320417
2584.000000;1.407565
2583.000000;1.800252
2582.000000;1.705459
2581.000000;1.373459
2580.000000;1.328662
2579.000000;1.601063
2578.000000;2.007062
2577.000000;1.456294
2576.000000;1.316000
2575.000000;1.447828
2574.000000;1.841318
2573.000000;1.654361
2572.000000;1.341544
2571.000000;1.343401
2570.000000;1.715580
2569.000000;1.865369
2568.000000;1.414042
2567.000000;1.325076
2566.000000;1.485187
2565.000000;1.928115
2564.000000;1.576481
2563.000000;1.318035
2562.000000;1.380221
2561.000000;1.784618
2560.000000;1.742481
2559.000000;1.389616
2558.000000;1.326810
2557.000000;1.552469
2556.000000;2.039493
2555.000000;1.492517
2554.000000;1.310124
2553.000000;1.420518
2552.000000;1.806127
2551.000000;1.670332
2550.000000;1.362640
2549.000000;1.339659
2548.000000;1.665453
2547.000000;1.986459
2546.000000;1.438337
2545.000000;1.323746
2544.000000;1.466635
2543.000000;1.885689
2542.000000;1.632306
2541.000000;1.337341
2540.000000;1.368418
2539.000000;1.770277
2538.000000;1.807582
2537.000000;1.404318
2536.000000;1.325974
2535.000000;1.504664
2534.000000;2.004910
2533.000000;1.545298
2532.000000;1.311392
2531.000000;1.389723
2530.000000;1.772087
2529.000000;1.696352
2528.000000;1.369066
2527.000000;1.321220
2526.000000;1.586433
2525.000000;2.025528
2524.000000;1.461238
2523.000000;1.319071
2522.000000;1.456377
2521.000000;1.853847
2520.000000;1.654690
2519.000000;1.348044
2518.000000;1.346807
2517.000000;1.721480
2516.000000;1.898749
2515.000000;1.420730
2514.000000;1.331796
2513.000000;1.492094
2512.000000;1.954838
2511.000000;1.603607
2510.000000;1.331701
2509.000000;1.385828
2508.000000;1.801236
2507.000000;1.738602
2506.000000;1.382498
2505.000000;1.329447
2504.000000;1.556898
2503.000000;2.058891
2502.000000;1.505214
2501.000000;1.323665
2500.000000;1.435700
2499.000000;1.838723
2498.000000;1.685285
2497.000000;1.365255
2496.000000;1.339986
2495.000000;1.669930
2494.000000;2.009972
2493.000000;1.438366
2492.000000;1.326437
2491.000000;1.470815
2490.000000;1.888058
2489.000000;1.631602
2488.000000;1.336745
2487.000000;1.359731
2486.000000;1.757700
2485.000000;1.804418
2484.000000;1.395965
2483.000000;1.326379
2482.000000;1.513212
2481.000000;2.004281
2480.000000;1.549880
2479.000000;1.320309
2478.000000;1.406157
2477.000000;1.826306
2476.000000;1.684381
2475.000000;1.363323
2474.000000;1.326650
2473.000000;1.591620
2472.000000;2.052392
2471.000000;1.467959
2470.000000;1.323941
2469.000000;1.454883
2468.000000;1.854972
2467.000000;1.652246
2466.000000;1.351882
2465.000000;1.347426
2464.000000;1.710961
2463.000000;1.923094
2462.000000;1.421793
2461.000000;1.328526
2460.000000;1.492476
2459.000000;1.927878
2458.000000;1.585067
2457.000000;1.329931
2456.000000;1.384163
2455.000000;1.811180
2454.000000;1.745122
2453.000000;1.379773
2452.000000;1.330333
2451.000000;1.553765
2450.000000;2.030980
2449.000000;1.500328
2448.000000;1.322323
2447.000000;1.432492
2446.000000;1.851644
2445.000000;1.686079
2444.000000;1.369958
2443.000000;1.341353
2442.000000;1.658717
2441.000000;2.035745
2440.000000;1.439116
2439.000000;1.330340
2438.000000;1.482567
2437.000000;1.899911
2436.000000;1.623703
2435.000000;1.344800
2434.000000;1.369258
2433.000000;1.787425
2432.000000;1.830138
2431.000000;1.393345
2430.000000;1.328273
2429.000000;1.513188
2428.000000;1.995729
2427.000000;1.551595
2426.000000;1.327670
2425.000000;1.411714
2424.000000;1.860142
2423.000000;1.714532
2422.000000;1.381212
2421.000000;1.342937
2420.000000;1.599470
2419.000000;2.068695
2418.000000;1.463847
2417.000000;1.318477
2416.000000;1.447503
2415.000000;1.860918
2414.000000;1.644192
2413.000000;1.353283
2412.000000;1.355363
2411.000000;1.753925
2410.000000;1.947287
2409.000000;1.408103
2408.000000;1.337585
2407.000000;1.504226
2406.000000;1.932822
2405.000000;1.578064
2404.000000;1.329731
2403.000000;1.382842
2402.000000;1.838615
2401.000000;1.757728
2400.000000;1.383534
2399.000000;1.339819
2398.000000;1.554430
2397.000000;2.062020
2396.000000;1.504637
2395.000000;1.322665
2394.000000;1.434522
2393.000000;1.882622
2392.000000;1.662507
2391.000000;1.362207
2390.000000;1.336308
2389.000000;1.650103
2388.000000;2.058930
2387.000000;1.410935
2386.000000;1.297382
2385.000000;1.434993
2384.000000;1.845886
2383.000000;1.559108
2382.000000;1.277027
2381.000000;1.288925
2380.000000;1.711486
2379.000000;1.770588
2378.000000;1.306118
2377.000000;1.241760
2376.000000;1.425345
2375.000000;1.886622
2374.000000;1.436592
2373.000000;1.221715
2372.000000;1.299868
2371.000000;1.765565
2370.000000;1.606713
2369.000000;1.266489
2368.000000;1.229732
2367.000000;1.484145
2366.000000;1.958323
2365.000000;1.347075
2364.000000;1.207712
2363.000000;1.337691
2362.000000;1.777985
2361.000000;1.518537
2360.000000;1.230270
2359.000000;1.233390
2358.000000;1.620833
2357.000000;1.912976
2356.000000;1.346314
2355.000000;1.254272
2354.000000;1.309979
2353.000000;1.538563
2352.000000;0.990078
2351.000000;0.703916
2350.000000;0.893940
2349.000000;1.600829
2348.000000;1.736354
2347.000000;1.392473
2346.000000;1.285994
2345.000000;1.451467
2344.000000;1.935009
2343.000000;1.377184
2342.000000;1.189436
2341.000000;1.287287
2340.000000;1.754299
2339.000000;1.528142
2338.000000;1.230498
2337.000000;1.212355
2336.000000;1.528632
2335.000000;2.016496
2334.000000;1.354839
2333.000000;1.261864
2332.000000;1.410703
2331.000000;1.822130
2330.000000;1.505858
2329.000000;1.228533
2328.000000;1.249601
2327.000000;1.711526
2326.000000;1.812994
2325.000000;1.329493
2324.000000;1.277178
2323.000000;1.451512
2322.000000;1.937459
2321.000000;1.473265
2320.000000;1.248327
2319.000000;1.312374
2318.000000;1.804649
2317.000000;1.652358
2316.000000;1.331088
2315.000000;1.311375
2314.000000;1.567212
2313.000000;2.089349
2312.000000;1.448955
2311.000000;1.313628
2310.000000;1.439270
2309.000000;1.892974
2308.000000;1.643192
2307.000000;1.356452
2306.000000;1.351108
2305.000000;1.723674
2304.000000;2.045460
2303.000000;1.413729
2302.000000;1.342371
2301.000000;1.492011
2300.000000;1.958494
2299.000000;1.587014
2298.000000;1.342203
2297.000000;1.381795
2296.000000;1.877643
2295.000000;1.804682
2294.000000;1.388388
2293.000000;1.348131
2292.000000;1.544949
2291.000000;2.055676
2290.000000;1.504353
2289.000000;1.331105
2288.000000;1.428858
2287.000000;1.924584
2286.000000;1.675930
2285.000000;1.368580
2284.000000;1.351696
2283.000000;1.652580
2282.000000;2.120795
2281.000000;1.431149
2280.000000;1.333208
2279.000000;1.475162
2278.000000;1.939058
2277.000000;1.606289
2276.000000;1.357612
2275.000000;1.372524
2274.000000;1.845746
2273.000000;1.928390
2272.000000;1.387629
2271.000000;1.344282
2270.000000;1.523305
2269.000000;2.005887
2268.000000;1.537604
2267.000000;1.335399
2266.000000;1.402908
2265.000000;1.929492
2264.000000;1.726359
2263.000000;1.375062
2262.000000;1.347507
2261.000000;1.580357
2260.000000;2.126373
2259.000000;1.466920
2258.000000;1.334356
2257.000000;1.458999
2256.000000;1.960305
2255.000000;1.620137
2254.000000;1.364218
2253.000000;1.365846
2252.000000;1.758534
2251.000000;2.123912
2250.000000;1.417956
2249.000000;1.357875
2248.000000;1.513420
2247.000000;1.988881
2246.000000;1.578119
2245.000000;1.348460
2244.000000;1.381487
2243.000000;1.896031
2242.000000;1.809575
2241.000000;1.378393
2240.000000;1.349011
2239.000000;1.554097
2238.000000;2.051664
2237.000000;1.500191
2236.000000;1.333272
2235.000000;1.427115
2234.000000;1.967080
2233.000000;1.660684
2232.000000;1.364055
2231.000000;1.353613
2230.000000;1.643716
2229.000000;2.132510
2228.000000;1.434931
2227.000000;1.340745
2226.000000;1.481721
2225.000000;1.968754
2224.000000;1.599160
2223.000000;1.358877
2222.000000;1.370342
2221.000000;1.844186
2220.000000;1.973170
2219.000000;1.395002
2218.000000;1.357719
2217.000000;1.526324
2216.000000;2.035059
2215.000000;1.553660
2214.000000;1.346601
2213.000000;1.402849
2212.000000;1.939829
2211.000000;1.750835
2210.000000;1.383530
2209.000000;1.357735
2208.000000;1.584135
2207.000000;2.160776
2206.000000;1.475660
2205.000000;1.340896
2204.000000;1.455069
2203.000000;1.977567
2202.000000;1.634141
2201.000000;1.369318
2200.000000;1.363433
2199.000000;1.732340
2198.000000;2.152648
2197.000000;1.413365
2196.000000;1.349880
2195.000000;1.506307
2194.000000;1.995196
2193.000000;1.572221
2192.000000;1.360085
2191.000000;1.386112
2190.000000;1.927498
2189.000000;1.847146
2188.000000;1.385894
2187.000000;1.363392
2186.000000;1.560337
2185.000000;2.098462
2184.000000;1.521082
2183.000000;1.348669
2182.000000;1.432552
2181.000000;2.002443
2180.000000;1.685089
2179.000000;1.377676
2178.000000;1.362385
2177.000000;1.636251
2176.000000;2.180497
2175.000000;1.436028
2174.000000;1.341020
2173.000000;1.470902
2172.000000;1.972744
2171.000000;1.619159
2170.000000;1.365143
2169.000000;1.367516
2168.000000;1.839565
2167.000000;2.021221
2166.000000;1.393573
2165.000000;1.360446
2164.000000;1.533430
2163.000000;2.028619
2162.000000;1.543104
2161.000000;1.352266
2160.000000;1.407440
2159.000000;1.998043
2158.000000;1.765395
2157.000000;1.385704
2156.000000;1.365545
2155.000000;1.598499
2154.000000;2.117674
2153.000000;1.474991
2152.000000;1.349336
2151.000000;1.464888
2150.000000;2.023188
2149.000000;1.637370
2148.000000;1.373345
2147.000000;1.369760
2146.000000;1.732100
2145.000000;2.171704
2144.000000;1.412861
2143.000000;1.351593
2142.000000;1.510606
2141.000000;2.005268
2140.000000;1.560649
2139.000000;1.360483
2138.000000;1.387066
2137.000000;1.956973
2136.000000;1.876779
2135.000000;1.384238
2134.000000;1.362792
2133.000000;1.559642
2132.000000;2.071020
2131.000000;1.514182
2130.000000;1.347484
2129.000000;1.427637
2128.000000;2.028130
2127.000000;1.682176
2126.000000;1.373086
2125.000000;1.364957
2124.000000;1.639145
2123.000000;2.157271
2122.000000;1.438864
2121.000000;1.337417
2120.000000;1.471699
2119.000000;1.998700
2118.000000;1.606985
2117.000000;1.372072
2116.000000;1.374209
2115.000000;1.841972
2114.000000;2.055137
2113.000000;1.390201
2112.000000;1.358517
2111.000000;1.536544
2110.000000;2.018936
2109.000000;1.532361
2108.000000;1.346778
2107.000000;1.398103
2106.000000;2.028654
2105.000000;1.762145
2104.000000;1.380155
2103.000000;1.370361
2102.000000;1.598846
2101.000000;2.124542
2100.000000;1.481862
2099.000000;1.345660
2098.000000;1.458396
2097.000000;2.046360
2096.000000;1.639496
2095.000000;1.375996
2094.000000;1.372708
2093.000000;1.721913
2092.000000;2.170557
2091.000000;1.421323
2090.000000;1.356132
2089.000000;1.514309
2088.000000;2.021735
2087.000000;1.579221
2086.000000;1.369627
2085.000000;1.382671
2084.000000;1.946302
2083.000000;1.913530
2082.000000;1.386001
2081.000000;1.364721
2080.000000;1.569613
2079.000000;2.045373
2078.000000;1.511867
2077.000000;1.348192
2076.000000;1.429398
2075.000000;2.076395
2074.000000;1.691807
2073.000000;1.382962
2072.000000;1.379839
2071.000000;1.655770
2070.000000;2.134658
2069.000000;1.454014
2068.000000;1.355575
2067.000000;1.502301
2066.000000;2.045592
2065.000000;1.598060
2064.000000;1.369456
2063.000000;1.378216
2062.000000;1.838934
2061.000000;2.061216
2060.000000;1.397771
2059.000000;1.363326
2058.000000;1.546282
2057.000000;2.024208
2056.000000;1.544199
2055.000000;1.354220
2054.000000;1.396821
2053.000000;2.024745
2052.000000;1.772563
2051.000000;1.376117
2050.000000;1.366871
2049.000000;1.599146
2048.000000;2.076399
2047.000000;1.484482
2046.000000;1.347562
2045.000000;1.464656
2044.000000;2.074295
2043.000000;1.649925
2042.000000;1.385342
2041.000000;1.385581
2040.000000;1.725758
2039.000000;2.128269
2038.000000;1.427499
2037.000000;1.353231
2036.000000;1.515336
2035.000000;2.010028
2034.000000;1.569388
2033.000000;1.364304
2032.000000;1.386479
2031.000000;1.989088
2030.000000;1.952215
2029.000000;1.387396
2028.000000;1.369380
2027.000000;1.571547
2026.000000;2.032070
2025.000000;1.517267
2024.000000;1.346566
2023.000000;1.427514
2022.000000;2.093131
2021.000000;1.707380
2020.000000;1.400173
2019.000000;1.408162
2018.000000;1.685175
2017.000000;2.108032
2016.000000;1.465540
2015.000000;1.350417
2014.000000;1.494313
2013.000000;2.043528
2012.000000;1.605428
2011.000000;1.375811
2010.000000;1.384146
2009.000000;1.821061
2008.000000;2.072170
2007.000000;1.403212
2006.000000;1.361755
2005.000000;1.552550
2004.000000;2.010682
2003.000000;1.547252
2002.000000;1.360398
2001.000000;1.411019
2000.000000;2.101405
1999.000000;1.799030
1998.000000;1.376310
1997.000000;1.365908
1996.000000;1.603639
1995.000000;2.062857
1994.000000;1.524428
1993.000000;1.383129
1992.000000;1.495830
1991.000000;2.122552
1990.000000;1.662856
1989.000000;1.394474
1988.000000;1.394371
1987.000000;1.721401
1986.000000;2.087306
1985.000000;1.430137
1984.000000;1.348235
1983.000000;1.525451
1982.000000;2.013068
1981.000000;1.565000
1980.000000;1.364171
1979.000000;1.393447
1978.000000;1.980997
1977.000000;1.947057
1976.000000;1.383697
1975.000000;1.364851
1974.000000;1.576291
1973.000000;2.004411
1972.000000;1.524912
1971.000000;1.362474
1970.000000;1.465950
1969.000000;2.175908
1968.000000;1.751251
1967.000000;1.407265
1966.000000;1.389327
1965.000000;1.651962
1964.000000;2.057227
1963.000000;1.467134
1962.000000;1.353698
1961.000000;1.509196
1960.000000;2.067752
1959.000000;1.609756
1958.000000;1.379966
1957.000000;1.395935
1956.000000;1.814753
1955.000000;2.059315
1954.000000;1.413976
1953.000000;1.356813
1952.000000;1.549898
1951.000000;1.990568
1950.000000;1.559416
1949.000000;1.370549
1948.000000;1.426209
1947.000000;2.101772
1946.000000;1.855082
1945.000000;1.427911
1944.000000;1.430854
1943.000000;1.662629
1942.000000;2.044559
1941.000000;1.504494
1940.000000;1.344315
1939.000000;1.465414
1938.000000;2.126005
1937.000000;1.638366
1936.000000;1.372443
1935.000000;1.388619
1934.000000;1.721051
1933.000000;2.030609
1932.000000;1.440649
1931.000000;1.355482
1930.000000;1.540940
1929.000000;2.018248
1928.000000;1.580063
1927.000000;1.376145
1926.000000;1.427645
1925.000000;1.996519
1924.000000;2.039046
1923.000000;1.430616
1922.000000;1.369530
1921.000000;1.574448
1920.000000;1.960478
1919.000000;1.515273
1918.000000;1.345816
1917.000000;1.432284
1916.000000;2.121650
1915.000000;1.724516
1914.000000;1.384523
1913.000000;1.398573
1912.000000;1.687588
1911.000000;2.093442
1910.000000;1.525072
1909.000000;1.383890
1908.000000;1.525938
1907.000000;2.084305
1906.000000;1.614757
1905.000000;1.378435
1904.000000;1.393682
1903.000000;1.792728
1902.000000;2.038366
1901.000000;1.422483
1900.000000;1.361786
1899.000000;1.589612
1898.000000;2.009649
1897.000000;1.583281
1896.000000;1.396614
1895.000000;1.435818
1894.000000;2.093152
1893.000000;1.852366
1892.000000;1.413447
1891.000000;1.423444
1890.000000;1.663707
1889.000000;2.020956
1888.000000;1.524556
1887.000000;1.364100
1886.000000;1.491676
1885.000000;2.143144
1884.000000;1.663626
1883.000000;1.376846
1882.000000;1.388901
1881.000000;1.715714
1880.000000;2.007609
1879.000000;1.451631
1878.000000;1.354844
1877.000000;1.545866
1876.000000;2.019254
1875.000000;1.570526
1874.000000;1.344624
1873.000000;1.376402
1872.000000;1.900053
1871.000000;1.977777
1870.000000;1.491650
1869.000000;1.479440
1868.000000;1.692064
1867.000000;2.030140
1866.000000;1.561232
1865.000000;1.366348
1864.000000;1.450364
1863.000000;2.171069
1862.000000;1.746865
1861.000000;1.387687
1860.000000;1.397478
1859.000000;1.685824
1858.000000;1.968146
1857.000000;1.470627
1856.000000;1.344454
1855.000000;1.511398
1854.000000;2.090926
1853.000000;1.611398
1852.000000;1.374923
1851.000000;1.413731
1850.000000;1.803904
1849.000000;2.004996
1848.000000;1.390832
1847.000000;1.290522
1846.000000;1.512506
1845.000000;1.927727
1844.000000;1.526314
1843.000000;1.348587
1842.000000;1.423912
1841.000000;2.056449
1840.000000;1.873404
1839.000000;1.419255
1838.000000;1.413384
1837.000000;1.667204
1836.000000;1.971916
1835.000000;1.503730
1834.000000;1.325741
1833.000000;1.473487
1832.000000;2.186781
1831.000000;1.737185
1830.000000;1.440394
1829.000000;1.429193
1828.000000;1.732936
1827.000000;1.987858
1826.000000;1.474061
1825.000000;1.375190
1824.000000;1.578794
1823.000000;2.061963
1822.000000;1.580244
1821.000000;1.370295
1820.000000;1.417084
1819.000000;1.893862
1818.000000;1.920080
1817.000000;1.407826
1816.000000;1.368574
1815.000000;1.632949
1814.000000;1.989461
1813.000000;1.596319
1812.000000;1.431214
1811.000000;1.512695
1810.000000;2.205688
1809.000000;1.787984
1808.000000;1.399927
1807.000000;1.396802
1806.000000;1.680692
1805.000000;1.957731
1804.000000;1.497906
1803.000000;1.386109
1802.000000;1.571572
1801.000000;2.156106
1800.000000;1.689911
1799.000000;1.441565
1798.000000;1.461019
1797.000000;1.807919
1796.000000;1.937787
1795.000000;1.393930
1794.000000;1.334978
1793.000000;1.601707
1792.000000;2.006863
1791.000000;1.568639
1790.000000;1.362258
1789.000000;1.407266
1788.000000;1.966292
1787.000000;1.812522
1786.000000;1.370254
1785.000000;1.373692
1784.000000;1.670411
1783.000000;1.995697
1782.000000;1.588559
1781.000000;1.425676
1780.000000;1.536048
1779.000000;2.211321
1778.000000;1.696170
1777.000000;1.373513
1776.000000;1.356259
1775.000000;1.670910
1774.000000;1.943257
1773.000000;1.466371
1772.000000;1.347959
1771.000000;1.524720
1770.000000;2.006265
1769.000000;1.537052
1768.000000;1.331085
1767.000000;1.382567
1766.000000;1.826065
1765.000000;1.845015
1764.000000;1.365027
1763.000000;1.340819
1762.000000;1.616691
1761.000000;1.937873
1760.000000;1.521835
1759.000000;1.359432
1758.000000;1.460182
1757.000000;2.104796
1756.000000;1.721951
1755.000000;1.313556
1754.000000;1.296499
1753.000000;1.615817
1752.000000;1.968453
1751.000000;1.598812
1750.000000;1.531192
1749.000000;1.707915
1748.000000;2.294587
1747.000000;1.789811
1746.000000;1.521680
1745.000000;1.531967
1744.000000;1.865461
1743.000000;1.950275
1742.000000;1.434146
1741.000000;1.364299
1740.000000;1.596828
1739.000000;1.952567
1738.000000;1.396286
1737.000000;1.107713
1736.000000;1.177357
1735.000000;1.797478
1734.000000;1.824732
1733.000000;1.418189
1732.000000;1.473722
1731.000000;1.746808
1730.000000;2.021664
1729.000000;1.562116
1728.000000;1.376262
1727.000000;1.505956
1726.000000;2.162674
1725.000000;1.738600
1724.000000;1.422465
1723.000000;1.386588
1722.000000;1.643595
1721.000000;1.782683
1720.000000;1.356684
1719.000000;1.320747
1718.000000;1.597234
1717.000000;2.118788
1716.000000;1.653065
1715.000000;1.434890
1714.000000;1.484946
1713.000000;1.912704
1712.000000;1.955129
1711.000000;1.464792
1710.000000;1.409815
1709.000000;1.672662
1708.000000;2.056932
1707.000000;1.649227
1706.000000;1.481087
1705.000000;1.412291
1704.000000;1.984735
1703.000000;1.339230
1702.000000;0.967419
1701.000000;1.069787
1700.000000;1.485242
1699.000000;1.805778
1698.000000;1.404638
1697.000000;1.254211
1696.000000;1.427119
1695.000000;2.075768
1694.000000;1.627638
1693.000000;1.418570
1692.000000;1.514904
1691.000000;1.896464
1690.000000;2.024372
1689.000000;1.470402
1688.000000;1.256752
1687.000000;1.441168
1686.000000;1.934290
1685.000000;1.577215
1684.000000;1.409901
1683.000000;1.509637
1682.000000;2.082676
1681.000000;1.976522
1680.000000;1.459320
1679.000000;1.322930
1678.000000;1.524481
1677.000000;1.755895
1676.000000;1.399499
1675.000000;1.285797
1674.000000;1.460637
1673.000000;2.161021
1672.000000;1.710360
1671.000000;1.416567
1670.000000;1.450365
1669.000000;1.747450
1668.000000;1.940102
1667.000000;1.459745
1666.000000;1.326393
1665.000000;1.529277
1664.000000;2.073489
1663.000000;1.621686
1662.000000;1.399025
1661.000000;1.446679
1660.000000;1.871170
1659.000000;1.836177
1658.000000;1.313702
1657.000000;1.077400
1656.000000;1.214877
1655.000000;1.577239
1654.000000;1.218843
1653.000000;1.089848
1652.000000;1.307602
1651.000000;2.060957
1650.000000;1.830205
1649.000000;1.487752
1648.000000;1.486081
1647.000000;1.732155
1646.000000;1.881586
1645.000000;1.490140
1644.000000;1.379081
1643.000000;1.559373
1642.000000;2.201916
1641.000000;1.659227
1640.000000;1.368624
1639.000000;1.370933
1638.000000;1.699108
1637.000000;1.868927
1636.000000;1.362471
1635.000000;1.282640
1634.000000;1.559558
1633.000000;2.014554
1632.000000;1.565511
1631.000000;1.381876
1630.000000;1.472818
1629.000000;1.966418
1628.000000;1.860071
1627.000000;1.400356
1626.000000;1.370765
1625.000000;1.685483
1624.000000;1.980753
1623.000000;1.563850
1622.000000;1.381528
1621.000000;1.449153
1620.000000;2.066479
1619.000000;1.600320
1618.000000;1.292184
1617.000000;1.359056
1616.000000;1.689298
1615.000000;1.911651
1614.000000;1.478391
1613.000000;1.382492
1612.000000;1.605436
1611.000000;2.177507
1610.000000;1.652172
1609.000000;1.442123
1608.000000;1.482688
1607.000000;1.862122
1606.000000;1.917906
1605.000000;1.462088
1604.000000;1.412864
1603.000000;1.678117
1602.000000;1.988789
1601.000000;1.549231
1600.000000;1.366678
1599.000000;1.460440
1598.000000;2.043006
1597.000000;1.816409
1596.000000;1.431812
1595.000000;1.437282
1594.000000;1.728724
1593.000000;1.928151
1592.000000;1.518964
1591.000000;1.374829
1590.000000;1.528406
1589.000000;2.157515
1588.000000;1.634587
1587.000000;1.372372
1586.000000;1.421675
1585.000000;1.760554
1584.000000;1.880772
1583.000000;1.452653
1582.000000;1.373414
1581.000000;1.592378
1580.000000;1.965281
1579.000000;1.480466
1578.000000;1.306997
1577.000000;1.409517
1576.000000;1.867385
1575.000000;1.822820
1574.000000;1.378399
1573.000000;1.338267
1572.000000;1.641187
1571.000000;1.942369
1570.000000;1.550935
1569.000000;1.409216
1568.000000;1.532691
1567.000000;2.189383
1566.000000;1.758376
1565.000000;1.430295
1564.000000;1.287665
1563.000000;1.487383
1562.000000;1.361367
1561.000000;1.093890
1560.000000;1.167195
1559.000000;1.385652
1558.000000;1.859136
1557.000000;1.480557
1556.000000;1.310322
1555.000000;1.405751
1554.000000;1.793127
1553.000000;1.891487
1552.000000;1.495798
1551.000000;1.467250
1550.000000;1.714541
1549.000000;1.978338
1548.000000;1.504583
1547.000000;1.341680
1546.000000;1.455426
1545.000000;1.977705
1544.000000;1.702722
1543.000000;1.326860
1542.000000;1.376926
1541.000000;1.742533
1540.000000;1.834613
1539.000000;1.454547
1538.000000;1.345810
1537.000000;1.526682
1536.000000;2.148250
1535.000000;1.695982
1534.000000;1.461370
1533.000000;1.500059
1532.000000;1.812983
1531.000000;1.954911
1530.000000;1.519674
1529.000000;1.433158
1528.000000;1.668207
1527.000000;2.104626
1526.000000;1.579050
1525.000000;1.363538
1524.000000;1.438649
1523.000000;1.872070
1522.000000;1.808316
1521.000000;1.414686
1520.000000;1.433862
1519.000000;1.787105
1518.000000;2.081197
1517.000000;1.653705
1516.000000;1.443652
1515.000000;1.522198
1514.000000;2.062372
1513.000000;1.706887
1512.000000;1.415224
1511.000000;1.453124
1510.000000;1.759549
1509.000000;1.981848
1508.000000;1.566797
1507.000000;1.307920
1506.000000;1.438624
1505.000000;2.071442
1504.000000;1.578986
1503.000000;1.403629
1502.000000;1.451438
1501.000000;1.796498
1500.000000;1.775541
1499.000000;1.375179
1498.000000;1.318671
1497.000000;1.579160
1496.000000;1.911065
1495.000000;1.488625
1494.000000;1.322350
1493.000000;1.436948
1492.000000;1.979651
1491.000000;1.892506
1490.000000;1.546788
1489.000000;1.524824
1488.000000;1.800833
1487.000000;1.917841
1486.000000;1.515337
1485.000000;1.371925
1484.000000;1.524981
1483.000000;2.182084
1482.000000;1.670467
1481.000000;1.383266
1480.000000;1.395025
1479.000000;1.697024
1478.000000;1.828913
1477.000000;1.408345
1476.000000;1.302197
1475.000000;1.519079
1474.000000;1.974399
1473.000000;1.506619
1472.000000;1.325361
1471.000000;1.405416
1470.000000;1.834391
1469.000000;1.783479
1468.000000;1.339264
1467.000000;1.306583
1466.000000;1.619037
1465.000000;1.872996
1464.000000;1.477728
1463.000000;1.339236
1462.000000;1.433846
1461.000000;1.948024
1460.000000;1.555100
1459.000000;1.229029
1458.000000;1.248849
1457.000000;1.545163
1456.000000;1.783872
1455.000000;1.446085
1454.000000;1.385272
1453.000000;1.570253
1452.000000;2.114339
1451.000000;1.566609
1450.000000;1.353326
1449.000000;1.425615
1448.000000;1.778620
1447.000000;1.856789
1446.000000;1.423088
1445.000000;1.352726
1444.000000;1.606605
1443.000000;1.948699
1442.000000;1.495692
1441.000000;1.282943
1440.000000;1.293346
1439.000000;1.653718
1438.000000;1.514210
1437.000000;1.214656
1436.000000;1.297020
1435.000000;1.622769
1434.000000;1.902666
1433.000000;1.520705
1432.000000;1.388606
1431.000000;1.538152
1430.000000;2.077544
1429.000000;1.645099
1428.000000;1.377319
1427.000000;1.435052
1426.000000;1.783124
1425.000000;1.905650
1424.000000;1.487192
1423.000000;1.297272
1422.000000;1.440154
1421.000000;1.832105
1420.000000;1.435263
1419.000000;1.329904
1418.000000;1.454110
1417.000000;1.856741
1416.000000;1.772598
1415.000000;1.405957
1414.000000;1.382659
1413.000000;1.677424
1412.000000;1.904503
1411.000000;1.500785
1410.000000;1.363206
1409.000000;1.481937
1408.000000;1.954605
1407.000000;1.670522
1406.000000;1.397748
1405.000000;1.422908
1404.000000;1.731529
1403.000000;1.786766
1402.000000;1.409054
1401.000000;1.337153
1400.000000;1.558163
1399.000000;2.100737
1398.000000;1.581893
1397.000000;1.371147
1396.000000;1.422047
1395.000000;1.754051
1394.000000;1.756819
1393.000000;1.389754
1392.000000;1.332180
1391.000000;1.575134
1390.000000;1.898180
1389.000000;1.454453
1388.000000;1.326569
1387.000000;1.443623
1386.000000;1.886750
1385.000000;1.704916
1384.000000;1.364855
1383.000000;1.367566
1382.000000;1.688658
1381.000000;1.849780
1380.000000;1.462481
1379.000000;1.362883
1378.000000;1.525665
1377.000000;2.059275
1376.000000;1.670456
1375.000000;1.433705
1374.000000;1.453763
1373.000000;1.746352
1372.000000;1.813046
1371.000000;1.443244
1370.000000;1.374130
1369.000000;1.586728
1368.000000;2.006427
1367.000000;1.517523
1366.000000;1.341192
1365.000000;1.441376
1364.000000;1.849337
1363.000000;1.805058
1362.000000;1.418727
1361.000000;1.374050
1360.000000;1.655569
1359.000000;1.881607
1358.000000;1.481969
1357.000000;1.361464
1356.000000;1.464384
1355.000000;1.930347
1354.000000;1.670693
1353.000000;1.363358
1352.000000;1.389436
1351.000000;1.706304
1350.000000;1.797592
1349.000000;1.436533
1348.000000;1.348065
1347.000000;1.515076
1346.000000;1.939661
1345.000000;1.566720
1344.000000;1.360759
1343.000000;1.431001
1342.000000;1.791900
1341.000000;1.869265
1340.000000;1.525012
1339.000000;1.443468
1338.000000;1.664384
1337.000000;1.968735
1336.000000;1.487093
1335.000000;1.346934
1334.000000;1.437760
1333.000000;1.823187
1332.000000;1.695363
1331.000000;1.368274
1330.000000;1.367941
1329.000000;1.679421
1328.000000;1.807439
1327.000000;1.428926
1326.000000;1.332554
1325.000000;1.489126
1324.000000;1.953352
1323.000000;1.580181
1322.000000;1.368608
1321.000000;1.431076
1320.000000;1.768636
1319.000000;1.792051
1318.000000;1.439672
1317.000000;1.361285
1316.000000;1.577822
1315.000000;2.072903
1314.000000;1.507499
1313.000000;1.350913
1312.000000;1.435147
1311.000000;1.787834
1310.000000;1.725247
1309.000000;1.388549
1308.000000;1.350713
1307.000000;1.630957
1306.000000;1.879944
1305.000000;1.437764
1304.000000;1.317608
1303.000000;1.430708
1302.000000;1.889126
1301.000000;1.626944
1300.000000;1.347196
1299.000000;1.374050
1298.000000;1.668248
1297.000000;1.783298
1296.000000;1.426711
1295.000000;1.327246
1294.000000;1.477074
1293.000000;2.014741
1292.000000;1.549547
1291.000000;1.334321
1290.000000;1.392634
1289.000000;1.731208
1288.000000;1.749954
1287.000000;1.389946
1286.000000;1.338719
1285.000000;1.569491
1284.000000;1.925815
1283.000000;1.482699
1282.000000;1.330867
1281.000000;1.401122
1280.000000;1.795690
1279.000000;1.692689
1278.000000;1.358017
1277.000000;1.358262
1276.000000;1.653295
1275.000000;1.807815
1274.000000;1.435527
1273.000000;1.341762
1272.000000;1.454864
1271.000000;1.949358
1270.000000;1.613507
1269.000000;1.337850
1268.000000;1.369163
1267.000000;1.690523
1266.000000;1.750875
1265.000000;1.404594
1264.000000;1.339269
1263.000000;1.526986
1262.000000;1.937254
1261.000000;1.529322
1260.000000;1.355388
1259.000000;1.406662
1258.000000;1.725658
1257.000000;1.694780
1256.000000;1.378585
1255.000000;1.365440
1254.000000;1.626559
1253.000000;1.815394
1252.000000;1.435663
1251.000000;1.333148
1250.000000;1.452603
1249.000000;1.831116
1248.000000;1.595755
1247.000000;1.352620
1246.000000;1.380287
1245.000000;1.694959
1244.000000;1.737573
1243.000000;1.404482
1242.000000;1.330264
1241.000000;1.486578
1240.000000;1.949526
1239.000000;1.522809
1238.000000;1.336636
1237.000000;1.396217
1236.000000;1.719282
1235.000000;1.690820
1234.000000;1.378819
1233.000000;1.344898
1232.000000;1.577789
1231.000000;1.885405
1230.000000;1.449696
1229.000000;1.325355
1228.000000;1.419221
1227.000000;1.795003
1226.000000;1.640482
1225.000000;1.347705
1224.000000;1.343925
1223.000000;1.651364
1222.000000;1.788144
1221.000000;1.408048
1220.000000;1.330863
1219.000000;1.461553
1218.000000;1.890843
1217.000000;1.548735
1216.000000;1.324647
1215.000000;1.368377
1214.000000;1.697047
1213.000000;1.724964
1212.000000;1.385744
1211.000000;1.326574
1210.000000;1.515196
1209.000000;1.947396
1208.000000;1.476817
1207.000000;1.320592
1206.000000;1.398100
1205.000000;1.750693
1204.000000;1.653572
1203.000000;1.347568
1202.000000;1.328417
1201.000000;1.600807
1200.000000;2.311417
