Criado como novo conjunto de dados;"e2410_daniel_v2.spp","13142.4 Secs"
cm-1;Abs
10000.000000;0.495532
9999.000000;0.495240
9998.000000;0.494752
9997.000000;0.494029
9996.000000;0.493167
9995.000000;0.492295
9994.000000;0.491549
9993.000000;0.490948
9992.000000;0.490390
9991.000000;0.489796
9990.000000;0.489253
9989.000000;0.488890
9988.000000;0.488657
9987.000000;0.488362
9986.000000;0.487899
9985.000000;0.487332
9984.000000;0.486753
9983.000000;0.486208
9982.000000;0.485756
9981.000000;0.485469
9980.000000;0.485313
9979.000000;0.485123
9978.000000;0.484731
9977.000000;0.484089
9976.000000;0.483276
9975.000000;0.482455
9974.000000;0.481806
9973.000000;0.481386
9972.000000;0.481048
9971.000000;0.480587
9970.000000;0.479970
9969.000000;0.479337
9968.000000;0.478814
9967.000000;0.478409
9966.000000;0.478085
9965.000000;0.477804
9964.000000;0.477496
9963.000000;0.477095
9962.000000;0.476631
9961.000000;0.476180
9960.000000;0.475723
9959.000000;0.475174
9958.000000;0.474570
9957.000000;0.474100
9956.000000;0.473864
9955.000000;0.473731
9954.000000;0.473487
9953.000000;0.473056
9952.000000;0.472498
9951.000000;0.471868
9950.000000;0.471162
9949.000000;0.470369
9948.000000;0.469501
9947.000000;0.468587
9946.000000;0.467708
9945.000000;0.467010
9944.000000;0.466615
9943.000000;0.466500
9942.000000;0.466474
9941.000000;0.466320
9940.000000;0.465967
9939.000000;0.465540
9938.000000;0.465208
9937.000000;0.464980
9936.000000;0.464671
9935.000000;0.464101
9934.000000;0.463309
9933.000000;0.462520
9932.000000;0.461919
9931.000000;0.461503
9930.000000;0.461134
9929.000000;0.460677
9928.000000;0.460087
9927.000000;0.459404
9926.000000;0.458716
9925.000000;0.458097
9924.000000;0.457594
9923.000000;0.457236
9922.000000;0.457001
9921.000000;0.456757
9920.000000;0.456308
9919.000000;0.455608
9918.000000;0.454879
9917.000000;0.454406
9916.000000;0.454228
9915.000000;0.454081
9914.000000;0.453693
9913.000000;0.453042
9912.000000;0.452327
9911.000000;0.451734
9910.000000;0.451291
9909.000000;0.450902
9908.000000;0.450486
9907.000000;0.450053
9906.000000;0.449642
9905.000000;0.449205
9904.000000;0.448622
9903.000000;0.447862
9902.000000;0.447100
9901.000000;0.446566
9900.000000;0.446299
9899.000000;0.446107
9898.000000;0.445766
9897.000000;0.445210
9896.000000;0.444517
9895.000000;0.443793
9894.000000;0.443124
9893.000000;0.442592
9892.000000;0.442252
9891.000000;0.442052
9890.000000;0.441822
9889.000000;0.441398
9888.000000;0.440795
9887.000000;0.440224
9886.000000;0.439893
9885.000000;0.439795
9884.000000;0.439719
9883.000000;0.439452
9882.000000;0.438915
9881.000000;0.438137
9880.000000;0.437223
9879.000000;0.436371
9878.000000;0.435793
9877.000000;0.435542
9876.000000;0.435433
9875.000000;0.435223
9874.000000;0.434824
9873.000000;0.434293
9872.000000;0.433700
9871.000000;0.433087
9870.000000;0.432518
9869.000000;0.432051
9868.000000;0.431670
9867.000000;0.431295
9866.000000;0.430869
9865.000000;0.430360
9864.000000;0.429721
9863.000000;0.428923
9862.000000;0.428033
9861.000000;0.427209
9860.000000;0.426601
9859.000000;0.426263
9858.000000;0.426123
9857.000000;0.426009
9856.000000;0.425749
9855.000000;0.425302
9854.000000;0.424793
9853.000000;0.424370
9852.000000;0.424048
9851.000000;0.423728
9850.000000;0.423318
9849.000000;0.422794
9848.000000;0.422170
9847.000000;0.421499
9846.000000;0.420875
9845.000000;0.420364
9844.000000;0.419944
9843.000000;0.419553
9842.000000;0.419175
9841.000000;0.418806
9840.000000;0.418397
9839.000000;0.417911
9838.000000;0.417403
9837.000000;0.416941
9836.000000;0.416484
9835.000000;0.415919
9834.000000;0.415232
9833.000000;0.414530
9832.000000;0.413877
9831.000000;0.413244
9830.000000;0.412637
9829.000000;0.412172
9828.000000;0.411930
9827.000000;0.411811
9826.000000;0.411621
9825.000000;0.411275
9824.000000;0.410822
9823.000000;0.410299
9822.000000;0.409670
9821.000000;0.408965
9820.000000;0.408386
9819.000000;0.408163
9818.000000;0.408273
9817.000000;0.408391
9816.000000;0.408153
9815.000000;0.407481
9814.000000;0.406611
9813.000000;0.405843
9812.000000;0.405297
9811.000000;0.404892
9810.000000;0.404481
9809.000000;0.404003
9808.000000;0.403536
9807.000000;0.403209
9806.000000;0.403018
9805.000000;0.402752
9804.000000;0.402190
9803.000000;0.401362
9802.000000;0.400550
9801.000000;0.399988
9800.000000;0.399653
9799.000000;0.399383
9798.000000;0.399091
9797.000000;0.398770
9796.000000;0.398376
9795.000000;0.397821
9794.000000;0.397094
9793.000000;0.396318
9792.000000;0.395665
9791.000000;0.395214
9790.000000;0.394906
9789.000000;0.394604
9788.000000;0.394223
9787.000000;0.393798
9786.000000;0.393405
9785.000000;0.393040
9784.000000;0.392627
9783.000000;0.392162
9782.000000;0.391733
9781.000000;0.391387
9780.000000;0.391074
9779.000000;0.390759
9778.000000;0.390479
9777.000000;0.390237
9776.000000;0.389919
9775.000000;0.389427
9774.000000;0.388800
9773.000000;0.388150
9772.000000;0.387522
9771.000000;0.386918
9770.000000;0.386372
9769.000000;0.385912
9768.000000;0.385508
9767.000000;0.385146
9766.000000;0.384870
9765.000000;0.384643
9764.000000;0.384254
9763.000000;0.383521
9762.000000;0.382557
9761.000000;0.381661
9760.000000;0.380976
9759.000000;0.380411
9758.000000;0.379895
9757.000000;0.379522
9756.000000;0.379375
9755.000000;0.379355
9754.000000;0.379273
9753.000000;0.379029
9752.000000;0.378638
9751.000000;0.378147
9750.000000;0.377616
9749.000000;0.377108
9748.000000;0.376623
9747.000000;0.376087
9746.000000;0.375456
9745.000000;0.374812
9744.000000;0.374293
9743.000000;0.373951
9742.000000;0.373712
9741.000000;0.373456
9740.000000;0.373077
9739.000000;0.372533
9738.000000;0.371887
9737.000000;0.371312
9736.000000;0.370973
9735.000000;0.370865
9734.000000;0.370785
9733.000000;0.370525
9732.000000;0.370060
9731.000000;0.369528
9730.000000;0.369030
9729.000000;0.368538
9728.000000;0.368007
9727.000000;0.367501
9726.000000;0.367117
9725.000000;0.366838
9724.000000;0.366550
9723.000000;0.366180
9722.000000;0.365722
9721.000000;0.365128
9720.000000;0.364333
9719.000000;0.363437
9718.000000;0.362721
9717.000000;0.362364
9716.000000;0.362228
9715.000000;0.362019
9714.000000;0.361597
9713.000000;0.361026
9712.000000;0.360408
9711.000000;0.359802
9710.000000;0.359279
9709.000000;0.358894
9708.000000;0.358585
9707.000000;0.358217
9706.000000;0.357751
9705.000000;0.357291
9704.000000;0.356919
9703.000000;0.356596
9702.000000;0.356253
9701.000000;0.355894
9700.000000;0.355565
9699.000000;0.355252
9698.000000;0.354888
9697.000000;0.354421
9696.000000;0.353840
9695.000000;0.353161
9694.000000;0.352430
9693.000000;0.351738
9692.000000;0.351177
9691.000000;0.350777
9690.000000;0.350481
9689.000000;0.350204
9688.000000;0.349905
9687.000000;0.349589
9686.000000;0.349254
9685.000000;0.348858
9684.000000;0.348394
9683.000000;0.347959
9682.000000;0.347665
9681.000000;0.347476
9680.000000;0.347201
9679.000000;0.346698
9678.000000;0.346015
9677.000000;0.345293
9676.000000;0.344613
9675.000000;0.344014
9674.000000;0.343583
9673.000000;0.343386
9672.000000;0.343327
9671.000000;0.343169
9670.000000;0.342752
9669.000000;0.342123
9668.000000;0.341451
9667.000000;0.340879
9666.000000;0.340470
9665.000000;0.340206
9664.000000;0.339998
9663.000000;0.339732
9662.000000;0.339369
9661.000000;0.338976
9660.000000;0.338647
9659.000000;0.338375
9658.000000;0.338044
9657.000000;0.337538
9656.000000;0.336871
9655.000000;0.336197
9654.000000;0.335671
9653.000000;0.335309
9652.000000;0.334993
9651.000000;0.334627
9650.000000;0.334213
9649.000000;0.333793
9648.000000;0.333353
9647.000000;0.332839
9646.000000;0.332246
9645.000000;0.331640
9644.000000;0.331113
9643.000000;0.330714
9642.000000;0.330405
9641.000000;0.330076
9640.000000;0.329666
9639.000000;0.329260
9638.000000;0.328997
9637.000000;0.328865
9636.000000;0.328665
9635.000000;0.328242
9634.000000;0.327652
9633.000000;0.327051
9632.000000;0.326479
9631.000000;0.325885
9630.000000;0.325294
9629.000000;0.324821
9628.000000;0.324500
9627.000000;0.324223
9626.000000;0.323853
9625.000000;0.323346
9624.000000;0.322754
9623.000000;0.322189
9622.000000;0.321783
9621.000000;0.321600
9620.000000;0.321532
9619.000000;0.321369
9618.000000;0.320990
9617.000000;0.320470
9616.000000;0.319976
9615.000000;0.319609
9614.000000;0.319352
9613.000000;0.319110
9612.000000;0.318780
9611.000000;0.318323
9610.000000;0.317799
9609.000000;0.317310
9608.000000;0.316891
9607.000000;0.316482
9606.000000;0.316017
9605.000000;0.315493
9604.000000;0.314947
9603.000000;0.314390
9602.000000;0.313823
9601.000000;0.313302
9600.000000;0.312936
9599.000000;0.312777
9598.000000;0.312730
9597.000000;0.312603
9596.000000;0.312278
9595.000000;0.311819
9594.000000;0.311367
9593.000000;0.310955
9592.000000;0.310496
9591.000000;0.309948
9590.000000;0.309399
9589.000000;0.308959
9588.000000;0.308642
9587.000000;0.308407
9586.000000;0.308246
9585.000000;0.308130
9584.000000;0.307934
9583.000000;0.307528
9582.000000;0.306936
9581.000000;0.306325
9580.000000;0.305825
9579.000000;0.305431
9578.000000;0.305086
9577.000000;0.304747
9576.000000;0.304377
9575.000000;0.303937
9574.000000;0.303451
9573.000000;0.303009
9572.000000;0.302654
9571.000000;0.302307
9570.000000;0.301852
9569.000000;0.301285
9568.000000;0.300716
9567.000000;0.300243
9566.000000;0.299859
9565.000000;0.299500
9564.000000;0.299142
9563.000000;0.298821
9562.000000;0.298559
9561.000000;0.298302
9560.000000;0.297974
9559.000000;0.297559
9558.000000;0.297116
9557.000000;0.296706
9556.000000;0.296356
9555.000000;0.296091
9554.000000;0.295928
9553.000000;0.295797
9552.000000;0.295530
9551.000000;0.294997
9550.000000;0.294266
9549.000000;0.293553
9548.000000;0.293040
9547.000000;0.292742
9546.000000;0.292547
9545.000000;0.292337
9544.000000;0.292054
9543.000000;0.291714
9542.000000;0.291356
9541.000000;0.290981
9540.000000;0.290543
9539.000000;0.290014
9538.000000;0.289443
9537.000000;0.288924
9536.000000;0.288508
9535.000000;0.288176
9534.000000;0.287885
9533.000000;0.287604
9532.000000;0.287315
9531.000000;0.287015
9530.000000;0.286722
9529.000000;0.286455
9528.000000;0.286189
9527.000000;0.285872
9526.000000;0.285488
9525.000000;0.285086
9524.000000;0.284706
9523.000000;0.284309
9522.000000;0.283813
9521.000000;0.283211
9520.000000;0.282615
9519.000000;0.282165
9518.000000;0.281868
9517.000000;0.281591
9516.000000;0.281217
9515.000000;0.280781
9514.000000;0.280408
9513.000000;0.280147
9512.000000;0.279933
9511.000000;0.279687
9510.000000;0.279384
9509.000000;0.279007
9508.000000;0.278530
9507.000000;0.278006
9506.000000;0.277572
9505.000000;0.277303
9504.000000;0.277084
9503.000000;0.276738
9502.000000;0.276254
9501.000000;0.275805
9500.000000;0.275514
9499.000000;0.275292
9498.000000;0.274960
9497.000000;0.274475
9496.000000;0.273977
9495.000000;0.273616
9494.000000;0.273404
9493.000000;0.273251
9492.000000;0.273100
9491.000000;0.272955
9490.000000;0.272802
9489.000000;0.272547
9488.000000;0.272097
9487.000000;0.271462
9486.000000;0.270757
9485.000000;0.270106
9484.000000;0.269568
9483.000000;0.269124
9482.000000;0.268700
9481.000000;0.268231
9480.000000;0.267745
9479.000000;0.267372
9478.000000;0.267217
9477.000000;0.267219
9476.000000;0.267176
9475.000000;0.266924
9474.000000;0.266457
9473.000000;0.265886
9472.000000;0.265337
9471.000000;0.264901
9470.000000;0.264606
9469.000000;0.264414
9468.000000;0.264255
9467.000000;0.264083
9466.000000;0.263884
9465.000000;0.263638
9464.000000;0.263317
9463.000000;0.262919
9462.000000;0.262452
9461.000000;0.261907
9460.000000;0.261293
9459.000000;0.260715
9458.000000;0.260327
9457.000000;0.260183
9456.000000;0.260167
9455.000000;0.260092
9454.000000;0.259823
9453.000000;0.259339
9452.000000;0.258736
9451.000000;0.258201
9450.000000;0.257876
9449.000000;0.257706
9448.000000;0.257476
9447.000000;0.257028
9446.000000;0.256396
9445.000000;0.255719
9444.000000;0.255088
9443.000000;0.254548
9442.000000;0.254157
9441.000000;0.253951
9440.000000;0.253882
9439.000000;0.253853
9438.000000;0.253789
9437.000000;0.253653
9436.000000;0.253433
9435.000000;0.253154
9434.000000;0.252851
9433.000000;0.252500
9432.000000;0.252010
9431.000000;0.251356
9430.000000;0.250671
9429.000000;0.250146
9428.000000;0.249864
9427.000000;0.249759
9426.000000;0.249693
9425.000000;0.249532
9424.000000;0.249183
9423.000000;0.248654
9422.000000;0.248087
9421.000000;0.247665
9420.000000;0.247471
9419.000000;0.247414
9418.000000;0.247293
9417.000000;0.246950
9416.000000;0.246404
9415.000000;0.245846
9414.000000;0.245440
9413.000000;0.245157
9412.000000;0.244833
9411.000000;0.244412
9410.000000;0.244028
9409.000000;0.243818
9408.000000;0.243745
9407.000000;0.243659
9406.000000;0.243472
9405.000000;0.243194
9404.000000;0.242851
9403.000000;0.242456
9402.000000;0.242028
9401.000000;0.241580
9400.000000;0.241124
9399.000000;0.240702
9398.000000;0.240383
9397.000000;0.240159
9396.000000;0.239926
9395.000000;0.239605
9394.000000;0.239247
9393.000000;0.238945
9392.000000;0.238681
9391.000000;0.238358
9390.000000;0.237951
9389.000000;0.237541
9388.000000;0.237210
9387.000000;0.236956
9386.000000;0.236725
9385.000000;0.236469
9384.000000;0.236172
9383.000000;0.235861
9382.000000;0.235584
9381.000000;0.235331
9380.000000;0.235012
9379.000000;0.234549
9378.000000;0.233990
9377.000000;0.233482
9376.000000;0.233140
9375.000000;0.232976
9374.000000;0.232919
9373.000000;0.232860
9372.000000;0.232695
9371.000000;0.232393
9370.000000;0.232021
9369.000000;0.231666
9368.000000;0.231340
9367.000000;0.230979
9366.000000;0.230542
9365.000000;0.230061
9364.000000;0.229603
9363.000000;0.229231
9362.000000;0.228978
9361.000000;0.228815
9360.000000;0.228656
9359.000000;0.228430
9358.000000;0.228138
9357.000000;0.227819
9356.000000;0.227478
9355.000000;0.227109
9354.000000;0.226747
9353.000000;0.226451
9352.000000;0.226234
9351.000000;0.226035
9350.000000;0.225790
9349.000000;0.225488
9348.000000;0.225148
9347.000000;0.224796
9346.000000;0.224460
9345.000000;0.224175
9344.000000;0.223970
9343.000000;0.223834
9342.000000;0.223696
9341.000000;0.223450
9340.000000;0.223037
9339.000000;0.222510
9338.000000;0.222001
9337.000000;0.221604
9336.000000;0.221307
9335.000000;0.221045
9334.000000;0.220788
9333.000000;0.220562
9332.000000;0.220412
9331.000000;0.220331
9330.000000;0.220215
9329.000000;0.219900
9328.000000;0.219311
9327.000000;0.218585
9326.000000;0.217981
9325.000000;0.217654
9324.000000;0.217543
9323.000000;0.217491
9322.000000;0.217384
9321.000000;0.217175
9320.000000;0.216863
9319.000000;0.216515
9318.000000;0.216240
9317.000000;0.216075
9316.000000;0.215926
9315.000000;0.215671
9314.000000;0.215296
9313.000000;0.214874
9312.000000;0.214457
9311.000000;0.214054
9310.000000;0.213671
9309.000000;0.213320
9308.000000;0.213000
9307.000000;0.212704
9306.000000;0.212443
9305.000000;0.212207
9304.000000;0.211956
9303.000000;0.211679
9302.000000;0.211427
9301.000000;0.211241
9300.000000;0.211077
9299.000000;0.210858
9298.000000;0.210568
9297.000000;0.210239
9296.000000;0.209871
9295.000000;0.209457
9294.000000;0.209057
9293.000000;0.208782
9292.000000;0.208684
9291.000000;0.208693
9290.000000;0.208687
9289.000000;0.208590
9288.000000;0.208403
9287.000000;0.208156
9286.000000;0.207851
9285.000000;0.207444
9284.000000;0.206903
9283.000000;0.206290
9282.000000;0.205749
9281.000000;0.205411
9280.000000;0.205304
9279.000000;0.205346
9278.000000;0.205393
9277.000000;0.205299
9276.000000;0.205013
9275.000000;0.204618
9274.000000;0.204243
9273.000000;0.203914
9272.000000;0.203564
9271.000000;0.203183
9270.000000;0.202863
9269.000000;0.202657
9268.000000;0.202489
9267.000000;0.202263
9266.000000;0.201992
9265.000000;0.201749
9264.000000;0.201564
9263.000000;0.201419
9262.000000;0.201290
9261.000000;0.201105
9260.000000;0.200759
9259.000000;0.200233
9258.000000;0.199685
9257.000000;0.199306
9256.000000;0.199126
9255.000000;0.199020
9254.000000;0.198866
9253.000000;0.198627
9252.000000;0.198316
9251.000000;0.197970
9250.000000;0.197651
9249.000000;0.197387
9248.000000;0.197131
9247.000000;0.196830
9246.000000;0.196516
9245.000000;0.196251
9244.000000;0.196015
9243.000000;0.195728
9242.000000;0.195371
9241.000000;0.195022
9240.000000;0.194770
9239.000000;0.194655
9238.000000;0.194668
9237.000000;0.194726
9236.000000;0.194689
9235.000000;0.194463
9234.000000;0.194092
9233.000000;0.193691
9232.000000;0.193305
9231.000000;0.192916
9230.000000;0.192546
9229.000000;0.192261
9228.000000;0.192056
9227.000000;0.191835
9226.000000;0.191522
9225.000000;0.191139
9224.000000;0.190755
9223.000000;0.190439
9222.000000;0.190255
9221.000000;0.190236
9220.000000;0.190320
9219.000000;0.190360
9218.000000;0.190220
9217.000000;0.189871
9216.000000;0.189396
9215.000000;0.188943
9214.000000;0.188629
9213.000000;0.188434
9212.000000;0.188203
9211.000000;0.187816
9210.000000;0.187345
9209.000000;0.186976
9208.000000;0.186795
9207.000000;0.186721
9206.000000;0.186649
9205.000000;0.186563
9204.000000;0.186475
9203.000000;0.186347
9202.000000;0.186111
9201.000000;0.185754
9200.000000;0.185321
9199.000000;0.184886
9198.000000;0.184521
9197.000000;0.184277
9196.000000;0.184151
9195.000000;0.184083
9194.000000;0.184008
9193.000000;0.183892
9192.000000;0.183731
9191.000000;0.183544
9190.000000;0.183334
9189.000000;0.183055
9188.000000;0.182642
9187.000000;0.182111
9186.000000;0.181613
9185.000000;0.181311
9184.000000;0.181220
9183.000000;0.181203
9182.000000;0.181119
9181.000000;0.180912
9180.000000;0.180611
9179.000000;0.180283
9178.000000;0.180012
9177.000000;0.179836
9176.000000;0.179694
9175.000000;0.179489
9174.000000;0.179207
9173.000000;0.178937
9172.000000;0.178750
9171.000000;0.178622
9170.000000;0.178476
9169.000000;0.178267
9168.000000;0.178005
9167.000000;0.177739
9166.000000;0.177535
9165.000000;0.177414
9164.000000;0.177313
9163.000000;0.177145
9162.000000;0.176878
9161.000000;0.176545
9160.000000;0.176171
9159.000000;0.175781
9158.000000;0.175451
9157.000000;0.175281
9156.000000;0.175269
9155.000000;0.175274
9154.000000;0.175139
9153.000000;0.174824
9152.000000;0.174404
9151.000000;0.173991
9150.000000;0.173686
9149.000000;0.173541
9148.000000;0.173506
9147.000000;0.173448
9146.000000;0.173264
9145.000000;0.172977
9144.000000;0.172684
9143.000000;0.172448
9142.000000;0.172265
9141.000000;0.172105
9140.000000;0.171942
9139.000000;0.171743
9138.000000;0.171479
9137.000000;0.171160
9136.000000;0.170829
9135.000000;0.170533
9134.000000;0.170302
9133.000000;0.170159
9132.000000;0.170106
9131.000000;0.170089
9130.000000;0.170004
9129.000000;0.169745
9128.000000;0.169292
9127.000000;0.168751
9126.000000;0.168308
9125.000000;0.168091
9124.000000;0.168070
9123.000000;0.168088
9122.000000;0.168004
9121.000000;0.167809
9120.000000;0.167601
9119.000000;0.167452
9118.000000;0.167327
9117.000000;0.167132
9116.000000;0.166831
9115.000000;0.166488
9114.000000;0.166188
9113.000000;0.165942
9112.000000;0.165701
9111.000000;0.165456
9110.000000;0.165267
9109.000000;0.165172
9108.000000;0.165113
9107.000000;0.164982
9106.000000;0.164740
9105.000000;0.164444
9104.000000;0.164181
9103.000000;0.163988
9102.000000;0.163839
9101.000000;0.163672
9100.000000;0.163443
9099.000000;0.163155
9098.000000;0.162865
9097.000000;0.162625
9096.000000;0.162443
9095.000000;0.162303
9094.000000;0.162208
9093.000000;0.162167
9092.000000;0.162156
9091.000000;0.162119
9090.000000;0.162018
9089.000000;0.161858
9088.000000;0.161661
9087.000000;0.161429
9086.000000;0.161160
9085.000000;0.160871
9084.000000;0.160608
9083.000000;0.160394
9082.000000;0.160198
9081.000000;0.159959
9080.000000;0.159660
9079.000000;0.159371
9078.000000;0.159184
9077.000000;0.159111
9076.000000;0.159062
9075.000000;0.158944
9074.000000;0.158740
9073.000000;0.158505
9072.000000;0.158297
9071.000000;0.158123
9070.000000;0.157946
9069.000000;0.157708
9068.000000;0.157397
9067.000000;0.157078
9066.000000;0.156842
9065.000000;0.156714
9064.000000;0.156633
9063.000000;0.156536
9062.000000;0.156410
9061.000000;0.156251
9060.000000;0.156013
9059.000000;0.155669
9058.000000;0.155278
9057.000000;0.154954
9056.000000;0.154759
9055.000000;0.154671
9054.000000;0.154629
9053.000000;0.154578
9052.000000;0.154468
9051.000000;0.154278
9050.000000;0.154053
9049.000000;0.153879
9048.000000;0.153802
9047.000000;0.153781
9046.000000;0.153739
9045.000000;0.153630
9044.000000;0.153455
9043.000000;0.153234
9042.000000;0.152974
9041.000000;0.152671
9040.000000;0.152343
9039.000000;0.152053
9038.000000;0.151877
9037.000000;0.151831
9036.000000;0.151824
9035.000000;0.151708
9034.000000;0.151395
9033.000000;0.150938
9032.000000;0.150495
9031.000000;0.150212
9030.000000;0.150103
9029.000000;0.150058
9028.000000;0.149954
9027.000000;0.149769
9026.000000;0.149557
9025.000000;0.149360
9024.000000;0.149168
9023.000000;0.148981
9022.000000;0.148844
9021.000000;0.148782
9020.000000;0.148752
9019.000000;0.148680
9018.000000;0.148519
9017.000000;0.148274
9016.000000;0.147977
9015.000000;0.147685
9014.000000;0.147457
9013.000000;0.147308
9012.000000;0.147204
9011.000000;0.147124
9010.000000;0.147081
9009.000000;0.147050
9008.000000;0.146942
9007.000000;0.146692
9006.000000;0.146362
9005.000000;0.146071
9004.000000;0.145860
9003.000000;0.145666
9002.000000;0.145443
9001.000000;0.145231
9000.000000;0.145093
8999.000000;0.145027
8998.000000;0.144974
8997.000000;0.144870
8996.000000;0.144678
8995.000000;0.144400
8994.000000;0.144095
8993.000000;0.143872
8992.000000;0.143801
8991.000000;0.143842
8990.000000;0.143865
8989.000000;0.143761
8988.000000;0.143543
8987.000000;0.143330
8986.000000;0.143218
8985.000000;0.143171
8984.000000;0.143046
8983.000000;0.142735
8982.000000;0.142303
8981.000000;0.141940
8980.000000;0.141794
8979.000000;0.141839
8978.000000;0.141908
8977.000000;0.141848
8976.000000;0.141636
8975.000000;0.141366
8974.000000;0.141133
8973.000000;0.140955
8972.000000;0.140795
8971.000000;0.140630
8970.000000;0.140486
8969.000000;0.140396
8968.000000;0.140356
8967.000000;0.140318
8966.000000;0.140230
8965.000000;0.140074
8964.000000;0.139880
8963.000000;0.139697
8962.000000;0.139548
8961.000000;0.139397
8960.000000;0.139187
8959.000000;0.138909
8958.000000;0.138624
8957.000000;0.138413
8956.000000;0.138294
8955.000000;0.138199
8954.000000;0.138044
8953.000000;0.137818
8952.000000;0.137610
8951.000000;0.137513
8950.000000;0.137502
8949.000000;0.137446
8948.000000;0.137252
8947.000000;0.136958
8946.000000;0.136661
8945.000000;0.136418
8944.000000;0.136252
8943.000000;0.136190
8942.000000;0.136198
8941.000000;0.136148
8940.000000;0.135933
8939.000000;0.135633
8938.000000;0.135445
8937.000000;0.135442
8936.000000;0.135503
8935.000000;0.135492
8934.000000;0.135408
8933.000000;0.135299
8932.000000;0.135126
8931.000000;0.134823
8930.000000;0.134438
8929.000000;0.134119
8928.000000;0.133969
8927.000000;0.133965
8926.000000;0.133996
8925.000000;0.133946
8924.000000;0.133755
8923.000000;0.133461
8922.000000;0.133189
8921.000000;0.133041
8920.000000;0.133002
8919.000000;0.132962
8918.000000;0.132828
8917.000000;0.132614
8916.000000;0.132439
8915.000000;0.132422
8914.000000;0.132573
8913.000000;0.132759
8912.000000;0.132820
8911.000000;0.132729
8910.000000;0.132583
8909.000000;0.132455
8908.000000;0.132307
8907.000000;0.132091
8906.000000;0.131837
8905.000000;0.131580
8904.000000;0.131284
8903.000000;0.130919
8902.000000;0.130590
8901.000000;0.130459
8900.000000;0.130559
8899.000000;0.130735
8898.000000;0.130804
8897.000000;0.130695
8896.000000;0.130444
8895.000000;0.130117
8894.000000;0.129786
8893.000000;0.129524
8892.000000;0.129386
8891.000000;0.129373
8890.000000;0.129442
8889.000000;0.129533
8888.000000;0.129599
8887.000000;0.129626
8886.000000;0.129629
8885.000000;0.129607
8884.000000;0.129535
8883.000000;0.129407
8882.000000;0.129268
8881.000000;0.129174
8880.000000;0.129117
8879.000000;0.129033
8878.000000;0.128874
8877.000000;0.128657
8876.000000;0.128411
8875.000000;0.128141
8874.000000;0.127851
8873.000000;0.127589
8872.000000;0.127422
8871.000000;0.127363
8870.000000;0.127355
8869.000000;0.127337
8868.000000;0.127325
8867.000000;0.127380
8866.000000;0.127503
8865.000000;0.127595
8864.000000;0.127552
8863.000000;0.127378
8862.000000;0.127159
8861.000000;0.126947
8860.000000;0.126734
8859.000000;0.126528
8858.000000;0.126384
8857.000000;0.126322
8856.000000;0.126278
8855.000000;0.126196
8854.000000;0.126130
8853.000000;0.126180
8852.000000;0.126340
8851.000000;0.126485
8850.000000;0.126504
8849.000000;0.126419
8848.000000;0.126322
8847.000000;0.126254
8846.000000;0.126170
8845.000000;0.126031
8844.000000;0.125873
8843.000000;0.125770
8842.000000;0.125748
8841.000000;0.125757
8840.000000;0.125727
8839.000000;0.125638
8838.000000;0.125510
8837.000000;0.125372
8836.000000;0.125253
8835.000000;0.125174
8834.000000;0.125136
8833.000000;0.125109
8832.000000;0.125076
8831.000000;0.125058
8830.000000;0.125064
8829.000000;0.125054
8828.000000;0.124993
8827.000000;0.124923
8826.000000;0.124921
8825.000000;0.125010
8824.000000;0.125149
8823.000000;0.125302
8822.000000;0.125459
8821.000000;0.125593
8820.000000;0.125662
8819.000000;0.125664
8818.000000;0.125641
8817.000000;0.125636
8816.000000;0.125686
8815.000000;0.125867
8814.000000;0.126229
8813.000000;0.126675
8812.000000;0.126979
8811.000000;0.126978
8810.000000;0.126700
8809.000000;0.126280
8808.000000;0.125834
8807.000000;0.125450
8806.000000;0.125224
8805.000000;0.125212
8804.000000;0.125384
8803.000000;0.125660
8802.000000;0.125960
8801.000000;0.126187
8800.000000;0.126229
8799.000000;0.126052
8798.000000;0.125764
8797.000000;0.125523
8796.000000;0.125406
8795.000000;0.125397
8794.000000;0.125468
8793.000000;0.125604
8792.000000;0.125775
8791.000000;0.125948
8790.000000;0.126112
8789.000000;0.126261
8788.000000;0.126374
8787.000000;0.126462
8786.000000;0.126597
8785.000000;0.126824
8784.000000;0.127076
8783.000000;0.127226
8782.000000;0.127237
8781.000000;0.127199
8780.000000;0.127222
8779.000000;0.127343
8778.000000;0.127509
8777.000000;0.127622
8776.000000;0.127591
8775.000000;0.127419
8774.000000;0.127243
8773.000000;0.127241
8772.000000;0.127471
8771.000000;0.127825
8770.000000;0.128141
8769.000000;0.128342
8768.000000;0.128470
8767.000000;0.128614
8766.000000;0.128811
8765.000000;0.128999
8764.000000;0.129068
8763.000000;0.128997
8762.000000;0.128902
8761.000000;0.128926
8760.000000;0.129085
8759.000000;0.129272
8758.000000;0.129409
8757.000000;0.129523
8756.000000;0.129676
8755.000000;0.129867
8754.000000;0.130034
8753.000000;0.130134
8752.000000;0.130172
8751.000000;0.130179
8750.000000;0.130190
8749.000000;0.130235
8748.000000;0.130334
8747.000000;0.130495
8746.000000;0.130707
8745.000000;0.130946
8744.000000;0.131168
8743.000000;0.131334
8742.000000;0.131448
8741.000000;0.131564
8740.000000;0.131729
8739.000000;0.131927
8738.000000;0.132087
8737.000000;0.132151
8736.000000;0.132119
8735.000000;0.132054
8734.000000;0.132039
8733.000000;0.132144
8732.000000;0.132389
8731.000000;0.132709
8730.000000;0.132986
8729.000000;0.133143
8728.000000;0.133207
8727.000000;0.133251
8726.000000;0.133291
8725.000000;0.133294
8724.000000;0.133297
8723.000000;0.133428
8722.000000;0.133759
8721.000000;0.134181
8720.000000;0.134499
8719.000000;0.134633
8718.000000;0.134653
8717.000000;0.134647
8716.000000;0.134648
8715.000000;0.134665
8714.000000;0.134701
8713.000000;0.134714
8712.000000;0.134649
8711.000000;0.134540
8710.000000;0.134517
8709.000000;0.134672
8708.000000;0.134967
8707.000000;0.135303
8706.000000;0.135620
8705.000000;0.135879
8704.000000;0.136019
8703.000000;0.136011
8702.000000;0.135928
8701.000000;0.135904
8700.000000;0.136013
8699.000000;0.136221
8698.000000;0.136429
8697.000000;0.136552
8696.000000;0.136550
8695.000000;0.136447
8694.000000;0.136310
8693.000000;0.136203
8692.000000;0.136159
8691.000000;0.136176
8690.000000;0.136224
8689.000000;0.136266
8688.000000;0.136299
8687.000000;0.136360
8686.000000;0.136451
8685.000000;0.136494
8684.000000;0.136417
8683.000000;0.136298
8682.000000;0.136316
8681.000000;0.136529
8680.000000;0.136787
8679.000000;0.136910
8678.000000;0.136893
8677.000000;0.136852
8676.000000;0.136849
8675.000000;0.136834
8674.000000;0.136754
8673.000000;0.136612
8672.000000;0.136448
8671.000000;0.136305
8670.000000;0.136241
8669.000000;0.136288
8668.000000;0.136409
8667.000000;0.136521
8666.000000;0.136583
8665.000000;0.136618
8664.000000;0.136654
8663.000000;0.136664
8662.000000;0.136597
8661.000000;0.136440
8660.000000;0.136249
8659.000000;0.136115
8658.000000;0.136089
8657.000000;0.136142
8656.000000;0.136191
8655.000000;0.136179
8654.000000;0.136118
8653.000000;0.136042
8652.000000;0.135960
8651.000000;0.135855
8650.000000;0.135722
8649.000000;0.135591
8648.000000;0.135508
8647.000000;0.135503
8646.000000;0.135558
8645.000000;0.135603
8644.000000;0.135564
8643.000000;0.135423
8642.000000;0.135225
8641.000000;0.135034
8640.000000;0.134890
8639.000000;0.134793
8638.000000;0.134696
8637.000000;0.134537
8636.000000;0.134312
8635.000000;0.134106
8634.000000;0.133985
8633.000000;0.133896
8632.000000;0.133739
8631.000000;0.133535
8630.000000;0.133422
8629.000000;0.133459
8628.000000;0.133526
8627.000000;0.133476
8626.000000;0.133314
8625.000000;0.133152
8624.000000;0.133058
8623.000000;0.133027
8622.000000;0.133048
8621.000000;0.133118
8620.000000;0.133197
8619.000000;0.133206
8618.000000;0.133111
8617.000000;0.132955
8616.000000;0.132809
8615.000000;0.132701
8614.000000;0.132588
8613.000000;0.132405
8612.000000;0.132133
8611.000000;0.131852
8610.000000;0.131676
8609.000000;0.131622
8608.000000;0.131599
8607.000000;0.131521
8606.000000;0.131396
8605.000000;0.131271
8604.000000;0.131144
8603.000000;0.130988
8602.000000;0.130816
8601.000000;0.130674
8600.000000;0.130572
8599.000000;0.130477
8598.000000;0.130370
8597.000000;0.130257
8596.000000;0.130151
8595.000000;0.130057
8594.000000;0.129971
8593.000000;0.129868
8592.000000;0.129715
8591.000000;0.129508
8590.000000;0.129300
8589.000000;0.129145
8588.000000;0.129042
8587.000000;0.128943
8586.000000;0.128801
8585.000000;0.128594
8584.000000;0.128343
8583.000000;0.128115
8582.000000;0.127980
8581.000000;0.127945
8580.000000;0.127946
8579.000000;0.127923
8578.000000;0.127866
8577.000000;0.127765
8576.000000;0.127581
8575.000000;0.127303
8574.000000;0.126993
8573.000000;0.126729
8572.000000;0.126531
8571.000000;0.126384
8570.000000;0.126285
8569.000000;0.126228
8568.000000;0.126160
8567.000000;0.126025
8566.000000;0.125838
8565.000000;0.125659
8564.000000;0.125519
8563.000000;0.125401
8562.000000;0.125283
8561.000000;0.125147
8560.000000;0.124977
8559.000000;0.124776
8558.000000;0.124592
8557.000000;0.124465
8556.000000;0.124378
8555.000000;0.124292
8554.000000;0.124215
8553.000000;0.124177
8552.000000;0.124145
8551.000000;0.124023
8550.000000;0.123757
8549.000000;0.123408
8548.000000;0.123090
8547.000000;0.122864
8546.000000;0.122722
8545.000000;0.122640
8544.000000;0.122613
8543.000000;0.122621
8542.000000;0.122595
8541.000000;0.122447
8540.000000;0.122164
8539.000000;0.121835
8538.000000;0.121570
8537.000000;0.121399
8536.000000;0.121279
8535.000000;0.121175
8534.000000;0.121080
8533.000000;0.120974
8532.000000;0.120828
8531.000000;0.120665
8530.000000;0.120562
8529.000000;0.120552
8528.000000;0.120568
8527.000000;0.120523
8526.000000;0.120405
8525.000000;0.120260
8524.000000;0.120118
8523.000000;0.119970
8522.000000;0.119802
8521.000000;0.119614
8520.000000;0.119412
8519.000000;0.119195
8518.000000;0.118947
8517.000000;0.118667
8516.000000;0.118404
8515.000000;0.118248
8514.000000;0.118224
8513.000000;0.118224
8512.000000;0.118113
8511.000000;0.117914
8510.000000;0.117788
8509.000000;0.117812
8508.000000;0.117859
8507.000000;0.117757
8506.000000;0.117482
8505.000000;0.117143
8504.000000;0.116847
8503.000000;0.116655
8502.000000;0.116610
8501.000000;0.116683
8500.000000;0.116736
8499.000000;0.116629
8498.000000;0.116375
8497.000000;0.116110
8496.000000;0.115923
8495.000000;0.115784
8494.000000;0.115639
8493.000000;0.115467
8492.000000;0.115263
8491.000000;0.115017
8490.000000;0.114754
8489.000000;0.114545
8488.000000;0.114430
8487.000000;0.114377
8486.000000;0.114321
8485.000000;0.114226
8484.000000;0.114084
8483.000000;0.113906
8482.000000;0.113723
8481.000000;0.113565
8480.000000;0.113428
8479.000000;0.113259
8478.000000;0.113028
8477.000000;0.112783
8476.000000;0.112624
8475.000000;0.112603
8474.000000;0.112658
8473.000000;0.112655
8472.000000;0.112509
8471.000000;0.112256
8470.000000;0.112010
8469.000000;0.111861
8468.000000;0.111810
8467.000000;0.111792
8466.000000;0.111723
8465.000000;0.111545
8464.000000;0.111277
8463.000000;0.111020
8462.000000;0.110874
8461.000000;0.110831
8460.000000;0.110797
8459.000000;0.110719
8458.000000;0.110634
8457.000000;0.110580
8456.000000;0.110514
8455.000000;0.110369
8454.000000;0.110150
8453.000000;0.109920
8452.000000;0.109730
8451.000000;0.109584
8450.000000;0.109462
8449.000000;0.109326
8448.000000;0.109140
8447.000000;0.108919
8446.000000;0.108737
8445.000000;0.108654
8444.000000;0.108640
8443.000000;0.108628
8442.000000;0.108582
8441.000000;0.108501
8440.000000;0.108374
8439.000000;0.108195
8438.000000;0.107994
8437.000000;0.107812
8436.000000;0.107636
8435.000000;0.107431
8434.000000;0.107215
8433.000000;0.107068
8432.000000;0.107036
8431.000000;0.107080
8430.000000;0.107103
8429.000000;0.107028
8428.000000;0.106837
8427.000000;0.106580
8426.000000;0.106340
8425.000000;0.106171
8424.000000;0.106057
8423.000000;0.105948
8422.000000;0.105816
8421.000000;0.105652
8420.000000;0.105452
8419.000000;0.105228
8418.000000;0.105026
8417.000000;0.104885
8416.000000;0.104789
8415.000000;0.104687
8414.000000;0.104573
8413.000000;0.104495
8412.000000;0.104490
8411.000000;0.104521
8410.000000;0.104509
8409.000000;0.104408
8408.000000;0.104231
8407.000000;0.104029
8406.000000;0.103841
8405.000000;0.103676
8404.000000;0.103526
8403.000000;0.103393
8402.000000;0.103284
8401.000000;0.103195
8400.000000;0.103103
8399.000000;0.103002
8398.000000;0.102903
8397.000000;0.102801
8396.000000;0.102659
8395.000000;0.102447
8394.000000;0.102192
8393.000000;0.101969
8392.000000;0.101846
8391.000000;0.101836
8390.000000;0.101874
8389.000000;0.101854
8388.000000;0.101703
8387.000000;0.101436
8386.000000;0.101132
8385.000000;0.100868
8384.000000;0.100693
8383.000000;0.100635
8382.000000;0.100670
8381.000000;0.100692
8380.000000;0.100573
8379.000000;0.100292
8378.000000;0.099967
8377.000000;0.099730
8376.000000;0.099602
8375.000000;0.099523
8374.000000;0.099434
8373.000000;0.099311
8372.000000;0.099151
8371.000000;0.098979
8370.000000;0.098845
8369.000000;0.098765
8368.000000;0.098698
8367.000000;0.098594
8366.000000;0.098453
8365.000000;0.098302
8364.000000;0.098142
8363.000000;0.097966
8362.000000;0.097797
8361.000000;0.097661
8360.000000;0.097550
8359.000000;0.097433
8358.000000;0.097298
8357.000000;0.097133
8356.000000;0.096921
8355.000000;0.096671
8354.000000;0.096436
8353.000000;0.096251
8352.000000;0.096080
8351.000000;0.095865
8350.000000;0.095618
8349.000000;0.095404
8348.000000;0.095249
8347.000000;0.095116
8346.000000;0.094970
8345.000000;0.094830
8344.000000;0.094725
8343.000000;0.094656
8342.000000;0.094600
8341.000000;0.094525
8340.000000;0.094402
8339.000000;0.094226
8338.000000;0.094028
8337.000000;0.093843
8336.000000;0.093670
8335.000000;0.093481
8334.000000;0.093266
8333.000000;0.093042
8332.000000;0.092818
8331.000000;0.092590
8330.000000;0.092378
8329.000000;0.092228
8328.000000;0.092152
8327.000000;0.092096
8326.000000;0.091981
8325.000000;0.091771
8324.000000;0.091501
8323.000000;0.091245
8322.000000;0.091048
8321.000000;0.090900
8320.000000;0.090761
8319.000000;0.090617
8318.000000;0.090480
8317.000000;0.090359
8316.000000;0.090229
8315.000000;0.090063
8314.000000;0.089868
8313.000000;0.089681
8312.000000;0.089536
8311.000000;0.089439
8310.000000;0.089362
8309.000000;0.089265
8308.000000;0.089117
8307.000000;0.088931
8306.000000;0.088745
8305.000000;0.088581
8304.000000;0.088425
8303.000000;0.088255
8302.000000;0.088067
8301.000000;0.087861
8300.000000;0.087626
8299.000000;0.087368
8298.000000;0.087125
8297.000000;0.086946
8296.000000;0.086849
8295.000000;0.086807
8294.000000;0.086770
8293.000000;0.086678
8292.000000;0.086496
8291.000000;0.086234
8290.000000;0.085942
8289.000000;0.085655
8288.000000;0.085378
8287.000000;0.085118
8286.000000;0.084914
8285.000000;0.084791
8284.000000;0.084716
8283.000000;0.084605
8282.000000;0.084412
8281.000000;0.084178
8280.000000;0.084001
8279.000000;0.083943
8278.000000;0.083975
8277.000000;0.084002
8276.000000;0.083952
8275.000000;0.083815
8274.000000;0.083603
8273.000000;0.083315
8272.000000;0.082970
8271.000000;0.082647
8270.000000;0.082427
8269.000000;0.082298
8268.000000;0.082162
8267.000000;0.081961
8266.000000;0.081742
8265.000000;0.081605
8264.000000;0.081590
8263.000000;0.081657
8262.000000;0.081716
8261.000000;0.081684
8260.000000;0.081527
8259.000000;0.081285
8258.000000;0.081032
8257.000000;0.080804
8256.000000;0.080574
8255.000000;0.080310
8254.000000;0.080021
8253.000000;0.079737
8252.000000;0.079489
8251.000000;0.079307
8250.000000;0.079202
8249.000000;0.079141
8248.000000;0.079063
8247.000000;0.078938
8246.000000;0.078778
8245.000000;0.078583
8244.000000;0.078331
8243.000000;0.078029
8242.000000;0.077727
8241.000000;0.077464
8240.000000;0.077245
8239.000000;0.077085
8238.000000;0.077022
8237.000000;0.077043
8236.000000;0.077047
8235.000000;0.076934
8234.000000;0.076704
8233.000000;0.076428
8232.000000;0.076170
8231.000000;0.075957
8230.000000;0.075797
8229.000000;0.075680
8228.000000;0.075562
8227.000000;0.075402
8226.000000;0.075192
8225.000000;0.074937
8224.000000;0.074651
8223.000000;0.074378
8222.000000;0.074194
8221.000000;0.074121
8220.000000;0.074089
8219.000000;0.074009
8218.000000;0.073865
8217.000000;0.073691
8216.000000;0.073494
8215.000000;0.073250
8214.000000;0.072973
8213.000000;0.072721
8212.000000;0.072527
8211.000000;0.072380
8210.000000;0.072258
8209.000000;0.072154
8208.000000;0.072041
8207.000000;0.071882
8206.000000;0.071667
8205.000000;0.071429
8204.000000;0.071207
8203.000000;0.071009
8202.000000;0.070816
8201.000000;0.070616
8200.000000;0.070421
8199.000000;0.070265
8198.000000;0.070160
8197.000000;0.070066
8196.000000;0.069917
8195.000000;0.069696
8194.000000;0.069453
8193.000000;0.069245
8192.000000;0.069074
8191.000000;0.068906
8190.000000;0.068731
8189.000000;0.068569
8188.000000;0.068425
8187.000000;0.068277
8186.000000;0.068097
8185.000000;0.067870
8184.000000;0.067605
8183.000000;0.067340
8182.000000;0.067128
8181.000000;0.066992
8180.000000;0.066909
8179.000000;0.066844
8178.000000;0.066782
8177.000000;0.066702
8176.000000;0.066557
8175.000000;0.066317
8174.000000;0.066016
8173.000000;0.065728
8172.000000;0.065499
8171.000000;0.065309
8170.000000;0.065109
8169.000000;0.064874
8168.000000;0.064622
8167.000000;0.064405
8166.000000;0.064258
8165.000000;0.064168
8164.000000;0.064081
8163.000000;0.063970
8162.000000;0.063848
8161.000000;0.063722
8160.000000;0.063571
8159.000000;0.063385
8158.000000;0.063206
8157.000000;0.063068
8156.000000;0.062942
8155.000000;0.062776
8154.000000;0.062574
8153.000000;0.062385
8152.000000;0.062218
8151.000000;0.062028
8150.000000;0.061792
8149.000000;0.061554
8148.000000;0.061363
8147.000000;0.061203
8146.000000;0.061020
8145.000000;0.060804
8144.000000;0.060601
8143.000000;0.060443
8142.000000;0.060296
8141.000000;0.060114
8140.000000;0.059913
8139.000000;0.059757
8138.000000;0.059662
8137.000000;0.059556
8136.000000;0.059363
8135.000000;0.059104
8134.000000;0.058875
8133.000000;0.058731
8132.000000;0.058635
8131.000000;0.058516
8130.000000;0.058341
8129.000000;0.058124
8128.000000;0.057898
8127.000000;0.057705
8126.000000;0.057567
8125.000000;0.057467
8124.000000;0.057351
8123.000000;0.057190
8122.000000;0.056996
8121.000000;0.056790
8120.000000;0.056569
8119.000000;0.056330
8118.000000;0.056094
8117.000000;0.055886
8116.000000;0.055704
8115.000000;0.055528
8114.000000;0.055335
8113.000000;0.055113
8112.000000;0.054873
8111.000000;0.054643
8110.000000;0.054443
8109.000000;0.054258
8108.000000;0.054062
8107.000000;0.053875
8106.000000;0.053744
8105.000000;0.053673
8104.000000;0.053604
8103.000000;0.053491
8102.000000;0.053347
8101.000000;0.053197
8100.000000;0.053031
8099.000000;0.052839
8098.000000;0.052640
8097.000000;0.052446
8096.000000;0.052228
8095.000000;0.051961
8094.000000;0.051679
8093.000000;0.051449
8092.000000;0.051293
8091.000000;0.051169
8090.000000;0.051028
8089.000000;0.050841
8088.000000;0.050607
8087.000000;0.050344
8086.000000;0.050099
8085.000000;0.049918
8084.000000;0.049814
8083.000000;0.049765
8082.000000;0.049732
8081.000000;0.049669
8080.000000;0.049531
8079.000000;0.049294
8078.000000;0.048982
8077.000000;0.048646
8076.000000;0.048321
8075.000000;0.048021
8074.000000;0.047765
8073.000000;0.047587
8072.000000;0.047520
8071.000000;0.047551
8070.000000;0.047603
8069.000000;0.047574
8068.000000;0.047410
8067.000000;0.047143
8066.000000;0.046851
8065.000000;0.046576
8064.000000;0.046310
8063.000000;0.046059
8062.000000;0.045857
8061.000000;0.045721
8060.000000;0.045617
8059.000000;0.045494
8058.000000;0.045332
8057.000000;0.045142
8056.000000;0.044939
8055.000000;0.044743
8054.000000;0.044576
8053.000000;0.044447
8052.000000;0.044327
8051.000000;0.044175
8050.000000;0.043960
8049.000000;0.043676
8048.000000;0.043347
8047.000000;0.043036
8046.000000;0.042806
8045.000000;0.042670
8044.000000;0.042584
8043.000000;0.042498
8042.000000;0.042393
8041.000000;0.042265
8040.000000;0.042106
8039.000000;0.041920
8038.000000;0.041721
8037.000000;0.041507
8036.000000;0.041262
8035.000000;0.040987
8034.000000;0.040722
8033.000000;0.040503
8032.000000;0.040332
8031.000000;0.040188
8030.000000;0.040051
8029.000000;0.039893
8028.000000;0.039699
8027.000000;0.039489
8026.000000;0.039308
8025.000000;0.039163
8024.000000;0.039005
8023.000000;0.038797
8022.000000;0.038553
8021.000000;0.038307
8020.000000;0.038072
8019.000000;0.037860
8018.000000;0.037693
8017.000000;0.037569
8016.000000;0.037440
8015.000000;0.037275
8014.000000;0.037097
8013.000000;0.036928
8012.000000;0.036743
8011.000000;0.036515
8010.000000;0.036267
8009.000000;0.036056
8008.000000;0.035894
8007.000000;0.035753
8006.000000;0.035598
8005.000000;0.035402
8004.000000;0.035132
8003.000000;0.034794
8002.000000;0.034463
8001.000000;0.034224
8000.000000;0.034085
7999.000000;0.033985
7998.000000;0.033885
7997.000000;0.033789
7996.000000;0.033696
7995.000000;0.033568
7994.000000;0.033382
7993.000000;0.033171
7992.000000;0.032974
7991.000000;0.032787
7990.000000;0.032593
7989.000000;0.032399
7988.000000;0.032232
7987.000000;0.032082
7986.000000;0.031905
7985.000000;0.031672
7984.000000;0.031407
7983.000000;0.031168
7982.000000;0.030990
7981.000000;0.030858
7980.000000;0.030722
7979.000000;0.030546
7978.000000;0.030332
7977.000000;0.030112
7976.000000;0.029921
7975.000000;0.029763
7974.000000;0.029611
7973.000000;0.029438
7972.000000;0.029255
7971.000000;0.029104
7970.000000;0.028995
7969.000000;0.028879
7968.000000;0.028691
7967.000000;0.028421
7966.000000;0.028127
7965.000000;0.027867
7964.000000;0.027648
7963.000000;0.027439
7962.000000;0.027219
7961.000000;0.027005
7960.000000;0.026821
7959.000000;0.026664
7958.000000;0.026500
7957.000000;0.026304
7956.000000;0.026097
7955.000000;0.025926
7954.000000;0.025801
7953.000000;0.025671
7952.000000;0.025493
7951.000000;0.025287
7950.000000;0.025097
7949.000000;0.024931
7948.000000;0.024762
7947.000000;0.024570
7946.000000;0.024363
7945.000000;0.024151
7944.000000;0.023948
7943.000000;0.023777
7942.000000;0.023639
7941.000000;0.023487
7940.000000;0.023268
7939.000000;0.022990
7938.000000;0.022710
7937.000000;0.022460
7936.000000;0.022238
7935.000000;0.022055
7934.000000;0.021936
7933.000000;0.021863
7932.000000;0.021773
7931.000000;0.021621
7930.000000;0.021430
7929.000000;0.021239
7928.000000;0.021054
7927.000000;0.020866
7926.000000;0.020681
7925.000000;0.020518
7924.000000;0.020380
7923.000000;0.020263
7922.000000;0.020155
7921.000000;0.020031
7920.000000;0.019873
7919.000000;0.019690
7918.000000;0.019509
7917.000000;0.019324
7916.000000;0.019107
7915.000000;0.018866
7914.000000;0.018645
7913.000000;0.018471
7912.000000;0.018331
7911.000000;0.018211
7910.000000;0.018113
7909.000000;0.018012
7908.000000;0.017841
7907.000000;0.017571
7906.000000;0.017257
7905.000000;0.016991
7904.000000;0.016802
7903.000000;0.016646
7902.000000;0.016469
7901.000000;0.016253
7900.000000;0.016029
7899.000000;0.015846
7898.000000;0.015728
7897.000000;0.015648
7896.000000;0.015547
7895.000000;0.015393
7894.000000;0.015194
7893.000000;0.014970
7892.000000;0.014746
7891.000000;0.014553
7890.000000;0.014395
7889.000000;0.014223
7888.000000;0.013987
7887.000000;0.013707
7886.000000;0.013466
7885.000000;0.013308
7884.000000;0.013199
7883.000000;0.013101
7882.000000;0.013009
7881.000000;0.012918
7880.000000;0.012790
7879.000000;0.012608
7878.000000;0.012401
7877.000000;0.012197
7876.000000;0.011983
7875.000000;0.011747
7874.000000;0.011522
7873.000000;0.011349
7872.000000;0.011226
7871.000000;0.011114
7870.000000;0.010985
7869.000000;0.010827
7868.000000;0.010634
7867.000000;0.010425
7866.000000;0.010247
7865.000000;0.010128
7864.000000;0.010039
7863.000000;0.009926
7862.000000;0.009770
7861.000000;0.009589
7860.000000;0.009399
7859.000000;0.009201
7858.000000;0.008991
7857.000000;0.008772
7856.000000;0.008557
7855.000000;0.008366
7854.000000;0.008202
7853.000000;0.008045
7852.000000;0.007882
7851.000000;0.007744
7850.000000;0.007663
7849.000000;0.007613
7848.000000;0.007530
7847.000000;0.007391
7846.000000;0.007236
7845.000000;0.007100
7844.000000;0.006965
7843.000000;0.006800
7842.000000;0.006606
7841.000000;0.006395
7840.000000;0.006174
7839.000000;0.005964
7838.000000;0.005803
7837.000000;0.005700
7836.000000;0.005612
7835.000000;0.005498
7834.000000;0.005357
7833.000000;0.005199
7832.000000;0.005022
7831.000000;0.004837
7830.000000;0.004687
7829.000000;0.004604
7828.000000;0.004573
7827.000000;0.004557
7826.000000;0.004528
7825.000000;0.004455
7824.000000;0.004308
7823.000000;0.004090
7822.000000;0.003844
7821.000000;0.003601
7820.000000;0.003367
7819.000000;0.003156
7818.000000;0.003002
7817.000000;0.002894
7816.000000;0.002772
7815.000000;0.002602
7814.000000;0.002414
7813.000000;0.002239
7812.000000;0.002065
7811.000000;0.001899
7810.000000;0.001796
7809.000000;0.001779
7808.000000;0.001772
7807.000000;0.001680
7806.000000;0.001519
7805.000000;0.001374
7804.000000;0.001283
7803.000000;0.001203
7802.000000;0.001095
7801.000000;0.000967
7800.000000;0.000824
7799.000000;0.000645
7798.000000;0.000427
7797.000000;0.000210
7796.000000;0.000030
7795.000000;-0.000115
7794.000000;-0.000254
7793.000000;-0.000408
7792.000000;-0.000572
7791.000000;-0.000717
7790.000000;-0.000818
7789.000000;-0.000891
7788.000000;-0.000999
7787.000000;-0.001184
7786.000000;-0.001400
7785.000000;-0.001559
7784.000000;-0.001624
7783.000000;-0.001642
7782.000000;-0.001691
7781.000000;-0.001813
7780.000000;-0.001993
7779.000000;-0.002179
7778.000000;-0.002326
7777.000000;-0.002426
7776.000000;-0.002511
7775.000000;-0.002604
7774.000000;-0.002698
7773.000000;-0.002783
7772.000000;-0.002876
7771.000000;-0.003001
7770.000000;-0.003152
7769.000000;-0.003301
7768.000000;-0.003428
7767.000000;-0.003528
7766.000000;-0.003609
7765.000000;-0.003690
7764.000000;-0.003789
7763.000000;-0.003899
7762.000000;-0.003993
7761.000000;-0.004068
7760.000000;-0.004158
7759.000000;-0.004297
7758.000000;-0.004477
7757.000000;-0.004660
7756.000000;-0.004819
7755.000000;-0.004943
7754.000000;-0.005035
7753.000000;-0.005116
7752.000000;-0.005216
7751.000000;-0.005342
7750.000000;-0.005470
7749.000000;-0.005582
7748.000000;-0.005686
7747.000000;-0.005793
7746.000000;-0.005890
7745.000000;-0.005970
7744.000000;-0.006046
7743.000000;-0.006126
7742.000000;-0.006193
7741.000000;-0.006231
7740.000000;-0.006261
7739.000000;-0.006324
7738.000000;-0.006443
7737.000000;-0.006611
7736.000000;-0.006794
7735.000000;-0.006939
7734.000000;-0.007006
7733.000000;-0.007008
7732.000000;-0.007011
7731.000000;-0.007067
7730.000000;-0.007172
7729.000000;-0.007289
7728.000000;-0.007392
7727.000000;-0.007469
7726.000000;-0.007521
7725.000000;-0.007574
7724.000000;-0.007665
7723.000000;-0.007800
7722.000000;-0.007937
7721.000000;-0.008040
7720.000000;-0.008115
7719.000000;-0.008172
7718.000000;-0.008199
7717.000000;-0.008204
7716.000000;-0.008234
7715.000000;-0.008325
7714.000000;-0.008447
7713.000000;-0.008545
7712.000000;-0.008607
7711.000000;-0.008665
7710.000000;-0.008747
7709.000000;-0.008847
7708.000000;-0.008951
7707.000000;-0.009043
7706.000000;-0.009110
7705.000000;-0.009155
7704.000000;-0.009208
7703.000000;-0.009277
7702.000000;-0.009325
7701.000000;-0.009308
7700.000000;-0.009242
7699.000000;-0.009201
7698.000000;-0.009250
7697.000000;-0.009395
7696.000000;-0.009581
7695.000000;-0.009734
7694.000000;-0.009813
7693.000000;-0.009849
7692.000000;-0.009909
7691.000000;-0.010018
7690.000000;-0.010127
7689.000000;-0.010174
7688.000000;-0.010162
7687.000000;-0.010141
7686.000000;-0.010151
7685.000000;-0.010187
7684.000000;-0.010223
7683.000000;-0.010234
7682.000000;-0.010223
7681.000000;-0.010223
7680.000000;-0.010268
7679.000000;-0.010345
7678.000000;-0.010404
7677.000000;-0.010420
7676.000000;-0.010426
7675.000000;-0.010465
7674.000000;-0.010537
7673.000000;-0.010613
7672.000000;-0.010676
7671.000000;-0.010726
7670.000000;-0.010760
7669.000000;-0.010776
7668.000000;-0.010784
7667.000000;-0.010806
7666.000000;-0.010850
7665.000000;-0.010905
7664.000000;-0.010947
7663.000000;-0.010954
7662.000000;-0.010923
7661.000000;-0.010891
7660.000000;-0.010891
7659.000000;-0.010916
7658.000000;-0.010930
7657.000000;-0.010924
7656.000000;-0.010931
7655.000000;-0.010969
7654.000000;-0.011016
7653.000000;-0.011047
7652.000000;-0.011064
7651.000000;-0.011069
7650.000000;-0.011051
7649.000000;-0.011014
7648.000000;-0.011002
7647.000000;-0.011043
7646.000000;-0.011114
7645.000000;-0.011168
7644.000000;-0.011187
7643.000000;-0.011175
7642.000000;-0.011134
7641.000000;-0.011069
7640.000000;-0.010999
7639.000000;-0.010935
7638.000000;-0.010874
7637.000000;-0.010815
7636.000000;-0.010768
7635.000000;-0.010732
7634.000000;-0.010696
7633.000000;-0.010673
7632.000000;-0.010696
7631.000000;-0.010751
7630.000000;-0.010777
7629.000000;-0.010744
7628.000000;-0.010705
7627.000000;-0.010721
7626.000000;-0.010768
7625.000000;-0.010776
7624.000000;-0.010721
7623.000000;-0.010649
7622.000000;-0.010598
7621.000000;-0.010560
7620.000000;-0.010514
7619.000000;-0.010462
7618.000000;-0.010424
7617.000000;-0.010413
7616.000000;-0.010413
7615.000000;-0.010396
7614.000000;-0.010352
7613.000000;-0.010309
7612.000000;-0.010290
7611.000000;-0.010268
7610.000000;-0.010185
7609.000000;-0.010034
7608.000000;-0.009869
7607.000000;-0.009735
7606.000000;-0.009627
7605.000000;-0.009526
7604.000000;-0.009448
7603.000000;-0.009412
7602.000000;-0.009410
7601.000000;-0.009419
7600.000000;-0.009424
7599.000000;-0.009402
7598.000000;-0.009324
7597.000000;-0.009188
7596.000000;-0.009031
7595.000000;-0.008880
7594.000000;-0.008732
7593.000000;-0.008598
7592.000000;-0.008521
7591.000000;-0.008512
7590.000000;-0.008511
7589.000000;-0.008444
7588.000000;-0.008308
7587.000000;-0.008157
7586.000000;-0.008034
7585.000000;-0.007951
7584.000000;-0.007901
7583.000000;-0.007859
7582.000000;-0.007791
7581.000000;-0.007688
7580.000000;-0.007581
7579.000000;-0.007492
7578.000000;-0.007395
7577.000000;-0.007259
7576.000000;-0.007095
7575.000000;-0.006941
7574.000000;-0.006805
7573.000000;-0.006675
7572.000000;-0.006561
7571.000000;-0.006485
7570.000000;-0.006445
7569.000000;-0.006408
7568.000000;-0.006338
7567.000000;-0.006214
7566.000000;-0.006032
7565.000000;-0.005815
7564.000000;-0.005597
7563.000000;-0.005396
7562.000000;-0.005211
7561.000000;-0.005060
7560.000000;-0.004975
7559.000000;-0.004951
7558.000000;-0.004933
7557.000000;-0.004875
7556.000000;-0.004782
7555.000000;-0.004666
7554.000000;-0.004512
7553.000000;-0.004303
7552.000000;-0.004062
7551.000000;-0.003828
7550.000000;-0.003626
7549.000000;-0.003462
7548.000000;-0.003328
7547.000000;-0.003190
7546.000000;-0.002996
7545.000000;-0.002745
7544.000000;-0.002495
7543.000000;-0.002303
7542.000000;-0.002171
7541.000000;-0.002069
7540.000000;-0.001978
7539.000000;-0.001886
7538.000000;-0.001762
7537.000000;-0.001588
7536.000000;-0.001381
7535.000000;-0.001166
7534.000000;-0.000943
7533.000000;-0.000707
7532.000000;-0.000480
7531.000000;-0.000289
7530.000000;-0.000140
7529.000000;-0.000016
7528.000000;0.000109
7527.000000;0.000266
7526.000000;0.000476
7525.000000;0.000712
7524.000000;0.000926
7523.000000;0.001111
7522.000000;0.001310
7521.000000;0.001551
7520.000000;0.001813
7519.000000;0.002076
7518.000000;0.002344
7517.000000;0.002602
7516.000000;0.002799
7515.000000;0.002921
7514.000000;0.003027
7513.000000;0.003190
7512.000000;0.003419
7511.000000;0.003679
7510.000000;0.003938
7509.000000;0.004171
7508.000000;0.004360
7507.000000;0.004521
7506.000000;0.004700
7505.000000;0.004918
7504.000000;0.005132
7503.000000;0.005309
7502.000000;0.005483
7501.000000;0.005719
7500.000000;0.006020
7499.000000;0.006336
7498.000000;0.006629
7497.000000;0.006887
7496.000000;0.007135
7495.000000;0.007410
7494.000000;0.007719
7493.000000;0.008011
7492.000000;0.008231
7491.000000;0.008400
7490.000000;0.008597
7489.000000;0.008853
7488.000000;0.009107
7487.000000;0.009308
7486.000000;0.009482
7485.000000;0.009680
7484.000000;0.009895
7483.000000;0.010096
7482.000000;0.010281
7481.000000;0.010477
7480.000000;0.010699
7479.000000;0.010952
7478.000000;0.011248
7477.000000;0.011572
7476.000000;0.011867
7475.000000;0.012096
7474.000000;0.012286
7473.000000;0.012487
7472.000000;0.012727
7471.000000;0.013001
7470.000000;0.013298
7469.000000;0.013579
7468.000000;0.013795
7467.000000;0.013956
7466.000000;0.014127
7465.000000;0.014344
7464.000000;0.014567
7463.000000;0.014755
7462.000000;0.014939
7461.000000;0.015174
7460.000000;0.015470
7459.000000;0.015801
7458.000000;0.016143
7457.000000;0.016468
7456.000000;0.016741
7455.000000;0.016961
7454.000000;0.017172
7453.000000;0.017401
7452.000000;0.017636
7451.000000;0.017879
7450.000000;0.018156
7449.000000;0.018459
7448.000000;0.018728
7447.000000;0.018938
7446.000000;0.019131
7445.000000;0.019353
7444.000000;0.019608
7443.000000;0.019882
7442.000000;0.020167
7441.000000;0.020421
7440.000000;0.020593
7439.000000;0.020721
7438.000000;0.020920
7437.000000;0.021234
7436.000000;0.021569
7435.000000;0.021817
7434.000000;0.021981
7433.000000;0.022114
7432.000000;0.022243
7431.000000;0.022402
7430.000000;0.022664
7429.000000;0.023038
7428.000000;0.023426
7427.000000;0.023734
7426.000000;0.023971
7425.000000;0.024187
7424.000000;0.024394
7423.000000;0.024597
7422.000000;0.024830
7421.000000;0.025115
7420.000000;0.025413
7419.000000;0.025686
7418.000000;0.025943
7417.000000;0.026194
7416.000000;0.026412
7415.000000;0.026585
7414.000000;0.026758
7413.000000;0.026961
7412.000000;0.027152
7411.000000;0.027311
7410.000000;0.027505
7409.000000;0.027771
7408.000000;0.028017
7407.000000;0.028135
7406.000000;0.028173
7405.000000;0.028295
7404.000000;0.028589
7403.000000;0.028985
7402.000000;0.029386
7401.000000;0.029773
7400.000000;0.030142
7399.000000;0.030471
7398.000000;0.030747
7397.000000;0.030922
7396.000000;0.030928
7395.000000;0.030840
7394.000000;0.030835
7393.000000;0.030928
7392.000000;0.030923
7391.000000;0.030730
7390.000000;0.030592
7389.000000;0.030808
7388.000000;0.031369
7387.000000;0.032056
7386.000000;0.032721
7385.000000;0.033278
7384.000000;0.033618
7383.000000;0.033714
7382.000000;0.033715
7381.000000;0.033843
7380.000000;0.034180
7379.000000;0.034607
7378.000000;0.034932
7377.000000;0.035030
7376.000000;0.034982
7375.000000;0.035056
7374.000000;0.035437
7373.000000;0.036019
7372.000000;0.036497
7371.000000;0.036662
7370.000000;0.036590
7369.000000;0.036494
7368.000000;0.036505
7367.000000;0.036750
7366.000000;0.037366
7365.000000;0.038158
7364.000000;0.038607
7363.000000;0.038470
7362.000000;0.038073
7361.000000;0.037974
7360.000000;0.038444
7359.000000;0.039272
7358.000000;0.039959
7357.000000;0.040121
7356.000000;0.039842
7355.000000;0.039633
7354.000000;0.039997
7353.000000;0.040908
7352.000000;0.041828
7351.000000;0.042251
7350.000000;0.042181
7349.000000;0.042036
7348.000000;0.042154
7347.000000;0.042481
7346.000000;0.042713
7345.000000;0.042707
7344.000000;0.042686
7343.000000;0.043057
7342.000000;0.043963
7341.000000;0.045067
7340.000000;0.045883
7339.000000;0.046285
7338.000000;0.046560
7337.000000;0.046902
7336.000000;0.047188
7335.000000;0.047303
7334.000000;0.047386
7333.000000;0.047685
7332.000000;0.048257
7331.000000;0.048840
7330.000000;0.049085
7329.000000;0.049015
7328.000000;0.049130
7327.000000;0.049782
7326.000000;0.050658
7325.000000;0.051202
7324.000000;0.051260
7323.000000;0.051198
7322.000000;0.051498
7321.000000;0.052308
7320.000000;0.053334
7319.000000;0.054192
7318.000000;0.054873
7317.000000;0.055640
7316.000000;0.056527
7315.000000;0.057227
7314.000000;0.057466
7313.000000;0.057447
7312.000000;0.057794
7311.000000;0.058855
7310.000000;0.060197
7309.000000;0.061013
7308.000000;0.061020
7307.000000;0.060701
7306.000000;0.060738
7305.000000;0.061469
7304.000000;0.062751
7303.000000;0.064021
7302.000000;0.064703
7301.000000;0.064719
7300.000000;0.064613
7299.000000;0.065131
7298.000000;0.066476
7297.000000;0.068053
7296.000000;0.069052
7295.000000;0.069381
7294.000000;0.069752
7293.000000;0.070782
7292.000000;0.072387
7291.000000;0.074063
7290.000000;0.075469
7289.000000;0.076663
7288.000000;0.077859
7287.000000;0.079060
7286.000000;0.080031
7285.000000;0.080688
7284.000000;0.081280
7283.000000;0.082067
7282.000000;0.083091
7281.000000;0.084257
7280.000000;0.085484
7279.000000;0.086764
7278.000000;0.088066
7277.000000;0.089323
7276.000000;0.090542
7275.000000;0.091782
7274.000000;0.093047
7273.000000;0.094325
7272.000000;0.095656
7271.000000;0.097048
7270.000000;0.098425
7269.000000;0.099753
7268.000000;0.101141
7267.000000;0.102718
7266.000000;0.104465
7265.000000;0.106258
7264.000000;0.108049
7263.000000;0.109851
7262.000000;0.111607
7261.000000;0.113236
7260.000000;0.114765
7259.000000;0.116323
7258.000000;0.118010
7257.000000;0.119842
7256.000000;0.121768
7255.000000;0.123714
7254.000000;0.125704
7253.000000;0.127825
7252.000000;0.129996
7251.000000;0.132017
7250.000000;0.133799
7249.000000;0.135474
7248.000000;0.137395
7247.000000;0.139776
7246.000000;0.142339
7245.000000;0.144572
7244.000000;0.146430
7243.000000;0.148481
7242.000000;0.151150
7241.000000;0.154120
7240.000000;0.156778
7239.000000;0.158915
7238.000000;0.160866
7237.000000;0.163178
7236.000000;0.166072
7235.000000;0.169205
7234.000000;0.172112
7233.000000;0.174704
7232.000000;0.177202
7231.000000;0.179869
7230.000000;0.182742
7229.000000;0.185583
7228.000000;0.188271
7227.000000;0.190975
7226.000000;0.193878
7225.000000;0.196980
7224.000000;0.200209
7223.000000;0.203498
7222.000000;0.206696
7221.000000;0.209723
7220.000000;0.212804
7219.000000;0.216231
7218.000000;0.219954
7217.000000;0.223671
7216.000000;0.227205
7215.000000;0.230591
7214.000000;0.233933
7213.000000;0.237329
7212.000000;0.240883
7211.000000;0.244712
7210.000000;0.248845
7209.000000;0.253171
7208.000000;0.257559
7207.000000;0.261921
7206.000000;0.266194
7205.000000;0.270384
7204.000000;0.274601
7203.000000;0.278892
7202.000000;0.283108
7201.000000;0.287135
7200.000000;0.291132
7199.000000;0.295338
7198.000000;0.299758
7197.000000;0.304213
7196.000000;0.308634
7195.000000;0.313137
7194.000000;0.317822
7193.000000;0.322694
7192.000000;0.327732
7191.000000;0.332899
7190.000000;0.338072
7189.000000;0.343140
7188.000000;0.348128
7187.000000;0.353128
7186.000000;0.358181
7185.000000;0.363188
7184.000000;0.367993
7183.000000;0.372577
7182.000000;0.377208
7181.000000;0.382285
7180.000000;0.388032
7179.000000;0.394281
7178.000000;0.400552
7177.000000;0.406482
7176.000000;0.412157
7175.000000;0.417873
7174.000000;0.423719
7173.000000;0.429563
7172.000000;0.435342
7171.000000;0.441161
7170.000000;0.447084
7169.000000;0.453039
7168.000000;0.458834
7167.000000;0.464341
7166.000000;0.469781
7165.000000;0.475475
7164.000000;0.481339
7163.000000;0.486937
7162.000000;0.492173
7161.000000;0.497607
7160.000000;0.503807
7159.000000;0.510635
7158.000000;0.517422
7157.000000;0.523753
7156.000000;0.529818
7155.000000;0.535941
7154.000000;0.542155
7153.000000;0.548386
7152.000000;0.554601
7151.000000;0.560776
7150.000000;0.566959
7149.000000;0.573254
7148.000000;0.579617
7147.000000;0.585851
7146.000000;0.591903
7145.000000;0.598046
7144.000000;0.604589
7143.000000;0.611378
7142.000000;0.617827
7141.000000;0.623583
7140.000000;0.628973
7139.000000;0.634627
7138.000000;0.640758
7137.000000;0.647065
7136.000000;0.653240
7135.000000;0.659275
7134.000000;0.665309
7133.000000;0.671419
7132.000000;0.677551
7131.000000;0.683564
7130.000000;0.689376
7129.000000;0.695054
7128.000000;0.700785
7127.000000;0.706674
7126.000000;0.712607
7125.000000;0.718430
7124.000000;0.724205
7123.000000;0.730176
7122.000000;0.736394
7121.000000;0.742465
7120.000000;0.747862
7119.000000;0.752501
7118.000000;0.756917
7117.000000;0.761823
7116.000000;0.767514
7115.000000;0.773701
7114.000000;0.779857
7113.000000;0.785639
7112.000000;0.791035
7111.000000;0.796225
7110.000000;0.801371
7109.000000;0.806568
7108.000000;0.811812
7107.000000;0.816932
7106.000000;0.821791
7105.000000;0.826507
7104.000000;0.831246
7103.000000;0.836003
7102.000000;0.840704
7101.000000;0.845397
7100.000000;0.850246
7099.000000;0.855230
7098.000000;0.860005
7097.000000;0.864284
7096.000000;0.868248
7095.000000;0.872353
7094.000000;0.876751
7093.000000;0.881160
7092.000000;0.885312
7091.000000;0.889260
7090.000000;0.893199
7089.000000;0.897227
7088.000000;0.901386
7087.000000;0.905672
7086.000000;0.909938
7085.000000;0.913921
7084.000000;0.917545
7083.000000;0.921071
7082.000000;0.924776
7081.000000;0.928562
7080.000000;0.932173
7079.000000;0.935671
7078.000000;0.939355
7077.000000;0.943288
7076.000000;0.947159
7075.000000;0.950583
7074.000000;0.953423
7073.000000;0.955820
7072.000000;0.958086
7071.000000;0.960583
7070.000000;0.963537
7069.000000;0.966864
7068.000000;0.970202
7067.000000;0.973159
7066.000000;0.975604
7065.000000;0.977770
7064.000000;0.980041
7063.000000;0.982636
7062.000000;0.985477
7061.000000;0.988339
7060.000000;0.991125
7059.000000;0.993982
7058.000000;0.997017
7057.000000;1.000075
7056.000000;1.002925
7055.000000;1.005514
7054.000000;1.007916
7053.000000;1.010138
7052.000000;1.012078
7051.000000;1.013708
7050.000000;1.015164
7049.000000;1.016613
7048.000000;1.018142
7047.000000;1.019806
7046.000000;1.021686
7045.000000;1.023786
7044.000000;1.025933
7043.000000;1.027912
7042.000000;1.029710
7041.000000;1.031477
7040.000000;1.033285
7039.000000;1.035097
7038.000000;1.036976
7037.000000;1.039073
7036.000000;1.041283
7035.000000;1.043137
7034.000000;1.044299
7033.000000;1.045108
7032.000000;1.046302
7031.000000;1.048184
7030.000000;1.050344
7029.000000;1.052202
7028.000000;1.053570
7027.000000;1.054608
7026.000000;1.055507
7025.000000;1.056388
7024.000000;1.057297
7023.000000;1.058113
7022.000000;1.058641
7021.000000;1.058982
7020.000000;1.059616
7019.000000;1.060878
7018.000000;1.062499
7017.000000;1.063900
7016.000000;1.064844
7015.000000;1.065557
7014.000000;1.066300
7013.000000;1.067056
7012.000000;1.067649
7011.000000;1.067987
7010.000000;1.068169
7009.000000;1.068445
7008.000000;1.069084
7007.000000;1.070113
7006.000000;1.071197
7005.000000;1.071904
7004.000000;1.072141
7003.000000;1.072267
7002.000000;1.072758
7001.000000;1.073757
7000.000000;1.074879
6999.000000;1.075507
6998.000000;1.075434
6997.000000;1.075200
6996.000000;1.075562
6995.000000;1.076617
6994.000000;1.077683
6993.000000;1.078120
6992.000000;1.077974
6991.000000;1.077632
6990.000000;1.077282
6989.000000;1.077046
6988.000000;1.077276
6987.000000;1.078219
6986.000000;1.079517
6985.000000;1.080450
6984.000000;1.080652
6983.000000;1.080289
6982.000000;1.079612
6981.000000;1.078793
6980.000000;1.078140
6979.000000;1.078074
6978.000000;1.078744
6977.000000;1.079899
6976.000000;1.081117
6975.000000;1.081924
6974.000000;1.081798
6973.000000;1.080535
6972.000000;1.078694
6971.000000;1.077297
6970.000000;1.076952
6969.000000;1.077472
6968.000000;1.078285
6967.000000;1.078906
6966.000000;1.079030
6965.000000;1.078574
6964.000000;1.077806
6963.000000;1.077188
6962.000000;1.076917
6961.000000;1.076781
6960.000000;1.076480
6959.000000;1.075866
6958.000000;1.074932
6957.000000;1.073869
6956.000000;1.073158
6955.000000;1.073191
6954.000000;1.073749
6953.000000;1.074167
6952.000000;1.074061
6951.000000;1.073570
6950.000000;1.072879
6949.000000;1.072016
6948.000000;1.071206
6947.000000;1.070844
6946.000000;1.070860
6945.000000;1.070589
6944.000000;1.069607
6943.000000;1.068320
6942.000000;1.067407
6941.000000;1.066990
6940.000000;1.066729
6939.000000;1.066381
6938.000000;1.065857
6937.000000;1.064965
6936.000000;1.063592
6935.000000;1.062080
6934.000000;1.061001
6933.000000;1.060537
6932.000000;1.060332
6931.000000;1.059954
6930.000000;1.059265
6929.000000;1.058420
6928.000000;1.057685
6927.000000;1.057230
6926.000000;1.056942
6925.000000;1.056529
6924.000000;1.055874
6923.000000;1.055177
6922.000000;1.054625
6921.000000;1.054104
6920.000000;1.053411
6919.000000;1.052606
6918.000000;1.051913
6917.000000;1.051347
6916.000000;1.050716
6915.000000;1.049932
6914.000000;1.049085
6913.000000;1.048249
6912.000000;1.047431
6911.000000;1.046685
6910.000000;1.046055
6909.000000;1.045419
6908.000000;1.044578
6907.000000;1.043495
6906.000000;1.042294
6905.000000;1.041095
6904.000000;1.040008
6903.000000;1.039222
6902.000000;1.038895
6901.000000;1.038862
6900.000000;1.038643
6899.000000;1.037867
6898.000000;1.036623
6897.000000;1.035323
6896.000000;1.034306
6895.000000;1.033572
6894.000000;1.032860
6893.000000;1.031922
6892.000000;1.030747
6891.000000;1.029503
6890.000000;1.028290
6889.000000;1.027052
6888.000000;1.025790
6887.000000;1.024746
6886.000000;1.024220
6885.000000;1.024260
6884.000000;1.024604
6883.000000;1.024875
6882.000000;1.024753
6881.000000;1.024038
6880.000000;1.022736
6879.000000;1.021146
6878.000000;1.019717
6877.000000;1.018753
6876.000000;1.018213
6875.000000;1.017739
6874.000000;1.016886
6873.000000;1.015449
6872.000000;1.013652
6871.000000;1.011958
6870.000000;1.010640
6869.000000;1.009636
6868.000000;1.008798
6867.000000;1.008092
6866.000000;1.007465
6865.000000;1.006751
6864.000000;1.005858
6863.000000;1.004911
6862.000000;1.003985
6861.000000;1.002843
6860.000000;1.001218
6859.000000;0.999270
6858.000000;0.997502
6857.000000;0.996187
6856.000000;0.995138
6855.000000;0.994052
6854.000000;0.992910
6853.000000;0.991908
6852.000000;0.991133
6851.000000;0.990420
6850.000000;0.989504
6849.000000;0.988249
6848.000000;0.986705
6847.000000;0.984978
6846.000000;0.983120
6845.000000;0.981196
6844.000000;0.979383
6843.000000;0.977841
6842.000000;0.976490
6841.000000;0.975042
6840.000000;0.973336
6839.000000;0.971520
6838.000000;0.969816
6837.000000;0.968242
6836.000000;0.966663
6835.000000;0.964984
6834.000000;0.963158
6833.000000;0.961133
6832.000000;0.958949
6831.000000;0.956801
6830.000000;0.954846
6829.000000;0.953000
6828.000000;0.951056
6827.000000;0.948978
6826.000000;0.946910
6825.000000;0.944926
6824.000000;0.942926
6823.000000;0.940801
6822.000000;0.938558
6821.000000;0.936232
6820.000000;0.933800
6819.000000;0.931265
6818.000000;0.928722
6817.000000;0.926271
6816.000000;0.923891
6815.000000;0.921478
6814.000000;0.918988
6813.000000;0.916520
6812.000000;0.914232
6811.000000;0.912165
6810.000000;0.910171
6809.000000;0.908002
6808.000000;0.905496
6807.000000;0.902700
6806.000000;0.899841
6805.000000;0.897199
6804.000000;0.894909
6803.000000;0.892833
6802.000000;0.890612
6801.000000;0.887977
6800.000000;0.885022
6799.000000;0.882119
6798.000000;0.879530
6797.000000;0.877153
6796.000000;0.874660
6795.000000;0.871844
6794.000000;0.868776
6793.000000;0.865692
6792.000000;0.862790
6791.000000;0.860112
6790.000000;0.857576
6789.000000;0.855063
6788.000000;0.852451
6787.000000;0.849591
6786.000000;0.846376
6785.000000;0.842896
6784.000000;0.839464
6783.000000;0.836401
6782.000000;0.833765
6781.000000;0.831357
6780.000000;0.828964
6779.000000;0.826511
6778.000000;0.824012
6777.000000;0.821464
6776.000000;0.818807
6775.000000;0.815942
6774.000000;0.812789
6773.000000;0.809416
6772.000000;0.806051
6771.000000;0.802901
6770.000000;0.799957
6769.000000;0.797075
6768.000000;0.794195
6767.000000;0.791377
6766.000000;0.788645
6765.000000;0.785941
6764.000000;0.783236
6763.000000;0.780547
6762.000000;0.777814
6761.000000;0.774925
6760.000000;0.771912
6759.000000;0.768962
6758.000000;0.766165
6757.000000;0.763378
6756.000000;0.760419
6755.000000;0.757291
6754.000000;0.754131
6753.000000;0.751026
6752.000000;0.747980
6751.000000;0.745002
6750.000000;0.742094
6749.000000;0.739219
6748.000000;0.736339
6747.000000;0.733486
6746.000000;0.730732
6745.000000;0.728122
6744.000000;0.725613
6743.000000;0.723063
6742.000000;0.720276
6741.000000;0.717178
6740.000000;0.713949
6739.000000;0.710857
6738.000000;0.707944
6737.000000;0.705023
6736.000000;0.701993
6735.000000;0.699002
6734.000000;0.696205
6733.000000;0.693525
6732.000000;0.690785
6731.000000;0.687982
6730.000000;0.685251
6729.000000;0.682628
6728.000000;0.679998
6727.000000;0.677279
6726.000000;0.674500
6725.000000;0.671699
6724.000000;0.668841
6723.000000;0.665884
6722.000000;0.662870
6721.000000;0.659924
6720.000000;0.657154
6719.000000;0.654556
6718.000000;0.652000
6717.000000;0.649341
6716.000000;0.646514
6715.000000;0.643572
6714.000000;0.640583
6713.000000;0.637562
6712.000000;0.634547
6711.000000;0.631628
6710.000000;0.628849
6709.000000;0.626240
6708.000000;0.623777
6707.000000;0.621327
6706.000000;0.618752
6705.000000;0.615915
6704.000000;0.612816
6703.000000;0.609606
6702.000000;0.606457
6701.000000;0.603470
6700.000000;0.600695
6699.000000;0.598131
6698.000000;0.595680
6697.000000;0.593184
6696.000000;0.590600
6695.000000;0.588043
6694.000000;0.585604
6693.000000;0.583198
6692.000000;0.580672
6691.000000;0.578000
6690.000000;0.575288
6689.000000;0.572622
6688.000000;0.570002
6687.000000;0.567378
6686.000000;0.564697
6685.000000;0.561912
6684.000000;0.559019
6683.000000;0.556076
6682.000000;0.553159
6681.000000;0.550337
6680.000000;0.547669
6679.000000;0.545184
6678.000000;0.542810
6677.000000;0.540403
6676.000000;0.537878
6675.000000;0.535284
6674.000000;0.532715
6673.000000;0.530208
6672.000000;0.527750
6671.000000;0.525313
6670.000000;0.522838
6669.000000;0.520233
6668.000000;0.517480
6667.000000;0.514678
6666.000000;0.511943
6665.000000;0.509320
6664.000000;0.506808
6663.000000;0.504403
6662.000000;0.502058
6661.000000;0.499671
6660.000000;0.497197
6659.000000;0.494704
6658.000000;0.492253
6657.000000;0.489798
6656.000000;0.487271
6655.000000;0.484715
6654.000000;0.482223
6653.000000;0.479808
6652.000000;0.477417
6651.000000;0.475029
6650.000000;0.472652
6649.000000;0.470249
6648.000000;0.467776
6647.000000;0.465258
6646.000000;0.462767
6645.000000;0.460321
6644.000000;0.457904
6643.000000;0.455547
6642.000000;0.453297
6641.000000;0.451100
6640.000000;0.448810
6639.000000;0.446343
6638.000000;0.443762
6637.000000;0.441205
6636.000000;0.438781
6635.000000;0.436528
6634.000000;0.434400
6633.000000;0.432287
6632.000000;0.430093
6631.000000;0.427807
6630.000000;0.425467
6629.000000;0.423084
6628.000000;0.420642
6627.000000;0.418190
6626.000000;0.415831
6625.000000;0.413629
6624.000000;0.411540
6623.000000;0.409460
6622.000000;0.407299
6621.000000;0.405018
6620.000000;0.402653
6619.000000;0.400304
6618.000000;0.398062
6617.000000;0.395921
6616.000000;0.393788
6615.000000;0.391593
6614.000000;0.389368
6613.000000;0.387196
6612.000000;0.385121
6611.000000;0.383092
6610.000000;0.381001
6609.000000;0.378775
6608.000000;0.376452
6607.000000;0.374152
6606.000000;0.371964
6605.000000;0.369874
6604.000000;0.367809
6603.000000;0.365708
6602.000000;0.363544
6601.000000;0.361312
6600.000000;0.359058
6599.000000;0.356883
6598.000000;0.354856
6597.000000;0.352937
6596.000000;0.351011
6595.000000;0.349011
6594.000000;0.346956
6593.000000;0.344893
6592.000000;0.342840
6591.000000;0.340786
6590.000000;0.338713
6589.000000;0.336613
6588.000000;0.334515
6587.000000;0.332477
6586.000000;0.330531
6585.000000;0.328626
6584.000000;0.326671
6583.000000;0.324620
6582.000000;0.322490
6581.000000;0.320335
6580.000000;0.318210
6579.000000;0.316164
6578.000000;0.314203
6577.000000;0.312270
6576.000000;0.310313
6575.000000;0.308360
6574.000000;0.306492
6573.000000;0.304738
6572.000000;0.303025
6571.000000;0.301255
6570.000000;0.299384
6569.000000;0.297435
6568.000000;0.295451
6567.000000;0.293470
6566.000000;0.291513
6565.000000;0.289580
6564.000000;0.287665
6563.000000;0.285776
6562.000000;0.283933
6561.000000;0.282138
6560.000000;0.280365
6559.000000;0.278567
6558.000000;0.276706
6557.000000;0.274779
6556.000000;0.272841
6555.000000;0.270958
6554.000000;0.269144
6553.000000;0.267352
6552.000000;0.265538
6551.000000;0.263726
6550.000000;0.261970
6549.000000;0.260282
6548.000000;0.258617
6547.000000;0.256919
6546.000000;0.255165
6545.000000;0.253376
6544.000000;0.251600
6543.000000;0.249870
6542.000000;0.248161
6541.000000;0.246410
6540.000000;0.244593
6539.000000;0.242759
6538.000000;0.240969
6537.000000;0.239227
6536.000000;0.237499
6535.000000;0.235788
6534.000000;0.234129
6533.000000;0.232520
6532.000000;0.230900
6531.000000;0.229208
6530.000000;0.227440
6529.000000;0.225648
6528.000000;0.223900
6527.000000;0.222236
6526.000000;0.220648
6525.000000;0.219092
6524.000000;0.217527
6523.000000;0.215932
6522.000000;0.214305
6521.000000;0.212652
6520.000000;0.210998
6519.000000;0.209384
6518.000000;0.207824
6517.000000;0.206286
6516.000000;0.204734
6515.000000;0.203166
6514.000000;0.201596
6513.000000;0.200015
6512.000000;0.198415
6511.000000;0.196826
6510.000000;0.195281
6509.000000;0.193757
6508.000000;0.192191
6507.000000;0.190561
6506.000000;0.188922
6505.000000;0.187343
6504.000000;0.185840
6503.000000;0.184378
6502.000000;0.182914
6501.000000;0.181423
6500.000000;0.179894
6499.000000;0.178331
6498.000000;0.176746
6497.000000;0.175164
6496.000000;0.173608
6495.000000;0.172098
6494.000000;0.170628
6493.000000;0.169183
6492.000000;0.167762
6491.000000;0.166387
6490.000000;0.165061
6489.000000;0.163732
6488.000000;0.162327
6487.000000;0.160834
6486.000000;0.159315
6485.000000;0.157842
6484.000000;0.156426
6483.000000;0.155021
6482.000000;0.153582
6481.000000;0.152109
6480.000000;0.150629
6479.000000;0.149173
6478.000000;0.147754
6477.000000;0.146382
6476.000000;0.145054
6475.000000;0.143745
6474.000000;0.142411
6473.000000;0.141024
6472.000000;0.139597
6471.000000;0.138174
6470.000000;0.136791
6469.000000;0.135451
6468.000000;0.134128
6467.000000;0.132789
6466.000000;0.131411
6465.000000;0.130008
6464.000000;0.128619
6463.000000;0.127267
6462.000000;0.125936
6461.000000;0.124608
6460.000000;0.123307
6459.000000;0.122060
6458.000000;0.120835
6457.000000;0.119558
6456.000000;0.118213
6455.000000;0.116862
6454.000000;0.115563
6453.000000;0.114289
6452.000000;0.112983
6451.000000;0.111644
6450.000000;0.110326
6449.000000;0.109074
6448.000000;0.107876
6447.000000;0.106687
6446.000000;0.105461
6445.000000;0.104182
6444.000000;0.102882
6443.000000;0.101617
6442.000000;0.100409
6441.000000;0.099235
6440.000000;0.098061
6439.000000;0.096878
6438.000000;0.095689
6437.000000;0.094477
6436.000000;0.093220
6435.000000;0.091932
6434.000000;0.090652
6433.000000;0.089401
6432.000000;0.088173
6431.000000;0.086955
6430.000000;0.085748
6429.000000;0.084560
6428.000000;0.083390
6427.000000;0.082222
6426.000000;0.081044
6425.000000;0.079868
6424.000000;0.078737
6423.000000;0.077686
6422.000000;0.076688
6421.000000;0.075659
6420.000000;0.074535
6419.000000;0.073322
6418.000000;0.072077
6417.000000;0.070850
6416.000000;0.069662
6415.000000;0.068520
6414.000000;0.067424
6413.000000;0.066369
6412.000000;0.065338
6411.000000;0.064310
6410.000000;0.063257
6409.000000;0.062161
6408.000000;0.061030
6407.000000;0.059890
6406.000000;0.058761
6405.000000;0.057649
6404.000000;0.056560
6403.000000;0.055500
6402.000000;0.054458
6401.000000;0.053410
6400.000000;0.052341
6399.000000;0.051259
6398.000000;0.050174
6397.000000;0.049088
6396.000000;0.048008
6395.000000;0.046945
6394.000000;0.045889
6393.000000;0.044833
6392.000000;0.043805
6391.000000;0.042855
6390.000000;0.041977
6389.000000;0.041088
6388.000000;0.040103
6387.000000;0.039021
6386.000000;0.037911
6385.000000;0.036833
6384.000000;0.035798
6383.000000;0.034794
6382.000000;0.033810
6381.000000;0.032843
6380.000000;0.031887
6379.000000;0.030935
6378.000000;0.029969
6377.000000;0.028971
6376.000000;0.027947
6375.000000;0.026930
6374.000000;0.025954
6373.000000;0.025030
6372.000000;0.024142
6371.000000;0.023263
6370.000000;0.022359
6369.000000;0.021405
6368.000000;0.020404
6367.000000;0.019384
6366.000000;0.018367
6365.000000;0.017366
6364.000000;0.016398
6363.000000;0.015479
6362.000000;0.014603
6361.000000;0.013734
6360.000000;0.012852
6359.000000;0.011968
6358.000000;0.011091
6357.000000;0.010210
6356.000000;0.009319
6355.000000;0.008436
6354.000000;0.007568
6353.000000;0.006687
6352.000000;0.005751
6351.000000;0.004758
6350.000000;0.003750
6349.000000;0.002778
6348.000000;0.001870
6347.000000;0.001020
6346.000000;0.000207
6345.000000;-0.000581
6344.000000;-0.001337
6343.000000;-0.002075
6342.000000;-0.002848
6341.000000;-0.003694
6340.000000;-0.004584
6339.000000;-0.005452
6338.000000;-0.006281
6337.000000;-0.007119
6336.000000;-0.008003
6335.000000;-0.008902
6334.000000;-0.009772
6333.000000;-0.010608
6332.000000;-0.011430
6331.000000;-0.012245
6330.000000;-0.013057
6329.000000;-0.013878
6328.000000;-0.014711
6327.000000;-0.015535
6326.000000;-0.016342
6325.000000;-0.017151
6324.000000;-0.017974
6323.000000;-0.018789
6322.000000;-0.019574
6321.000000;-0.020346
6320.000000;-0.021136
6319.000000;-0.021936
6318.000000;-0.022717
6317.000000;-0.023472
6316.000000;-0.024220
6315.000000;-0.024985
6314.000000;-0.025774
6313.000000;-0.026575
6312.000000;-0.027360
6311.000000;-0.028100
6310.000000;-0.028806
6309.000000;-0.029528
6308.000000;-0.030298
6307.000000;-0.031099
6306.000000;-0.031895
6305.000000;-0.032677
6304.000000;-0.033450
6303.000000;-0.034214
6302.000000;-0.034964
6301.000000;-0.035708
6300.000000;-0.036454
6299.000000;-0.037193
6298.000000;-0.037923
6297.000000;-0.038657
6296.000000;-0.039403
6295.000000;-0.040145
6294.000000;-0.040869
6293.000000;-0.041588
6292.000000;-0.042308
6291.000000;-0.043008
6290.000000;-0.043663
6289.000000;-0.044289
6288.000000;-0.044927
6287.000000;-0.045607
6286.000000;-0.046328
6285.000000;-0.047070
6284.000000;-0.047794
6283.000000;-0.048467
6282.000000;-0.049097
6281.000000;-0.049741
6280.000000;-0.050433
6279.000000;-0.051151
6278.000000;-0.051854
6277.000000;-0.052541
6276.000000;-0.053241
6275.000000;-0.053961
6274.000000;-0.054678
6273.000000;-0.055371
6272.000000;-0.056031
6271.000000;-0.056659
6270.000000;-0.057271
6269.000000;-0.057901
6268.000000;-0.058560
6267.000000;-0.059229
6266.000000;-0.059886
6265.000000;-0.060537
6264.000000;-0.061192
6263.000000;-0.061839
6262.000000;-0.062469
6261.000000;-0.063105
6260.000000;-0.063774
6259.000000;-0.064461
6258.000000;-0.065129
6257.000000;-0.065770
6256.000000;-0.066404
6255.000000;-0.067042
6254.000000;-0.067678
6253.000000;-0.068311
6252.000000;-0.068940
6251.000000;-0.069555
6250.000000;-0.070146
6249.000000;-0.070734
6248.000000;-0.071344
6247.000000;-0.071971
6246.000000;-0.072578
6245.000000;-0.073139
6244.000000;-0.073667
6243.000000;-0.074190
6242.000000;-0.074731
6241.000000;-0.075300
6240.000000;-0.075898
6239.000000;-0.076516
6238.000000;-0.077142
6237.000000;-0.077770
6236.000000;-0.078395
6235.000000;-0.079013
6234.000000;-0.079629
6233.000000;-0.080252
6232.000000;-0.080871
6231.000000;-0.081458
6230.000000;-0.082010
6229.000000;-0.082559
6228.000000;-0.083121
6227.000000;-0.083673
6226.000000;-0.084195
6225.000000;-0.084718
6224.000000;-0.085289
6223.000000;-0.085913
6222.000000;-0.086548
6221.000000;-0.087156
6220.000000;-0.087733
6219.000000;-0.088297
6218.000000;-0.088858
6217.000000;-0.089415
6216.000000;-0.089949
6215.000000;-0.090447
6214.000000;-0.090923
6213.000000;-0.091425
6212.000000;-0.091982
6211.000000;-0.092581
6210.000000;-0.093187
6209.000000;-0.093777
6208.000000;-0.094337
6207.000000;-0.094856
6206.000000;-0.095342
6205.000000;-0.095831
6204.000000;-0.096349
6203.000000;-0.096886
6202.000000;-0.097430
6201.000000;-0.097999
6200.000000;-0.098607
6199.000000;-0.099216
6198.000000;-0.099774
6197.000000;-0.100275
6196.000000;-0.100756
6195.000000;-0.101246
6194.000000;-0.101743
6193.000000;-0.102244
6192.000000;-0.102758
6191.000000;-0.103285
6190.000000;-0.103815
6189.000000;-0.104342
6188.000000;-0.104860
6187.000000;-0.105359
6186.000000;-0.105841
6185.000000;-0.106341
6184.000000;-0.106893
6183.000000;-0.107476
6182.000000;-0.108034
6181.000000;-0.108534
6180.000000;-0.108994
6179.000000;-0.109443
6178.000000;-0.109896
6177.000000;-0.110361
6176.000000;-0.110850
6175.000000;-0.111355
6174.000000;-0.111851
6173.000000;-0.112311
6172.000000;-0.112735
6171.000000;-0.113140
6170.000000;-0.113556
6169.000000;-0.114005
6168.000000;-0.114489
6167.000000;-0.114990
6166.000000;-0.115493
6165.000000;-0.116005
6164.000000;-0.116535
6163.000000;-0.117070
6162.000000;-0.117576
6161.000000;-0.118035
6160.000000;-0.118456
6159.000000;-0.118864
6158.000000;-0.119286
6157.000000;-0.119746
6156.000000;-0.120245
6155.000000;-0.120760
6154.000000;-0.121261
6153.000000;-0.121736
6152.000000;-0.122188
6151.000000;-0.122621
6150.000000;-0.123054
6149.000000;-0.123512
6148.000000;-0.124001
6147.000000;-0.124485
6146.000000;-0.124927
6145.000000;-0.125336
6144.000000;-0.125751
6143.000000;-0.126188
6142.000000;-0.126628
6141.000000;-0.127053
6140.000000;-0.127471
6139.000000;-0.127896
6138.000000;-0.128322
6137.000000;-0.128738
6136.000000;-0.129141
6135.000000;-0.129540
6134.000000;-0.129948
6133.000000;-0.130378
6132.000000;-0.130829
6131.000000;-0.131288
6130.000000;-0.131739
6129.000000;-0.132182
6128.000000;-0.132621
6127.000000;-0.133048
6126.000000;-0.133446
6125.000000;-0.133812
6124.000000;-0.134166
6123.000000;-0.134533
6122.000000;-0.134930
6121.000000;-0.135358
6120.000000;-0.135803
6119.000000;-0.136250
6118.000000;-0.136692
6117.000000;-0.137129
6116.000000;-0.137555
6115.000000;-0.137963
6114.000000;-0.138355
6113.000000;-0.138748
6112.000000;-0.139150
6111.000000;-0.139555
6110.000000;-0.139945
6109.000000;-0.140308
6108.000000;-0.140647
6107.000000;-0.140978
6106.000000;-0.141334
6105.000000;-0.141743
6104.000000;-0.142188
6103.000000;-0.142621
6102.000000;-0.143008
6101.000000;-0.143362
6100.000000;-0.143720
6099.000000;-0.144100
6098.000000;-0.144497
6097.000000;-0.144903
6096.000000;-0.145312
6095.000000;-0.145721
6094.000000;-0.146123
6093.000000;-0.146518
6092.000000;-0.146896
6091.000000;-0.147249
6090.000000;-0.147579
6089.000000;-0.147900
6088.000000;-0.148218
6087.000000;-0.148534
6086.000000;-0.148858
6085.000000;-0.149213
6084.000000;-0.149597
6083.000000;-0.149977
6082.000000;-0.150327
6081.000000;-0.150661
6080.000000;-0.151007
6079.000000;-0.151372
6078.000000;-0.151743
6077.000000;-0.152107
6076.000000;-0.152451
6075.000000;-0.152767
6074.000000;-0.153067
6073.000000;-0.153385
6072.000000;-0.153747
6071.000000;-0.154151
6070.000000;-0.154577
6069.000000;-0.155006
6068.000000;-0.155416
6067.000000;-0.155781
6066.000000;-0.156100
6065.000000;-0.156404
6064.000000;-0.156722
6063.000000;-0.157046
6062.000000;-0.157353
6061.000000;-0.157641
6060.000000;-0.157934
6059.000000;-0.158247
6058.000000;-0.158574
6057.000000;-0.158895
6056.000000;-0.159193
6055.000000;-0.159466
6054.000000;-0.159737
6053.000000;-0.160043
6052.000000;-0.160395
6051.000000;-0.160766
6050.000000;-0.161116
6049.000000;-0.161428
6048.000000;-0.161711
6047.000000;-0.161977
6046.000000;-0.162244
6045.000000;-0.162533
6044.000000;-0.162842
6043.000000;-0.163153
6042.000000;-0.163453
6041.000000;-0.163758
6040.000000;-0.164089
6039.000000;-0.164432
6038.000000;-0.164754
6037.000000;-0.165036
6036.000000;-0.165297
6035.000000;-0.165566
6034.000000;-0.165865
6033.000000;-0.166195
6032.000000;-0.166531
6031.000000;-0.166848
6030.000000;-0.167141
6029.000000;-0.167429
6028.000000;-0.167722
6027.000000;-0.168004
6026.000000;-0.168252
6025.000000;-0.168464
6024.000000;-0.168657
6023.000000;-0.168850
6022.000000;-0.169065
6021.000000;-0.169312
6020.000000;-0.169582
6019.000000;-0.169852
6018.000000;-0.170113
6017.000000;-0.170366
6016.000000;-0.170613
6015.000000;-0.170851
6014.000000;-0.171096
6013.000000;-0.171370
6012.000000;-0.171665
6011.000000;-0.171937
6010.000000;-0.172160
6009.000000;-0.172365
6008.000000;-0.172605
6007.000000;-0.172897
6006.000000;-0.173219
6005.000000;-0.173533
6004.000000;-0.173809
6003.000000;-0.174027
6002.000000;-0.174203
6001.000000;-0.174382
6000.000000;-0.174591
5999.000000;-0.174821
5998.000000;-0.175044
5997.000000;-0.175259
5996.000000;-0.175474
5995.000000;-0.175690
5994.000000;-0.175908
5993.000000;-0.176140
5992.000000;-0.176395
5991.000000;-0.176661
5990.000000;-0.176918
5989.000000;-0.177162
5988.000000;-0.177393
5987.000000;-0.177603
5986.000000;-0.177787
5985.000000;-0.177959
5984.000000;-0.178130
5983.000000;-0.178295
5982.000000;-0.178446
5981.000000;-0.178591
5980.000000;-0.178751
5979.000000;-0.178935
5978.000000;-0.179146
5977.000000;-0.179384
5976.000000;-0.179629
5975.000000;-0.179851
5974.000000;-0.180037
5973.000000;-0.180209
5972.000000;-0.180387
5971.000000;-0.180569
5970.000000;-0.180738
5969.000000;-0.180895
5968.000000;-0.181049
5967.000000;-0.181211
5966.000000;-0.181389
5965.000000;-0.181584
5964.000000;-0.181775
5963.000000;-0.181930
5962.000000;-0.182057
5961.000000;-0.182202
5960.000000;-0.182388
5959.000000;-0.182588
5958.000000;-0.182769
5957.000000;-0.182939
5956.000000;-0.183123
5955.000000;-0.183308
5954.000000;-0.183466
5953.000000;-0.183593
5952.000000;-0.183710
5951.000000;-0.183830
5950.000000;-0.183960
5949.000000;-0.184111
5948.000000;-0.184278
5947.000000;-0.184424
5946.000000;-0.184521
5945.000000;-0.184594
5944.000000;-0.184694
5943.000000;-0.184834
5942.000000;-0.184986
5941.000000;-0.185120
5940.000000;-0.185227
5939.000000;-0.185316
5938.000000;-0.185401
5937.000000;-0.185512
5936.000000;-0.185662
5935.000000;-0.185821
5934.000000;-0.185938
5933.000000;-0.185995
5932.000000;-0.186025
5931.000000;-0.186070
5930.000000;-0.186157
5929.000000;-0.186287
5928.000000;-0.186445
5927.000000;-0.186606
5926.000000;-0.186749
5925.000000;-0.186875
5924.000000;-0.186993
5923.000000;-0.187106
5922.000000;-0.187209
5921.000000;-0.187302
5920.000000;-0.187384
5919.000000;-0.187455
5918.000000;-0.187521
5917.000000;-0.187593
5916.000000;-0.187672
5915.000000;-0.187744
5914.000000;-0.187811
5913.000000;-0.187900
5912.000000;-0.188018
5911.000000;-0.188136
5910.000000;-0.188224
5909.000000;-0.188292
5908.000000;-0.188373
5907.000000;-0.188467
5906.000000;-0.188543
5905.000000;-0.188584
5904.000000;-0.188611
5903.000000;-0.188658
5902.000000;-0.188748
5901.000000;-0.188878
5900.000000;-0.189013
5899.000000;-0.189109
5898.000000;-0.189147
5897.000000;-0.189149
5896.000000;-0.189150
5895.000000;-0.189160
5894.000000;-0.189168
5893.000000;-0.189176
5892.000000;-0.189199
5891.000000;-0.189248
5890.000000;-0.189311
5889.000000;-0.189366
5888.000000;-0.189401
5887.000000;-0.189421
5886.000000;-0.189445
5885.000000;-0.189492
5884.000000;-0.189557
5883.000000;-0.189614
5882.000000;-0.189657
5881.000000;-0.189700
5880.000000;-0.189758
5879.000000;-0.189817
5878.000000;-0.189850
5877.000000;-0.189846
5876.000000;-0.189819
5875.000000;-0.189793
5874.000000;-0.189792
5873.000000;-0.189822
5872.000000;-0.189858
5871.000000;-0.189857
5870.000000;-0.189807
5869.000000;-0.189739
5868.000000;-0.189689
5867.000000;-0.189667
5866.000000;-0.189668
5865.000000;-0.189689
5864.000000;-0.189720
5863.000000;-0.189732
5862.000000;-0.189701
5861.000000;-0.189634
5860.000000;-0.189549
5859.000000;-0.189454
5858.000000;-0.189362
5857.000000;-0.189292
5856.000000;-0.189260
5855.000000;-0.189250
5854.000000;-0.189236
5853.000000;-0.189208
5852.000000;-0.189164
5851.000000;-0.189098
5850.000000;-0.189007
5849.000000;-0.188909
5848.000000;-0.188824
5847.000000;-0.188754
5846.000000;-0.188688
5845.000000;-0.188616
5844.000000;-0.188522
5843.000000;-0.188390
5842.000000;-0.188234
5841.000000;-0.188099
5840.000000;-0.188015
5839.000000;-0.187966
5838.000000;-0.187903
5837.000000;-0.187801
5836.000000;-0.187659
5835.000000;-0.187484
5834.000000;-0.187299
5833.000000;-0.187139
5832.000000;-0.187028
5831.000000;-0.186949
5830.000000;-0.186866
5829.000000;-0.186761
5828.000000;-0.186641
5827.000000;-0.186509
5826.000000;-0.186361
5825.000000;-0.186197
5824.000000;-0.186024
5823.000000;-0.185842
5822.000000;-0.185652
5821.000000;-0.185464
5820.000000;-0.185299
5819.000000;-0.185161
5818.000000;-0.185042
5817.000000;-0.184920
5816.000000;-0.184770
5815.000000;-0.184576
5814.000000;-0.184350
5813.000000;-0.184122
5812.000000;-0.183914
5811.000000;-0.183720
5810.000000;-0.183534
5809.000000;-0.183355
5808.000000;-0.183182
5807.000000;-0.183001
5806.000000;-0.182807
5805.000000;-0.182611
5804.000000;-0.182428
5803.000000;-0.182250
5802.000000;-0.182066
5801.000000;-0.181872
5800.000000;-0.181661
5799.000000;-0.181421
5798.000000;-0.181146
5797.000000;-0.180849
5796.000000;-0.180548
5795.000000;-0.180255
5794.000000;-0.179986
5793.000000;-0.179751
5792.000000;-0.179542
5791.000000;-0.179331
5790.000000;-0.179096
5789.000000;-0.178839
5788.000000;-0.178565
5787.000000;-0.178272
5786.000000;-0.177958
5785.000000;-0.177632
5784.000000;-0.177297
5783.000000;-0.176951
5782.000000;-0.176612
5781.000000;-0.176311
5780.000000;-0.176058
5779.000000;-0.175829
5778.000000;-0.175594
5777.000000;-0.175335
5776.000000;-0.175037
5775.000000;-0.174683
5774.000000;-0.174286
5773.000000;-0.173895
5772.000000;-0.173546
5771.000000;-0.173235
5770.000000;-0.172936
5769.000000;-0.172634
5768.000000;-0.172325
5767.000000;-0.172003
5766.000000;-0.171669
5765.000000;-0.171331
5764.000000;-0.170981
5763.000000;-0.170588
5762.000000;-0.170138
5761.000000;-0.169662
5760.000000;-0.169211
5759.000000;-0.168814
5758.000000;-0.168467
5757.000000;-0.168144
5756.000000;-0.167806
5755.000000;-0.167413
5754.000000;-0.166957
5753.000000;-0.166466
5752.000000;-0.165975
5751.000000;-0.165510
5750.000000;-0.165089
5749.000000;-0.164713
5748.000000;-0.164345
5747.000000;-0.163937
5746.000000;-0.163472
5745.000000;-0.162979
5744.000000;-0.162480
5743.000000;-0.161974
5742.000000;-0.161462
5741.000000;-0.160968
5740.000000;-0.160500
5739.000000;-0.160033
5738.000000;-0.159554
5737.000000;-0.159091
5736.000000;-0.158664
5735.000000;-0.158250
5734.000000;-0.157809
5733.000000;-0.157336
5732.000000;-0.156839
5731.000000;-0.156313
5730.000000;-0.155753
5729.000000;-0.155175
5728.000000;-0.154610
5727.000000;-0.154064
5726.000000;-0.153527
5725.000000;-0.152984
5724.000000;-0.152420
5723.000000;-0.151823
5722.000000;-0.151202
5721.000000;-0.150592
5720.000000;-0.150020
5719.000000;-0.149485
5718.000000;-0.148965
5717.000000;-0.148430
5716.000000;-0.147843
5715.000000;-0.147189
5714.000000;-0.146510
5713.000000;-0.145879
5712.000000;-0.145319
5711.000000;-0.144775
5710.000000;-0.144185
5709.000000;-0.143548
5708.000000;-0.142907
5707.000000;-0.142288
5706.000000;-0.141690
5705.000000;-0.141096
5704.000000;-0.140474
5703.000000;-0.139797
5702.000000;-0.139087
5701.000000;-0.138405
5700.000000;-0.137797
5699.000000;-0.137243
5698.000000;-0.136696
5697.000000;-0.136132
5696.000000;-0.135542
5695.000000;-0.134911
5694.000000;-0.134239
5693.000000;-0.133546
5692.000000;-0.132849
5691.000000;-0.132154
5690.000000;-0.131480
5689.000000;-0.130861
5688.000000;-0.130295
5687.000000;-0.129725
5686.000000;-0.129099
5685.000000;-0.128418
5684.000000;-0.127713
5683.000000;-0.127000
5682.000000;-0.126282
5681.000000;-0.125576
5680.000000;-0.124892
5679.000000;-0.124215
5678.000000;-0.123542
5677.000000;-0.122896
5676.000000;-0.122288
5675.000000;-0.121686
5674.000000;-0.121048
5673.000000;-0.120365
5672.000000;-0.119664
5671.000000;-0.118966
5670.000000;-0.118285
5669.000000;-0.117632
5668.000000;-0.116993
5667.000000;-0.116339
5666.000000;-0.115661
5665.000000;-0.114996
5664.000000;-0.114370
5663.000000;-0.113765
5662.000000;-0.113150
5661.000000;-0.112528
5660.000000;-0.111911
5659.000000;-0.111292
5658.000000;-0.110669
5657.000000;-0.110067
5656.000000;-0.109504
5655.000000;-0.108965
5654.000000;-0.108413
5653.000000;-0.107828
5652.000000;-0.107199
5651.000000;-0.106517
5650.000000;-0.105814
5649.000000;-0.105155
5648.000000;-0.104571
5647.000000;-0.104013
5646.000000;-0.103412
5645.000000;-0.102766
5644.000000;-0.102132
5643.000000;-0.101561
5642.000000;-0.101061
5641.000000;-0.100603
5640.000000;-0.100144
5639.000000;-0.099651
5638.000000;-0.099129
5637.000000;-0.098613
5636.000000;-0.098109
5635.000000;-0.097584
5634.000000;-0.097010
5633.000000;-0.096411
5632.000000;-0.095840
5631.000000;-0.095342
5630.000000;-0.094936
5629.000000;-0.094599
5628.000000;-0.094268
5627.000000;-0.093877
5626.000000;-0.093427
5625.000000;-0.092962
5624.000000;-0.092509
5623.000000;-0.092058
5622.000000;-0.091612
5621.000000;-0.091202
5620.000000;-0.090826
5619.000000;-0.090436
5618.000000;-0.090010
5617.000000;-0.089586
5616.000000;-0.089204
5615.000000;-0.088867
5614.000000;-0.088566
5613.000000;-0.088309
5612.000000;-0.088079
5611.000000;-0.087819
5610.000000;-0.087493
5609.000000;-0.087130
5608.000000;-0.086775
5607.000000;-0.086439
5606.000000;-0.086118
5605.000000;-0.085834
5604.000000;-0.085587
5603.000000;-0.085346
5602.000000;-0.085093
5601.000000;-0.084854
5600.000000;-0.084651
5599.000000;-0.084458
5598.000000;-0.084252
5597.000000;-0.084049
5596.000000;-0.083870
5595.000000;-0.083701
5594.000000;-0.083540
5593.000000;-0.083420
5592.000000;-0.083342
5591.000000;-0.083244
5590.000000;-0.083072
5589.000000;-0.082854
5588.000000;-0.082652
5587.000000;-0.082486
5586.000000;-0.082351
5585.000000;-0.082260
5584.000000;-0.082227
5583.000000;-0.082228
5582.000000;-0.082227
5581.000000;-0.082207
5580.000000;-0.082153
5579.000000;-0.082050
5578.000000;-0.081915
5577.000000;-0.081802
5576.000000;-0.081738
5575.000000;-0.081690
5574.000000;-0.081640
5573.000000;-0.081608
5572.000000;-0.081604
5571.000000;-0.081587
5570.000000;-0.081535
5569.000000;-0.081495
5568.000000;-0.081518
5567.000000;-0.081592
5566.000000;-0.081669
5565.000000;-0.081729
5564.000000;-0.081766
5563.000000;-0.081769
5562.000000;-0.081750
5561.000000;-0.081751
5560.000000;-0.081780
5559.000000;-0.081792
5558.000000;-0.081780
5557.000000;-0.081795
5556.000000;-0.081873
5555.000000;-0.081972
5554.000000;-0.082041
5553.000000;-0.082078
5552.000000;-0.082089
5551.000000;-0.082079
5550.000000;-0.082081
5549.000000;-0.082148
5548.000000;-0.082275
5547.000000;-0.082400
5546.000000;-0.082502
5545.000000;-0.082629
5544.000000;-0.082786
5543.000000;-0.082902
5542.000000;-0.082943
5541.000000;-0.082962
5540.000000;-0.082996
5539.000000;-0.083019
5538.000000;-0.083015
5537.000000;-0.083024
5536.000000;-0.083080
5535.000000;-0.083164
5534.000000;-0.083249
5533.000000;-0.083331
5532.000000;-0.083399
5531.000000;-0.083437
5530.000000;-0.083481
5529.000000;-0.083586
5528.000000;-0.083739
5527.000000;-0.083845
5526.000000;-0.083848
5525.000000;-0.083822
5524.000000;-0.083858
5523.000000;-0.083950
5522.000000;-0.084052
5521.000000;-0.084135
5520.000000;-0.084194
5519.000000;-0.084224
5518.000000;-0.084223
5517.000000;-0.084214
5516.000000;-0.084213
5515.000000;-0.084218
5514.000000;-0.084254
5513.000000;-0.084316
5512.000000;-0.084323
5511.000000;-0.084212
5510.000000;-0.084072
5509.000000;-0.084047
5508.000000;-0.084138
5507.000000;-0.084198
5506.000000;-0.084145
5505.000000;-0.084071
5504.000000;-0.084057
5503.000000;-0.084067
5502.000000;-0.084074
5501.000000;-0.084113
5500.000000;-0.084212
5499.000000;-0.084333
5498.000000;-0.084348
5497.000000;-0.084170
5496.000000;-0.083869
5495.000000;-0.083623
5494.000000;-0.083541
5493.000000;-0.083530
5492.000000;-0.083433
5491.000000;-0.083222
5490.000000;-0.083024
5489.000000;-0.082952
5488.000000;-0.082982
5487.000000;-0.083015
5486.000000;-0.082996
5485.000000;-0.082938
5484.000000;-0.082829
5483.000000;-0.082637
5482.000000;-0.082487
5481.000000;-0.082472
5480.000000;-0.082403
5479.000000;-0.082054
5478.000000;-0.081504
5477.000000;-0.081046
5476.000000;-0.080742
5475.000000;-0.080417
5474.000000;-0.080049
5473.000000;-0.079754
5472.000000;-0.079523
5471.000000;-0.079263
5470.000000;-0.078998
5469.000000;-0.078764
5468.000000;-0.078487
5467.000000;-0.078146
5466.000000;-0.077811
5465.000000;-0.077474
5464.000000;-0.076972
5463.000000;-0.076255
5462.000000;-0.075591
5461.000000;-0.075183
5460.000000;-0.074833
5459.000000;-0.074336
5458.000000;-0.073827
5457.000000;-0.073459
5456.000000;-0.073102
5455.000000;-0.072604
5454.000000;-0.071991
5453.000000;-0.071345
5452.000000;-0.070689
5451.000000;-0.070034
5450.000000;-0.069384
5449.000000;-0.068602
5448.000000;-0.067642
5447.000000;-0.066793
5446.000000;-0.066225
5445.000000;-0.065654
5444.000000;-0.064789
5443.000000;-0.063782
5442.000000;-0.062984
5441.000000;-0.062407
5440.000000;-0.061693
5439.000000;-0.060615
5438.000000;-0.059326
5437.000000;-0.058081
5436.000000;-0.056977
5435.000000;-0.056040
5434.000000;-0.055188
5433.000000;-0.054171
5432.000000;-0.052897
5431.000000;-0.051638
5430.000000;-0.050567
5429.000000;-0.049443
5428.000000;-0.048082
5427.000000;-0.046645
5426.000000;-0.045315
5425.000000;-0.044055
5424.000000;-0.042742
5423.000000;-0.041305
5422.000000;-0.039710
5421.000000;-0.038008
5420.000000;-0.036305
5419.000000;-0.034555
5418.000000;-0.032622
5417.000000;-0.030517
5416.000000;-0.028451
5415.000000;-0.026558
5414.000000;-0.024679
5413.000000;-0.022654
5412.000000;-0.020557
5411.000000;-0.018538
5410.000000;-0.016605
5409.000000;-0.014612
5408.000000;-0.012432
5407.000000;-0.010064
5406.000000;-0.007603
5405.000000;-0.005079
5404.000000;-0.002424
5403.000000;0.000320
5402.000000;0.003152
5401.000000;0.006134
5400.000000;0.009152
5399.000000;0.012163
5398.000000;0.015293
5397.000000;0.018592
5396.000000;0.021973
5395.000000;0.025362
5394.000000;0.028856
5393.000000;0.032476
5392.000000;0.036107
5391.000000;0.039808
5390.000000;0.043753
5389.000000;0.047912
5388.000000;0.052070
5387.000000;0.056183
5386.000000;0.060449
5385.000000;0.065066
5384.000000;0.069925
5383.000000;0.074748
5382.000000;0.079591
5381.000000;0.084713
5380.000000;0.090071
5379.000000;0.095457
5378.000000;0.100909
5377.000000;0.106643
5376.000000;0.112656
5375.000000;0.118785
5374.000000;0.125050
5373.000000;0.131507
5372.000000;0.138040
5371.000000;0.144625
5370.000000;0.151459
5369.000000;0.158692
5368.000000;0.166260
5367.000000;0.174078
5366.000000;0.182147
5365.000000;0.190459
5364.000000;0.198888
5363.000000;0.207381
5362.000000;0.216187
5361.000000;0.225440
5360.000000;0.234907
5359.000000;0.244446
5358.000000;0.254322
5357.000000;0.264770
5356.000000;0.275587
5355.000000;0.286571
5354.000000;0.297936
5353.000000;0.309879
5352.000000;0.322043
5351.000000;0.333977
5350.000000;0.345927
5349.000000;0.358554
5348.000000;0.372011
5347.000000;0.385916
5346.000000;0.400064
5345.000000;0.414597
5344.000000;0.429564
5343.000000;0.444852
5342.000000;0.460531
5341.000000;0.476577
5340.000000;0.492753
5339.000000;0.509196
5338.000000;0.526407
5337.000000;0.544518
5336.000000;0.563092
5335.000000;0.581794
5334.000000;0.600804
5333.000000;0.620466
5332.000000;0.640763
5331.000000;0.661438
5330.000000;0.682581
5329.000000;0.704409
5328.000000;0.726738
5327.000000;0.749394
5326.000000;0.772698
5325.000000;0.796917
5324.000000;0.821672
5323.000000;0.846413
5322.000000;0.871187
5321.000000;0.896380
5320.000000;0.922006
5319.000000;0.947918
5318.000000;0.974385
5317.000000;1.001713
5316.000000;1.029587
5315.000000;1.057518
5314.000000;1.085409
5313.000000;1.113160
5312.000000;1.140357
5311.000000;1.167041
5310.000000;1.194103
5309.000000;1.221866
5308.000000;1.249098
5307.000000;1.274724
5306.000000;1.299737
5305.000000;1.325735
5304.000000;1.352370
5303.000000;1.378074
5302.000000;1.402354
5301.000000;1.425493
5300.000000;1.447078
5299.000000;1.467026
5298.000000;1.486758
5297.000000;1.506871
5296.000000;1.525235
5295.000000;1.539941
5294.000000;1.552441
5293.000000;1.565195
5292.000000;1.578148
5291.000000;1.590203
5290.000000;1.602066
5289.000000;1.614486
5288.000000;1.625742
5287.000000;1.633999
5286.000000;1.640332
5285.000000;1.646668
5284.000000;1.652697
5283.000000;1.657472
5282.000000;1.661927
5281.000000;1.667039
5280.000000;1.671781
5279.000000;1.675480
5278.000000;1.679625
5277.000000;1.684699
5276.000000;1.688096
5275.000000;1.688164
5274.000000;1.687481
5273.000000;1.689119
5272.000000;1.692523
5271.000000;1.695562
5270.000000;1.698173
5269.000000;1.701288
5268.000000;1.704257
5267.000000;1.706200
5266.000000;1.707873
5265.000000;1.709877
5264.000000;1.711141
5263.000000;1.711277
5262.000000;1.711751
5261.000000;1.712756
5260.000000;1.712273
5259.000000;1.710061
5258.000000;1.708984
5257.000000;1.710533
5256.000000;1.712397
5255.000000;1.712404
5254.000000;1.711974
5253.000000;1.713087
5252.000000;1.714802
5251.000000;1.715363
5250.000000;1.715349
5249.000000;1.716224
5248.000000;1.717534
5247.000000;1.718352
5246.000000;1.719691
5245.000000;1.722700
5244.000000;1.726329
5243.000000;1.728937
5242.000000;1.730453
5241.000000;1.731352
5240.000000;1.731717
5239.000000;1.732627
5238.000000;1.735704
5237.000000;1.739885
5236.000000;1.741521
5235.000000;1.739337
5234.000000;1.736573
5233.000000;1.736568
5232.000000;1.739049
5231.000000;1.742131
5230.000000;1.745093
5229.000000;1.747339
5228.000000;1.747504
5227.000000;1.746000
5226.000000;1.745868
5225.000000;1.748787
5224.000000;1.752594
5223.000000;1.754664
5222.000000;1.755110
5221.000000;1.755045
5220.000000;1.754883
5219.000000;1.755571
5218.000000;1.758217
5217.000000;1.761092
5216.000000;1.760187
5215.000000;1.754844
5214.000000;1.749589
5213.000000;1.748185
5212.000000;1.749270
5211.000000;1.749593
5210.000000;1.748628
5209.000000;1.748100
5208.000000;1.749415
5207.000000;1.753248
5206.000000;1.759304
5205.000000;1.764932
5204.000000;1.766425
5203.000000;1.763377
5202.000000;1.759399
5201.000000;1.757850
5200.000000;1.759313
5199.000000;1.762973
5198.000000;1.767345
5197.000000;1.769359
5196.000000;1.766427
5195.000000;1.760710
5194.000000;1.757653
5193.000000;1.759564
5192.000000;1.763960
5191.000000;1.768146
5190.000000;1.771983
5189.000000;1.775518
5188.000000;1.777769
5187.000000;1.779177
5186.000000;1.781583
5185.000000;1.784320
5184.000000;1.784067
5183.000000;1.780264
5182.000000;1.776517
5181.000000;1.775059
5180.000000;1.774622
5179.000000;1.774676
5178.000000;1.776840
5177.000000;1.780559
5176.000000;1.781947
5175.000000;1.779502
5174.000000;1.776873
5173.000000;1.777082
5172.000000;1.778309
5171.000000;1.777938
5170.000000;1.776854
5169.000000;1.776875
5168.000000;1.777201
5167.000000;1.776212
5166.000000;1.774217
5165.000000;1.771808
5164.000000;1.768291
5163.000000;1.764219
5162.000000;1.762555
5161.000000;1.765111
5160.000000;1.770176
5159.000000;1.775013
5158.000000;1.778399
5157.000000;1.779730
5156.000000;1.778921
5155.000000;1.778508
5154.000000;1.782059
5153.000000;1.788860
5152.000000;1.793558
5151.000000;1.792952
5150.000000;1.789545
5149.000000;1.786250
5148.000000;1.782331
5147.000000;1.777132
5146.000000;1.773291
5145.000000;1.772963
5144.000000;1.774341
5143.000000;1.774984
5142.000000;1.775834
5141.000000;1.778674
5140.000000;1.782128
5139.000000;1.783544
5138.000000;1.782948
5137.000000;1.782028
5136.000000;1.780908
5135.000000;1.778707
5134.000000;1.775776
5133.000000;1.773186
5132.000000;1.771235
5131.000000;1.770098
5130.000000;1.770636
5129.000000;1.773089
5128.000000;1.776129
5127.000000;1.778294
5126.000000;1.779205
5125.000000;1.778803
5124.000000;1.777088
5123.000000;1.775307
5122.000000;1.775379
5121.000000;1.777603
5120.000000;1.780700
5119.000000;1.783941
5118.000000;1.787211
5117.000000;1.789095
5116.000000;1.787817
5115.000000;1.784637
5114.000000;1.782919
5113.000000;1.783265
5112.000000;1.783061
5111.000000;1.781385
5110.000000;1.780419
5109.000000;1.780983
5108.000000;1.780695
5107.000000;1.777969
5106.000000;1.774403
5105.000000;1.771687
5104.000000;1.769348
5103.000000;1.766967
5102.000000;1.765706
5101.000000;1.766227
5100.000000;1.767713
5099.000000;1.770171
5098.000000;1.774889
5097.000000;1.781272
5096.000000;1.785937
5095.000000;1.786649
5094.000000;1.784762
5093.000000;1.782388
5092.000000;1.780114
5091.000000;1.778541
5090.000000;1.778925
5089.000000;1.780971
5088.000000;1.782611
5087.000000;1.783296
5086.000000;1.784847
5085.000000;1.787663
5084.000000;1.788911
5083.000000;1.786477
5082.000000;1.782320
5081.000000;1.779846
5080.000000;1.780160
5079.000000;1.782214
5078.000000;1.784422
5077.000000;1.785148
5076.000000;1.783427
5075.000000;1.780185
5074.000000;1.777340
5073.000000;1.775262
5072.000000;1.773154
5071.000000;1.771849
5070.000000;1.773218
5069.000000;1.776638
5068.000000;1.779109
5067.000000;1.779530
5066.000000;1.779719
5065.000000;1.780342
5064.000000;1.779459
5063.000000;1.776361
5062.000000;1.773340
5061.000000;1.772060
5060.000000;1.771267
5059.000000;1.769489
5058.000000;1.767451
5057.000000;1.766451
5056.000000;1.766720
5055.000000;1.768465
5054.000000;1.772144
5053.000000;1.776465
5052.000000;1.778242
5051.000000;1.775926
5050.000000;1.771455
5049.000000;1.767357
5048.000000;1.764101
5047.000000;1.761083
5046.000000;1.758057
5045.000000;1.754946
5044.000000;1.752030
5043.000000;1.750745
5042.000000;1.752645
5041.000000;1.757051
5040.000000;1.761033
5039.000000;1.762021
5038.000000;1.759207
5037.000000;1.752931
5036.000000;1.744998
5035.000000;1.738974
5034.000000;1.737411
5033.000000;1.738884
5032.000000;1.739984
5031.000000;1.740039
5030.000000;1.741015
5029.000000;1.742848
5028.000000;1.742562
5027.000000;1.738844
5026.000000;1.734121
5025.000000;1.731055
5024.000000;1.730005
5023.000000;1.730359
5022.000000;1.731472
5021.000000;1.731604
5020.000000;1.728798
5019.000000;1.723747
5018.000000;1.719294
5017.000000;1.716796
5016.000000;1.715321
5015.000000;1.714279
5014.000000;1.714080
5013.000000;1.713920
5012.000000;1.711933
5011.000000;1.708201
5010.000000;1.704728
5009.000000;1.701963
5008.000000;1.698184
5007.000000;1.692927
5006.000000;1.688191
5005.000000;1.685419
5004.000000;1.683674
5003.000000;1.681576
5002.000000;1.678946
5001.000000;1.675755
5000.000000;1.671848
4999.000000;1.668231
4998.000000;1.666450
4997.000000;1.666172
4996.000000;1.665347
4995.000000;1.662873
4994.000000;1.659219
4993.000000;1.654495
4992.000000;1.648308
4991.000000;1.641788
4990.000000;1.637036
4989.000000;1.633977
4988.000000;1.630246
4987.000000;1.624878
4986.000000;1.619730
4985.000000;1.616488
4984.000000;1.614664
4983.000000;1.613221
4982.000000;1.611966
4981.000000;1.610498
4980.000000;1.607913
4979.000000;1.604498
4978.000000;1.601742
4977.000000;1.599897
4976.000000;1.597310
4975.000000;1.592837
4974.000000;1.587102
4973.000000;1.580911
4972.000000;1.574483
4971.000000;1.568739
4970.000000;1.565292
4969.000000;1.564153
4968.000000;1.563037
4967.000000;1.559913
4966.000000;1.555006
4965.000000;1.549604
4964.000000;1.544347
4963.000000;1.539359
4962.000000;1.534722
4961.000000;1.530235
4960.000000;1.525723
4959.000000;1.521694
4958.000000;1.518512
4957.000000;1.515187
4956.000000;1.510484
4955.000000;1.504980
4954.000000;1.500111
4953.000000;1.495560
4952.000000;1.489827
4951.000000;1.483347
4950.000000;1.478540
4949.000000;1.476238
4948.000000;1.474308
4947.000000;1.470570
4946.000000;1.465149
4945.000000;1.458968
4944.000000;1.452039
4943.000000;1.444641
4942.000000;1.438377
4941.000000;1.434457
4940.000000;1.431913
4939.000000;1.428743
4938.000000;1.424245
4937.000000;1.419284
4936.000000;1.414793
4935.000000;1.410861
4934.000000;1.406901
4933.000000;1.402211
4932.000000;1.396679
4931.000000;1.391109
4930.000000;1.386355
4929.000000;1.382215
4928.000000;1.377851
4927.000000;1.373144
4926.000000;1.368580
4925.000000;1.363926
4924.000000;1.358283
4923.000000;1.351664
4922.000000;1.345265
4921.000000;1.339851
4920.000000;1.334926
4919.000000;1.329832
4918.000000;1.324608
4917.000000;1.319400
4916.000000;1.314025
4915.000000;1.308621
4914.000000;1.303863
4913.000000;1.300002
4912.000000;1.296359
4911.000000;1.292185
4910.000000;1.287477
4909.000000;1.282584
4908.000000;1.277628
4907.000000;1.272660
4906.000000;1.267873
4905.000000;1.263338
4904.000000;1.258869
4903.000000;1.254287
4902.000000;1.249419
4901.000000;1.243933
4900.000000;1.237738
4899.000000;1.231453
4898.000000;1.225872
4897.000000;1.221008
4896.000000;1.216267
4895.000000;1.211455
4894.000000;1.206907
4893.000000;1.202684
4892.000000;1.198435
4891.000000;1.194082
4890.000000;1.189888
4889.000000;1.185721
4888.000000;1.181022
4887.000000;1.175683
4886.000000;1.170330
4885.000000;1.165541
4884.000000;1.161323
4883.000000;1.157391
4882.000000;1.153374
4881.000000;1.148739
4880.000000;1.143176
4879.000000;1.137215
4878.000000;1.131870
4877.000000;1.127557
4876.000000;1.123801
4875.000000;1.119982
4874.000000;1.115828
4873.000000;1.111194
4872.000000;1.106051
4871.000000;1.100818
4870.000000;1.096112
4869.000000;1.092048
4868.000000;1.088190
4867.000000;1.084191
4866.000000;1.079952
4865.000000;1.075257
4864.000000;1.069936
4863.000000;1.064490
4862.000000;1.059813
4861.000000;1.056113
4860.000000;1.052638
4859.000000;1.048692
4858.000000;1.044410
4857.000000;1.040280
4856.000000;1.036392
4855.000000;1.032415
4854.000000;1.027970
4853.000000;1.022874
4852.000000;1.017369
4851.000000;1.012152
4850.000000;1.007798
4849.000000;1.004090
4848.000000;1.000283
4847.000000;0.996061
4846.000000;0.991777
4845.000000;0.987705
4844.000000;0.983611
4843.000000;0.979281
4842.000000;0.974981
4841.000000;0.971059
4840.000000;0.967398
4839.000000;0.963527
4838.000000;0.959129
4837.000000;0.954288
4836.000000;0.949406
4835.000000;0.944962
4834.000000;0.941171
4833.000000;0.937798
4832.000000;0.934418
4831.000000;0.930817
4830.000000;0.926993
4829.000000;0.922909
4828.000000;0.918537
4827.000000;0.914040
4826.000000;0.909629
4825.000000;0.905293
4824.000000;0.900952
4823.000000;0.896764
4822.000000;0.892941
4821.000000;0.889378
4820.000000;0.885803
4819.000000;0.882232
4818.000000;0.878878
4817.000000;0.875724
4816.000000;0.872560
4815.000000;0.869370
4814.000000;0.866241
4813.000000;0.862938
4812.000000;0.859086
4811.000000;0.854750
4810.000000;0.850416
4809.000000;0.846325
4808.000000;0.842280
4807.000000;0.838195
4806.000000;0.834305
4805.000000;0.830732
4804.000000;0.827232
4803.000000;0.823604
4802.000000;0.820019
4801.000000;0.816699
4800.000000;0.813505
4799.000000;0.810052
4798.000000;0.806116
4797.000000;0.801804
4796.000000;0.797494
4795.000000;0.793656
4794.000000;0.790523
4793.000000;0.787841
4792.000000;0.785054
4791.000000;0.781787
4790.000000;0.778069
4789.000000;0.774165
4788.000000;0.770389
4787.000000;0.767019
4786.000000;0.764085
4785.000000;0.761239
4784.000000;0.758089
4783.000000;0.754641
4782.000000;0.751198
4781.000000;0.747866
4780.000000;0.744467
4779.000000;0.740940
4778.000000;0.737480
4777.000000;0.734220
4776.000000;0.731084
4775.000000;0.728064
4774.000000;0.725326
4773.000000;0.722899
4772.000000;0.720492
4771.000000;0.717786
4770.000000;0.714725
4769.000000;0.711431
4768.000000;0.708001
4767.000000;0.704525
4766.000000;0.701147
4765.000000;0.697969
4764.000000;0.694958
4763.000000;0.691995
4762.000000;0.688927
4761.000000;0.685609
4760.000000;0.682061
4759.000000;0.678604
4758.000000;0.675640
4757.000000;0.673254
4756.000000;0.671133
4755.000000;0.668907
4754.000000;0.666412
4753.000000;0.663657
4752.000000;0.660722
4751.000000;0.657761
4750.000000;0.654939
4749.000000;0.652299
4748.000000;0.649761
4747.000000;0.647271
4746.000000;0.644794
4745.000000;0.642229
4744.000000;0.639474
4743.000000;0.636624
4742.000000;0.633898
4741.000000;0.631359
4740.000000;0.628841
4739.000000;0.626191
4738.000000;0.623434
4737.000000;0.620679
4736.000000;0.618006
4735.000000;0.615484
4734.000000;0.613178
4733.000000;0.611071
4732.000000;0.609052
4731.000000;0.606998
4730.000000;0.604812
4729.000000;0.602422
4728.000000;0.599884
4727.000000;0.597434
4726.000000;0.595313
4725.000000;0.593516
4724.000000;0.591811
4723.000000;0.589977
4722.000000;0.587899
4721.000000;0.585511
4720.000000;0.582825
4719.000000;0.580038
4718.000000;0.577440
4717.000000;0.575155
4716.000000;0.573080
4715.000000;0.571073
4714.000000;0.569073
4713.000000;0.567063
4712.000000;0.565034
4711.000000;0.563041
4710.000000;0.561151
4709.000000;0.559329
4708.000000;0.557441
4707.000000;0.555409
4706.000000;0.553289
4705.000000;0.551199
4704.000000;0.549232
4703.000000;0.547409
4702.000000;0.545652
4701.000000;0.543840
4700.000000;0.541981
4699.000000;0.540234
4698.000000;0.538697
4697.000000;0.537234
4696.000000;0.535644
4695.000000;0.533920
4694.000000;0.532196
4693.000000;0.530504
4692.000000;0.528758
4691.000000;0.526946
4690.000000;0.525165
4689.000000;0.523458
4688.000000;0.521767
4687.000000;0.520051
4686.000000;0.518343
4685.000000;0.516687
4684.000000;0.515126
4683.000000;0.513724
4682.000000;0.512498
4681.000000;0.511316
4680.000000;0.509996
4679.000000;0.508501
4678.000000;0.506952
4677.000000;0.505452
4676.000000;0.503997
4675.000000;0.502545
4674.000000;0.501092
4673.000000;0.499682
4672.000000;0.498392
4671.000000;0.497271
4670.000000;0.496229
4669.000000;0.495053
4668.000000;0.493632
4667.000000;0.492089
4666.000000;0.490636
4665.000000;0.489343
4664.000000;0.488149
4663.000000;0.486997
4662.000000;0.485849
4661.000000;0.484666
4660.000000;0.483481
4659.000000;0.482416
4658.000000;0.481497
4657.000000;0.480560
4656.000000;0.479457
4655.000000;0.478289
4654.000000;0.477246
4653.000000;0.476329
4652.000000;0.475378
4651.000000;0.474350
4650.000000;0.473350
4649.000000;0.472432
4648.000000;0.471536
4647.000000;0.470615
4646.000000;0.469686
4645.000000;0.468753
4644.000000;0.467804
4643.000000;0.466888
4642.000000;0.466069
4641.000000;0.465332
4640.000000;0.464610
4639.000000;0.463880
4638.000000;0.463118
4637.000000;0.462259
4636.000000;0.461307
4635.000000;0.460424
4634.000000;0.459741
4633.000000;0.459154
4632.000000;0.458452
4631.000000;0.457596
4630.000000;0.456727
4629.000000;0.455951
4628.000000;0.455264
4627.000000;0.454648
4626.000000;0.454081
4625.000000;0.453491
4624.000000;0.452850
4623.000000;0.452261
4622.000000;0.451821
4621.000000;0.451446
4620.000000;0.450986
4619.000000;0.450454
4618.000000;0.449984
4617.000000;0.449595
4616.000000;0.449176
4615.000000;0.448657
4614.000000;0.448048
4613.000000;0.447344
4612.000000;0.446573
4611.000000;0.445887
4610.000000;0.445443
4609.000000;0.445196
4608.000000;0.444979
4607.000000;0.444752
4606.000000;0.444583
4605.000000;0.444436
4604.000000;0.444187
4603.000000;0.443847
4602.000000;0.443559
4601.000000;0.443359
4600.000000;0.443113
4599.000000;0.442751
4598.000000;0.442372
4597.000000;0.442085
4596.000000;0.441904
4595.000000;0.441834
4594.000000;0.441902
4593.000000;0.442050
4592.000000;0.442136
4591.000000;0.442106
4590.000000;0.442062
4589.000000;0.442099
4588.000000;0.442176
4587.000000;0.442187
4586.000000;0.442074
4585.000000;0.441849
4584.000000;0.441585
4583.000000;0.441405
4582.000000;0.441389
4581.000000;0.441498
4580.000000;0.441640
4579.000000;0.441770
4578.000000;0.441886
4577.000000;0.441977
4576.000000;0.442091
4575.000000;0.442354
4574.000000;0.442821
4573.000000;0.443335
4572.000000;0.443704
4571.000000;0.443940
4570.000000;0.444193
4569.000000;0.444506
4568.000000;0.444802
4567.000000;0.445083
4566.000000;0.445454
4565.000000;0.445948
4564.000000;0.446482
4563.000000;0.447010
4562.000000;0.447570
4561.000000;0.448173
4560.000000;0.448768
4559.000000;0.449339
4558.000000;0.449901
4557.000000;0.450435
4556.000000;0.450911
4555.000000;0.451393
4554.000000;0.451975
4553.000000;0.452650
4552.000000;0.453344
4551.000000;0.454056
4550.000000;0.454845
4549.000000;0.455709
4548.000000;0.456584
4547.000000;0.457441
4546.000000;0.458266
4545.000000;0.459017
4544.000000;0.459726
4543.000000;0.460579
4542.000000;0.461708
4541.000000;0.462947
4540.000000;0.463971
4539.000000;0.464676
4538.000000;0.465252
4537.000000;0.465911
4536.000000;0.466720
4535.000000;0.467688
4534.000000;0.468804
4533.000000;0.469926
4532.000000;0.470842
4531.000000;0.471500
4530.000000;0.472074
4529.000000;0.472771
4528.000000;0.473668
4527.000000;0.474734
4526.000000;0.475890
4525.000000;0.477016
4524.000000;0.478017
4523.000000;0.478905
4522.000000;0.479743
4521.000000;0.480519
4520.000000;0.481196
4519.000000;0.481843
4518.000000;0.482600
4517.000000;0.483520
4516.000000;0.484539
4515.000000;0.485577
4514.000000;0.486585
4513.000000;0.487540
4512.000000;0.488494
4511.000000;0.489578
4510.000000;0.490840
4509.000000;0.492136
4508.000000;0.493308
4507.000000;0.494393
4506.000000;0.495519
4505.000000;0.496678
4504.000000;0.497749
4503.000000;0.498701
4502.000000;0.499606
4501.000000;0.500514
4500.000000;0.501475
4499.000000;0.502611
4498.000000;0.503960
4497.000000;0.505316
4496.000000;0.506404
4495.000000;0.507226
4494.000000;0.508056
4493.000000;0.509129
4492.000000;0.510479
4491.000000;0.512023
4490.000000;0.513626
4489.000000;0.515124
4488.000000;0.516482
4487.000000;0.517870
4486.000000;0.519446
4485.000000;0.521091
4484.000000;0.522581
4483.000000;0.523945
4482.000000;0.525428
4481.000000;0.527135
4480.000000;0.528936
4479.000000;0.530702
4478.000000;0.532416
4477.000000;0.534044
4476.000000;0.535531
4475.000000;0.536972
4474.000000;0.538562
4473.000000;0.540349
4472.000000;0.542209
4471.000000;0.544068
4470.000000;0.545974
4469.000000;0.547930
4468.000000;0.549836
4467.000000;0.551651
4466.000000;0.553446
4465.000000;0.555266
4464.000000;0.557079
4463.000000;0.558891
4462.000000;0.560760
4461.000000;0.562696
4460.000000;0.564656
4459.000000;0.566658
4458.000000;0.568771
4457.000000;0.570990
4456.000000;0.573246
4455.000000;0.575511
4454.000000;0.577770
4453.000000;0.579967
4452.000000;0.582096
4451.000000;0.584291
4450.000000;0.586660
4449.000000;0.589098
4448.000000;0.591430
4447.000000;0.593650
4446.000000;0.595852
4445.000000;0.598000
4444.000000;0.600014
4443.000000;0.602016
4442.000000;0.604253
4441.000000;0.606786
4440.000000;0.609440
4439.000000;0.612057
4438.000000;0.614607
4437.000000;0.617100
4436.000000;0.619574
4435.000000;0.622126
4434.000000;0.624782
4433.000000;0.627381
4432.000000;0.629810
4431.000000;0.632254
4430.000000;0.635008
4429.000000;0.638075
4428.000000;0.641170
4427.000000;0.644088
4426.000000;0.646869
4425.000000;0.649637
4424.000000;0.652477
4423.000000;0.655421
4422.000000;0.658378
4421.000000;0.661166
4420.000000;0.663789
4419.000000;0.666554
4418.000000;0.669684
4417.000000;0.672981
4416.000000;0.676124
4415.000000;0.679150
4414.000000;0.682286
4413.000000;0.685443
4412.000000;0.688304
4411.000000;0.690875
4410.000000;0.693542
4409.000000;0.696542
4408.000000;0.699720
4407.000000;0.702839
4406.000000;0.705852
4405.000000;0.708796
4404.000000;0.711704
4403.000000;0.714686
4402.000000;0.717893
4401.000000;0.721364
4400.000000;0.725052
4399.000000;0.728933
4398.000000;0.732880
4397.000000;0.736592
4396.000000;0.739912
4395.000000;0.743122
4394.000000;0.746577
4393.000000;0.750186
4392.000000;0.753604
4391.000000;0.756810
4390.000000;0.760088
4389.000000;0.763522
4388.000000;0.766959
4387.000000;0.770476
4386.000000;0.774395
4385.000000;0.778717
4384.000000;0.782935
4383.000000;0.786605
4382.000000;0.789835
4381.000000;0.793094
4380.000000;0.796745
4379.000000;0.800831
4378.000000;0.805089
4377.000000;0.809151
4376.000000;0.812872
4375.000000;0.816467
4374.000000;0.820205
4373.000000;0.824137
4372.000000;0.828244
4371.000000;0.832578
4370.000000;0.836986
4369.000000;0.841010
4368.000000;0.844484
4367.000000;0.847956
4366.000000;0.852044
4365.000000;0.856594
4364.000000;0.860980
4363.000000;0.865055
4362.000000;0.869210
4361.000000;0.873625
4360.000000;0.878109
4359.000000;0.882647
4358.000000;0.887442
4357.000000;0.892323
4356.000000;0.896705
4355.000000;0.900358
4354.000000;0.903814
4353.000000;0.907848
4352.000000;0.912831
4351.000000;0.918515
4350.000000;0.924124
4349.000000;0.928798
4348.000000;0.932435
4347.000000;0.935993
4346.000000;0.940526
4345.000000;0.946042
4344.000000;0.951754
4343.000000;0.957198
4342.000000;0.962505
4341.000000;0.967712
4340.000000;0.972576
4339.000000;0.977144
4338.000000;0.981851
4337.000000;0.986912
4336.000000;0.992122
4335.000000;0.997277
4334.000000;1.002314
4333.000000;1.007086
4332.000000;1.011570
4331.000000;1.016207
4330.000000;1.021436
4329.000000;1.026978
4328.000000;1.032200
4327.000000;1.037143
4326.000000;1.042435
4325.000000;1.048227
4324.000000;1.053950
4323.000000;1.059223
4322.000000;1.064345
4321.000000;1.069747
4320.000000;1.075516
4319.000000;1.081507
4318.000000;1.087435
4317.000000;1.092882
4316.000000;1.097755
4315.000000;1.102612
4314.000000;1.107978
4313.000000;1.113611
4312.000000;1.119124
4311.000000;1.124943
4310.000000;1.131674
4309.000000;1.138792
4308.000000;1.145099
4307.000000;1.150460
4306.000000;1.155946
4305.000000;1.162145
4304.000000;1.168462
4303.000000;1.174267
4302.000000;1.179679
4301.000000;1.184985
4300.000000;1.190277
4299.000000;1.195966
4298.000000;1.202702
4297.000000;1.210428
4296.000000;1.218283
4295.000000;1.225663
4294.000000;1.232649
4293.000000;1.239304
4292.000000;1.245449
4291.000000;1.251256
4290.000000;1.257169
4289.000000;1.263153
4288.000000;1.268857
4287.000000;1.274527
4286.000000;1.280804
4285.000000;1.287587
4284.000000;1.294094
4283.000000;1.300069
4282.000000;1.305946
4281.000000;1.311855
4280.000000;1.317590
4279.000000;1.323525
4278.000000;1.330359
4277.000000;1.337814
4276.000000;1.344722
4275.000000;1.350601
4274.000000;1.356156
4273.000000;1.362179
4272.000000;1.369086
4271.000000;1.377362
4270.000000;1.387028
4269.000000;1.396649
4268.000000;1.404378
4267.000000;1.410203
4266.000000;1.415785
4265.000000;1.422049
4264.000000;1.428479
4263.000000;1.434757
4262.000000;1.441399
4261.000000;1.448532
4260.000000;1.455579
4259.000000;1.462489
4258.000000;1.469801
4257.000000;1.477252
4256.000000;1.483861
4255.000000;1.489696
4254.000000;1.495994
4253.000000;1.503286
4252.000000;1.510954
4251.000000;1.518724
4250.000000;1.526899
4249.000000;1.535189
4248.000000;1.542725
4247.000000;1.549861
4246.000000;1.557805
4245.000000;1.566452
4244.000000;1.574505
4243.000000;1.581808
4242.000000;1.589326
4241.000000;1.596595
4240.000000;1.601757
4239.000000;1.604926
4238.000000;1.609114
4237.000000;1.616692
4236.000000;1.626726
4235.000000;1.636553
4234.000000;1.644630
4233.000000;1.651256
4232.000000;1.657951
4231.000000;1.666573
4230.000000;1.677390
4229.000000;1.687656
4228.000000;1.693939
4227.000000;1.696443
4226.000000;1.699041
4225.000000;1.704674
4224.000000;1.712788
4223.000000;1.721244
4222.000000;1.728870
4221.000000;1.736220
4220.000000;1.745276
4219.000000;1.757859
4218.000000;1.772681
4217.000000;1.784739
4216.000000;1.790337
4215.000000;1.792365
4214.000000;1.797380
4213.000000;1.808066
4212.000000;1.821129
4211.000000;1.831680
4210.000000;1.837524
4209.000000;1.839879
4208.000000;1.842106
4207.000000;1.847901
4206.000000;1.858105
4205.000000;1.869151
4204.000000;1.877529
4203.000000;1.884501
4202.000000;1.893599
4201.000000;1.905048
4200.000000;1.915660
4199.000000;1.923564
4198.000000;1.929790
4197.000000;1.935791
4196.000000;1.942927
4195.000000;1.953245
4194.000000;1.967108
4193.000000;1.981003
4192.000000;1.991129
4191.000000;1.998172
4190.000000;2.004615
4189.000000;2.009581
4188.000000;2.011425
4187.000000;2.012835
4186.000000;2.017733
4185.000000;2.025228
4184.000000;2.031809
4183.000000;2.038155
4182.000000;2.047862
4181.000000;2.060056
4180.000000;2.069438
4179.000000;2.074280
4178.000000;2.078275
4177.000000;2.084448
4176.000000;2.093324
4175.000000;2.105264
4174.000000;2.118844
4173.000000;2.128937
4172.000000;2.133620
4171.000000;2.139704
4170.000000;2.152868
4169.000000;2.168716
4168.000000;2.179466
4167.000000;2.185082
4166.000000;2.192046
4165.000000;2.202949
4164.000000;2.215016
4163.000000;2.226951
4162.000000;2.238354
4161.000000;2.244930
4160.000000;2.244109
4159.000000;2.243060
4158.000000;2.251045
4157.000000;2.265303
4156.000000;2.274539
4155.000000;2.278062
4154.000000;2.286065
4153.000000;2.300630
4152.000000;2.311131
4151.000000;2.310455
4150.000000;2.303843
4149.000000;2.296137
4148.000000;2.289250
4147.000000;2.291623
4146.000000;2.312680
4145.000000;2.346254
4144.000000;2.368324
4143.000000;2.362213
4142.000000;2.339759
4141.000000;2.325933
4140.000000;2.334728
4139.000000;2.363446
4138.000000;2.398933
4137.000000;2.424552
4136.000000;2.432703
4135.000000;2.436413
4134.000000;2.452219
4133.000000;2.476539
4132.000000;2.491444
4131.000000;2.490590
4130.000000;2.483148
4129.000000;2.472686
4128.000000;2.456971
4127.000000;2.443427
4126.000000;2.441681
4125.000000;2.449356
4124.000000;2.462117
4123.000000;2.484499
4122.000000;2.517158
4121.000000;2.547576
4120.000000;2.561056
4119.000000;2.558453
4118.000000;2.554468
4117.000000;2.551174
4116.000000;2.538649
4115.000000;2.526451
4114.000000;2.536567
4113.000000;2.570342
4112.000000;2.607809
4111.000000;2.628883
4110.000000;2.631821
4109.000000;2.631302
4108.000000;2.630855
4107.000000;2.628221
4106.000000;2.635422
4105.000000;2.666919
4104.000000;2.722378
4103.000000;2.780480
4102.000000;2.802745
4101.000000;2.766500
4100.000000;2.696279
4099.000000;2.635811
4098.000000;2.606217
4097.000000;2.602458
4096.000000;2.612781
4095.000000;2.630470
4094.000000;2.644802
4093.000000;2.638639
4092.000000;2.613695
4091.000000;2.598751
4090.000000;2.618052
4089.000000;2.665776
4088.000000;2.713678
4087.000000;2.746382
4086.000000;2.771565
4085.000000;2.781557
4084.000000;2.759226
4083.000000;2.721277
4082.000000;2.695490
4081.000000;2.691384
4080.000000;2.712554
4079.000000;2.769734
4078.000000;2.861846
4077.000000;2.938796
4076.000000;2.923644
4075.000000;2.833687
4074.000000;2.744974
4073.000000;2.685087
4072.000000;2.656104
4071.000000;2.667532
4070.000000;2.724163
4069.000000;2.798124
4068.000000;2.834891
4067.000000;2.820968
4066.000000;2.798498
4065.000000;2.792908
4064.000000;2.800015
4063.000000;2.820008
4062.000000;2.854380
4061.000000;2.868621
4060.000000;2.820644
4059.000000;2.736660
4058.000000;2.665091
4057.000000;2.619991
4056.000000;2.595526
4055.000000;2.593773
4054.000000;2.623429
4053.000000;2.676749
4052.000000;2.725631
4051.000000;2.757552
4050.000000;2.785083
4049.000000;2.807330
4048.000000;2.814219
4047.000000;2.810235
4046.000000;2.802331
4045.000000;2.791301
4044.000000;2.771279
4043.000000;2.749988
4042.000000;2.757511
4041.000000;2.803313
4040.000000;2.856943
4039.000000;2.894947
4038.000000;2.938664
4037.000000;3.008770
4036.000000;3.094705
4035.000000;3.143387
4034.000000;3.113073
4033.000000;3.056667
4032.000000;3.009766
4031.000000;2.971579
4030.000000;2.945487
4029.000000;2.927636
4028.000000;2.905750
4027.000000;2.881592
4026.000000;2.866454
4025.000000;2.863956
4024.000000;2.860225
4023.000000;2.856927
4022.000000;2.881342
4021.000000;2.918248
4020.000000;2.905419
4019.000000;2.847259
4018.000000;2.807348
4017.000000;2.816037
4016.000000;2.868335
4015.000000;2.940932
4014.000000;2.993616
4013.000000;2.986431
4012.000000;2.935759
4011.000000;2.907527
4010.000000;2.940638
4009.000000;3.013537
4008.000000;3.072986
4007.000000;3.115510
4006.000000;3.181722
4005.000000;3.248099
4004.000000;3.232179
4003.000000;3.158730
4002.000000;3.118166
4001.000000;3.146748
4000.000000;3.236619
3999.000000;3.348718
3998.000000;3.356055
3997.000000;3.226669
3996.000000;3.085441
3995.000000;2.990587
3994.000000;2.949860
3993.000000;2.940497
3992.000000;2.943822
3991.000000;2.973631
3990.000000;3.045747
3989.000000;3.099529
3988.000000;3.088027
3987.000000;3.076161
3986.000000;3.095438
3985.000000;3.145233
3984.000000;3.235896
3983.000000;3.363309
3982.000000;3.473505
3981.000000;3.501693
3980.000000;3.434887
3979.000000;3.394088
3978.000000;3.473159
3977.000000;3.645798
3976.000000;3.659603
3975.000000;3.375163
3974.000000;3.145820
3973.000000;3.052622
3972.000000;3.046263
3971.000000;3.087254
3970.000000;3.161861
3969.000000;3.260198
3968.000000;3.357789
3967.000000;3.467025
3966.000000;3.610208
3965.000000;3.913539
3964.000000;3.679376
3963.000000;3.363047
3962.000000;3.279812
3961.000000;3.248957
3960.000000;3.170638
3959.000000;3.147276
3958.000000;3.221682
3957.000000;3.251304
3956.000000;3.221610
3955.000000;3.254275
3954.000000;3.298417
3953.000000;3.261351
3952.000000;3.188649
3951.000000;3.162127
3950.000000;3.252942
3949.000000;3.464886
3948.000000;3.503779
3947.000000;3.254524
3946.000000;3.078012
3945.000000;3.020551
3944.000000;3.048114
3943.000000;3.111568
3942.000000;3.205490
3941.000000;3.307783
3940.000000;3.308310
3939.000000;3.205493
3938.000000;3.140318
3937.000000;3.176734
3936.000000;3.295539
3935.000000;3.360939
3934.000000;3.320305
3933.000000;3.302267
3932.000000;3.360386
3931.000000;3.303668
3930.000000;3.101225
3929.000000;2.976215
3928.000000;2.956956
3927.000000;3.037892
3926.000000;3.201292
3925.000000;3.416889
3924.000000;3.770879
3923.000000;4.195168
3922.000000;3.960742
3921.000000;3.984861
3920.000000;3.940358
3919.000000;3.828549
3918.000000;3.888523
3917.000000;4.135947
3916.000000;3.968186
3915.000000;3.581531
3914.000000;3.403804
3913.000000;3.293988
3912.000000;3.165792
3911.000000;3.044098
3910.000000;2.977740
3909.000000;2.970251
3908.000000;2.996992
3907.000000;3.042980
3906.000000;3.100836
3905.000000;3.131373
3904.000000;3.137738
3903.000000;3.208990
3902.000000;3.442180
3901.000000;3.495369
3900.000000;3.396743
3899.000000;3.452402
3898.000000;3.546581
3897.000000;3.619028
3896.000000;3.665261
3895.000000;3.485214
3894.000000;3.232275
3893.000000;3.146448
3892.000000;3.147459
3891.000000;3.147587
3890.000000;3.164964
3889.000000;3.264166
3888.000000;3.491203
3887.000000;3.674782
3886.000000;3.627902
3885.000000;3.513815
3884.000000;3.340502
3883.000000;3.215532
3882.000000;3.276078
3881.000000;3.409002
3880.000000;3.525145
3879.000000;3.765521
3878.000000;3.758903
3877.000000;3.423776
3876.000000;3.490057
3875.000000;4.121571
3874.000000;3.667469
3873.000000;3.478497
3872.000000;3.383526
3871.000000;3.346253
3870.000000;3.368282
3869.000000;3.557386
3868.000000;3.975103
3867.000000;3.210266
3866.000000;3.297673
3865.000000;3.394019
3864.000000;3.163865
3863.000000;3.210251
3862.000000;3.544626
3861.000000;4.038084
3860.000000;3.639686
3859.000000;3.654558
3858.000000;3.973904
3857.000000;3.841766
3856.000000;3.799094
3855.000000;3.918987
3854.000000;3.883243
3853.000000;3.830471
3852.000000;3.839977
3851.000000;3.611573
3850.000000;3.356550
3849.000000;3.325447
3848.000000;3.505235
3847.000000;3.284213
3846.000000;3.027406
3845.000000;3.049420
3844.000000;3.319983
3843.000000;3.349471
3842.000000;3.178106
3841.000000;3.194102
3840.000000;3.366929
3839.000000;3.271821
3838.000000;3.195642
3837.000000;3.301456
3836.000000;3.256559
3835.000000;3.567446
3834.000000;3.510141
3833.000000;3.011659
3832.000000;2.926054
3831.000000;2.947456
3830.000000;2.921595
3829.000000;2.805334
3828.000000;2.660560
3827.000000;2.922612
3826.000000;3.153455
3825.000000;3.204942
3824.000000;4.391298
3823.000000;2.682727
3822.000000;2.621052
3821.000000;2.837384
3820.000000;2.993508
3819.000000;3.095026
3818.000000;3.219639
3817.000000;3.609941
3816.000000;3.608124
3815.000000;3.228049
3814.000000;3.044076
3813.000000;2.999179
3812.000000;3.104958
3811.000000;3.188201
3810.000000;2.996233
3809.000000;2.862431
3808.000000;2.889094
3807.000000;2.939569
3806.000000;2.886272
3805.000000;2.809759
3804.000000;2.909110
3803.000000;2.906083
3802.000000;2.835903
3801.000000;2.844554
3800.000000;2.898277
3799.000000;3.061833
3798.000000;3.291071
3797.000000;3.411518
3796.000000;3.448500
3795.000000;3.499044
3794.000000;3.606392
3793.000000;3.739646
3792.000000;3.385310
3791.000000;3.084897
3790.000000;2.947867
3789.000000;2.953378
3788.000000;3.092867
3787.000000;3.349196
3786.000000;3.722395
3785.000000;3.542075
3784.000000;3.254585
3783.000000;3.178169
3782.000000;3.088376
3781.000000;3.076784
3780.000000;3.196430
3779.000000;3.347362
3778.000000;3.460162
3777.000000;3.387757
3776.000000;3.313809
3775.000000;3.392013
3774.000000;3.572843
3773.000000;3.594641
3772.000000;3.391674
3771.000000;3.660638
3770.000000;3.389228
3769.000000;3.110232
3768.000000;3.091187
3767.000000;3.192792
3766.000000;3.398224
3765.000000;3.520248
3764.000000;3.218554
3763.000000;2.957575
3762.000000;2.892191
3761.000000;2.927617
3760.000000;2.977176
3759.000000;3.270975
3758.000000;3.837917
3757.000000;3.563551
3756.000000;3.309214
3755.000000;3.019373
3754.000000;2.937270
3753.000000;3.042708
3752.000000;3.246138
3751.000000;3.336172
3750.000000;3.209764
3749.000000;3.089580
3748.000000;3.038376
3747.000000;3.088491
3746.000000;3.269192
3745.000000;3.511097
3744.000000;3.676712
3743.000000;3.485180
3742.000000;3.108241
3741.000000;2.877659
3740.000000;2.775256
3739.000000;2.849616
3738.000000;3.037796
3737.000000;2.962395
3736.000000;2.879824
3735.000000;2.996233
3734.000000;3.359566
3733.000000;3.451673
3732.000000;3.404502
3731.000000;3.550562
3730.000000;3.530522
3729.000000;3.460862
3728.000000;3.318074
3727.000000;3.300359
3726.000000;3.436725
3725.000000;3.431161
3724.000000;3.212102
3723.000000;3.082838
3722.000000;3.279892
3721.000000;3.546771
3720.000000;3.227322
3719.000000;3.097444
3718.000000;3.081390
3717.000000;3.054232
3716.000000;3.077934
3715.000000;3.426101
3714.000000;3.273483
3713.000000;2.892062
3712.000000;2.816907
3711.000000;2.865451
3710.000000;2.938636
3709.000000;3.018303
3708.000000;3.124409
3707.000000;3.263112
3706.000000;3.457422
3705.000000;3.933378
3704.000000;4.501064
3703.000000;3.840126
3702.000000;3.544585
3701.000000;3.438459
3700.000000;3.643002
3699.000000;3.580727
3698.000000;3.105911
3697.000000;2.928051
3696.000000;2.936521
3695.000000;3.239688
3694.000000;3.052309
3693.000000;2.724641
3692.000000;2.746119
3691.000000;2.989607
3690.000000;3.263248
3689.000000;3.345297
3688.000000;3.263449
3687.000000;3.182198
3686.000000;3.199790
3685.000000;3.126273
3684.000000;2.923677
3683.000000;2.758212
3682.000000;2.633682
3681.000000;2.569258
3680.000000;2.538237
3679.000000;2.471794
3678.000000;2.471570
3677.000000;2.631879
3676.000000;2.830208
3675.000000;2.948138
3674.000000;3.081289
3673.000000;3.364598
3672.000000;3.282626
3671.000000;3.291009
3670.000000;3.932984
3669.000000;3.567238
3668.000000;3.191190
3667.000000;3.113653
3666.000000;3.174039
3665.000000;3.358931
3664.000000;3.434461
3663.000000;3.212378
3662.000000;3.045847
3661.000000;3.049467
3660.000000;3.327046
3659.000000;3.612093
3658.000000;3.184463
3657.000000;3.091234
3656.000000;3.160615
3655.000000;3.288294
3654.000000;3.378033
3653.000000;3.182923
3652.000000;3.055422
3651.000000;3.007685
3650.000000;2.976848
3649.000000;3.005429
3648.000000;3.114967
3647.000000;3.296100
3646.000000;3.450166
3645.000000;3.859947
3644.000000;3.790915
3643.000000;3.415456
3642.000000;3.588707
3641.000000;3.592054
3640.000000;3.213961
3639.000000;3.037082
3638.000000;3.151017
3637.000000;3.276928
3636.000000;2.995333
3635.000000;2.920291
3634.000000;3.016569
3633.000000;3.128270
3632.000000;3.205128
3631.000000;3.191833
3630.000000;3.292210
3629.000000;3.674382
3628.000000;3.708864
3627.000000;3.176988
3626.000000;2.989727
3625.000000;3.076313
3624.000000;3.449714
3623.000000;3.334322
3622.000000;3.454188
3621.000000;3.209219
3620.000000;2.902434
3619.000000;2.898144
3618.000000;2.912822
3617.000000;2.924532
3616.000000;2.972962
3615.000000;3.094320
3614.000000;3.238426
3613.000000;3.276764
3612.000000;3.213648
3611.000000;3.097802
3610.000000;3.008502
3609.000000;2.977126
3608.000000;2.996165
3607.000000;3.061303
3606.000000;3.139130
3605.000000;3.110444
3604.000000;3.159565
3603.000000;3.277966
3602.000000;3.122147
3601.000000;3.084574
3600.000000;3.107530
3599.000000;3.036393
3598.000000;2.979579
3597.000000;2.972619
3596.000000;3.041196
3595.000000;3.077732
3594.000000;3.069484
3593.000000;3.142541
3592.000000;3.323152
3591.000000;3.765961
3590.000000;3.898522
3589.000000;3.556111
3588.000000;3.522266
3587.000000;3.517849
3586.000000;3.452632
3585.000000;3.441140
3584.000000;3.618192
3583.000000;3.859014
3582.000000;3.509579
3581.000000;3.249876
3580.000000;3.208574
3579.000000;3.367704
3578.000000;3.461795
3577.000000;3.260737
3576.000000;3.155125
3575.000000;3.139493
3574.000000;3.136935
3573.000000;3.052324
3572.000000;2.930278
3571.000000;2.896743
3570.000000;3.016014
3569.000000;3.271315
3568.000000;3.635991
3567.000000;3.885313
3566.000000;3.367524
3565.000000;3.097022
3564.000000;3.068386
3563.000000;3.191498
3562.000000;3.472440
3561.000000;3.630614
3560.000000;3.364295
3559.000000;3.180985
3558.000000;3.109130
3557.000000;3.116475
3556.000000;3.257441
3555.000000;3.445444
3554.000000;3.439030
3553.000000;3.529080
3552.000000;3.642724
3551.000000;3.825665
3550.000000;4.097474
3549.000000;3.500071
3548.000000;3.322476
3547.000000;3.376764
3546.000000;3.553325
3545.000000;3.916367
3544.000000;4.095175
3543.000000;3.918890
3542.000000;3.723483
3541.000000;3.459664
3540.000000;3.272463
3539.000000;3.130609
3538.000000;3.128227
3537.000000;3.252415
3536.000000;3.377188
3535.000000;3.393671
3534.000000;3.429459
3533.000000;4.046181
3532.000000;3.756466
3531.000000;3.357168
3530.000000;3.266703
3529.000000;3.171620
3528.000000;3.205229
3527.000000;3.409371
3526.000000;3.772479
3525.000000;3.733961
3524.000000;3.716304
3523.000000;4.185218
3522.000000;3.776671
3521.000000;3.417284
3520.000000;3.250466
3519.000000;3.182019
3518.000000;3.238456
3517.000000;3.391545
3516.000000;3.765394
3515.000000;3.832915
3514.000000;3.447831
3513.000000;3.349770
3512.000000;3.265374
3511.000000;3.145872
3510.000000;3.035647
3509.000000;2.936033
3508.000000;2.865428
3507.000000;2.844344
3506.000000;2.912580
3505.000000;3.121879
3504.000000;3.563655
3503.000000;4.720665
3502.000000;4.326798
3501.000000;3.779324
3500.000000;3.609563
3499.000000;3.627264
3498.000000;3.632823
3497.000000;3.309510
3496.000000;3.198963
3495.000000;3.342166
3494.000000;3.653397
3493.000000;3.886210
3492.000000;3.690554
3491.000000;3.681363
3490.000000;4.039904
3489.000000;3.853454
3488.000000;3.461531
3487.000000;3.366639
3486.000000;3.290386
3485.000000;3.216413
3484.000000;3.150867
3483.000000;3.187516
3482.000000;3.706229
3481.000000;3.549628
3480.000000;3.124895
3479.000000;3.067236
3478.000000;3.020436
3477.000000;2.971055
3476.000000;2.948561
3475.000000;2.953827
3474.000000;3.000414
3473.000000;3.170401
3472.000000;3.213755
3471.000000;2.998347
3470.000000;2.963586
3469.000000;3.206823
3468.000000;3.535171
3467.000000;3.279140
3466.000000;3.189160
3465.000000;3.266139
3464.000000;3.404311
3463.000000;3.553640
3462.000000;3.669169
3461.000000;3.568337
3460.000000;3.401904
3459.000000;3.533906
3458.000000;3.900519
3457.000000;3.557691
3456.000000;3.406520
3455.000000;3.891541
3454.000000;3.746101
3453.000000;3.390588
3452.000000;3.469115
3451.000000;3.869177
3450.000000;3.870510
3449.000000;3.284613
3448.000000;3.017605
3447.000000;2.928071
3446.000000;2.962564
3445.000000;3.116073
3444.000000;3.528012
3443.000000;3.599466
3442.000000;3.160137
3441.000000;3.094489
3440.000000;3.259054
3439.000000;3.350675
3438.000000;3.222426
3437.000000;3.256496
3436.000000;3.693113
3435.000000;3.692003
3434.000000;3.285144
3433.000000;3.398619
3432.000000;3.635498
3431.000000;3.575476
3430.000000;3.318984
3429.000000;3.083522
3428.000000;3.025871
3427.000000;3.096276
3426.000000;3.457566
3425.000000;3.660081
3424.000000;3.189821
3423.000000;3.045873
3422.000000;3.072771
3421.000000;3.194032
3420.000000;3.367199
3419.000000;3.519426
3418.000000;3.692130
3417.000000;3.682004
3416.000000;3.472840
3415.000000;3.466763
3414.000000;3.690861
3413.000000;3.704989
3412.000000;3.566310
3411.000000;3.433865
3410.000000;3.223187
3409.000000;3.106896
3408.000000;3.198009
3407.000000;3.399589
3406.000000;3.272553
3405.000000;3.174908
3404.000000;3.541339
3403.000000;3.499758
3402.000000;2.983723
3401.000000;2.849025
3400.000000;2.894346
3399.000000;3.139636
3398.000000;3.708258
3397.000000;3.660402
3396.000000;3.397763
3395.000000;3.316798
3394.000000;3.266675
3393.000000;3.393150
3392.000000;3.504732
3391.000000;3.265100
3390.000000;3.173483
3389.000000;3.257111
3388.000000;3.493355
3387.000000;3.549763
3386.000000;3.251533
3385.000000;3.277254
3384.000000;3.658336
3383.000000;3.441954
3382.000000;3.156628
3381.000000;3.155974
3380.000000;3.438720
3379.000000;3.493010
3378.000000;3.272014
3377.000000;3.659967
3376.000000;3.792540
3375.000000;3.262241
3374.000000;3.036916
3373.000000;2.883066
3372.000000;2.841137
3371.000000;2.888495
3370.000000;3.000067
3369.000000;3.304158
3368.000000;3.710843
3367.000000;3.262427
3366.000000;3.030918
3365.000000;2.983690
3364.000000;3.029345
3363.000000;3.344281
3362.000000;3.783480
3361.000000;3.344185
3360.000000;3.168863
3359.000000;3.219616
3358.000000;3.514474
3357.000000;3.320058
3356.000000;3.017482
3355.000000;3.004185
3354.000000;3.106742
3353.000000;3.412701
3352.000000;3.690944
3351.000000;3.634192
3350.000000;3.853586
3349.000000;3.550044
3348.000000;3.322696
3347.000000;3.159214
3346.000000;2.985129
3345.000000;2.951409
3344.000000;3.000836
3343.000000;3.020928
3342.000000;2.964682
3341.000000;2.910124
3340.000000;2.910648
3339.000000;2.952083
3338.000000;3.014135
3337.000000;3.064742
3336.000000;3.084295
3335.000000;3.093714
3334.000000;3.194304
3333.000000;3.393519
3332.000000;3.300037
3331.000000;3.106460
3330.000000;3.050081
3329.000000;3.093607
3328.000000;3.213546
3327.000000;3.266582
3326.000000;3.300900
3325.000000;3.669795
3324.000000;3.921083
3323.000000;3.498693
3322.000000;3.340761
3321.000000;3.297849
3320.000000;3.327950
3319.000000;3.274141
3318.000000;3.186289
3317.000000;3.166910
3316.000000;3.218234
3315.000000;3.155370
3314.000000;2.991273
3313.000000;2.935206
3312.000000;2.971597
3311.000000;3.017334
3310.000000;3.086439
3309.000000;3.223328
3308.000000;3.143704
3307.000000;3.005310
3306.000000;3.006470
3305.000000;3.277952
3304.000000;3.603806
3303.000000;3.097479
3302.000000;2.894863
3301.000000;2.867365
3300.000000;2.953677
3299.000000;3.190758
3298.000000;3.426808
3297.000000;3.309702
3296.000000;3.157181
3295.000000;3.107404
3294.000000;3.107929
3293.000000;3.179590
3292.000000;3.412374
3291.000000;3.870279
3290.000000;3.338724
3289.000000;2.989289
3288.000000;2.867573
3287.000000;2.874308
3286.000000;3.007732
3285.000000;3.268947
3284.000000;3.528475
3283.000000;3.781917
3282.000000;4.405492
3281.000000;3.724025
3280.000000;3.495511
3279.000000;3.401704
3278.000000;3.299474
3277.000000;3.251248
3276.000000;3.203579
3275.000000;3.219650
3274.000000;3.236971
3273.000000;3.173444
3272.000000;3.088893
3271.000000;3.013771
3270.000000;2.975182
3269.000000;3.023003
3268.000000;3.165666
3267.000000;3.298705
3266.000000;3.379024
3265.000000;3.464163
3264.000000;3.418055
3263.000000;3.334002
3262.000000;3.527561
3261.000000;3.818630
3260.000000;3.285618
3259.000000;3.021918
3258.000000;2.937559
3257.000000;2.933075
3256.000000;3.017119
3255.000000;3.226216
3254.000000;3.570782
3253.000000;3.467661
3252.000000;3.203041
3251.000000;3.089016
3250.000000;3.083290
3249.000000;3.156381
3248.000000;3.282130
3247.000000;3.473863
3246.000000;3.787334
3245.000000;3.961567
3244.000000;3.523566
3243.000000;3.178674
3242.000000;3.070811
3241.000000;3.183671
3240.000000;3.617654
3239.000000;3.393915
3238.000000;3.200524
3237.000000;3.847702
3236.000000;3.395426
3235.000000;2.982113
3234.000000;2.986602
3233.000000;3.226497
3232.000000;3.768586
3231.000000;3.641380
3230.000000;3.587875
3229.000000;3.562082
3228.000000;3.390286
3227.000000;3.444498
3226.000000;3.594968
3225.000000;3.541606
3224.000000;3.749111
3223.000000;3.598036
3222.000000;3.110592
3221.000000;2.967208
3220.000000;2.976969
3219.000000;3.043409
3218.000000;3.060397
3217.000000;3.043910
3216.000000;3.102325
3215.000000;3.240127
3214.000000;3.446360
3213.000000;3.412592
3212.000000;3.245368
3211.000000;3.229380
3210.000000;3.343563
3209.000000;3.531579
3208.000000;3.627785
3207.000000;3.611476
3206.000000;3.691019
3205.000000;3.632925
3204.000000;3.295168
3203.000000;3.136536
3202.000000;3.145085
3201.000000;3.380137
3200.000000;3.826700
3199.000000;3.368169
3198.000000;3.123384
3197.000000;3.082145
3196.000000;3.105647
3195.000000;3.129481
3194.000000;3.116132
3193.000000;3.149814
3192.000000;3.218216
3191.000000;3.259923
3190.000000;3.291110
3189.000000;3.354092
3188.000000;3.382589
3187.000000;3.402548
3186.000000;3.331395
3185.000000;3.131132
3184.000000;3.033768
3183.000000;3.092493
3182.000000;3.341882
3181.000000;3.657077
3180.000000;3.461850
3179.000000;3.257294
3178.000000;3.096641
3177.000000;3.063814
3176.000000;3.184614
3175.000000;3.126748
3174.000000;3.026327
3173.000000;3.055451
3172.000000;3.297833
3171.000000;3.721265
3170.000000;3.390964
3169.000000;3.186817
3168.000000;3.133031
3167.000000;3.028773
3166.000000;2.874293
3165.000000;2.811807
3164.000000;2.941115
3163.000000;3.241154
3162.000000;3.318830
3161.000000;3.211530
3160.000000;3.319275
3159.000000;3.703324
3158.000000;3.932757
3157.000000;3.555497
3156.000000;3.414715
3155.000000;3.435172
3154.000000;3.438142
3153.000000;3.313897
3152.000000;3.250907
3151.000000;3.303884
3150.000000;3.439896
3149.000000;3.735477
3148.000000;3.599861
3147.000000;3.298811
3146.000000;3.219447
3145.000000;3.311234
3144.000000;3.494849
3143.000000;3.420851
3142.000000;3.264368
3141.000000;3.357102
3140.000000;3.412731
3139.000000;3.112299
3138.000000;2.960919
3137.000000;2.956441
3136.000000;3.043779
3135.000000;3.244653
3134.000000;3.539912
3133.000000;3.326902
3132.000000;3.116421
3131.000000;3.061258
3130.000000;3.145975
3129.000000;3.690528
3128.000000;3.334829
3127.000000;2.958280
3126.000000;2.893757
3125.000000;2.914813
3124.000000;3.000818
3123.000000;3.080090
3122.000000;3.217844
3121.000000;3.436988
3120.000000;3.340345
3119.000000;3.270302
3118.000000;3.450676
3117.000000;3.298439
3116.000000;3.014488
3115.000000;2.919017
3114.000000;2.946342
3113.000000;3.099750
3112.000000;3.295774
3111.000000;3.286869
3110.000000;3.188141
3109.000000;3.270032
3108.000000;3.621577
3107.000000;3.413078
3106.000000;3.107841
3105.000000;3.096979
3104.000000;3.174545
3103.000000;3.379702
3102.000000;3.906535
3101.000000;3.430560
3100.000000;3.119893
3099.000000;3.042288
3098.000000;3.081749
3097.000000;3.211699
3096.000000;3.172617
3095.000000;3.099990
3094.000000;3.109270
3093.000000;3.094569
3092.000000;3.023877
3091.000000;2.962789
3090.000000;2.984924
3089.000000;3.122728
3088.000000;3.384668
3087.000000;3.579289
3086.000000;3.631330
3085.000000;3.616736
3084.000000;3.338010
3083.000000;3.270405
3082.000000;3.421157
3081.000000;3.325461
3080.000000;3.131805
3079.000000;3.038501
3078.000000;3.003129
3077.000000;3.014745
3076.000000;3.077322
3075.000000;3.376923
3074.000000;3.720088
3073.000000;3.229011
3072.000000;3.040105
3071.000000;3.049034
3070.000000;3.139469
3069.000000;3.174591
3068.000000;3.203054
3067.000000;3.487052
3066.000000;3.403918
3065.000000;3.149509
3064.000000;3.183599
3063.000000;3.391082
3062.000000;3.506118
3061.000000;3.344528
3060.000000;3.244890
3059.000000;3.213584
3058.000000;3.182753
3057.000000;3.132454
3056.000000;3.091710
3055.000000;3.145139
3054.000000;3.421891
3053.000000;3.415182
3052.000000;3.269667
3051.000000;3.683302
3050.000000;3.453773
3049.000000;2.993625
3048.000000;2.836287
3047.000000;2.815419
3046.000000;2.945198
3045.000000;3.173557
3044.000000;3.213488
3043.000000;3.142962
3042.000000;3.207009
3041.000000;3.370479
3040.000000;3.481202
3039.000000;3.540046
3038.000000;3.559041
3037.000000;3.375336
3036.000000;3.243221
3035.000000;3.219748
3034.000000;3.184061
3033.000000;3.074625
3032.000000;2.992346
3031.000000;3.008793
3030.000000;3.097918
3029.000000;3.302658
3028.000000;3.579676
3027.000000;3.511275
3026.000000;3.476943
3025.000000;3.602766
3024.000000;3.564908
3023.000000;3.443411
3022.000000;3.327322
3021.000000;3.227356
3020.000000;3.152302
3019.000000;3.164333
3018.000000;3.264282
3017.000000;3.186759
3016.000000;2.999732
3015.000000;2.883361
3014.000000;2.844903
3013.000000;2.881421
3012.000000;2.975443
3011.000000;3.105124
3010.000000;3.214234
3009.000000;3.273297
3008.000000;3.221600
3007.000000;3.071982
3006.000000;2.955711
3005.000000;2.976848
3004.000000;3.305513
3003.000000;3.431155
3002.000000;3.133717
3001.000000;3.189207
3000.000000;3.459396
2999.000000;3.446818
2998.000000;3.195534
2997.000000;3.112183
2996.000000;3.304572
2995.000000;3.942089
2994.000000;3.714286
2993.000000;3.750320
2992.000000;3.839238
2991.000000;3.439892
2990.000000;3.331657
2989.000000;3.480176
2988.000000;4.018657
2987.000000;4.040234
2986.000000;3.914466
2985.000000;3.441664
2984.000000;3.172058
2983.000000;3.058180
2982.000000;2.949494
2981.000000;2.871357
2980.000000;2.864103
2979.000000;2.929301
2978.000000;3.256462
2977.000000;3.644109
2976.000000;3.135960
2975.000000;3.008635
2974.000000;3.070979
2973.000000;3.117639
2972.000000;3.121935
2971.000000;3.134672
2970.000000;3.177552
2969.000000;3.498080
2968.000000;3.539899
2967.000000;3.031298
2966.000000;2.837310
2965.000000;2.811624
2964.000000;2.873235
2963.000000;2.918422
2962.000000;2.947848
2961.000000;3.018367
2960.000000;3.045363
2959.000000;3.031388
2958.000000;3.085127
2957.000000;3.396806
2956.000000;3.735871
2955.000000;3.372503
2954.000000;3.300933
2953.000000;3.336350
2952.000000;3.474403
2951.000000;3.408764
2950.000000;3.121558
2949.000000;3.039874
2948.000000;3.122853
2947.000000;3.474270
2946.000000;3.951281
2945.000000;3.526633
2944.000000;3.294080
2943.000000;3.314792
2942.000000;3.375922
2941.000000;3.137024
2940.000000;2.975710
2939.000000;2.963609
2938.000000;3.021845
2937.000000;3.135454
2936.000000;3.390377
2935.000000;3.601272
2934.000000;3.257042
2933.000000;3.083381
2932.000000;3.025305
2931.000000;2.986429
2930.000000;3.004429
2929.000000;3.150130
2928.000000;3.367612
2927.000000;3.254205
2926.000000;3.043905
2925.000000;2.938799
2924.000000;2.972089
2923.000000;3.160530
2922.000000;3.469270
2921.000000;3.743699
2920.000000;3.882200
2919.000000;3.947687
2918.000000;3.653852
2917.000000;3.500295
2916.000000;3.451064
2915.000000;3.214532
2914.000000;3.048831
2913.000000;3.077891
2912.000000;3.276461
2911.000000;3.429026
2910.000000;3.257764
2909.000000;3.248307
2908.000000;3.491809
2907.000000;3.247577
2906.000000;2.948681
2905.000000;2.822367
2904.000000;2.804038
2903.000000;2.889731
2902.000000;3.049542
2901.000000;3.108884
2900.000000;3.016337
2899.000000;2.983614
2898.000000;3.048545
2897.000000;3.277445
2896.000000;3.786073
2895.000000;4.163269
2894.000000;3.924558
2893.000000;3.400665
2892.000000;3.192348
2891.000000;3.358431
2890.000000;3.510899
2889.000000;3.250818
2888.000000;3.107912
2887.000000;3.036026
2886.000000;3.061195
2885.000000;3.235500
2884.000000;3.129183
2883.000000;2.919627
2882.000000;2.882973
2881.000000;2.989814
2880.000000;3.231930
2879.000000;3.592054
2878.000000;4.005705
2877.000000;4.104537
2876.000000;3.805811
2875.000000;3.662634
2874.000000;3.653519
2873.000000;3.424411
2872.000000;3.175898
2871.000000;3.086103
2870.000000;3.105631
2869.000000;3.130122
2868.000000;3.176398
2867.000000;3.544546
2866.000000;3.938925
2865.000000;3.492618
2864.000000;3.333986
2863.000000;3.224767
2862.000000;3.363179
2861.000000;3.797604
2860.000000;3.714171
2859.000000;3.476272
2858.000000;3.234393
2857.000000;3.071098
2856.000000;3.064050
2855.000000;3.176446
2854.000000;3.248690
2853.000000;3.246258
2852.000000;3.382926
2851.000000;3.417839
2850.000000;3.169152
2849.000000;3.064144
2848.000000;3.161307
2847.000000;3.435641
2846.000000;3.304092
2845.000000;3.052684
2844.000000;3.012753
2843.000000;3.059333
2842.000000;3.344951
2841.000000;3.637404
2840.000000;3.157049
2839.000000;3.005699
2838.000000;3.052128
2837.000000;3.287526
2836.000000;3.593591
2835.000000;3.166623
2834.000000;2.876145
2833.000000;2.776570
2832.000000;2.766527
2831.000000;2.793161
2830.000000;2.873471
2829.000000;3.023522
2828.000000;3.152256
2827.000000;3.237750
2826.000000;3.404072
2825.000000;3.495032
2824.000000;3.103270
2823.000000;2.850570
2822.000000;2.779576
2821.000000;2.834175
2820.000000;2.977836
2819.000000;3.104208
2818.000000;3.121458
2817.000000;3.162011
2816.000000;3.320305
2815.000000;3.236879
2814.000000;3.046120
2813.000000;3.089846
2812.000000;3.423696
2811.000000;3.561559
2810.000000;3.424237
2809.000000;3.575988
2808.000000;3.465375
2807.000000;3.370764
2806.000000;3.375105
2805.000000;3.397489
2804.000000;3.726593
2803.000000;4.000303
2802.000000;3.818146
2801.000000;3.704125
2800.000000;3.538743
2799.000000;3.524258
2798.000000;3.534688
2797.000000;3.285187
2796.000000;3.119104
2795.000000;3.052040
2794.000000;2.998896
2793.000000;2.954448
2792.000000;2.942330
2791.000000;3.017060
2790.000000;3.211096
2789.000000;3.519852
2788.000000;3.815331
2787.000000;3.544217
2786.000000;3.388319
2785.000000;3.425545
2784.000000;3.246954
2783.000000;3.046618
2782.000000;2.969173
2781.000000;3.020402
2780.000000;3.227032
2779.000000;3.389642
2778.000000;3.262549
2777.000000;3.269496
2776.000000;3.688591
2775.000000;3.598798
2774.000000;3.476175
2773.000000;3.724250
2772.000000;3.280994
2771.000000;2.993564
2770.000000;2.881448
2769.000000;2.875984
2768.000000;2.957006
2767.000000;3.047746
2766.000000;3.091460
2765.000000;3.076601
2764.000000;3.043862
2763.000000;3.010805
2762.000000;2.961943
2761.000000;2.921486
2760.000000;3.001821
2759.000000;3.414542
2758.000000;3.542311
2757.000000;3.204052
2756.000000;3.200788
2755.000000;3.157811
2754.000000;2.975572
2753.000000;2.826687
2752.000000;2.837799
2751.000000;3.070551
2750.000000;3.333557
2749.000000;3.317621
2748.000000;3.496725
2747.000000;3.647631
2746.000000;3.244219
2745.000000;3.001278
2744.000000;2.924404
2743.000000;2.968227
2742.000000;3.077552
2741.000000;3.211262
2740.000000;3.587524
2739.000000;3.493087
2738.000000;2.984593
2737.000000;2.852240
2736.000000;2.920696
2735.000000;3.108610
2734.000000;3.149332
2733.000000;3.070743
2732.000000;3.044809
2731.000000;3.000810
2730.000000;2.931425
2729.000000;2.853705
2728.000000;2.854449
2727.000000;2.899910
2726.000000;2.852869
2725.000000;2.814715
2724.000000;2.899788
2723.000000;3.119966
2722.000000;3.111537
2721.000000;2.951462
2720.000000;3.023317
2719.000000;3.183321
2718.000000;3.066183
2717.000000;2.978301
2716.000000;2.964506
2715.000000;2.915653
2714.000000;2.875826
2713.000000;2.915573
2712.000000;3.138210
2711.000000;3.318102
2710.000000;3.026835
2709.000000;2.969622
2708.000000;3.305905
2707.000000;3.366543
2706.000000;2.945119
2705.000000;2.909298
2704.000000;3.016191
2703.000000;3.116962
2702.000000;3.288106
2701.000000;3.629616
2700.000000;3.905587
2699.000000;3.927446
2698.000000;3.374137
2697.000000;2.978251
2696.000000;2.814730
2695.000000;2.820146
2694.000000;2.981936
2693.000000;3.212705
2692.000000;3.382014
2691.000000;3.593309
2690.000000;3.543181
2689.000000;3.310292
2688.000000;3.207248
2687.000000;3.199680
2686.000000;3.175042
2685.000000;3.037475
2684.000000;2.874100
2683.000000;2.774421
2682.000000;2.747744
2681.000000;2.759747
2680.000000;2.830317
2679.000000;3.170641
2678.000000;3.471945
2677.000000;3.101004
2676.000000;3.009870
2675.000000;3.013907
2674.000000;3.063022
2673.000000;3.137490
2672.000000;3.220825
2671.000000;3.264660
2670.000000;3.248413
2669.000000;3.245915
2668.000000;3.216789
2667.000000;3.120809
2666.000000;3.030809
2665.000000;3.003469
2664.000000;3.033280
2663.000000;3.045064
2662.000000;2.983271
2661.000000;2.927444
2660.000000;2.981444
2659.000000;3.180348
2658.000000;3.670144
2657.000000;4.090779
2656.000000;3.384939
2655.000000;3.346084
2654.000000;3.533137
2653.000000;3.343456
2652.000000;3.090989
2651.000000;3.066818
2650.000000;3.289739
2649.000000;3.378198
2648.000000;3.128664
2647.000000;3.010786
2646.000000;3.002929
2645.000000;3.169285
2644.000000;3.665487
2643.000000;3.442816
2642.000000;3.198760
2641.000000;3.167366
2640.000000;3.213231
2639.000000;3.362660
2638.000000;3.197536
2637.000000;2.969594
2636.000000;2.887039
2635.000000;2.891365
2634.000000;2.940387
2633.000000;2.989457
2632.000000;3.015073
2631.000000;3.031981
2630.000000;3.185490
2629.000000;3.503989
2628.000000;3.222907
2627.000000;2.976783
2626.000000;2.877667
2625.000000;2.829270
2624.000000;2.884651
2623.000000;3.045439
2622.000000;3.223232
2621.000000;3.341967
2620.000000;3.479649
2619.000000;3.523785
2618.000000;3.362140
2617.000000;3.323204
2616.000000;3.611265
2615.000000;4.122160
2614.000000;3.777490
2613.000000;3.697373
2612.000000;3.814730
2611.000000;3.649985
2610.000000;3.257189
2609.000000;3.050719
2608.000000;3.052464
2607.000000;3.257407
2606.000000;3.375597
2605.000000;3.428287
2604.000000;3.556764
2603.000000;3.055333
2602.000000;2.804720
2601.000000;2.731286
2600.000000;2.737049
2599.000000;2.752336
2598.000000;2.797812
2597.000000;2.920744
2596.000000;3.109424
2595.000000;3.313596
2594.000000;3.160847
2593.000000;2.933172
2592.000000;2.875577
2591.000000;2.905780
2590.000000;2.897963
2589.000000;2.878013
2588.000000;2.911098
2587.000000;2.939452
2586.000000;2.920149
2585.000000;2.921206
2584.000000;3.016630
2583.000000;3.191306
2582.000000;3.322185
2581.000000;3.385508
2580.000000;3.641516
2579.000000;4.148238
2578.000000;3.419309
2577.000000;3.203985
2576.000000;3.115160
2575.000000;3.023859
2574.000000;2.927492
2573.000000;2.859806
2572.000000;2.825926
2571.000000;2.785663
2570.000000;2.758002
2569.000000;2.793745
2568.000000;2.934859
2567.000000;3.541283
2566.000000;3.619018
2565.000000;3.159112
2564.000000;3.073132
2563.000000;3.003107
2562.000000;3.041090
2561.000000;3.335988
2560.000000;3.426159
2559.000000;2.971629
2558.000000;2.868876
2557.000000;3.101042
2556.000000;3.128828
2555.000000;2.828187
2554.000000;2.766354
2553.000000;2.839958
2552.000000;3.016694
2551.000000;3.371662
2550.000000;3.896506
2549.000000;3.850096
2548.000000;3.826877
2547.000000;3.890764
2546.000000;4.213116
2545.000000;4.207212
2544.000000;3.506153
2543.000000;3.183660
2542.000000;3.061830
2541.000000;3.078293
2540.000000;3.200195
2539.000000;3.261795
2538.000000;3.136947
2537.000000;3.089239
2536.000000;3.205259
2535.000000;3.344673
2534.000000;3.305977
2533.000000;3.055961
2532.000000;2.847055
2531.000000;2.728598
2530.000000;2.679409
2529.000000;2.700520
2528.000000;2.781568
2527.000000;2.886302
2526.000000;2.976276
2525.000000;3.071778
2524.000000;3.198054
2523.000000;3.300686
2522.000000;3.333337
2521.000000;3.203504
2520.000000;3.035414
2519.000000;2.925240
2518.000000;2.850738
2517.000000;2.835078
2516.000000;2.903859
2515.000000;2.944450
2514.000000;2.879301
2513.000000;2.839517
2512.000000;2.875256
2511.000000;2.982779
2510.000000;3.177587
2509.000000;3.941551
2508.000000;3.592707
2507.000000;3.238427
2506.000000;3.176986
2505.000000;3.087230
2504.000000;2.955458
2503.000000;2.831405
2502.000000;2.767982
2501.000000;2.789651
2500.000000;2.951027
2499.000000;3.344045
2498.000000;3.621948
2497.000000;3.741062
2496.000000;3.809647
2495.000000;3.440479
2494.000000;3.232614
2493.000000;2.959155
2492.000000;2.817553
2491.000000;2.885675
2490.000000;3.010913
2489.000000;2.836515
2488.000000;2.742367
2487.000000;2.843689
2486.000000;3.083920
2485.000000;3.428903
2484.000000;3.691728
2483.000000;3.326963
2482.000000;2.989934
2481.000000;2.836722
2480.000000;2.830990
2479.000000;2.961319
2478.000000;3.125996
2477.000000;3.059071
2476.000000;2.927254
2475.000000;2.866205
2474.000000;2.880424
2473.000000;2.955155
2472.000000;2.997713
2471.000000;2.960314
2470.000000;2.969069
2469.000000;3.051477
2468.000000;3.068865
2467.000000;2.924149
2466.000000;2.812856
2465.000000;2.831565
2464.000000;3.041846
2463.000000;3.344651
2462.000000;3.218976
2461.000000;3.110648
2460.000000;3.047702
2459.000000;2.957102
2458.000000;2.969216
2457.000000;3.100449
2456.000000;3.312982
2455.000000;3.396294
2454.000000;3.068267
2453.000000;2.872810
2452.000000;2.859320
2451.000000;2.961915
2450.000000;3.130016
2449.000000;3.312190
2448.000000;3.406399
2447.000000;3.385090
2446.000000;3.403030
2445.000000;3.430874
2444.000000;3.450284
2443.000000;3.527508
2442.000000;3.551395
2441.000000;3.465193
2440.000000;3.360073
2439.000000;3.406985
2438.000000;3.658908
2437.000000;3.484844
2436.000000;3.262691
2435.000000;3.343046
2434.000000;3.231294
2433.000000;2.943381
2432.000000;2.809158
2431.000000;2.791561
2430.000000;2.845087
2429.000000;2.974230
2428.000000;3.147765
2427.000000;3.123997
2426.000000;3.044519
2425.000000;3.027816
2424.000000;3.050615
2423.000000;3.097125
2422.000000;3.104824
2421.000000;3.039519
2420.000000;2.948001
2419.000000;2.914205
2418.000000;2.975030
2417.000000;3.018604
2416.000000;2.984085
2415.000000;2.989610
2414.000000;3.015519
2413.000000;3.010295
2412.000000;2.989453
2411.000000;2.991725
2410.000000;3.133576
2409.000000;3.291972
2408.000000;3.106191
2407.000000;3.003883
2406.000000;3.029883
2405.000000;3.081333
2404.000000;3.119052
2403.000000;3.138427
2402.000000;3.135443
2401.000000;3.101409
2400.000000;3.105910
2399.000000;3.293695
2398.000000;3.551792
2397.000000;3.156426
2396.000000;2.956296
2395.000000;2.911238
2394.000000;2.990603
2393.000000;3.226687
2392.000000;3.688952
2391.000000;3.608794
2390.000000;3.285757
2389.000000;3.123326
2388.000000;3.056305
2387.000000;3.075122
2386.000000;3.107052
2385.000000;3.117132
2384.000000;3.166616
2383.000000;3.576379
2382.000000;3.737941
2381.000000;3.086445
2380.000000;2.925632
2379.000000;3.087460
2378.000000;3.106974
2377.000000;2.836786
2376.000000;2.770375
2375.000000;2.850105
2374.000000;3.037210
2373.000000;3.300763
2372.000000;3.222387
2371.000000;2.993882
2370.000000;2.835479
2369.000000;2.731457
2368.000000;2.728525
2367.000000;2.880827
2366.000000;3.065190
2365.000000;2.943007
2364.000000;2.852988
2363.000000;2.964262
2362.000000;3.440622
2361.000000;3.221141
2360.000000;3.055154
2359.000000;3.140414
2358.000000;3.058820
2357.000000;2.923939
2356.000000;2.862223
2355.000000;2.897909
2354.000000;3.152441
2353.000000;3.588692
2352.000000;3.157471
2351.000000;2.890475
2350.000000;2.816660
2349.000000;2.822395
2348.000000;2.881877
2347.000000;2.880519
2346.000000;2.777279
2345.000000;2.854496
2344.000000;3.226335
2343.000000;3.895324
2342.000000;3.449657
2341.000000;3.209340
2340.000000;2.929418
2339.000000;2.732469
2338.000000;2.660928
2337.000000;2.699666
2336.000000;2.823507
2335.000000;2.978915
2334.000000;3.082417
2333.000000;2.976108
2332.000000;2.840140
2331.000000;2.732545
2330.000000;2.652330
2329.000000;2.631362
2328.000000;2.686162
2327.000000;2.805256
2326.000000;2.944338
2325.000000;3.097172
2324.000000;3.123560
2323.000000;3.001057
2322.000000;2.933360
2321.000000;2.935532
2320.000000;2.955548
2319.000000;2.985302
2318.000000;3.097595
2317.000000;3.369331
2316.000000;3.234685
2315.000000;2.914488
2314.000000;2.749064
2313.000000;2.725557
2312.000000;2.794621
2311.000000;2.739236
2310.000000;2.595768
2309.000000;2.535169
2308.000000;2.655049
2307.000000;2.947108
2306.000000;2.897862
2305.000000;2.706402
2304.000000;2.682350
2303.000000;2.770126
2302.000000;3.081198
2301.000000;3.017027
2300.000000;2.729736
2299.000000;2.705312
2298.000000;2.721992
2297.000000;2.755948
2296.000000;2.876032
2295.000000;3.355317
2294.000000;3.550735
2293.000000;3.151740
2292.000000;3.070996
2291.000000;3.115115
2290.000000;3.108758
2289.000000;3.023598
2288.000000;3.037294
2287.000000;3.189738
2286.000000;3.168984
2285.000000;2.938831
2284.000000;2.839044
2283.000000;2.868065
2282.000000;3.069313
2281.000000;3.448148
2280.000000;3.156847
2279.000000;2.920137
2278.000000;2.850315
2277.000000;2.869672
2276.000000;2.971076
2275.000000;3.063254
2274.000000;3.009433
2273.000000;2.965331
2272.000000;3.092210
2271.000000;3.559317
2270.000000;3.082865
2269.000000;2.812506
2268.000000;2.858394
2267.000000;3.096027
2266.000000;3.574505
2265.000000;3.260633
2264.000000;2.978587
2263.000000;2.851996
2262.000000;2.856450
2261.000000;2.952666
2260.000000;3.031099
2259.000000;3.179325
2258.000000;3.613644
2257.000000;3.923323
2256.000000;3.443546
2255.000000;3.185835
2254.000000;2.976967
2253.000000;2.885063
2252.000000;2.882359
2251.000000;2.893985
2250.000000;2.899456
2249.000000;2.988067
2248.000000;3.195753
2247.000000;3.644325
2246.000000;3.878807
2245.000000;3.323439
2244.000000;3.137950
2243.000000;3.098932
2242.000000;3.852537
2241.000000;3.324387
2240.000000;2.926271
2239.000000;2.857647
2238.000000;2.874157
2237.000000;3.019316
2236.000000;3.352462
2235.000000;3.453224
2234.000000;3.114324
2233.000000;2.972021
2232.000000;2.997455
2231.000000;3.136934
2230.000000;3.331691
2229.000000;3.665882
2228.000000;4.255857
2227.000000;4.065064
2226.000000;3.444095
2225.000000;3.422589
2224.000000;3.506632
2223.000000;3.191348
2222.000000;3.163547
2221.000000;3.339930
2220.000000;3.028841
2219.000000;2.744488
2218.000000;2.704452
2217.000000;2.819462
2216.000000;3.266610
2215.000000;3.553744
2214.000000;3.229674
2213.000000;3.238064
2212.000000;3.735861
2211.000000;3.436338
2210.000000;3.187340
2209.000000;3.267446
2208.000000;3.881193
2207.000000;3.093518
2206.000000;2.826019
2205.000000;2.748372
2204.000000;2.821879
2203.000000;3.038283
2202.000000;3.461416
2201.000000;3.585385
2200.000000;2.955042
2199.000000;2.802617
2198.000000;2.957910
2197.000000;3.285836
2196.000000;2.928508
2195.000000;2.864870
2194.000000;2.982460
2193.000000;3.105609
2192.000000;3.086510
2191.000000;3.005457
2190.000000;3.278774
2189.000000;3.314668
2188.000000;2.996552
2187.000000;2.955740
2186.000000;3.008083
2185.000000;3.075507
2184.000000;3.328117
2183.000000;3.353708
2182.000000;3.057104
2181.000000;2.952838
2180.000000;2.935666
2179.000000;3.055944
2178.000000;3.318154
2177.000000;3.319710
2176.000000;3.306660
2175.000000;3.187242
2174.000000;3.136491
2173.000000;3.187031
2172.000000;3.205786
2171.000000;3.167154
2170.000000;3.177936
2169.000000;3.187697
2168.000000;3.095594
2167.000000;2.989484
2166.000000;2.941406
2165.000000;2.961884
2164.000000;3.044404
2163.000000;3.304384
2162.000000;3.143247
2161.000000;2.848940
2160.000000;2.758975
2159.000000;2.824144
2158.000000;3.062576
2157.000000;3.714891
2156.000000;3.531997
2155.000000;3.183750
2154.000000;3.053373
2153.000000;3.126626
2152.000000;3.408123
2151.000000;3.102597
2150.000000;2.953749
2149.000000;2.940478
2148.000000;2.958131
2147.000000;2.994471
2146.000000;3.089340
2145.000000;3.286433
2144.000000;3.599722
2143.000000;3.545257
2142.000000;3.502184
2141.000000;3.341207
2140.000000;3.010259
2139.000000;2.912106
2138.000000;2.976552
2137.000000;3.378376
2136.000000;3.555252
2135.000000;3.229329
2134.000000;3.315834
2133.000000;3.625004
2132.000000;3.170689
2131.000000;2.924296
2130.000000;2.848856
2129.000000;2.887215
2128.000000;3.048554
2127.000000;3.980363
2126.000000;3.149407
2125.000000;2.879799
2124.000000;2.872672
2123.000000;3.013691
2122.000000;3.099644
2121.000000;3.224546
2120.000000;3.623814
2119.000000;3.462646
2118.000000;3.457105
2117.000000;3.795806
2116.000000;3.586081
2115.000000;3.840002
2114.000000;3.474644
2113.000000;3.029659
2112.000000;2.816608
2111.000000;2.708512
2110.000000;2.743116
2109.000000;2.893185
2108.000000;3.137758
2107.000000;3.528614
2106.000000;3.104054
2105.000000;2.828008
2104.000000;2.801442
2103.000000;2.978455
2102.000000;3.145789
2101.000000;2.935301
2100.000000;2.883162
2099.000000;3.003494
2098.000000;3.189679
2097.000000;3.183182
2096.000000;3.192802
2095.000000;3.537786
2094.000000;3.432334
2093.000000;3.003645
2092.000000;2.940000
2091.000000;3.048075
2090.000000;3.223148
2089.000000;3.066895
2088.000000;2.966628
2087.000000;3.284851
2086.000000;3.370380
2085.000000;3.023241
2084.000000;3.185279
2083.000000;3.090372
2082.000000;2.790074
2081.000000;2.655869
2080.000000;2.669975
2079.000000;2.856400
2078.000000;3.120690
2077.000000;3.396373
2076.000000;3.579389
2075.000000;3.156427
2074.000000;3.030112
2073.000000;2.946484
2072.000000;2.898494
2071.000000;2.905593
2070.000000;2.889740
2069.000000;2.873976
2068.000000;2.957415
2067.000000;3.219345
2066.000000;3.352997
2065.000000;2.975751
2064.000000;2.796480
2063.000000;2.749466
2062.000000;2.836974
2061.000000;3.097238
2060.000000;3.377285
2059.000000;3.130535
2058.000000;2.837567
2057.000000;2.721327
2056.000000;2.755442
2055.000000;3.098686
2054.000000;3.307439
2053.000000;2.870464
2052.000000;2.770672
2051.000000;2.902001
2050.000000;3.346343
2049.000000;3.715235
2048.000000;3.490908
2047.000000;3.206182
2046.000000;2.945488
2045.000000;2.859198
2044.000000;3.046201
2043.000000;3.903926
2042.000000;2.967416
2041.000000;3.008459
2040.000000;3.446756
2039.000000;3.124114
2038.000000;2.895873
2037.000000;2.906125
2036.000000;2.832989
2035.000000;2.703806
2034.000000;2.685126
2033.000000;2.753623
2032.000000;2.883998
2031.000000;3.026080
2030.000000;2.975505
2029.000000;2.839148
2028.000000;2.784650
2027.000000;2.826527
2026.000000;2.960172
2025.000000;3.141792
2024.000000;3.347677
2023.000000;3.346764
2022.000000;3.213906
2021.000000;3.073609
2020.000000;3.191305
2019.000000;3.430945
2018.000000;2.963431
2017.000000;2.879810
2016.000000;2.947219
2015.000000;2.951647
2014.000000;2.893028
2013.000000;2.915399
2012.000000;3.044944
2011.000000;3.282054
2010.000000;3.636107
2009.000000;3.536255
2008.000000;3.127016
2007.000000;2.970749
2006.000000;3.002528
2005.000000;3.183538
2004.000000;3.680393
2003.000000;3.512110
2002.000000;3.079615
2001.000000;3.469709
2000.000000;3.272035
1999.000000;2.810525
1998.000000;2.702454
1997.000000;2.731261
1996.000000;2.827255
1995.000000;2.894981
1994.000000;2.850038
1993.000000;2.792298
1992.000000;2.801364
1991.000000;2.857563
1990.000000;3.119552
1989.000000;3.093930
1988.000000;2.704839
1987.000000;2.603791
1986.000000;2.627066
1985.000000;2.705068
1984.000000;2.733556
1983.000000;2.707367
1982.000000;2.731064
1981.000000;2.849864
1980.000000;3.002228
1979.000000;3.038938
1978.000000;3.052814
1977.000000;3.180404
1976.000000;3.333879
1975.000000;3.660805
1974.000000;3.254298
1973.000000;2.974401
1972.000000;3.024764
1971.000000;3.336231
1970.000000;3.231199
1969.000000;3.166801
1968.000000;3.891694
1967.000000;3.205634
1966.000000;3.049909
1965.000000;3.145578
1964.000000;3.036209
1963.000000;2.838636
1962.000000;2.721582
1961.000000;2.671152
1960.000000;2.692758
1959.000000;2.929588
1958.000000;3.560481
1957.000000;2.975796
1956.000000;2.830125
1955.000000;2.839966
1954.000000;2.894221
1953.000000;2.929779
1952.000000;2.975222
1951.000000;3.009761
1950.000000;3.010184
1949.000000;3.022590
1948.000000;3.128827
1947.000000;3.227516
1946.000000;3.138198
1945.000000;3.088583
1944.000000;3.433381
1943.000000;3.091894
1942.000000;2.827812
1941.000000;2.856699
1940.000000;3.199532
1939.000000;3.211633
1938.000000;2.804069
1937.000000;2.652116
1936.000000;2.615490
1935.000000;2.656687
1934.000000;2.800821
1933.000000;3.064157
1932.000000;3.115964
1931.000000;2.877085
1930.000000;2.728038
1929.000000;2.690724
1928.000000;2.782681
1927.000000;2.867850
1926.000000;2.817667
1925.000000;2.821836
1924.000000;3.031912
1923.000000;2.943144
1922.000000;2.689798
1921.000000;2.726581
1920.000000;2.931477
1919.000000;2.832228
1918.000000;2.767483
1917.000000;2.808888
1916.000000;2.763403
1915.000000;2.812047
1914.000000;2.939561
1913.000000;2.893196
1912.000000;2.860772
1911.000000;3.049992
1910.000000;3.462038
1909.000000;3.115319
1908.000000;2.987413
1907.000000;2.979020
1906.000000;3.086049
1905.000000;3.306170
1904.000000;3.625321
1903.000000;3.726630
1902.000000;3.388352
1901.000000;3.424290
1900.000000;3.260041
1899.000000;2.999658
1898.000000;3.156205
1897.000000;3.432785
1896.000000;3.035019
1895.000000;2.896073
1894.000000;3.138840
1893.000000;2.982317
1892.000000;2.686239
1891.000000;2.644067
1890.000000;2.867853
1889.000000;2.962944
1888.000000;2.717037
1887.000000;2.643130
1886.000000;2.730985
1885.000000;3.116866
1884.000000;3.390930
1883.000000;3.127760
1882.000000;3.419968
1881.000000;2.866162
1880.000000;2.635756
1879.000000;2.604461
1878.000000;2.750732
1877.000000;3.216311
1876.000000;3.307361
1875.000000;2.952410
1874.000000;2.985684
1873.000000;3.407311
1872.000000;3.348273
1871.000000;2.753839
1870.000000;2.693950
1869.000000;2.804622
1868.000000;3.131632
1867.000000;3.779325
1866.000000;3.789714
1865.000000;3.034524
1864.000000;2.705914
1863.000000;2.607266
1862.000000;2.633764
1861.000000;2.636268
1860.000000;2.591903
1859.000000;2.607038
1858.000000;2.722559
1857.000000;2.936594
1856.000000;3.007247
1855.000000;2.931409
1854.000000;3.008848
1853.000000;3.222121
1852.000000;3.287983
1851.000000;3.374181
1850.000000;3.506881
1849.000000;3.151627
1848.000000;3.011334
1847.000000;3.028853
1846.000000;2.843690
1845.000000;2.609857
1844.000000;2.573949
1843.000000;2.721286
1842.000000;3.382599
1841.000000;3.258095
1840.000000;2.893661
1839.000000;3.031386
1838.000000;3.070900
1837.000000;2.901197
1836.000000;2.817802
1835.000000;2.835341
1834.000000;2.913988
1833.000000;3.139728
1832.000000;3.855468
1831.000000;3.211086
1830.000000;3.047428
1829.000000;3.091066
1828.000000;3.425889
1827.000000;3.248349
1826.000000;2.958266
1825.000000;2.987718
1824.000000;3.278221
1823.000000;3.827645
1822.000000;3.292780
1821.000000;2.982211
1820.000000;2.863873
1819.000000;2.900004
1818.000000;2.960428
1817.000000;2.896567
1816.000000;2.953401
1815.000000;3.133104
1814.000000;3.170280
1813.000000;3.274291
1812.000000;3.244801
1811.000000;3.143414
1810.000000;3.093601
1809.000000;3.143095
1808.000000;3.387902
1807.000000;3.237008
1806.000000;3.236229
1805.000000;3.199502
1804.000000;2.917436
1803.000000;2.770409
1802.000000;2.784382
1801.000000;2.864772
1800.000000;3.066879
1799.000000;3.447346
1798.000000;3.310957
1797.000000;3.296437
1796.000000;2.947789
1795.000000;2.774270
1794.000000;2.733549
1793.000000;2.700370
1792.000000;2.717042
1791.000000;2.792938
1790.000000;2.748445
1789.000000;2.624618
1788.000000;2.580064
1787.000000;2.706101
1786.000000;3.104293
1785.000000;2.796088
1784.000000;2.585732
1783.000000;2.650583
1782.000000;2.809884
1781.000000;2.966690
1780.000000;2.979793
1779.000000;2.941247
1778.000000;2.933637
1777.000000;2.894311
1776.000000;2.774320
1775.000000;2.688120
1774.000000;2.680859
1773.000000;2.732224
1772.000000;2.865325
1771.000000;3.237645
1770.000000;3.609766
1769.000000;3.071463
1768.000000;2.841568
1767.000000;2.768035
1766.000000;2.769162
1765.000000;2.754234
1764.000000;2.740571
1763.000000;2.765156
1762.000000;2.845734
1761.000000;2.985803
1760.000000;3.218956
1759.000000;3.456894
1758.000000;3.350277
1757.000000;3.438341
1756.000000;3.243365
1755.000000;3.072348
1754.000000;3.116747
1753.000000;3.092637
1752.000000;3.155647
1751.000000;3.118698
1750.000000;2.833924
1749.000000;2.679281
1748.000000;2.594285
1747.000000;2.614285
1746.000000;2.853148
1745.000000;3.236582
1744.000000;2.943628
1743.000000;2.910798
1742.000000;3.001994
1741.000000;3.087658
1740.000000;3.056885
1739.000000;3.043284
1738.000000;3.098729
1737.000000;2.934818
1736.000000;2.772500
1735.000000;2.721649
1734.000000;2.772024
1733.000000;2.954178
1732.000000;2.956589
1731.000000;2.819517
1730.000000;2.772800
1729.000000;2.673969
1728.000000;2.603273
1727.000000;2.640817
1726.000000;2.743543
1725.000000;2.948867
1724.000000;3.439210
1723.000000;3.171645
1722.000000;3.086640
1721.000000;3.175067
1720.000000;3.194307
1719.000000;3.194197
1718.000000;3.053965
1717.000000;2.784405
1716.000000;2.562565
1715.000000;2.416309
1714.000000;2.398978
1713.000000;2.513728
1712.000000;2.714005
1711.000000;2.891060
1710.000000;2.836901
1709.000000;2.740088
1708.000000;2.829100
1707.000000;2.979825
1706.000000;2.942012
1705.000000;3.125393
1704.000000;3.611808
1703.000000;3.652251
1702.000000;3.244205
1701.000000;2.875780
1700.000000;2.786433
1699.000000;2.802489
1698.000000;2.835118
1697.000000;2.934645
1696.000000;3.208278
1695.000000;3.403858
1694.000000;2.958931
1693.000000;2.807689
1692.000000;2.811495
1691.000000;2.944262
1690.000000;3.219202
1689.000000;3.404157
1688.000000;3.547858
1687.000000;3.620748
1686.000000;3.352057
1685.000000;3.236692
1684.000000;3.198651
1683.000000;3.193666
1682.000000;3.204582
1681.000000;2.869676
1680.000000;2.753747
1679.000000;2.825238
1678.000000;2.967946
1677.000000;3.136529
1676.000000;3.156882
1675.000000;3.840079
1674.000000;3.104386
1673.000000;2.741949
1672.000000;2.732295
1671.000000;2.911224
1670.000000;3.378479
1669.000000;3.147203
1668.000000;2.868335
1667.000000;2.783146
1666.000000;2.817329
1665.000000;2.956849
1664.000000;3.157179
1663.000000;3.280663
1662.000000;3.246257
1661.000000;3.252707
1660.000000;3.487525
1659.000000;3.521734
1658.000000;3.147161
1657.000000;3.032874
1656.000000;2.988539
1655.000000;2.928352
1654.000000;2.882180
1653.000000;3.029485
1652.000000;3.262423
1651.000000;2.930023
1650.000000;2.795360
1649.000000;2.832531
1648.000000;2.829038
1647.000000;2.791066
1646.000000;2.891160
1645.000000;3.273056
1644.000000;3.307441
1643.000000;3.437444
1642.000000;3.778361
1641.000000;3.164142
1640.000000;2.927160
1639.000000;2.820750
1638.000000;2.798253
1637.000000;2.841795
1636.000000;2.877504
1635.000000;2.983910
1634.000000;3.368395
1633.000000;3.140554
1632.000000;2.803593
1631.000000;2.690536
1630.000000;2.649092
1629.000000;2.726838
1628.000000;2.821349
1627.000000;2.993232
1626.000000;3.390148
1625.000000;2.961500
1624.000000;2.712735
1623.000000;2.762356
1622.000000;3.459632
1621.000000;3.050337
1620.000000;2.697779
1619.000000;2.725868
1618.000000;2.849527
1617.000000;2.974639
1616.000000;2.894296
1615.000000;2.706030
1614.000000;2.602047
1613.000000;2.598683
1612.000000;2.616068
1611.000000;2.610000
1610.000000;2.627370
1609.000000;2.695621
1608.000000;2.756843
1607.000000;2.739963
1606.000000;2.731567
1605.000000;2.815853
1604.000000;3.035297
1603.000000;3.457721
1602.000000;3.755858
1601.000000;3.248264
1600.000000;2.880344
1599.000000;2.719493
1598.000000;2.717558
1597.000000;2.917697
1596.000000;3.237407
1595.000000;3.225279
1594.000000;3.359843
1593.000000;3.297074
1592.000000;2.978341
1591.000000;2.738743
1590.000000;2.624071
1589.000000;2.660607
1588.000000;2.769615
1587.000000;2.838189
1586.000000;2.934278
1585.000000;3.061264
1584.000000;3.080712
1583.000000;3.210142
1582.000000;3.462955
1581.000000;3.358943
1580.000000;3.156657
1579.000000;2.947955
1578.000000;2.808110
1577.000000;2.744184
1576.000000;2.739200
1575.000000;2.861420
1574.000000;3.183754
1573.000000;3.385513
1572.000000;3.256862
1571.000000;3.052018
1570.000000;2.775495
1569.000000;2.548917
1568.000000;2.456172
1567.000000;2.503427
1566.000000;2.714813
1565.000000;2.994757
1564.000000;2.783258
1563.000000;2.663862
1562.000000;2.743742
1561.000000;2.851050
1560.000000;2.790277
1559.000000;2.656972
1558.000000;2.719407
1557.000000;3.074467
1556.000000;3.441383
1555.000000;3.256763
1554.000000;2.908471
1553.000000;2.730623
1552.000000;2.706723
1551.000000;2.559935
1550.000000;2.439373
1549.000000;2.474211
1548.000000;2.575508
1547.000000;2.912509
1546.000000;3.045239
1545.000000;2.572870
1544.000000;2.470551
1543.000000;2.495483
1542.000000;2.551396
1541.000000;2.680306
1540.000000;2.851441
1539.000000;2.948180
1538.000000;2.876937
1537.000000;2.697997
1536.000000;2.567469
1535.000000;2.542213
1534.000000;2.663805
1533.000000;3.093380
1532.000000;2.984084
1531.000000;2.666390
1530.000000;2.553579
1529.000000;2.496736
1528.000000;2.502213
1527.000000;2.519019
1526.000000;2.572332
1525.000000;2.711867
1524.000000;2.742461
1523.000000;2.652667
1522.000000;2.615499
1521.000000;2.894931
1520.000000;3.016021
1519.000000;2.571613
1518.000000;2.383594
1517.000000;2.285326
1516.000000;2.264351
1515.000000;2.353328
1514.000000;2.659694
1513.000000;2.790479
1512.000000;2.456401
1511.000000;2.359207
1510.000000;2.468710
1509.000000;2.728963
1508.000000;2.866693
1507.000000;2.734050
1506.000000;2.660843
1505.000000;2.813705
1504.000000;3.315847
1503.000000;3.126045
1502.000000;2.725947
1501.000000;2.599706
1500.000000;2.616261
1499.000000;2.740551
1498.000000;2.946530
1497.000000;2.886520
1496.000000;2.592015
1495.000000;2.452910
1494.000000;2.442759
1493.000000;2.515257
1492.000000;2.651017
1491.000000;2.786141
1490.000000;2.750638
1489.000000;2.655942
1488.000000;2.636629
1487.000000;2.789168
1486.000000;3.261083
1485.000000;3.203644
1484.000000;2.902458
1483.000000;2.730865
1482.000000;2.609924
1481.000000;2.599972
1480.000000;2.757053
1479.000000;3.035327
1478.000000;2.827380
1477.000000;2.569100
1476.000000;2.436263
1475.000000;2.391389
1474.000000;2.418419
1473.000000;2.558109
1472.000000;2.798662
1471.000000;2.843754
1470.000000;2.836718
1469.000000;2.812565
1468.000000;2.693895
1467.000000;2.613174
1466.000000;2.603381
1465.000000;2.675849
1464.000000;2.812321
1463.000000;3.026437
1462.000000;3.301199
1461.000000;3.640098
1460.000000;3.396149
1459.000000;2.906036
1458.000000;2.727587
1457.000000;2.621557
1456.000000;2.539766
1455.000000;2.548429
1454.000000;2.720813
1453.000000;3.178576
1452.000000;2.951874
1451.000000;2.689405
1450.000000;2.596915
1449.000000;2.742122
1448.000000;3.172183
1447.000000;2.721301
1446.000000;2.603456
1445.000000;2.780774
1444.000000;3.089805
1443.000000;3.256530
1442.000000;2.948655
1441.000000;2.718591
1440.000000;2.596778
1439.000000;2.560033
1438.000000;2.628516
1437.000000;2.564412
1436.000000;2.435911
1435.000000;2.425392
1434.000000;2.442117
1433.000000;2.487398
1432.000000;2.620451
1431.000000;2.697524
1430.000000;2.525495
1429.000000;2.360035
1428.000000;2.303212
1427.000000;2.334251
1426.000000;2.435262
1425.000000;2.567895
1424.000000;2.616505
1423.000000;2.656665
1422.000000;2.913226
1421.000000;3.002572
1420.000000;2.585654
1419.000000;2.464729
1418.000000;2.507497
1417.000000;2.675824
1416.000000;2.884431
1415.000000;2.923089
1414.000000;3.220198
1413.000000;3.180700
1412.000000;2.829983
1411.000000;2.866530
1410.000000;3.114901
1409.000000;3.920100
1408.000000;3.387809
1407.000000;2.826406
1406.000000;2.598103
1405.000000;2.596718
1404.000000;2.956117
1403.000000;2.974444
1402.000000;2.677144
1401.000000;2.657269
1400.000000;2.925791
1399.000000;2.787095
1398.000000;2.463180
1397.000000;2.425367
1396.000000;2.532996
1395.000000;2.666577
1394.000000;2.703290
1393.000000;2.729297
1392.000000;3.111974
1391.000000;3.643199
1390.000000;3.070808
1389.000000;2.705923
1388.000000;2.393885
1387.000000;2.289937
1386.000000;2.399286
1385.000000;2.844820
1384.000000;2.933651
1383.000000;2.567243
1382.000000;2.576190
1381.000000;2.719188
1380.000000;2.889483
1379.000000;2.981560
1378.000000;2.693583
1377.000000;2.468056
1376.000000;2.432077
1375.000000;2.482640
1374.000000;2.499100
1373.000000;2.576720
1372.000000;2.805709
1371.000000;3.033121
1370.000000;3.067394
1369.000000;3.073808
1368.000000;2.928238
1367.000000;2.669318
1366.000000;2.518693
1365.000000;2.467635
1364.000000;2.667190
1363.000000;3.043172
1362.000000;2.777627
1361.000000;2.589624
1360.000000;2.470857
1359.000000;2.426157
1358.000000;2.484904
1357.000000;2.588899
1356.000000;2.700560
1355.000000;2.809430
1354.000000;2.857075
1353.000000;2.962132
1352.000000;2.990962
1351.000000;2.915487
1350.000000;3.306939
1349.000000;3.103419
1348.000000;2.699395
1347.000000;2.589400
1346.000000;2.589978
1345.000000;2.687149
1344.000000;2.998032
1343.000000;3.397003
1342.000000;2.852747
1341.000000;2.796551
1340.000000;2.900077
1339.000000;2.695786
1338.000000;2.603657
1337.000000;2.672091
1336.000000;2.773119
1335.000000;2.965116
1334.000000;3.373159
1333.000000;3.043204
1332.000000;2.763954
1331.000000;2.784177
1330.000000;2.890680
1329.000000;3.109053
1328.000000;3.334296
1327.000000;2.917989
1326.000000;2.650963
1325.000000;2.595918
1324.000000;2.651855
1323.000000;2.813417
1322.000000;3.169130
1321.000000;3.416201
1320.000000;3.055941
1319.000000;2.662755
1318.000000;2.474586
1317.000000;2.442452
1316.000000;2.616784
1315.000000;3.096004
1314.000000;2.861458
1313.000000;2.638086
1312.000000;2.812611
1311.000000;3.018220
1310.000000;2.788973
1309.000000;2.718781
1308.000000;2.738609
1307.000000;2.698387
1306.000000;2.589553
1305.000000;2.494972
1304.000000;2.462052
1303.000000;2.518391
1302.000000;2.874836
1301.000000;2.891421
1300.000000;2.505352
1299.000000;2.397594
1298.000000;2.420289
1297.000000;2.531729
1296.000000;2.699498
1295.000000;2.807613
1294.000000;2.861045
1293.000000;2.863177
1292.000000;2.701067
1291.000000;2.568529
1290.000000;2.554458
1289.000000;2.547114
1288.000000;2.447323
1287.000000;2.363871
1286.000000;2.378185
1285.000000;2.496673
1284.000000;2.669466
1283.000000;3.029722
1282.000000;3.323142
1281.000000;2.737113
1280.000000;2.520214
1279.000000;2.471355
1278.000000;2.448780
1277.000000;2.440845
1276.000000;2.529340
1275.000000;2.637622
1274.000000;2.502456
1273.000000;2.382085
1272.000000;2.395619
1271.000000;2.508891
1270.000000;2.695221
1269.000000;3.078121
1268.000000;3.307469
1267.000000;2.810009
1266.000000;2.632612
1265.000000;2.557411
1264.000000;2.489296
1263.000000;2.491257
1262.000000;2.507913
1261.000000;2.515559
1260.000000;2.613729
1259.000000;2.838325
1258.000000;2.804833
1257.000000;2.561896
1256.000000;2.459326
1255.000000;2.497068
1254.000000;2.620800
1253.000000;2.594231
1252.000000;2.458991
1251.000000;2.437912
1250.000000;2.542766
1249.000000;2.719229
1248.000000;2.855095
1247.000000;2.860645
1246.000000;2.853438
1245.000000;2.825306
1244.000000;2.933527
1243.000000;3.135816
1242.000000;2.677181
1241.000000;2.388824
1240.000000;2.321207
1239.000000;2.372437
1238.000000;2.603103
1237.000000;2.937727
1236.000000;2.756600
1235.000000;2.783241
1234.000000;2.972394
1233.000000;3.055003
1232.000000;3.106862
1231.000000;2.732240
1230.000000;2.616556
1229.000000;2.710943
1228.000000;2.814033
1227.000000;2.772451
1226.000000;2.742461
1225.000000;2.801606
1224.000000;2.897926
1223.000000;2.940481
1222.000000;2.935759
1221.000000;3.258785
1220.000000;3.073786
1219.000000;2.664208
1218.000000;2.559794
1217.000000;2.580305
1216.000000;2.643511
1215.000000;2.799039
1214.000000;2.825206
1213.000000;2.548187
1212.000000;2.398230
1211.000000;2.427450
1210.000000;2.602239
1209.000000;2.764137
1208.000000;2.656422
1207.000000;2.467720
1206.000000;2.390478
1205.000000;2.478862
1204.000000;2.622828
1203.000000;2.612477
1202.000000;2.609700
1201.000000;2.719039
1200.000000;2.887154
