Criado como novo conjunto de dados;"e2410_daniel_v2.spp","48604.8 Secs"
cm-1;Abs
10000.000000;1.075730
9999.000000;1.074934
9998.000000;1.074139
9997.000000;1.073346
9996.000000;1.072555
9995.000000;1.071762
9994.000000;1.070978
9993.000000;1.070182
9992.000000;1.069411
9991.000000;1.068599
9990.000000;1.067873
9989.000000;1.066828
9988.000000;1.065660
9987.000000;1.064997
9986.000000;1.064694
9985.000000;1.064442
9984.000000;1.063926
9983.000000;1.063105
9982.000000;1.062266
9981.000000;1.061827
9980.000000;1.061790
9979.000000;1.061617
9978.000000;1.060903
9977.000000;1.059948
9976.000000;1.059343
9975.000000;1.059164
9974.000000;1.058930
9973.000000;1.058276
9972.000000;1.057373
9971.000000;1.056672
9970.000000;1.056403
9969.000000;1.056351
9968.000000;1.056059
9967.000000;1.055285
9966.000000;1.054258
9965.000000;1.053411
9964.000000;1.052930
9963.000000;1.052713
9962.000000;1.052671
9961.000000;1.052802
9960.000000;1.052971
9959.000000;1.052921
9958.000000;1.052518
9957.000000;1.051781
9956.000000;1.050739
9955.000000;1.049527
9954.000000;1.048508
9953.000000;1.047915
9952.000000;1.047443
9951.000000;1.046660
9950.000000;1.045750
9949.000000;1.045318
9948.000000;1.045445
9947.000000;1.045520
9946.000000;1.045157
9945.000000;1.044694
9944.000000;1.044508
9943.000000;1.044373
9942.000000;1.043881
9941.000000;1.043097
9940.000000;1.042384
9939.000000;1.041870
9938.000000;1.041427
9937.000000;1.040963
9936.000000;1.040431
9935.000000;1.039738
9934.000000;1.038914
9933.000000;1.038250
9932.000000;1.038020
9931.000000;1.038151
9930.000000;1.038288
9929.000000;1.038096
9928.000000;1.037481
9927.000000;1.036638
9926.000000;1.035925
9925.000000;1.035506
9924.000000;1.035117
9923.000000;1.034380
9922.000000;1.033298
9921.000000;1.032198
9920.000000;1.031272
9919.000000;1.030516
9918.000000;1.030018
9917.000000;1.029883
9916.000000;1.029828
9915.000000;1.029333
9914.000000;1.028343
9913.000000;1.027432
9912.000000;1.027128
9911.000000;1.027391
9910.000000;1.027852
9909.000000;1.028196
9908.000000;1.028181
9907.000000;1.027648
9906.000000;1.026744
9905.000000;1.025861
9904.000000;1.025196
9903.000000;1.024600
9902.000000;1.023956
9901.000000;1.023437
9900.000000;1.023240
9899.000000;1.023292
9898.000000;1.023298
9897.000000;1.022897
9896.000000;1.021830
9895.000000;1.020242
9894.000000;1.018803
9893.000000;1.018172
9892.000000;1.018299
9891.000000;1.018546
9890.000000;1.018446
9889.000000;1.018004
9888.000000;1.017318
9887.000000;1.016405
9886.000000;1.015465
9885.000000;1.014812
9884.000000;1.014380
9883.000000;1.013758
9882.000000;1.012898
9881.000000;1.012343
9880.000000;1.012483
9879.000000;1.012953
9878.000000;1.013033
9877.000000;1.012414
9876.000000;1.011327
9875.000000;1.010162
9874.000000;1.009218
9873.000000;1.008595
9872.000000;1.008123
9871.000000;1.007503
9870.000000;1.006649
9869.000000;1.005769
9868.000000;1.005084
9867.000000;1.004641
9866.000000;1.004440
9865.000000;1.004485
9864.000000;1.004650
9863.000000;1.004713
9862.000000;1.004563
9861.000000;1.004207
9860.000000;1.003632
9859.000000;1.002887
9858.000000;1.002229
9857.000000;1.001871
9856.000000;1.001640
9855.000000;1.001199
9854.000000;1.000569
9853.000000;1.000068
9852.000000;0.999774
9851.000000;0.999425
9850.000000;0.998861
9849.000000;0.998204
9848.000000;0.997550
9847.000000;0.996880
9846.000000;0.996280
9845.000000;0.995874
9844.000000;0.995484
9843.000000;0.994772
9842.000000;0.993791
9841.000000;0.992993
9840.000000;0.992602
9839.000000;0.992356
9838.000000;0.991978
9837.000000;0.991548
9836.000000;0.991215
9835.000000;0.990865
9834.000000;0.990280
9833.000000;0.989425
9832.000000;0.988444
9831.000000;0.987565
9830.000000;0.987076
9829.000000;0.987149
9828.000000;0.987598
9827.000000;0.987974
9826.000000;0.987932
9825.000000;0.987393
9824.000000;0.986440
9823.000000;0.985309
9822.000000;0.984387
9821.000000;0.983940
9820.000000;0.983888
9819.000000;0.984021
9818.000000;0.984240
9817.000000;0.984341
9816.000000;0.983870
9815.000000;0.982655
9814.000000;0.981261
9813.000000;0.980400
9812.000000;0.980021
9811.000000;0.979497
9810.000000;0.978603
9809.000000;0.977730
9808.000000;0.977169
9807.000000;0.976767
9806.000000;0.976347
9805.000000;0.975921
9804.000000;0.975442
9803.000000;0.974810
9802.000000;0.974177
9801.000000;0.973772
9800.000000;0.973427
9799.000000;0.972787
9798.000000;0.972000
9797.000000;0.971627
9796.000000;0.971775
9795.000000;0.971862
9794.000000;0.971407
9793.000000;0.970570
9792.000000;0.969763
9791.000000;0.969208
9790.000000;0.969010
9789.000000;0.969175
9788.000000;0.969359
9787.000000;0.969067
9786.000000;0.968256
9785.000000;0.967364
9784.000000;0.966640
9783.000000;0.965930
9782.000000;0.965210
9781.000000;0.964799
9780.000000;0.964805
9779.000000;0.964822
9778.000000;0.964429
9777.000000;0.963652
9776.000000;0.962762
9775.000000;0.961971
9774.000000;0.961470
9773.000000;0.961367
9772.000000;0.961437
9771.000000;0.961265
9770.000000;0.960767
9769.000000;0.960249
9768.000000;0.959864
9767.000000;0.959396
9766.000000;0.958679
9765.000000;0.957856
9764.000000;0.957132
9763.000000;0.956620
9762.000000;0.956414
9761.000000;0.956429
9760.000000;0.956209
9759.000000;0.955420
9758.000000;0.954482
9757.000000;0.954129
9756.000000;0.954301
9755.000000;0.954133
9754.000000;0.953157
9753.000000;0.951857
9752.000000;0.950807
9751.000000;0.949968
9750.000000;0.949155
9749.000000;0.948559
9748.000000;0.948363
9747.000000;0.948311
9746.000000;0.948089
9745.000000;0.947777
9744.000000;0.947553
9743.000000;0.947317
9742.000000;0.946929
9741.000000;0.946492
9740.000000;0.946066
9739.000000;0.945451
9738.000000;0.944572
9737.000000;0.943772
9736.000000;0.943393
9735.000000;0.943317
9734.000000;0.943191
9733.000000;0.942876
9732.000000;0.942430
9731.000000;0.941899
9730.000000;0.941359
9729.000000;0.940944
9728.000000;0.940619
9727.000000;0.940161
9726.000000;0.939563
9725.000000;0.939165
9724.000000;0.939211
9723.000000;0.939495
9722.000000;0.939613
9721.000000;0.939352
9720.000000;0.938701
9719.000000;0.937742
9718.000000;0.936675
9717.000000;0.935727
9716.000000;0.934923
9715.000000;0.934178
9714.000000;0.933601
9713.000000;0.933384
9712.000000;0.933342
9711.000000;0.932996
9710.000000;0.932233
9709.000000;0.931497
9708.000000;0.931172
9707.000000;0.931144
9706.000000;0.931092
9705.000000;0.930856
9704.000000;0.930347
9703.000000;0.929496
9702.000000;0.928474
9701.000000;0.927630
9700.000000;0.927030
9699.000000;0.926409
9698.000000;0.925715
9697.000000;0.925312
9696.000000;0.925457
9695.000000;0.925911
9694.000000;0.926292
9693.000000;0.926448
9692.000000;0.926292
9691.000000;0.925669
9690.000000;0.924637
9689.000000;0.923565
9688.000000;0.922665
9687.000000;0.921742
9686.000000;0.920642
9685.000000;0.919647
9684.000000;0.919175
9683.000000;0.919286
9682.000000;0.919690
9681.000000;0.920035
9680.000000;0.920041
9679.000000;0.919594
9678.000000;0.918893
9677.000000;0.918317
9676.000000;0.918023
9675.000000;0.917862
9674.000000;0.917690
9673.000000;0.917463
9672.000000;0.916979
9671.000000;0.915959
9670.000000;0.914525
9669.000000;0.913245
9668.000000;0.912528
9667.000000;0.912299
9666.000000;0.912361
9665.000000;0.912659
9664.000000;0.913017
9663.000000;0.913030
9662.000000;0.912511
9661.000000;0.911736
9660.000000;0.910990
9659.000000;0.910172
9658.000000;0.909101
9657.000000;0.907949
9656.000000;0.907122
9655.000000;0.906908
9654.000000;0.907354
9653.000000;0.908176
9652.000000;0.908682
9651.000000;0.908175
9650.000000;0.906708
9649.000000;0.905156
9648.000000;0.904301
9647.000000;0.904092
9646.000000;0.903975
9645.000000;0.903625
9644.000000;0.903118
9643.000000;0.902625
9642.000000;0.902259
9641.000000;0.902091
9640.000000;0.902083
9639.000000;0.902093
9638.000000;0.902028
9637.000000;0.901861
9636.000000;0.901476
9635.000000;0.900751
9634.000000;0.899812
9633.000000;0.898921
9632.000000;0.898078
9631.000000;0.897069
9630.000000;0.895981
9629.000000;0.895241
9628.000000;0.895039
9627.000000;0.895065
9626.000000;0.894997
9625.000000;0.894858
9624.000000;0.894696
9623.000000;0.894334
9622.000000;0.893706
9621.000000;0.893110
9620.000000;0.892797
9619.000000;0.892572
9618.000000;0.892090
9617.000000;0.891335
9616.000000;0.890540
9615.000000;0.889854
9614.000000;0.889311
9613.000000;0.888948
9612.000000;0.888722
9611.000000;0.888497
9610.000000;0.888278
9609.000000;0.888269
9608.000000;0.888497
9607.000000;0.888599
9606.000000;0.888208
9605.000000;0.887369
9604.000000;0.886419
9603.000000;0.885607
9602.000000;0.885023
9601.000000;0.884681
9600.000000;0.884453
9599.000000;0.884092
9598.000000;0.883498
9597.000000;0.882861
9596.000000;0.882385
9595.000000;0.882017
9594.000000;0.881564
9593.000000;0.880936
9592.000000;0.880202
9591.000000;0.879545
9590.000000;0.879218
9589.000000;0.879342
9588.000000;0.879659
9587.000000;0.879679
9586.000000;0.879178
9585.000000;0.878392
9584.000000;0.877695
9583.000000;0.877258
9582.000000;0.877056
9581.000000;0.876947
9580.000000;0.876668
9579.000000;0.876001
9578.000000;0.875051
9577.000000;0.874157
9576.000000;0.873519
9575.000000;0.873108
9574.000000;0.872927
9573.000000;0.873036
9572.000000;0.873280
9571.000000;0.873325
9570.000000;0.873039
9569.000000;0.872556
9568.000000;0.871914
9567.000000;0.870995
9566.000000;0.869907
9565.000000;0.869054
9564.000000;0.868653
9563.000000;0.868521
9562.000000;0.868456
9561.000000;0.868498
9560.000000;0.868607
9559.000000;0.868456
9558.000000;0.867828
9557.000000;0.866969
9556.000000;0.866293
9555.000000;0.865936
9554.000000;0.865792
9553.000000;0.865757
9552.000000;0.865698
9551.000000;0.865384
9550.000000;0.864689
9549.000000;0.863776
9548.000000;0.862934
9547.000000;0.862329
9546.000000;0.861997
9545.000000;0.861890
9544.000000;0.861819
9543.000000;0.861562
9542.000000;0.861111
9541.000000;0.860689
9540.000000;0.860450
9539.000000;0.860339
9538.000000;0.860281
9537.000000;0.860246
9536.000000;0.860082
9535.000000;0.859550
9534.000000;0.858667
9533.000000;0.857755
9532.000000;0.857024
9531.000000;0.856356
9530.000000;0.855634
9529.000000;0.855027
9528.000000;0.854756
9527.000000;0.854748
9526.000000;0.854722
9525.000000;0.854501
9524.000000;0.854127
9523.000000;0.853766
9522.000000;0.853567
9521.000000;0.853514
9520.000000;0.853391
9519.000000;0.853020
9518.000000;0.852493
9517.000000;0.851996
9516.000000;0.851462
9515.000000;0.850686
9514.000000;0.849740
9513.000000;0.848998
9512.000000;0.848675
9511.000000;0.848619
9510.000000;0.848586
9509.000000;0.848446
9508.000000;0.848106
9507.000000;0.847518
9506.000000;0.846814
9505.000000;0.846210
9504.000000;0.845729
9503.000000;0.845286
9502.000000;0.844971
9501.000000;0.844909
9500.000000;0.844887
9499.000000;0.844526
9498.000000;0.843864
9497.000000;0.843332
9496.000000;0.843092
9495.000000;0.842833
9494.000000;0.842352
9493.000000;0.841879
9492.000000;0.841643
9491.000000;0.841529
9490.000000;0.841385
9489.000000;0.841260
9488.000000;0.841084
9487.000000;0.840524
9486.000000;0.839486
9485.000000;0.838438
9484.000000;0.837875
9483.000000;0.837724
9482.000000;0.837593
9481.000000;0.837365
9480.000000;0.837199
9479.000000;0.837117
9478.000000;0.836949
9477.000000;0.836606
9476.000000;0.836127
9475.000000;0.835517
9474.000000;0.834748
9473.000000;0.833874
9472.000000;0.833004
9471.000000;0.832248
9470.000000;0.831792
9469.000000;0.831856
9468.000000;0.832400
9467.000000;0.832983
9466.000000;0.833096
9465.000000;0.832600
9464.000000;0.831737
9463.000000;0.830833
9462.000000;0.830115
9461.000000;0.829686
9460.000000;0.829521
9459.000000;0.829512
9458.000000;0.829555
9457.000000;0.829539
9456.000000;0.829269
9455.000000;0.828591
9454.000000;0.827636
9453.000000;0.826754
9452.000000;0.826177
9451.000000;0.825881
9450.000000;0.825750
9449.000000;0.825659
9448.000000;0.825361
9447.000000;0.824624
9446.000000;0.823585
9445.000000;0.822744
9444.000000;0.822458
9443.000000;0.822614
9442.000000;0.822895
9441.000000;0.823128
9440.000000;0.823244
9439.000000;0.823131
9438.000000;0.822736
9437.000000;0.822210
9436.000000;0.821777
9435.000000;0.821529
9434.000000;0.821397
9433.000000;0.821192
9432.000000;0.820653
9431.000000;0.819640
9430.000000;0.818400
9429.000000;0.817444
9428.000000;0.817058
9427.000000;0.817044
9426.000000;0.817030
9425.000000;0.816880
9424.000000;0.816726
9423.000000;0.816719
9422.000000;0.816867
9421.000000;0.817046
9420.000000;0.817117
9419.000000;0.817070
9418.000000;0.817020
9417.000000;0.816972
9416.000000;0.816684
9415.000000;0.815957
9414.000000;0.814962
9413.000000;0.814047
9412.000000;0.813270
9411.000000;0.812420
9410.000000;0.811502
9409.000000;0.810845
9408.000000;0.810654
9407.000000;0.810706
9406.000000;0.810637
9405.000000;0.810316
9404.000000;0.809859
9403.000000;0.809459
9402.000000;0.809285
9401.000000;0.809349
9400.000000;0.809394
9399.000000;0.809095
9398.000000;0.808446
9397.000000;0.807777
9396.000000;0.807333
9395.000000;0.807031
9394.000000;0.806665
9393.000000;0.806157
9392.000000;0.805547
9391.000000;0.804941
9390.000000;0.804535
9389.000000;0.804471
9388.000000;0.804611
9387.000000;0.804626
9386.000000;0.804371
9385.000000;0.803987
9384.000000;0.803622
9383.000000;0.803274
9382.000000;0.802970
9381.000000;0.802811
9380.000000;0.802720
9379.000000;0.802402
9378.000000;0.801702
9377.000000;0.800841
9376.000000;0.800170
9375.000000;0.799835
9374.000000;0.799766
9373.000000;0.799821
9372.000000;0.799804
9371.000000;0.799505
9370.000000;0.798875
9369.000000;0.798100
9368.000000;0.797430
9367.000000;0.796976
9366.000000;0.796687
9365.000000;0.796458
9364.000000;0.796229
9363.000000;0.796034
9362.000000;0.795916
9361.000000;0.795796
9360.000000;0.795526
9359.000000;0.795150
9358.000000;0.794914
9357.000000;0.794870
9356.000000;0.794705
9355.000000;0.794204
9354.000000;0.793661
9353.000000;0.793489
9352.000000;0.793593
9351.000000;0.793514
9350.000000;0.793083
9349.000000;0.792534
9348.000000;0.792020
9347.000000;0.791472
9346.000000;0.790944
9345.000000;0.790650
9344.000000;0.790563
9343.000000;0.790374
9342.000000;0.789969
9341.000000;0.789598
9340.000000;0.789421
9339.000000;0.789260
9338.000000;0.788917
9337.000000;0.788442
9336.000000;0.787940
9335.000000;0.787402
9334.000000;0.786899
9333.000000;0.786631
9332.000000;0.786600
9331.000000;0.786503
9330.000000;0.786115
9329.000000;0.785558
9328.000000;0.785028
9327.000000;0.784529
9326.000000;0.784038
9325.000000;0.783709
9324.000000;0.783674
9323.000000;0.783826
9322.000000;0.783982
9321.000000;0.784085
9320.000000;0.784102
9319.000000;0.783876
9318.000000;0.783275
9317.000000;0.782407
9316.000000;0.781557
9315.000000;0.780975
9314.000000;0.780768
9313.000000;0.780847
9312.000000;0.780916
9311.000000;0.780666
9310.000000;0.780086
9309.000000;0.779475
9308.000000;0.779123
9307.000000;0.779084
9306.000000;0.779218
9305.000000;0.779273
9304.000000;0.778938
9303.000000;0.778078
9302.000000;0.776967
9301.000000;0.776071
9300.000000;0.775561
9299.000000;0.775256
9298.000000;0.775027
9297.000000;0.774953
9296.000000;0.775006
9295.000000;0.774946
9294.000000;0.774704
9293.000000;0.774605
9292.000000;0.774947
9291.000000;0.775527
9290.000000;0.775798
9289.000000;0.775438
9288.000000;0.774602
9287.000000;0.773699
9286.000000;0.773040
9285.000000;0.772666
9284.000000;0.772422
9283.000000;0.772178
9282.000000;0.771959
9281.000000;0.771793
9280.000000;0.771529
9279.000000;0.770992
9278.000000;0.770282
9277.000000;0.769711
9276.000000;0.769455
9275.000000;0.769460
9274.000000;0.769633
9273.000000;0.769870
9272.000000;0.769919
9271.000000;0.769502
9270.000000;0.768692
9269.000000;0.767915
9268.000000;0.767484
9267.000000;0.767317
9266.000000;0.767168
9265.000000;0.766932
9264.000000;0.766610
9263.000000;0.766188
9262.000000;0.765713
9261.000000;0.765329
9260.000000;0.765126
9259.000000;0.765039
9258.000000;0.764969
9257.000000;0.764885
9256.000000;0.764755
9255.000000;0.764509
9254.000000;0.764142
9253.000000;0.763741
9252.000000;0.763353
9251.000000;0.762931
9250.000000;0.762425
9249.000000;0.761859
9248.000000;0.761317
9247.000000;0.760942
9246.000000;0.760889
9245.000000;0.761144
9244.000000;0.761453
9243.000000;0.761564
9242.000000;0.761467
9241.000000;0.761269
9240.000000;0.760950
9239.000000;0.760482
9238.000000;0.760048
9237.000000;0.759859
9236.000000;0.759789
9235.000000;0.759518
9234.000000;0.759012
9233.000000;0.758558
9232.000000;0.758310
9231.000000;0.758098
9230.000000;0.757759
9229.000000;0.757348
9228.000000;0.756950
9227.000000;0.756540
9226.000000;0.756136
9225.000000;0.755854
9224.000000;0.755698
9223.000000;0.755502
9222.000000;0.755180
9221.000000;0.754845
9220.000000;0.754604
9219.000000;0.754414
9218.000000;0.754181
9217.000000;0.753849
9216.000000;0.753380
9215.000000;0.752835
9214.000000;0.752475
9213.000000;0.752535
9212.000000;0.752843
9211.000000;0.752899
9210.000000;0.752432
9209.000000;0.751680
9208.000000;0.751067
9207.000000;0.750789
9206.000000;0.750792
9205.000000;0.750922
9204.000000;0.750998
9203.000000;0.750895
9202.000000;0.750642
9201.000000;0.750342
9200.000000;0.749989
9199.000000;0.749513
9198.000000;0.748978
9197.000000;0.748519
9196.000000;0.748137
9195.000000;0.747760
9194.000000;0.747505
9193.000000;0.747562
9192.000000;0.747799
9191.000000;0.747780
9190.000000;0.747323
9189.000000;0.746761
9188.000000;0.746491
9187.000000;0.746497
9186.000000;0.746495
9185.000000;0.746365
9184.000000;0.746248
9183.000000;0.746286
9182.000000;0.746424
9181.000000;0.746453
9180.000000;0.746170
9179.000000;0.745551
9178.000000;0.744793
9177.000000;0.744160
9176.000000;0.743772
9175.000000;0.743579
9174.000000;0.743457
9173.000000;0.743257
9172.000000;0.742865
9171.000000;0.742361
9170.000000;0.742019
9169.000000;0.741988
9168.000000;0.742070
9167.000000;0.741959
9166.000000;0.741606
9165.000000;0.741155
9164.000000;0.740666
9163.000000;0.740160
9162.000000;0.739807
9161.000000;0.739749
9160.000000;0.739791
9159.000000;0.739589
9158.000000;0.739131
9157.000000;0.738725
9156.000000;0.738516
9155.000000;0.738341
9154.000000;0.738076
9153.000000;0.737819
9152.000000;0.737652
9151.000000;0.737528
9150.000000;0.737438
9149.000000;0.737432
9148.000000;0.737393
9147.000000;0.737062
9146.000000;0.736396
9145.000000;0.735661
9144.000000;0.735115
9143.000000;0.734807
9142.000000;0.734720
9141.000000;0.734849
9140.000000;0.735045
9139.000000;0.735043
9138.000000;0.734766
9137.000000;0.734422
9136.000000;0.734204
9135.000000;0.734086
9134.000000;0.733987
9133.000000;0.733931
9132.000000;0.733919
9131.000000;0.733824
9130.000000;0.733526
9129.000000;0.733049
9128.000000;0.732495
9127.000000;0.731980
9126.000000;0.731636
9125.000000;0.731537
9124.000000;0.731588
9123.000000;0.731610
9122.000000;0.731543
9121.000000;0.731448
9120.000000;0.731339
9119.000000;0.731169
9118.000000;0.730936
9117.000000;0.730648
9116.000000;0.730232
9115.000000;0.729668
9114.000000;0.729139
9113.000000;0.728816
9112.000000;0.728590
9111.000000;0.728250
9110.000000;0.727862
9109.000000;0.727660
9108.000000;0.727623
9107.000000;0.727516
9106.000000;0.727345
9105.000000;0.727393
9104.000000;0.727716
9103.000000;0.727931
9102.000000;0.727681
9101.000000;0.727057
9100.000000;0.726429
9099.000000;0.726056
9098.000000;0.725970
9097.000000;0.726037
9096.000000;0.726032
9095.000000;0.725793
9094.000000;0.725400
9093.000000;0.725080
9092.000000;0.724940
9091.000000;0.724911
9090.000000;0.724910
9089.000000;0.724867
9088.000000;0.724649
9087.000000;0.724193
9086.000000;0.723697
9085.000000;0.723418
9084.000000;0.723311
9083.000000;0.723101
9082.000000;0.722704
9081.000000;0.722282
9080.000000;0.721900
9079.000000;0.721435
9078.000000;0.720893
9077.000000;0.720494
9076.000000;0.720373
9075.000000;0.720442
9074.000000;0.720606
9073.000000;0.720831
9072.000000;0.720949
9071.000000;0.720684
9070.000000;0.720005
9069.000000;0.719214
9068.000000;0.718626
9067.000000;0.718331
9066.000000;0.718330
9065.000000;0.718588
9064.000000;0.718886
9063.000000;0.718898
9062.000000;0.718555
9061.000000;0.718124
9060.000000;0.717824
9059.000000;0.717589
9058.000000;0.717293
9057.000000;0.716963
9056.000000;0.716652
9055.000000;0.716316
9054.000000;0.715948
9053.000000;0.715663
9052.000000;0.715547
9051.000000;0.715552
9050.000000;0.715635
9049.000000;0.715816
9048.000000;0.716036
9047.000000;0.716118
9046.000000;0.715935
9045.000000;0.715499
9044.000000;0.714863
9043.000000;0.714112
9042.000000;0.713462
9041.000000;0.713147
9040.000000;0.713161
9039.000000;0.713291
9038.000000;0.713430
9037.000000;0.713602
9036.000000;0.713697
9035.000000;0.713448
9034.000000;0.712818
9033.000000;0.712154
9032.000000;0.711824
9031.000000;0.711854
9030.000000;0.711987
9029.000000;0.711973
9028.000000;0.711729
9027.000000;0.711379
9026.000000;0.711179
9025.000000;0.711234
9024.000000;0.711304
9023.000000;0.711024
9022.000000;0.710332
9021.000000;0.709493
9020.000000;0.708752
9019.000000;0.708198
9018.000000;0.707926
9017.000000;0.708006
9016.000000;0.708268
9015.000000;0.708397
9014.000000;0.708325
9013.000000;0.708267
9012.000000;0.708339
9011.000000;0.708415
9010.000000;0.708423
9009.000000;0.708488
9008.000000;0.708658
9007.000000;0.708739
9006.000000;0.708548
9005.000000;0.708145
9004.000000;0.707691
9003.000000;0.707283
9002.000000;0.706996
9001.000000;0.706857
9000.000000;0.706711
8999.000000;0.706329
8998.000000;0.705758
8997.000000;0.705347
8996.000000;0.705321
8995.000000;0.705537
8994.000000;0.705742
8993.000000;0.705841
8992.000000;0.705804
8991.000000;0.705546
8990.000000;0.705069
8989.000000;0.704552
8988.000000;0.704168
8987.000000;0.703929
8986.000000;0.703789
8985.000000;0.703709
8984.000000;0.703579
8983.000000;0.703255
8982.000000;0.702777
8981.000000;0.702381
8980.000000;0.702203
8979.000000;0.702139
8978.000000;0.702060
8977.000000;0.701966
8976.000000;0.701864
8975.000000;0.701678
8974.000000;0.701389
8973.000000;0.701113
8972.000000;0.700949
8971.000000;0.700871
8970.000000;0.700835
8969.000000;0.700826
8968.000000;0.700785
8967.000000;0.700645
8966.000000;0.700451
8965.000000;0.700291
8964.000000;0.700107
8963.000000;0.699785
8962.000000;0.699430
8961.000000;0.699296
8960.000000;0.699418
8959.000000;0.699556
8958.000000;0.699548
8957.000000;0.699450
8956.000000;0.699276
8955.000000;0.698916
8954.000000;0.698430
8953.000000;0.698133
8952.000000;0.698196
8951.000000;0.698404
8950.000000;0.698456
8949.000000;0.698299
8948.000000;0.698006
8947.000000;0.697563
8946.000000;0.696975
8945.000000;0.696431
8944.000000;0.696141
8943.000000;0.696093
8942.000000;0.696117
8941.000000;0.696066
8940.000000;0.695858
8939.000000;0.695482
8938.000000;0.695089
8937.000000;0.694923
8936.000000;0.695060
8935.000000;0.695311
8934.000000;0.695474
8933.000000;0.695531
8932.000000;0.695502
8931.000000;0.695307
8930.000000;0.694908
8929.000000;0.694465
8928.000000;0.694175
8927.000000;0.694053
8926.000000;0.693980
8925.000000;0.693888
8924.000000;0.693778
8923.000000;0.693646
8922.000000;0.693504
8921.000000;0.693414
8920.000000;0.693415
8919.000000;0.693463
8918.000000;0.693482
8917.000000;0.693427
8916.000000;0.693252
8915.000000;0.692931
8914.000000;0.692522
8913.000000;0.692134
8912.000000;0.691828
8911.000000;0.691629
8910.000000;0.691611
8909.000000;0.691816
8908.000000;0.692077
8907.000000;0.692092
8906.000000;0.691725
8905.000000;0.691115
8904.000000;0.690476
8903.000000;0.689942
8902.000000;0.689605
8901.000000;0.689507
8900.000000;0.689545
8899.000000;0.689535
8898.000000;0.689450
8897.000000;0.689413
8896.000000;0.689426
8895.000000;0.689294
8894.000000;0.688926
8893.000000;0.688548
8892.000000;0.688460
8891.000000;0.688697
8890.000000;0.689026
8889.000000;0.689229
8888.000000;0.689295
8887.000000;0.689352
8886.000000;0.689463
8885.000000;0.689507
8884.000000;0.689304
8883.000000;0.688866
8882.000000;0.688449
8881.000000;0.688243
8880.000000;0.688133
8879.000000;0.687887
8878.000000;0.687485
8877.000000;0.687102
8876.000000;0.686821
8875.000000;0.686594
8874.000000;0.686415
8873.000000;0.686317
8872.000000;0.686215
8871.000000;0.685989
8870.000000;0.685728
8869.000000;0.685675
8868.000000;0.685893
8867.000000;0.686198
8866.000000;0.686414
8865.000000;0.686508
8864.000000;0.686462
8863.000000;0.686257
8862.000000;0.686024
8861.000000;0.685966
8860.000000;0.686062
8859.000000;0.686050
8858.000000;0.685772
8857.000000;0.685332
8856.000000;0.684883
8855.000000;0.684494
8854.000000;0.684274
8853.000000;0.684367
8852.000000;0.684691
8851.000000;0.684907
8850.000000;0.684802
8849.000000;0.684530
8848.000000;0.684339
8847.000000;0.684241
8846.000000;0.684092
8845.000000;0.683851
8844.000000;0.683602
8843.000000;0.683417
8842.000000;0.683335
8841.000000;0.683386
8840.000000;0.683516
8839.000000;0.683575
8838.000000;0.683498
8837.000000;0.683409
8836.000000;0.683458
8835.000000;0.683621
8834.000000;0.683744
8833.000000;0.683701
8832.000000;0.683467
8831.000000;0.683108
8830.000000;0.682768
8829.000000;0.682607
8828.000000;0.682679
8827.000000;0.682897
8826.000000;0.683138
8825.000000;0.683343
8824.000000;0.683533
8823.000000;0.683787
8822.000000;0.684177
8821.000000;0.684639
8820.000000;0.684940
8819.000000;0.684884
8818.000000;0.684529
8817.000000;0.684110
8816.000000;0.683808
8815.000000;0.683714
8814.000000;0.683918
8813.000000;0.684426
8812.000000;0.684975
8811.000000;0.685177
8810.000000;0.684904
8809.000000;0.684410
8808.000000;0.684022
8807.000000;0.683845
8806.000000;0.683802
8805.000000;0.683796
8804.000000;0.683785
8803.000000;0.683779
8802.000000;0.683828
8801.000000;0.683933
8800.000000;0.684005
8799.000000;0.683968
8798.000000;0.683874
8797.000000;0.683816
8796.000000;0.683780
8795.000000;0.683706
8794.000000;0.683615
8793.000000;0.683568
8792.000000;0.683550
8791.000000;0.683555
8790.000000;0.683705
8789.000000;0.684080
8788.000000;0.684511
8787.000000;0.684742
8786.000000;0.684770
8785.000000;0.684810
8784.000000;0.684949
8783.000000;0.685064
8782.000000;0.685058
8781.000000;0.684957
8780.000000;0.684755
8779.000000;0.684422
8778.000000;0.684078
8777.000000;0.683935
8776.000000;0.684021
8775.000000;0.684187
8774.000000;0.684405
8773.000000;0.684810
8772.000000;0.685359
8771.000000;0.685725
8770.000000;0.685689
8769.000000;0.685456
8768.000000;0.685421
8767.000000;0.685749
8766.000000;0.686265
8765.000000;0.686671
8764.000000;0.686760
8763.000000;0.686531
8762.000000;0.686179
8761.000000;0.685930
8760.000000;0.685854
8759.000000;0.685896
8758.000000;0.686034
8757.000000;0.686287
8756.000000;0.686585
8755.000000;0.686789
8754.000000;0.686855
8753.000000;0.686866
8752.000000;0.686883
8751.000000;0.686897
8750.000000;0.686914
8749.000000;0.686946
8748.000000;0.686931
8747.000000;0.686816
8746.000000;0.686725
8745.000000;0.686851
8744.000000;0.687191
8743.000000;0.687551
8742.000000;0.687840
8741.000000;0.688183
8740.000000;0.688652
8739.000000;0.689079
8738.000000;0.689218
8737.000000;0.689036
8736.000000;0.688751
8735.000000;0.688642
8734.000000;0.688830
8733.000000;0.689182
8732.000000;0.689430
8731.000000;0.689445
8730.000000;0.689362
8729.000000;0.689400
8728.000000;0.689608
8727.000000;0.689891
8726.000000;0.690168
8725.000000;0.690390
8724.000000;0.690493
8723.000000;0.690473
8722.000000;0.690456
8721.000000;0.690537
8720.000000;0.690651
8719.000000;0.690724
8718.000000;0.690839
8717.000000;0.691054
8716.000000;0.691204
8715.000000;0.691104
8714.000000;0.690869
8713.000000;0.690759
8712.000000;0.690791
8711.000000;0.690773
8710.000000;0.690694
8709.000000;0.690754
8708.000000;0.691001
8707.000000;0.691211
8706.000000;0.691190
8705.000000;0.690984
8704.000000;0.690760
8703.000000;0.690683
8702.000000;0.690908
8701.000000;0.691446
8700.000000;0.692010
8699.000000;0.692223
8698.000000;0.692046
8697.000000;0.691798
8696.000000;0.691721
8695.000000;0.691754
8694.000000;0.691780
8693.000000;0.691824
8692.000000;0.691917
8691.000000;0.691966
8690.000000;0.691895
8689.000000;0.691773
8688.000000;0.691696
8687.000000;0.691670
8686.000000;0.691651
8685.000000;0.691623
8684.000000;0.691585
8683.000000;0.691576
8682.000000;0.691702
8681.000000;0.692004
8680.000000;0.692325
8679.000000;0.692462
8678.000000;0.692445
8677.000000;0.692482
8676.000000;0.692636
8675.000000;0.692732
8674.000000;0.692611
8673.000000;0.692303
8672.000000;0.691938
8671.000000;0.691640
8670.000000;0.691529
8669.000000;0.691664
8668.000000;0.691937
8667.000000;0.692157
8666.000000;0.692238
8665.000000;0.692192
8664.000000;0.691986
8663.000000;0.691584
8662.000000;0.691101
8661.000000;0.690742
8660.000000;0.690571
8659.000000;0.690488
8658.000000;0.690406
8657.000000;0.690300
8656.000000;0.690136
8655.000000;0.689931
8654.000000;0.689835
8653.000000;0.689966
8652.000000;0.690187
8651.000000;0.690264
8650.000000;0.690200
8649.000000;0.690195
8648.000000;0.690311
8647.000000;0.690411
8646.000000;0.690423
8645.000000;0.690408
8644.000000;0.690359
8643.000000;0.690159
8642.000000;0.689812
8641.000000;0.689497
8640.000000;0.689350
8639.000000;0.689356
8638.000000;0.689463
8637.000000;0.689617
8636.000000;0.689678
8635.000000;0.689501
8634.000000;0.689132
8633.000000;0.688753
8632.000000;0.688437
8631.000000;0.688141
8630.000000;0.687903
8629.000000;0.687831
8628.000000;0.687894
8627.000000;0.687937
8626.000000;0.687904
8625.000000;0.687851
8624.000000;0.687767
8623.000000;0.687598
8622.000000;0.687437
8621.000000;0.687429
8620.000000;0.687493
8619.000000;0.687393
8618.000000;0.687112
8617.000000;0.686904
8616.000000;0.686918
8615.000000;0.687018
8614.000000;0.687015
8613.000000;0.686871
8612.000000;0.686618
8611.000000;0.686301
8610.000000;0.686047
8609.000000;0.685985
8608.000000;0.686044
8607.000000;0.686014
8606.000000;0.685832
8605.000000;0.685616
8604.000000;0.685433
8603.000000;0.685223
8602.000000;0.684984
8601.000000;0.684774
8600.000000;0.684554
8599.000000;0.684241
8598.000000;0.683928
8597.000000;0.683788
8596.000000;0.683753
8595.000000;0.683592
8594.000000;0.683319
8593.000000;0.683211
8592.000000;0.683346
8591.000000;0.683440
8590.000000;0.683287
8589.000000;0.683043
8588.000000;0.682921
8587.000000;0.682862
8586.000000;0.682721
8585.000000;0.682540
8584.000000;0.682451
8583.000000;0.682473
8582.000000;0.682554
8581.000000;0.682661
8580.000000;0.682670
8579.000000;0.682357
8578.000000;0.681665
8577.000000;0.680869
8576.000000;0.680292
8575.000000;0.679993
8574.000000;0.679849
8573.000000;0.679783
8572.000000;0.679785
8571.000000;0.679811
8570.000000;0.679832
8569.000000;0.679904
8568.000000;0.680031
8567.000000;0.680035
8566.000000;0.679697
8565.000000;0.679034
8564.000000;0.678329
8563.000000;0.677894
8562.000000;0.677823
8561.000000;0.677943
8560.000000;0.677972
8559.000000;0.677779
8558.000000;0.677494
8557.000000;0.677335
8556.000000;0.677362
8555.000000;0.677458
8554.000000;0.677489
8553.000000;0.677370
8552.000000;0.677055
8551.000000;0.676604
8550.000000;0.676236
8549.000000;0.676139
8548.000000;0.676238
8547.000000;0.676278
8546.000000;0.676137
8545.000000;0.675917
8544.000000;0.675743
8543.000000;0.675627
8542.000000;0.675512
8541.000000;0.675313
8540.000000;0.674917
8539.000000;0.674337
8538.000000;0.673826
8537.000000;0.673681
8536.000000;0.673905
8535.000000;0.674219
8534.000000;0.674368
8533.000000;0.674268
8532.000000;0.673901
8531.000000;0.673305
8530.000000;0.672682
8529.000000;0.672298
8528.000000;0.672204
8527.000000;0.672224
8526.000000;0.672202
8525.000000;0.672120
8524.000000;0.671970
8523.000000;0.671748
8522.000000;0.671577
8521.000000;0.671598
8520.000000;0.671704
8519.000000;0.671595
8518.000000;0.671185
8517.000000;0.670740
8516.000000;0.670525
8515.000000;0.670493
8514.000000;0.670431
8513.000000;0.670251
8512.000000;0.670024
8511.000000;0.669858
8510.000000;0.669821
8509.000000;0.669896
8508.000000;0.669931
8507.000000;0.669754
8506.000000;0.669369
8505.000000;0.668960
8504.000000;0.668683
8503.000000;0.668551
8502.000000;0.668511
8501.000000;0.668510
8500.000000;0.668471
8499.000000;0.668345
8498.000000;0.668186
8497.000000;0.668052
8496.000000;0.667878
8495.000000;0.667586
8494.000000;0.667296
8493.000000;0.667231
8492.000000;0.667414
8491.000000;0.667611
8490.000000;0.667611
8489.000000;0.667371
8488.000000;0.666911
8487.000000;0.666276
8486.000000;0.665640
8485.000000;0.665253
8484.000000;0.665206
8483.000000;0.665377
8482.000000;0.665622
8481.000000;0.665870
8480.000000;0.666007
8479.000000;0.665886
8478.000000;0.665510
8477.000000;0.665067
8476.000000;0.664718
8475.000000;0.664467
8474.000000;0.664265
8473.000000;0.664093
8472.000000;0.663908
8471.000000;0.663677
8470.000000;0.663463
8469.000000;0.663371
8468.000000;0.663375
8467.000000;0.663346
8466.000000;0.663271
8465.000000;0.663271
8464.000000;0.663378
8463.000000;0.663468
8462.000000;0.663415
8461.000000;0.663191
8460.000000;0.662794
8459.000000;0.662248
8458.000000;0.661720
8457.000000;0.661449
8456.000000;0.661493
8455.000000;0.661666
8454.000000;0.661746
8453.000000;0.661646
8452.000000;0.661383
8451.000000;0.661031
8450.000000;0.660737
8449.000000;0.660618
8448.000000;0.660625
8447.000000;0.660600
8446.000000;0.660484
8445.000000;0.660338
8444.000000;0.660191
8443.000000;0.660010
8442.000000;0.659814
8441.000000;0.659649
8440.000000;0.659489
8439.000000;0.659301
8438.000000;0.659182
8437.000000;0.659223
8436.000000;0.659273
8435.000000;0.659065
8434.000000;0.658583
8433.000000;0.658088
8432.000000;0.657772
8431.000000;0.657594
8430.000000;0.657492
8429.000000;0.657506
8428.000000;0.657600
8427.000000;0.657579
8426.000000;0.657298
8425.000000;0.656829
8424.000000;0.656358
8423.000000;0.656041
8422.000000;0.655976
8421.000000;0.656153
8420.000000;0.656385
8419.000000;0.656437
8418.000000;0.656280
8417.000000;0.656087
8416.000000;0.655972
8415.000000;0.655894
8414.000000;0.655815
8413.000000;0.655758
8412.000000;0.655678
8411.000000;0.655477
8410.000000;0.655199
8409.000000;0.655037
8408.000000;0.655067
8407.000000;0.655147
8406.000000;0.655107
8405.000000;0.654906
8404.000000;0.654552
8403.000000;0.654067
8402.000000;0.653596
8401.000000;0.653361
8400.000000;0.653414
8399.000000;0.653558
8398.000000;0.653599
8397.000000;0.653516
8396.000000;0.653351
8395.000000;0.653086
8394.000000;0.652725
8393.000000;0.652361
8392.000000;0.652067
8391.000000;0.651826
8390.000000;0.651640
8389.000000;0.651569
8388.000000;0.651596
8387.000000;0.651565
8386.000000;0.651350
8385.000000;0.651007
8384.000000;0.650705
8383.000000;0.650568
8382.000000;0.650607
8381.000000;0.650732
8380.000000;0.650793
8379.000000;0.650705
8378.000000;0.650522
8377.000000;0.650318
8376.000000;0.650043
8375.000000;0.649615
8374.000000;0.649139
8373.000000;0.648856
8372.000000;0.648863
8371.000000;0.649028
8370.000000;0.649181
8369.000000;0.649231
8368.000000;0.649101
8367.000000;0.648743
8366.000000;0.648261
8365.000000;0.647883
8364.000000;0.647720
8363.000000;0.647675
8362.000000;0.647618
8361.000000;0.647524
8360.000000;0.647395
8359.000000;0.647199
8358.000000;0.646945
8357.000000;0.646718
8356.000000;0.646571
8355.000000;0.646457
8354.000000;0.646294
8353.000000;0.646036
8352.000000;0.645685
8351.000000;0.645325
8350.000000;0.645114
8349.000000;0.645137
8348.000000;0.645266
8347.000000;0.645263
8346.000000;0.645022
8345.000000;0.644626
8344.000000;0.644192
8343.000000;0.643803
8342.000000;0.643525
8341.000000;0.643363
8340.000000;0.643212
8339.000000;0.643009
8338.000000;0.642883
8337.000000;0.643013
8336.000000;0.643334
8335.000000;0.643552
8334.000000;0.643446
8333.000000;0.643038
8332.000000;0.642498
8331.000000;0.642016
8330.000000;0.641726
8329.000000;0.641597
8328.000000;0.641422
8327.000000;0.641086
8326.000000;0.640769
8325.000000;0.640709
8324.000000;0.640807
8323.000000;0.640732
8322.000000;0.640386
8321.000000;0.640023
8320.000000;0.639873
8319.000000;0.639883
8318.000000;0.639894
8317.000000;0.639831
8316.000000;0.639652
8315.000000;0.639314
8314.000000;0.638892
8313.000000;0.638576
8312.000000;0.638455
8311.000000;0.638421
8310.000000;0.638338
8309.000000;0.638180
8308.000000;0.637975
8307.000000;0.637738
8306.000000;0.637510
8305.000000;0.637324
8304.000000;0.637113
8303.000000;0.636797
8302.000000;0.636465
8301.000000;0.636323
8300.000000;0.636429
8299.000000;0.636618
8298.000000;0.636719
8297.000000;0.636672
8296.000000;0.636428
8295.000000;0.635940
8294.000000;0.635298
8293.000000;0.634729
8292.000000;0.634374
8291.000000;0.634195
8290.000000;0.634110
8289.000000;0.634089
8288.000000;0.634091
8287.000000;0.634050
8286.000000;0.633973
8285.000000;0.633908
8284.000000;0.633808
8283.000000;0.633558
8282.000000;0.633166
8281.000000;0.632763
8280.000000;0.632422
8279.000000;0.632138
8278.000000;0.631974
8277.000000;0.632031
8276.000000;0.632218
8275.000000;0.632269
8274.000000;0.632062
8273.000000;0.631748
8272.000000;0.631504
8271.000000;0.631331
8270.000000;0.631159
8269.000000;0.630970
8268.000000;0.630736
8267.000000;0.630396
8266.000000;0.629979
8265.000000;0.629622
8264.000000;0.629392
8263.000000;0.629215
8262.000000;0.629055
8261.000000;0.628977
8260.000000;0.628986
8259.000000;0.628941
8258.000000;0.628738
8257.000000;0.628435
8256.000000;0.628124
8255.000000;0.627787
8254.000000;0.627385
8253.000000;0.626968
8252.000000;0.626618
8251.000000;0.626373
8250.000000;0.626271
8249.000000;0.626348
8248.000000;0.626542
8247.000000;0.626688
8246.000000;0.626677
8245.000000;0.626530
8244.000000;0.626307
8243.000000;0.626045
8242.000000;0.625818
8241.000000;0.625694
8240.000000;0.625606
8239.000000;0.625412
8238.000000;0.625125
8237.000000;0.624918
8236.000000;0.624830
8235.000000;0.624644
8234.000000;0.624188
8233.000000;0.623605
8232.000000;0.623200
8231.000000;0.623106
8230.000000;0.623212
8229.000000;0.623336
8228.000000;0.623357
8227.000000;0.623238
8226.000000;0.623017
8225.000000;0.622777
8224.000000;0.622559
8223.000000;0.622329
8222.000000;0.622057
8221.000000;0.621760
8220.000000;0.621458
8219.000000;0.621166
8218.000000;0.620944
8217.000000;0.620878
8216.000000;0.620954
8215.000000;0.621022
8214.000000;0.620928
8213.000000;0.620635
8212.000000;0.620201
8211.000000;0.619713
8210.000000;0.619259
8209.000000;0.618898
8208.000000;0.618637
8207.000000;0.618457
8206.000000;0.618348
8205.000000;0.618265
8204.000000;0.618103
8203.000000;0.617812
8202.000000;0.617521
8201.000000;0.617424
8200.000000;0.617537
8199.000000;0.617694
8198.000000;0.617755
8197.000000;0.617705
8196.000000;0.617547
8195.000000;0.617243
8194.000000;0.616815
8193.000000;0.616361
8192.000000;0.615958
8191.000000;0.615617
8190.000000;0.615367
8189.000000;0.615252
8188.000000;0.615225
8187.000000;0.615159
8186.000000;0.615003
8185.000000;0.614829
8184.000000;0.614697
8183.000000;0.614580
8182.000000;0.614453
8181.000000;0.614352
8180.000000;0.614293
8179.000000;0.614215
8178.000000;0.614058
8177.000000;0.613824
8176.000000;0.613541
8175.000000;0.613228
8174.000000;0.612913
8173.000000;0.612619
8172.000000;0.612340
8171.000000;0.612086
8170.000000;0.611943
8169.000000;0.611982
8168.000000;0.612102
8167.000000;0.612093
8166.000000;0.611863
8165.000000;0.611506
8164.000000;0.611136
8163.000000;0.610755
8162.000000;0.610345
8161.000000;0.609989
8160.000000;0.609819
8159.000000;0.609868
8158.000000;0.610006
8157.000000;0.610023
8156.000000;0.609802
8155.000000;0.609446
8154.000000;0.609190
8153.000000;0.609139
8152.000000;0.609144
8151.000000;0.609000
8150.000000;0.608688
8149.000000;0.608335
8148.000000;0.608014
8147.000000;0.607696
8146.000000;0.607364
8145.000000;0.607049
8144.000000;0.606771
8143.000000;0.606541
8142.000000;0.606395
8141.000000;0.606314
8140.000000;0.606181
8139.000000;0.605913
8138.000000;0.605593
8137.000000;0.605341
8136.000000;0.605125
8135.000000;0.604835
8134.000000;0.604494
8133.000000;0.604248
8132.000000;0.604151
8131.000000;0.604126
8130.000000;0.604101
8129.000000;0.604036
8128.000000;0.603863
8127.000000;0.603547
8126.000000;0.603198
8125.000000;0.602974
8124.000000;0.602864
8123.000000;0.602721
8122.000000;0.602488
8121.000000;0.602231
8120.000000;0.601972
8119.000000;0.601657
8118.000000;0.601296
8117.000000;0.600981
8116.000000;0.600744
8115.000000;0.600548
8114.000000;0.600437
8113.000000;0.600498
8112.000000;0.600653
8111.000000;0.600655
8110.000000;0.600361
8109.000000;0.599897
8108.000000;0.599494
8107.000000;0.599270
8106.000000;0.599198
8105.000000;0.599170
8104.000000;0.599052
8103.000000;0.598785
8102.000000;0.598462
8101.000000;0.598228
8100.000000;0.598103
8099.000000;0.597996
8098.000000;0.597864
8097.000000;0.597749
8096.000000;0.597653
8095.000000;0.597518
8094.000000;0.597325
8093.000000;0.597100
8092.000000;0.596816
8091.000000;0.596429
8090.000000;0.596012
8089.000000;0.595717
8088.000000;0.595577
8087.000000;0.595471
8086.000000;0.595298
8085.000000;0.595079
8084.000000;0.594870
8083.000000;0.594685
8082.000000;0.594529
8081.000000;0.594408
8080.000000;0.594292
8079.000000;0.594159
8078.000000;0.594060
8077.000000;0.594029
8076.000000;0.593964
8075.000000;0.593735
8074.000000;0.593384
8073.000000;0.593090
8072.000000;0.592921
8071.000000;0.592765
8070.000000;0.592504
8069.000000;0.592127
8068.000000;0.591679
8067.000000;0.591242
8066.000000;0.590954
8065.000000;0.590900
8064.000000;0.590950
8063.000000;0.590866
8062.000000;0.590566
8061.000000;0.590177
8060.000000;0.589832
8059.000000;0.589566
8058.000000;0.589400
8057.000000;0.589338
8056.000000;0.589279
8055.000000;0.589093
8054.000000;0.588827
8053.000000;0.588660
8052.000000;0.588622
8051.000000;0.588530
8050.000000;0.588261
8049.000000;0.587921
8048.000000;0.587656
8047.000000;0.587453
8046.000000;0.587233
8045.000000;0.587014
8044.000000;0.586863
8043.000000;0.586767
8042.000000;0.586640
8041.000000;0.586427
8040.000000;0.586136
8039.000000;0.585816
8038.000000;0.585527
8037.000000;0.585311
8036.000000;0.585173
8035.000000;0.585112
8034.000000;0.585147
8033.000000;0.585225
8032.000000;0.585185
8031.000000;0.584898
8030.000000;0.584445
8029.000000;0.584032
8028.000000;0.583776
8027.000000;0.583655
8026.000000;0.583626
8025.000000;0.583642
8024.000000;0.583591
8023.000000;0.583381
8022.000000;0.583079
8021.000000;0.582834
8020.000000;0.582649
8019.000000;0.582384
8018.000000;0.581977
8017.000000;0.581509
8016.000000;0.581053
8015.000000;0.580616
8014.000000;0.580242
8013.000000;0.580042
8012.000000;0.580049
8011.000000;0.580180
8010.000000;0.580332
8009.000000;0.580434
8008.000000;0.580388
8007.000000;0.580141
8006.000000;0.579812
8005.000000;0.579599
8004.000000;0.579524
8003.000000;0.579410
8002.000000;0.579124
8001.000000;0.578706
8000.000000;0.578238
7999.000000;0.577747
7998.000000;0.577296
7997.000000;0.577000
7996.000000;0.576878
7995.000000;0.576808
7994.000000;0.576699
7993.000000;0.576589
7992.000000;0.576529
7991.000000;0.576485
7990.000000;0.576401
7989.000000;0.576252
7988.000000;0.576013
7987.000000;0.575671
7986.000000;0.575321
7985.000000;0.575109
7984.000000;0.575026
7983.000000;0.574889
7982.000000;0.574579
7981.000000;0.574200
7980.000000;0.573916
7979.000000;0.573744
7978.000000;0.573582
7977.000000;0.573368
7976.000000;0.573139
7975.000000;0.572966
7974.000000;0.572871
7973.000000;0.572787
7972.000000;0.572597
7971.000000;0.572284
7970.000000;0.571991
7969.000000;0.571844
7968.000000;0.571750
7967.000000;0.571505
7966.000000;0.571086
7965.000000;0.570679
7964.000000;0.570415
7963.000000;0.570230
7962.000000;0.570035
7961.000000;0.569845
7960.000000;0.569677
7959.000000;0.569462
7958.000000;0.569163
7957.000000;0.568873
7956.000000;0.568693
7955.000000;0.568582
7954.000000;0.568418
7953.000000;0.568154
7952.000000;0.567820
7951.000000;0.567444
7950.000000;0.567042
7949.000000;0.566664
7948.000000;0.566391
7947.000000;0.566263
7946.000000;0.566243
7945.000000;0.566246
7944.000000;0.566204
7943.000000;0.566124
7942.000000;0.566061
7941.000000;0.566024
7940.000000;0.565951
7939.000000;0.565793
7938.000000;0.565569
7937.000000;0.565306
7936.000000;0.565002
7935.000000;0.564708
7934.000000;0.564532
7933.000000;0.564484
7932.000000;0.564386
7931.000000;0.564080
7930.000000;0.563662
7929.000000;0.563360
7928.000000;0.563238
7927.000000;0.563176
7926.000000;0.563076
7925.000000;0.562951
7924.000000;0.562807
7923.000000;0.562609
7922.000000;0.562384
7921.000000;0.562203
7920.000000;0.562064
7919.000000;0.561895
7918.000000;0.561668
7917.000000;0.561404
7916.000000;0.561089
7915.000000;0.560700
7914.000000;0.560315
7913.000000;0.560048
7912.000000;0.559884
7911.000000;0.559719
7910.000000;0.559539
7909.000000;0.559405
7908.000000;0.559288
7907.000000;0.559077
7906.000000;0.558782
7905.000000;0.558556
7904.000000;0.558471
7903.000000;0.558436
7902.000000;0.558354
7901.000000;0.558235
7900.000000;0.558090
7899.000000;0.557883
7898.000000;0.557622
7897.000000;0.557383
7896.000000;0.557174
7895.000000;0.556911
7894.000000;0.556563
7893.000000;0.556225
7892.000000;0.555985
7891.000000;0.555827
7890.000000;0.555708
7889.000000;0.555615
7888.000000;0.555509
7887.000000;0.555322
7886.000000;0.555061
7885.000000;0.554827
7884.000000;0.554681
7883.000000;0.554590
7882.000000;0.554510
7881.000000;0.554442
7880.000000;0.554368
7879.000000;0.554229
7878.000000;0.554019
7877.000000;0.553789
7876.000000;0.553552
7875.000000;0.553272
7874.000000;0.552954
7873.000000;0.552657
7872.000000;0.552399
7871.000000;0.552146
7870.000000;0.551908
7869.000000;0.551734
7868.000000;0.551605
7867.000000;0.551433
7866.000000;0.551209
7865.000000;0.551020
7864.000000;0.550907
7863.000000;0.550805
7862.000000;0.550654
7861.000000;0.550462
7860.000000;0.550239
7859.000000;0.549979
7858.000000;0.549735
7857.000000;0.549612
7856.000000;0.549647
7855.000000;0.549778
7854.000000;0.549932
7853.000000;0.550053
7852.000000;0.550034
7851.000000;0.549763
7850.000000;0.549282
7849.000000;0.548780
7848.000000;0.548391
7847.000000;0.548096
7846.000000;0.547834
7845.000000;0.547594
7844.000000;0.547367
7843.000000;0.547134
7842.000000;0.546944
7841.000000;0.546883
7840.000000;0.546923
7839.000000;0.546910
7838.000000;0.546757
7837.000000;0.546547
7836.000000;0.546384
7835.000000;0.546251
7834.000000;0.546073
7833.000000;0.545838
7832.000000;0.545591
7831.000000;0.545373
7830.000000;0.545202
7829.000000;0.545069
7828.000000;0.544927
7827.000000;0.544743
7826.000000;0.544577
7825.000000;0.544506
7824.000000;0.544486
7823.000000;0.544378
7822.000000;0.544128
7821.000000;0.543813
7820.000000;0.543504
7819.000000;0.543214
7818.000000;0.542984
7817.000000;0.542888
7816.000000;0.542889
7815.000000;0.542818
7814.000000;0.542577
7813.000000;0.542262
7812.000000;0.542035
7811.000000;0.541939
7810.000000;0.541920
7809.000000;0.541913
7808.000000;0.541845
7807.000000;0.541638
7806.000000;0.541294
7805.000000;0.540932
7804.000000;0.540678
7803.000000;0.540555
7802.000000;0.540507
7801.000000;0.540481
7800.000000;0.540452
7799.000000;0.540408
7798.000000;0.540358
7797.000000;0.540306
7796.000000;0.540211
7795.000000;0.540034
7794.000000;0.539817
7793.000000;0.539642
7792.000000;0.539514
7791.000000;0.539356
7790.000000;0.539141
7789.000000;0.538936
7788.000000;0.538794
7787.000000;0.538680
7786.000000;0.538531
7785.000000;0.538325
7784.000000;0.538060
7783.000000;0.537760
7782.000000;0.537499
7781.000000;0.537363
7780.000000;0.537328
7779.000000;0.537270
7778.000000;0.537109
7777.000000;0.536894
7776.000000;0.536716
7775.000000;0.536608
7774.000000;0.536560
7773.000000;0.536546
7772.000000;0.536504
7771.000000;0.536350
7770.000000;0.536083
7769.000000;0.535824
7768.000000;0.535701
7767.000000;0.535722
7766.000000;0.535766
7765.000000;0.535693
7764.000000;0.535439
7763.000000;0.535071
7762.000000;0.534741
7761.000000;0.534555
7760.000000;0.534485
7759.000000;0.534433
7758.000000;0.534347
7757.000000;0.534235
7756.000000;0.534094
7755.000000;0.533924
7754.000000;0.533786
7753.000000;0.533762
7752.000000;0.533828
7751.000000;0.533872
7750.000000;0.533817
7749.000000;0.533680
7748.000000;0.533494
7747.000000;0.533255
7746.000000;0.532983
7745.000000;0.532749
7744.000000;0.532616
7743.000000;0.532573
7742.000000;0.532547
7741.000000;0.532453
7740.000000;0.532255
7739.000000;0.532015
7738.000000;0.531857
7737.000000;0.531828
7736.000000;0.531834
7735.000000;0.531770
7734.000000;0.531653
7733.000000;0.531570
7732.000000;0.531530
7731.000000;0.531470
7730.000000;0.531383
7729.000000;0.531325
7728.000000;0.531291
7727.000000;0.531195
7726.000000;0.530992
7725.000000;0.530741
7724.000000;0.530525
7723.000000;0.530376
7722.000000;0.530287
7721.000000;0.530239
7720.000000;0.530205
7719.000000;0.530169
7718.000000;0.530152
7717.000000;0.530152
7716.000000;0.530101
7715.000000;0.529945
7714.000000;0.529726
7713.000000;0.529545
7712.000000;0.529443
7711.000000;0.529398
7710.000000;0.529384
7709.000000;0.529374
7708.000000;0.529321
7707.000000;0.529221
7706.000000;0.529154
7705.000000;0.529179
7704.000000;0.529227
7703.000000;0.529185
7702.000000;0.529050
7701.000000;0.528908
7700.000000;0.528796
7699.000000;0.528691
7698.000000;0.528594
7697.000000;0.528520
7696.000000;0.528421
7695.000000;0.528248
7694.000000;0.528045
7693.000000;0.527899
7692.000000;0.527807
7691.000000;0.527709
7690.000000;0.527617
7689.000000;0.527602
7688.000000;0.527645
7687.000000;0.527644
7686.000000;0.527568
7685.000000;0.527492
7684.000000;0.527471
7683.000000;0.527482
7682.000000;0.527495
7681.000000;0.527503
7680.000000;0.527485
7679.000000;0.527416
7678.000000;0.527325
7677.000000;0.527247
7676.000000;0.527148
7675.000000;0.526994
7674.000000;0.526850
7673.000000;0.526801
7672.000000;0.526806
7671.000000;0.526749
7670.000000;0.526624
7669.000000;0.526530
7668.000000;0.526498
7667.000000;0.526456
7666.000000;0.526374
7665.000000;0.526313
7664.000000;0.526300
7663.000000;0.526281
7662.000000;0.526230
7661.000000;0.526185
7660.000000;0.526158
7659.000000;0.526100
7658.000000;0.525989
7657.000000;0.525862
7656.000000;0.525746
7655.000000;0.525646
7654.000000;0.525605
7653.000000;0.525669
7652.000000;0.525792
7651.000000;0.525867
7650.000000;0.525866
7649.000000;0.525848
7648.000000;0.525834
7647.000000;0.525792
7646.000000;0.525742
7645.000000;0.525773
7644.000000;0.525898
7643.000000;0.526008
7642.000000;0.526006
7641.000000;0.525890
7640.000000;0.525699
7639.000000;0.525479
7638.000000;0.525302
7637.000000;0.525244
7636.000000;0.525300
7635.000000;0.525399
7634.000000;0.525519
7633.000000;0.525692
7632.000000;0.525901
7631.000000;0.526073
7630.000000;0.526179
7629.000000;0.526244
7628.000000;0.526266
7627.000000;0.526207
7626.000000;0.526083
7625.000000;0.525961
7624.000000;0.525860
7623.000000;0.525753
7622.000000;0.525676
7621.000000;0.525713
7620.000000;0.525861
7619.000000;0.526002
7618.000000;0.526046
7617.000000;0.526010
7616.000000;0.525948
7615.000000;0.525890
7614.000000;0.525865
7613.000000;0.525892
7612.000000;0.525916
7611.000000;0.525854
7610.000000;0.525728
7609.000000;0.525650
7608.000000;0.525676
7607.000000;0.525764
7606.000000;0.525895
7605.000000;0.526116
7604.000000;0.526421
7603.000000;0.526676
7602.000000;0.526745
7601.000000;0.526625
7600.000000;0.526439
7599.000000;0.526325
7598.000000;0.526362
7597.000000;0.526538
7596.000000;0.526774
7595.000000;0.527000
7594.000000;0.527203
7593.000000;0.527368
7592.000000;0.527421
7591.000000;0.527331
7590.000000;0.527221
7589.000000;0.527257
7588.000000;0.527440
7587.000000;0.527616
7586.000000;0.527676
7585.000000;0.527659
7584.000000;0.527649
7583.000000;0.527684
7582.000000;0.527785
7581.000000;0.527953
7580.000000;0.528121
7579.000000;0.528198
7578.000000;0.528197
7577.000000;0.528222
7576.000000;0.528333
7575.000000;0.528490
7574.000000;0.528650
7573.000000;0.528797
7572.000000;0.528901
7571.000000;0.528925
7570.000000;0.528903
7569.000000;0.528916
7568.000000;0.528969
7567.000000;0.529003
7566.000000;0.529014
7565.000000;0.529081
7564.000000;0.529248
7563.000000;0.529466
7562.000000;0.529670
7561.000000;0.529841
7560.000000;0.529980
7559.000000;0.530099
7558.000000;0.530251
7557.000000;0.530481
7556.000000;0.530743
7555.000000;0.530936
7554.000000;0.531032
7553.000000;0.531096
7552.000000;0.531169
7551.000000;0.531234
7550.000000;0.531297
7549.000000;0.531397
7548.000000;0.531542
7547.000000;0.531701
7546.000000;0.531866
7545.000000;0.532043
7544.000000;0.532196
7543.000000;0.532285
7542.000000;0.532349
7541.000000;0.532468
7540.000000;0.532655
7539.000000;0.532862
7538.000000;0.533072
7537.000000;0.533291
7536.000000;0.533470
7535.000000;0.533550
7534.000000;0.533584
7533.000000;0.533697
7532.000000;0.533925
7531.000000;0.534179
7530.000000;0.534379
7529.000000;0.534530
7528.000000;0.534660
7527.000000;0.534780
7526.000000;0.534914
7525.000000;0.535086
7524.000000;0.535267
7523.000000;0.535410
7522.000000;0.535529
7521.000000;0.535660
7520.000000;0.535784
7519.000000;0.535885
7518.000000;0.536026
7517.000000;0.536271
7516.000000;0.536555
7515.000000;0.536764
7514.000000;0.536920
7513.000000;0.537144
7512.000000;0.537447
7511.000000;0.537705
7510.000000;0.537848
7509.000000;0.537945
7508.000000;0.538084
7507.000000;0.538288
7506.000000;0.538573
7505.000000;0.538954
7504.000000;0.539355
7503.000000;0.539636
7502.000000;0.539746
7501.000000;0.539770
7500.000000;0.539791
7499.000000;0.539825
7498.000000;0.539902
7497.000000;0.540082
7496.000000;0.540365
7495.000000;0.540664
7494.000000;0.540925
7493.000000;0.541183
7492.000000;0.541474
7491.000000;0.541749
7490.000000;0.542108
7489.000000;0.542311
7488.000000;0.542518
7487.000000;0.542762
7486.000000;0.543028
7485.000000;0.543270
7484.000000;0.543423
7483.000000;0.543489
7482.000000;0.543571
7481.000000;0.543770
7480.000000;0.544059
7479.000000;0.544341
7478.000000;0.544583
7477.000000;0.544820
7476.000000;0.545060
7475.000000;0.545291
7474.000000;0.545548
7473.000000;0.545860
7472.000000;0.546157
7471.000000;0.546337
7470.000000;0.546416
7469.000000;0.546502
7468.000000;0.546645
7467.000000;0.546817
7466.000000;0.547031
7465.000000;0.547338
7464.000000;0.547720
7463.000000;0.548074
7462.000000;0.548335
7461.000000;0.548516
7460.000000;0.548649
7459.000000;0.548769
7458.000000;0.548940
7457.000000;0.549192
7456.000000;0.549453
7455.000000;0.549645
7454.000000;0.549824
7453.000000;0.550099
7452.000000;0.550449
7451.000000;0.550745
7450.000000;0.550947
7449.000000;0.551150
7448.000000;0.551419
7447.000000;0.551718
7446.000000;0.552001
7445.000000;0.552268
7444.000000;0.552502
7443.000000;0.552659
7442.000000;0.552751
7441.000000;0.552853
7440.000000;0.553032
7439.000000;0.553312
7438.000000;0.553687
7437.000000;0.554096
7436.000000;0.554426
7435.000000;0.554637
7434.000000;0.554837
7433.000000;0.555133
7432.000000;0.555463
7431.000000;0.555686
7430.000000;0.555804
7429.000000;0.555951
7428.000000;0.556190
7427.000000;0.556446
7426.000000;0.556642
7425.000000;0.556783
7424.000000;0.556930
7423.000000;0.557176
7422.000000;0.557634
7421.000000;0.558305
7420.000000;0.558981
7419.000000;0.559450
7418.000000;0.559775
7417.000000;0.560208
7416.000000;0.560833
7415.000000;0.561459
7414.000000;0.561879
7413.000000;0.562079
7412.000000;0.562177
7411.000000;0.562271
7410.000000;0.562380
7409.000000;0.562478
7408.000000;0.562544
7407.000000;0.562624
7406.000000;0.562774
7405.000000;0.562976
7404.000000;0.563180
7403.000000;0.563453
7402.000000;0.563954
7401.000000;0.564683
7400.000000;0.565377
7399.000000;0.565787
7398.000000;0.565970
7397.000000;0.566190
7396.000000;0.566635
7395.000000;0.567275
7394.000000;0.567871
7393.000000;0.568177
7392.000000;0.568266
7391.000000;0.568502
7390.000000;0.569137
7389.000000;0.570047
7388.000000;0.570953
7387.000000;0.571828
7386.000000;0.572816
7385.000000;0.573829
7384.000000;0.574603
7383.000000;0.575169
7382.000000;0.575852
7381.000000;0.576682
7380.000000;0.577295
7379.000000;0.577676
7378.000000;0.578540
7377.000000;0.580332
7376.000000;0.582239
7375.000000;0.582970
7374.000000;0.582425
7373.000000;0.581893
7372.000000;0.582458
7371.000000;0.583797
7370.000000;0.584705
7369.000000;0.584383
7368.000000;0.583070
7367.000000;0.581799
7366.000000;0.581553
7365.000000;0.582339
7364.000000;0.583174
7363.000000;0.583196
7362.000000;0.582553
7361.000000;0.582046
7360.000000;0.582208
7359.000000;0.583101
7358.000000;0.584752
7357.000000;0.586922
7356.000000;0.588520
7355.000000;0.588397
7354.000000;0.586987
7353.000000;0.586191
7352.000000;0.587243
7351.000000;0.589490
7350.000000;0.591381
7349.000000;0.592013
7348.000000;0.591609
7347.000000;0.591256
7346.000000;0.592263
7345.000000;0.594961
7344.000000;0.598109
7343.000000;0.600325
7342.000000;0.602073
7341.000000;0.604949
7340.000000;0.608975
7339.000000;0.612072
7338.000000;0.612796
7337.000000;0.612157
7336.000000;0.611758
7335.000000;0.611442
7334.000000;0.609892
7333.000000;0.606848
7332.000000;0.603485
7331.000000;0.601068
7330.000000;0.600215
7329.000000;0.600727
7328.000000;0.601388
7327.000000;0.600935
7326.000000;0.600046
7325.000000;0.601070
7324.000000;0.604778
7323.000000;0.608726
7322.000000;0.610143
7321.000000;0.609307
7320.000000;0.608694
7319.000000;0.609440
7318.000000;0.610149
7317.000000;0.609073
7316.000000;0.606167
7315.000000;0.602808
7314.000000;0.600429
7313.000000;0.599700
7312.000000;0.600251
7311.000000;0.601022
7310.000000;0.601670
7309.000000;0.603331
7308.000000;0.606873
7307.000000;0.610898
7306.000000;0.613020
7305.000000;0.613027
7304.000000;0.613238
7303.000000;0.615359
7302.000000;0.618349
7301.000000;0.619943
7300.000000;0.619217
7299.000000;0.617168
7298.000000;0.615536
7297.000000;0.615718
7296.000000;0.618000
7295.000000;0.620887
7294.000000;0.622033
7293.000000;0.620842
7292.000000;0.619643
7291.000000;0.621141
7290.000000;0.625056
7289.000000;0.628406
7288.000000;0.628837
7287.000000;0.626836
7286.000000;0.624676
7285.000000;0.623945
7284.000000;0.624373
7283.000000;0.624601
7282.000000;0.623720
7281.000000;0.622086
7280.000000;0.620797
7279.000000;0.620647
7278.000000;0.621517
7277.000000;0.622705
7276.000000;0.623768
7275.000000;0.624769
7274.000000;0.625895
7273.000000;0.627175
7272.000000;0.628554
7271.000000;0.630044
7270.000000;0.631738
7269.000000;0.633606
7268.000000;0.635344
7267.000000;0.636641
7266.000000;0.637644
7265.000000;0.638986
7264.000000;0.641139
7263.000000;0.643762
7262.000000;0.645927
7261.000000;0.647116
7260.000000;0.647803
7259.000000;0.648877
7258.000000;0.650693
7257.000000;0.652909
7256.000000;0.655138
7255.000000;0.657433
7254.000000;0.659944
7253.000000;0.662408
7252.000000;0.664345
7251.000000;0.665716
7250.000000;0.667051
7249.000000;0.668820
7248.000000;0.670994
7247.000000;0.673382
7246.000000;0.676326
7245.000000;0.680718
7244.000000;0.686718
7243.000000;0.692857
7242.000000;0.697330
7241.000000;0.700119
7240.000000;0.702973
7239.000000;0.707053
7238.000000;0.711380
7237.000000;0.714227
7236.000000;0.715667
7235.000000;0.717892
7234.000000;0.722682
7233.000000;0.728993
7232.000000;0.733740
7231.000000;0.735168
7230.000000;0.734910
7229.000000;0.736170
7228.000000;0.740218
7227.000000;0.745183
7226.000000;0.748406
7225.000000;0.749528
7224.000000;0.750454
7223.000000;0.752737
7222.000000;0.755975
7221.000000;0.758612
7220.000000;0.759621
7219.000000;0.759435
7218.000000;0.759630
7217.000000;0.761652
7216.000000;0.765542
7215.000000;0.769952
7214.000000;0.773539
7213.000000;0.776170
7212.000000;0.778675
7211.000000;0.781668
7210.000000;0.784954
7209.000000;0.788072
7208.000000;0.791119
7207.000000;0.794676
7206.000000;0.799017
7205.000000;0.803751
7204.000000;0.808196
7203.000000;0.812076
7202.000000;0.815851
7201.000000;0.820197
7200.000000;0.825105
7199.000000;0.829807
7198.000000;0.833766
7197.000000;0.837395
7196.000000;0.841445
7195.000000;0.845896
7194.000000;0.849947
7193.000000;0.853152
7192.000000;0.856084
7191.000000;0.859561
7190.000000;0.863646
7189.000000;0.867816
7188.000000;0.871874
7187.000000;0.876162
7186.000000;0.880996
7185.000000;0.886427
7184.000000;0.892558
7183.000000;0.899561
7182.000000;0.907085
7181.000000;0.914268
7180.000000;0.920762
7179.000000;0.927277
7178.000000;0.934535
7177.000000;0.942006
7176.000000;0.948291
7175.000000;0.952751
7174.000000;0.956268
7173.000000;0.960173
7172.000000;0.964887
7171.000000;0.969908
7170.000000;0.974722
7169.000000;0.979291
7168.000000;0.983999
7167.000000;0.989311
7166.000000;0.995457
7165.000000;1.002320
7164.000000;1.009735
7163.000000;1.017722
7162.000000;1.025994
7161.000000;1.033668
7160.000000;1.040130
7159.000000;1.045991
7158.000000;1.052401
7157.000000;1.059320
7156.000000;1.065200
7155.000000;1.068850
7154.000000;1.071074
7153.000000;1.073762
7152.000000;1.077649
7151.000000;1.081833
7150.000000;1.085391
7149.000000;1.088609
7148.000000;1.092573
7147.000000;1.098003
7146.000000;1.104624
7145.000000;1.111544
7144.000000;1.118185
7143.000000;1.124830
7142.000000;1.132258
7141.000000;1.140712
7140.000000;1.149192
7139.000000;1.156334
7138.000000;1.162185
7137.000000;1.168342
7136.000000;1.175821
7135.000000;1.183488
7134.000000;1.189388
7133.000000;1.193225
7132.000000;1.196595
7131.000000;1.200799
7130.000000;1.205424
7129.000000;1.209311
7128.000000;1.212214
7127.000000;1.214959
7126.000000;1.218305
7125.000000;1.222327
7124.000000;1.226719
7123.000000;1.231169
7122.000000;1.235596
7121.000000;1.240392
7120.000000;1.246295
7119.000000;1.253595
7118.000000;1.261481
7117.000000;1.268665
7116.000000;1.274799
7115.000000;1.280814
7114.000000;1.287490
7113.000000;1.294070
7112.000000;1.298930
7111.000000;1.301645
7110.000000;1.303765
7109.000000;1.307182
7108.000000;1.312199
7107.000000;1.317567
7106.000000;1.322014
7105.000000;1.325280
7104.000000;1.327955
7103.000000;1.330927
7102.000000;1.334874
7101.000000;1.339769
7100.000000;1.344876
7099.000000;1.349419
7098.000000;1.353349
7097.000000;1.357313
7096.000000;1.361681
7095.000000;1.366025
7094.000000;1.369928
7093.000000;1.373803
7092.000000;1.378294
7091.000000;1.383147
7090.000000;1.387260
7089.000000;1.389900
7088.000000;1.391508
7087.000000;1.393149
7086.000000;1.395418
7085.000000;1.398055
7084.000000;1.400514
7083.000000;1.402705
7082.000000;1.405034
7081.000000;1.407793
7080.000000;1.410703
7079.000000;1.413226
7078.000000;1.415275
7077.000000;1.417314
7076.000000;1.419718
7075.000000;1.422383
7074.000000;1.425212
7073.000000;1.428484
7072.000000;1.432380
7071.000000;1.436516
7070.000000;1.440286
7069.000000;1.443458
7068.000000;1.446229
7067.000000;1.448852
7066.000000;1.451398
7065.000000;1.453789
7064.000000;1.455855
7063.000000;1.457448
7062.000000;1.458596
7061.000000;1.459478
7060.000000;1.460238
7059.000000;1.460921
7058.000000;1.461652
7057.000000;1.462760
7056.000000;1.464589
7055.000000;1.467134
7054.000000;1.469986
7053.000000;1.472579
7052.000000;1.474524
7051.000000;1.475943
7050.000000;1.477385
7049.000000;1.479165
7048.000000;1.481020
7047.000000;1.482731
7046.000000;1.484759
7045.000000;1.487682
7044.000000;1.491084
7043.000000;1.493614
7042.000000;1.494355
7041.000000;1.493740
7040.000000;1.492956
7039.000000;1.492877
7038.000000;1.493704
7037.000000;1.495150
7036.000000;1.496673
7035.000000;1.497748
7034.000000;1.498225
7033.000000;1.498357
7032.000000;1.498441
7031.000000;1.498685
7030.000000;1.499319
7029.000000;1.500430
7028.000000;1.501706
7027.000000;1.502775
7026.000000;1.503785
7025.000000;1.505259
7024.000000;1.507303
7023.000000;1.509376
7022.000000;1.510961
7021.000000;1.512048
7020.000000;1.512876
7019.000000;1.513608
7018.000000;1.514376
7017.000000;1.515245
7016.000000;1.516011
7015.000000;1.516413
7014.000000;1.516577
7013.000000;1.516822
7012.000000;1.517049
7011.000000;1.516859
7010.000000;1.516318
7009.000000;1.516069
7008.000000;1.516547
7007.000000;1.517510
7006.000000;1.518439
7005.000000;1.519005
7004.000000;1.519067
7003.000000;1.518732
7002.000000;1.518577
7001.000000;1.519291
7000.000000;1.520868
6999.000000;1.522555
6998.000000;1.523677
6997.000000;1.524191
6996.000000;1.524423
6995.000000;1.524676
6994.000000;1.525080
6993.000000;1.525431
6992.000000;1.525212
6991.000000;1.524267
6990.000000;1.523376
6989.000000;1.523462
6988.000000;1.524223
6987.000000;1.524377
6986.000000;1.523395
6985.000000;1.522191
6984.000000;1.521809
6983.000000;1.522149
6982.000000;1.522369
6981.000000;1.522014
6980.000000;1.521345
6979.000000;1.520873
6978.000000;1.520908
6977.000000;1.521305
6976.000000;1.521495
6975.000000;1.521116
6974.000000;1.520620
6973.000000;1.520728
6972.000000;1.521297
6971.000000;1.521424
6970.000000;1.520854
6969.000000;1.520446
6968.000000;1.520873
6967.000000;1.521597
6966.000000;1.521658
6965.000000;1.520952
6964.000000;1.520189
6963.000000;1.519939
6962.000000;1.520160
6961.000000;1.520436
6960.000000;1.520350
6959.000000;1.519799
6958.000000;1.519168
6957.000000;1.518891
6956.000000;1.518695
6955.000000;1.517752
6954.000000;1.515838
6953.000000;1.513863
6952.000000;1.512883
6951.000000;1.512970
6950.000000;1.513378
6949.000000;1.513507
6948.000000;1.513367
6947.000000;1.513251
6946.000000;1.513203
6945.000000;1.512872
6944.000000;1.511875
6943.000000;1.510391
6942.000000;1.509220
6941.000000;1.508983
6940.000000;1.509435
6939.000000;1.509867
6938.000000;1.509981
6937.000000;1.509897
6936.000000;1.509501
6935.000000;1.508474
6934.000000;1.506980
6933.000000;1.505627
6932.000000;1.504672
6931.000000;1.503866
6930.000000;1.503149
6929.000000;1.502846
6928.000000;1.502996
6927.000000;1.503131
6926.000000;1.502913
6925.000000;1.502422
6924.000000;1.501670
6923.000000;1.500477
6922.000000;1.499064
6921.000000;1.498069
6920.000000;1.497677
6919.000000;1.497298
6918.000000;1.496427
6917.000000;1.495361
6916.000000;1.494686
6915.000000;1.494423
6914.000000;1.494080
6913.000000;1.493278
6912.000000;1.492060
6911.000000;1.490830
6910.000000;1.490083
6909.000000;1.489882
6908.000000;1.489553
6907.000000;1.488321
6906.000000;1.486302
6905.000000;1.484405
6904.000000;1.483219
6903.000000;1.482503
6902.000000;1.481839
6901.000000;1.481190
6900.000000;1.480654
6899.000000;1.480200
6898.000000;1.479843
6897.000000;1.479693
6896.000000;1.479664
6895.000000;1.479501
6894.000000;1.479181
6893.000000;1.478847
6892.000000;1.478293
6891.000000;1.477098
6890.000000;1.475376
6889.000000;1.473788
6888.000000;1.472688
6887.000000;1.471830
6886.000000;1.471047
6885.000000;1.470584
6884.000000;1.470507
6883.000000;1.470354
6882.000000;1.469728
6881.000000;1.468743
6880.000000;1.467644
6879.000000;1.466491
6878.000000;1.465470
6877.000000;1.464940
6876.000000;1.464843
6875.000000;1.464513
6874.000000;1.463443
6873.000000;1.461851
6872.000000;1.460190
6871.000000;1.458630
6870.000000;1.457345
6869.000000;1.456740
6868.000000;1.456945
6867.000000;1.457487
6866.000000;1.457840
6865.000000;1.457897
6864.000000;1.457561
6863.000000;1.456375
6862.000000;1.454144
6861.000000;1.451594
6860.000000;1.449830
6859.000000;1.449246
6858.000000;1.449297
6857.000000;1.449167
6856.000000;1.448330
6855.000000;1.446633
6854.000000;1.444259
6853.000000;1.441695
6852.000000;1.439473
6851.000000;1.437884
6850.000000;1.436922
6849.000000;1.436394
6848.000000;1.436077
6847.000000;1.435852
6846.000000;1.435625
6845.000000;1.435050
6844.000000;1.433586
6843.000000;1.431164
6842.000000;1.428544
6841.000000;1.426564
6840.000000;1.425209
6839.000000;1.423872
6838.000000;1.422325
6837.000000;1.420833
6836.000000;1.419415
6835.000000;1.417752
6834.000000;1.415932
6833.000000;1.414543
6832.000000;1.413765
6831.000000;1.413000
6830.000000;1.411685
6829.000000;1.409920
6828.000000;1.408051
6827.000000;1.406158
6826.000000;1.404215
6825.000000;1.402243
6824.000000;1.400108
6823.000000;1.397621
6822.000000;1.395064
6821.000000;1.393122
6820.000000;1.391988
6819.000000;1.390965
6818.000000;1.389248
6817.000000;1.386718
6816.000000;1.383766
6815.000000;1.380774
6814.000000;1.378115
6813.000000;1.376198
6812.000000;1.375053
6811.000000;1.374095
6810.000000;1.372665
6809.000000;1.370609
6808.000000;1.368175
6807.000000;1.365671
6806.000000;1.363401
6805.000000;1.361575
6804.000000;1.359989
6803.000000;1.358056
6802.000000;1.355445
6801.000000;1.352461
6800.000000;1.349619
6799.000000;1.347153
6798.000000;1.345093
6797.000000;1.343418
6796.000000;1.341867
6795.000000;1.339927
6794.000000;1.337338
6793.000000;1.334399
6792.000000;1.331524
6791.000000;1.328771
6790.000000;1.325991
6789.000000;1.323177
6788.000000;1.320409
6787.000000;1.317681
6786.000000;1.315018
6785.000000;1.312566
6784.000000;1.310367
6783.000000;1.308238
6782.000000;1.306025
6781.000000;1.303784
6780.000000;1.301547
6779.000000;1.299139
6778.000000;1.296427
6777.000000;1.293510
6776.000000;1.290510
6775.000000;1.287413
6774.000000;1.284311
6773.000000;1.281535
6772.000000;1.279282
6771.000000;1.277284
6770.000000;1.275070
6769.000000;1.272438
6768.000000;1.269505
6767.000000;1.266458
6766.000000;1.263480
6765.000000;1.260781
6764.000000;1.258469
6763.000000;1.256374
6762.000000;1.254140
6761.000000;1.251497
6760.000000;1.248451
6759.000000;1.245301
6758.000000;1.242466
6757.000000;1.240137
6756.000000;1.238074
6755.000000;1.235859
6754.000000;1.233318
6753.000000;1.230564
6752.000000;1.227724
6751.000000;1.224861
6750.000000;1.222141
6749.000000;1.219758
6748.000000;1.217639
6747.000000;1.215497
6746.000000;1.213235
6745.000000;1.210999
6744.000000;1.208775
6743.000000;1.206242
6742.000000;1.203168
6741.000000;1.199696
6740.000000;1.196101
6739.000000;1.192541
6738.000000;1.189171
6737.000000;1.186235
6736.000000;1.183848
6735.000000;1.181837
6734.000000;1.179892
6733.000000;1.177753
6732.000000;1.175225
6731.000000;1.172302
6730.000000;1.169332
6729.000000;1.166796
6728.000000;1.164767
6727.000000;1.162770
6726.000000;1.160332
6725.000000;1.157471
6724.000000;1.154509
6723.000000;1.151672
6722.000000;1.149025
6721.000000;1.146578
6720.000000;1.144237
6719.000000;1.141779
6718.000000;1.139041
6717.000000;1.136068
6716.000000;1.133005
6715.000000;1.130002
6714.000000;1.127244
6713.000000;1.124877
6712.000000;1.122769
6711.000000;1.120536
6710.000000;1.117932
6709.000000;1.115086
6708.000000;1.112269
6707.000000;1.109585
6706.000000;1.107057
6705.000000;1.104643
6704.000000;1.102270
6703.000000;1.099875
6702.000000;1.097483
6701.000000;1.095179
6700.000000;1.092926
6699.000000;1.090384
6698.000000;1.087516
6697.000000;1.084374
6696.000000;1.081625
6695.000000;1.079350
6694.000000;1.077231
6693.000000;1.075164
6692.000000;1.072960
6691.000000;1.070487
6690.000000;1.067716
6689.000000;1.064845
6688.000000;1.062074
6687.000000;1.059432
6686.000000;1.056873
6685.000000;1.054411
6684.000000;1.052033
6683.000000;1.049617
6682.000000;1.047088
6681.000000;1.044532
6680.000000;1.042036
6679.000000;1.039544
6678.000000;1.037007
6677.000000;1.034544
6676.000000;1.032270
6675.000000;1.030075
6674.000000;1.027763
6673.000000;1.025332
6672.000000;1.022934
6671.000000;1.020611
6670.000000;1.018261
6669.000000;1.015831
6668.000000;1.013385
6667.000000;1.010986
6666.000000;1.008632
6665.000000;1.006295
6664.000000;1.003934
6663.000000;1.001469
6662.000000;0.998863
6661.000000;0.996239
6660.000000;0.993806
6659.000000;0.991647
6658.000000;0.989628
6657.000000;0.987537
6656.000000;0.985271
6655.000000;0.982878
6654.000000;0.980459
6653.000000;0.978069
6652.000000;0.975715
6651.000000;0.973412
6650.000000;0.971183
6649.000000;0.968977
6648.000000;0.966648
6647.000000;0.964102
6646.000000;0.961429
6645.000000;0.958840
6644.000000;0.956452
6643.000000;0.954235
6642.000000;0.952129
6641.000000;0.950103
6640.000000;0.948106
6639.000000;0.946061
6638.000000;0.943934
6637.000000;0.941739
6636.000000;0.939445
6635.000000;0.937000
6634.000000;0.934477
6633.000000;0.932077
6632.000000;0.929925
6631.000000;0.927939
6630.000000;0.925951
6629.000000;0.923880
6628.000000;0.921729
6627.000000;0.919470
6626.000000;0.917054
6625.000000;0.914525
6624.000000;0.912056
6623.000000;0.909834
6622.000000;0.907891
6621.000000;0.906043
6620.000000;0.904052
6619.000000;0.901865
6618.000000;0.899641
6617.000000;0.897509
6616.000000;0.895404
6615.000000;0.893225
6614.000000;0.891037
6613.000000;0.888969
6612.000000;0.886987
6611.000000;0.884941
6610.000000;0.882835
6609.000000;0.880854
6608.000000;0.879068
6607.000000;0.877280
6606.000000;0.875249
6605.000000;0.872958
6604.000000;0.870591
6603.000000;0.868331
6602.000000;0.866261
6601.000000;0.864355
6600.000000;0.862498
6599.000000;0.860571
6598.000000;0.858561
6597.000000;0.856574
6596.000000;0.854695
6595.000000;0.852906
6594.000000;0.851125
6593.000000;0.849283
6592.000000;0.847345
6591.000000;0.845306
6590.000000;0.843190
6589.000000;0.841021
6588.000000;0.838803
6587.000000;0.836574
6586.000000;0.834431
6585.000000;0.832448
6584.000000;0.830591
6583.000000;0.828802
6582.000000;0.827070
6581.000000;0.825342
6580.000000;0.823444
6579.000000;0.821261
6578.000000;0.818943
6577.000000;0.816765
6576.000000;0.814820
6575.000000;0.812996
6574.000000;0.811238
6573.000000;0.809610
6572.000000;0.808087
6571.000000;0.806499
6570.000000;0.804760
6569.000000;0.802957
6568.000000;0.801153
6567.000000;0.799266
6566.000000;0.797227
6565.000000;0.795119
6564.000000;0.793044
6563.000000;0.790997
6562.000000;0.788970
6561.000000;0.787063
6560.000000;0.785366
6559.000000;0.783816
6558.000000;0.782267
6557.000000;0.780640
6556.000000;0.778916
6555.000000;0.777075
6554.000000;0.775134
6553.000000;0.773186
6552.000000;0.771317
6551.000000;0.769528
6550.000000;0.767775
6549.000000;0.766038
6548.000000;0.764298
6547.000000;0.762540
6546.000000;0.760813
6545.000000;0.759213
6544.000000;0.757740
6543.000000;0.756272
6542.000000;0.754718
6541.000000;0.753111
6540.000000;0.751499
6539.000000;0.749836
6538.000000;0.748073
6537.000000;0.746270
6536.000000;0.744517
6535.000000;0.742843
6534.000000;0.741243
6533.000000;0.739731
6532.000000;0.738280
6531.000000;0.736795
6530.000000;0.735219
6529.000000;0.733600
6528.000000;0.731970
6527.000000;0.730260
6526.000000;0.728429
6525.000000;0.726604
6524.000000;0.724961
6523.000000;0.723492
6522.000000;0.722022
6521.000000;0.720423
6520.000000;0.718729
6519.000000;0.717047
6518.000000;0.715454
6517.000000;0.713967
6516.000000;0.712543
6515.000000;0.711085
6514.000000;0.709520
6513.000000;0.707877
6512.000000;0.706244
6511.000000;0.704665
6510.000000;0.703125
6509.000000;0.701601
6508.000000;0.700088
6507.000000;0.698578
6506.000000;0.697065
6505.000000;0.695574
6504.000000;0.694133
6503.000000;0.692726
6502.000000;0.691296
6501.000000;0.689801
6500.000000;0.688240
6499.000000;0.686659
6498.000000;0.685115
6497.000000;0.683619
6496.000000;0.682112
6495.000000;0.680547
6494.000000;0.678989
6493.000000;0.677578
6492.000000;0.676350
6491.000000;0.675170
6490.000000;0.673867
6489.000000;0.672398
6488.000000;0.670844
6487.000000;0.669305
6486.000000;0.667853
6485.000000;0.666515
6484.000000;0.665239
6483.000000;0.663913
6482.000000;0.662466
6481.000000;0.660942
6480.000000;0.659435
6479.000000;0.657996
6478.000000;0.656621
6477.000000;0.655281
6476.000000;0.653926
6475.000000;0.652495
6474.000000;0.650990
6473.000000;0.649498
6472.000000;0.648098
6471.000000;0.646775
6470.000000;0.645462
6469.000000;0.644130
6468.000000;0.642803
6467.000000;0.641517
6466.000000;0.640300
6465.000000;0.639165
6464.000000;0.638065
6463.000000;0.636898
6462.000000;0.635587
6461.000000;0.634151
6460.000000;0.632663
6459.000000;0.631185
6458.000000;0.629772
6457.000000;0.628480
6456.000000;0.627302
6455.000000;0.626135
6454.000000;0.624874
6453.000000;0.623534
6452.000000;0.622207
6451.000000;0.620939
6450.000000;0.619698
6449.000000;0.618464
6448.000000;0.617268
6447.000000;0.616118
6446.000000;0.614956
6445.000000;0.613719
6444.000000;0.612426
6443.000000;0.611162
6442.000000;0.609993
6441.000000;0.608903
6440.000000;0.607815
6439.000000;0.606662
6438.000000;0.605438
6437.000000;0.604168
6436.000000;0.602869
6435.000000;0.601565
6434.000000;0.600314
6433.000000;0.599170
6432.000000;0.598110
6431.000000;0.597033
6430.000000;0.595868
6429.000000;0.594636
6428.000000;0.593395
6427.000000;0.592177
6426.000000;0.590986
6425.000000;0.589837
6424.000000;0.588739
6423.000000;0.587667
6422.000000;0.586579
6421.000000;0.585446
6420.000000;0.584253
6419.000000;0.583008
6418.000000;0.581757
6417.000000;0.580570
6416.000000;0.579469
6415.000000;0.578403
6414.000000;0.577307
6413.000000;0.576183
6412.000000;0.575080
6411.000000;0.574040
6410.000000;0.573071
6409.000000;0.572143
6408.000000;0.571195
6407.000000;0.570168
6406.000000;0.569056
6405.000000;0.567922
6404.000000;0.566832
6403.000000;0.565786
6402.000000;0.564743
6401.000000;0.563666
6400.000000;0.562535
6399.000000;0.561353
6398.000000;0.560147
6397.000000;0.558973
6396.000000;0.557874
6395.000000;0.556844
6394.000000;0.555851
6393.000000;0.554867
6392.000000;0.553885
6391.000000;0.552915
6390.000000;0.551984
6389.000000;0.551096
6388.000000;0.550203
6387.000000;0.549246
6386.000000;0.548218
6385.000000;0.547164
6384.000000;0.546112
6383.000000;0.545054
6382.000000;0.543996
6381.000000;0.542974
6380.000000;0.541999
6379.000000;0.541036
6378.000000;0.540068
6377.000000;0.539128
6376.000000;0.538235
6375.000000;0.537348
6374.000000;0.536409
6373.000000;0.535411
6372.000000;0.534384
6371.000000;0.533370
6370.000000;0.532411
6369.000000;0.531544
6368.000000;0.530743
6367.000000;0.529924
6366.000000;0.529031
6365.000000;0.528093
6364.000000;0.527158
6363.000000;0.526212
6362.000000;0.525222
6361.000000;0.524211
6360.000000;0.523247
6359.000000;0.522357
6358.000000;0.521517
6357.000000;0.520683
6356.000000;0.519810
6355.000000;0.518851
6354.000000;0.517804
6353.000000;0.516744
6352.000000;0.515769
6351.000000;0.514903
6350.000000;0.514091
6349.000000;0.513272
6348.000000;0.512423
6347.000000;0.511547
6346.000000;0.510662
6345.000000;0.509796
6344.000000;0.508956
6343.000000;0.508116
6342.000000;0.507260
6341.000000;0.506434
6340.000000;0.505702
6339.000000;0.505045
6338.000000;0.504352
6337.000000;0.503517
6336.000000;0.502540
6335.000000;0.501519
6334.000000;0.500560
6333.000000;0.499703
6332.000000;0.498904
6331.000000;0.498086
6330.000000;0.497226
6329.000000;0.496373
6328.000000;0.495591
6327.000000;0.494876
6326.000000;0.494159
6325.000000;0.493376
6324.000000;0.492512
6323.000000;0.491590
6322.000000;0.490649
6321.000000;0.489723
6320.000000;0.488831
6319.000000;0.487986
6318.000000;0.487203
6317.000000;0.486506
6316.000000;0.485886
6315.000000;0.485278
6314.000000;0.484615
6313.000000;0.483889
6312.000000;0.483146
6311.000000;0.482417
6310.000000;0.481678
6309.000000;0.480890
6308.000000;0.480045
6307.000000;0.479173
6306.000000;0.478315
6305.000000;0.477499
6304.000000;0.476733
6303.000000;0.476007
6302.000000;0.475297
6301.000000;0.474580
6300.000000;0.473848
6299.000000;0.473112
6298.000000;0.472394
6297.000000;0.471696
6296.000000;0.470985
6295.000000;0.470221
6294.000000;0.469413
6293.000000;0.468625
6292.000000;0.467912
6291.000000;0.467253
6290.000000;0.466582
6289.000000;0.465856
6288.000000;0.465091
6287.000000;0.464331
6286.000000;0.463609
6285.000000;0.462926
6284.000000;0.462268
6283.000000;0.461621
6282.000000;0.460981
6281.000000;0.460348
6280.000000;0.459715
6279.000000;0.459074
6278.000000;0.458425
6277.000000;0.457768
6276.000000;0.457096
6275.000000;0.456391
6274.000000;0.455647
6273.000000;0.454893
6272.000000;0.454174
6271.000000;0.453522
6270.000000;0.452934
6269.000000;0.452374
6268.000000;0.451791
6267.000000;0.451149
6266.000000;0.450452
6265.000000;0.449747
6264.000000;0.449070
6263.000000;0.448414
6262.000000;0.447740
6261.000000;0.447029
6260.000000;0.446299
6259.000000;0.445588
6258.000000;0.444906
6257.000000;0.444227
6256.000000;0.443528
6255.000000;0.442827
6254.000000;0.442169
6253.000000;0.441574
6252.000000;0.441015
6251.000000;0.440456
6250.000000;0.439895
6249.000000;0.439338
6248.000000;0.438769
6247.000000;0.438167
6246.000000;0.437546
6245.000000;0.436943
6244.000000;0.436361
6243.000000;0.435778
6242.000000;0.435190
6241.000000;0.434611
6240.000000;0.434026
6239.000000;0.433393
6238.000000;0.432708
6237.000000;0.432035
6236.000000;0.431433
6235.000000;0.430885
6234.000000;0.430324
6233.000000;0.429711
6232.000000;0.429056
6231.000000;0.428397
6230.000000;0.427764
6229.000000;0.427168
6228.000000;0.426598
6227.000000;0.426029
6226.000000;0.425443
6225.000000;0.424836
6224.000000;0.424194
6223.000000;0.423501
6222.000000;0.422770
6221.000000;0.422053
6220.000000;0.421409
6219.000000;0.420861
6218.000000;0.420399
6217.000000;0.419994
6216.000000;0.419594
6215.000000;0.419140
6214.000000;0.418612
6213.000000;0.418047
6212.000000;0.417495
6211.000000;0.416964
6210.000000;0.416438
6209.000000;0.415927
6208.000000;0.415458
6207.000000;0.415022
6206.000000;0.414570
6205.000000;0.414058
6204.000000;0.413491
6203.000000;0.412891
6202.000000;0.412267
6201.000000;0.411627
6200.000000;0.411011
6199.000000;0.410468
6198.000000;0.409995
6197.000000;0.409524
6196.000000;0.408983
6195.000000;0.408374
6194.000000;0.407763
6193.000000;0.407202
6192.000000;0.406680
6191.000000;0.406163
6190.000000;0.405655
6189.000000;0.405193
6188.000000;0.404775
6187.000000;0.404333
6186.000000;0.403780
6185.000000;0.403093
6184.000000;0.402341
6183.000000;0.401645
6182.000000;0.401101
6181.000000;0.400705
6180.000000;0.400369
6179.000000;0.399994
6178.000000;0.399553
6177.000000;0.399079
6176.000000;0.398605
6175.000000;0.398136
6174.000000;0.397664
6173.000000;0.397183
6172.000000;0.396684
6171.000000;0.396168
6170.000000;0.395665
6169.000000;0.395202
6168.000000;0.394761
6167.000000;0.394289
6166.000000;0.393755
6165.000000;0.393181
6164.000000;0.392610
6163.000000;0.392080
6162.000000;0.391612
6161.000000;0.391199
6160.000000;0.390796
6159.000000;0.390358
6158.000000;0.389900
6157.000000;0.389471
6156.000000;0.389070
6155.000000;0.388619
6154.000000;0.388057
6153.000000;0.387411
6152.000000;0.386766
6151.000000;0.386184
6150.000000;0.385688
6149.000000;0.385282
6148.000000;0.384938
6147.000000;0.384588
6146.000000;0.384164
6145.000000;0.383658
6144.000000;0.383127
6143.000000;0.382628
6142.000000;0.382174
6141.000000;0.381741
6140.000000;0.381312
6139.000000;0.380898
6138.000000;0.380527
6137.000000;0.380213
6136.000000;0.379918
6135.000000;0.379571
6134.000000;0.379128
6133.000000;0.378606
6132.000000;0.378046
6131.000000;0.377478
6130.000000;0.376928
6129.000000;0.376440
6128.000000;0.376047
6127.000000;0.375724
6126.000000;0.375410
6125.000000;0.375063
6124.000000;0.374696
6123.000000;0.374340
6122.000000;0.373998
6121.000000;0.373638
6120.000000;0.373214
6119.000000;0.372705
6118.000000;0.372135
6117.000000;0.371554
6116.000000;0.371000
6115.000000;0.370481
6114.000000;0.370003
6113.000000;0.369576
6112.000000;0.369186
6111.000000;0.368791
6110.000000;0.368365
6109.000000;0.367932
6108.000000;0.367538
6107.000000;0.367189
6106.000000;0.366847
6105.000000;0.366489
6104.000000;0.366127
6103.000000;0.365771
6102.000000;0.365405
6101.000000;0.365006
6100.000000;0.364581
6099.000000;0.364161
6098.000000;0.363770
6097.000000;0.363403
6096.000000;0.363036
6095.000000;0.362648
6094.000000;0.362246
6093.000000;0.361863
6092.000000;0.361524
6091.000000;0.361216
6090.000000;0.360897
6089.000000;0.360544
6088.000000;0.360165
6087.000000;0.359773
6086.000000;0.359365
6085.000000;0.358936
6084.000000;0.358512
6083.000000;0.358130
6082.000000;0.357799
6081.000000;0.357485
6080.000000;0.357151
6079.000000;0.356799
6078.000000;0.356452
6077.000000;0.356106
6076.000000;0.355729
6075.000000;0.355307
6074.000000;0.354884
6073.000000;0.354517
6072.000000;0.354209
6071.000000;0.353899
6070.000000;0.353535
6069.000000;0.353128
6068.000000;0.352726
6067.000000;0.352347
6066.000000;0.351974
6065.000000;0.351590
6064.000000;0.351204
6063.000000;0.350838
6062.000000;0.350494
6061.000000;0.350172
6060.000000;0.349886
6059.000000;0.349650
6058.000000;0.349448
6057.000000;0.349234
6056.000000;0.348972
6055.000000;0.348654
6054.000000;0.348291
6053.000000;0.347899
6052.000000;0.347498
6051.000000;0.347113
6050.000000;0.346759
6049.000000;0.346435
6048.000000;0.346136
6047.000000;0.345861
6046.000000;0.345597
6045.000000;0.345309
6044.000000;0.344975
6043.000000;0.344621
6042.000000;0.344284
6041.000000;0.343952
6040.000000;0.343580
6039.000000;0.343174
6038.000000;0.342808
6037.000000;0.342544
6036.000000;0.342358
6035.000000;0.342174
6034.000000;0.341952
6033.000000;0.341696
6032.000000;0.341405
6031.000000;0.341070
6030.000000;0.340700
6029.000000;0.340326
6028.000000;0.339960
6027.000000;0.339594
6026.000000;0.339233
6025.000000;0.338905
6024.000000;0.338635
6023.000000;0.338424
6022.000000;0.338254
6021.000000;0.338091
6020.000000;0.337885
6019.000000;0.337613
6018.000000;0.337318
6017.000000;0.337065
6016.000000;0.336862
6015.000000;0.336650
6014.000000;0.336372
6013.000000;0.336032
6012.000000;0.335668
6011.000000;0.335308
6010.000000;0.334974
6009.000000;0.334687
6008.000000;0.334451
6007.000000;0.334248
6006.000000;0.334053
6005.000000;0.333852
6004.000000;0.333620
6003.000000;0.333335
6002.000000;0.333004
6001.000000;0.332679
6000.000000;0.332414
5999.000000;0.332224
5998.000000;0.332082
5997.000000;0.331945
5996.000000;0.331778
5995.000000;0.331565
5994.000000;0.331323
5993.000000;0.331079
5992.000000;0.330839
5991.000000;0.330593
5990.000000;0.330343
5989.000000;0.330099
5988.000000;0.329857
5987.000000;0.329609
5986.000000;0.329377
5985.000000;0.329201
5984.000000;0.329074
5983.000000;0.328935
5982.000000;0.328743
5981.000000;0.328517
5980.000000;0.328274
5979.000000;0.327986
5978.000000;0.327632
5977.000000;0.327263
5976.000000;0.326964
5975.000000;0.326761
5974.000000;0.326603
5973.000000;0.326428
5972.000000;0.326219
5971.000000;0.325991
5970.000000;0.325774
5969.000000;0.325594
5968.000000;0.325452
5967.000000;0.325313
5966.000000;0.325137
5965.000000;0.324921
5964.000000;0.324695
5963.000000;0.324483
5962.000000;0.324293
5961.000000;0.324133
5960.000000;0.324003
5959.000000;0.323884
5958.000000;0.323750
5957.000000;0.323592
5956.000000;0.323418
5955.000000;0.323242
5954.000000;0.323082
5953.000000;0.322974
5952.000000;0.322942
5951.000000;0.322957
5950.000000;0.322945
5949.000000;0.322846
5948.000000;0.322657
5947.000000;0.322418
5946.000000;0.322188
5945.000000;0.321999
5944.000000;0.321839
5943.000000;0.321659
5942.000000;0.321439
5941.000000;0.321222
5940.000000;0.321064
5939.000000;0.320958
5938.000000;0.320845
5937.000000;0.320700
5936.000000;0.320562
5935.000000;0.320474
5934.000000;0.320426
5933.000000;0.320367
5932.000000;0.320247
5931.000000;0.320043
5930.000000;0.319782
5929.000000;0.319536
5928.000000;0.319380
5927.000000;0.319329
5926.000000;0.319330
5925.000000;0.319326
5924.000000;0.319307
5923.000000;0.319280
5922.000000;0.319229
5921.000000;0.319131
5920.000000;0.318998
5919.000000;0.318878
5918.000000;0.318814
5917.000000;0.318793
5916.000000;0.318762
5915.000000;0.318668
5914.000000;0.318508
5913.000000;0.318325
5912.000000;0.318169
5911.000000;0.318048
5910.000000;0.317938
5909.000000;0.317828
5908.000000;0.317729
5907.000000;0.317648
5906.000000;0.317562
5905.000000;0.317441
5904.000000;0.317287
5903.000000;0.317137
5902.000000;0.317034
5901.000000;0.316988
5900.000000;0.316974
5899.000000;0.316952
5898.000000;0.316902
5897.000000;0.316839
5896.000000;0.316784
5895.000000;0.316730
5894.000000;0.316653
5893.000000;0.316549
5892.000000;0.316431
5891.000000;0.316308
5890.000000;0.316186
5889.000000;0.316089
5888.000000;0.316048
5887.000000;0.316052
5886.000000;0.316047
5885.000000;0.316002
5884.000000;0.315942
5883.000000;0.315898
5882.000000;0.315851
5881.000000;0.315765
5880.000000;0.315655
5879.000000;0.315575
5878.000000;0.315552
5877.000000;0.315548
5876.000000;0.315516
5875.000000;0.315446
5874.000000;0.315372
5873.000000;0.315342
5872.000000;0.315384
5871.000000;0.315491
5870.000000;0.315606
5869.000000;0.315664
5868.000000;0.315642
5867.000000;0.315576
5866.000000;0.315517
5865.000000;0.315493
5864.000000;0.315508
5863.000000;0.315562
5862.000000;0.315643
5861.000000;0.315711
5860.000000;0.315725
5859.000000;0.315685
5858.000000;0.315639
5857.000000;0.315640
5856.000000;0.315699
5855.000000;0.315793
5854.000000;0.315893
5853.000000;0.315980
5852.000000;0.316035
5851.000000;0.316043
5850.000000;0.316010
5849.000000;0.315978
5848.000000;0.316003
5847.000000;0.316111
5846.000000;0.316268
5845.000000;0.316393
5844.000000;0.316424
5843.000000;0.316373
5842.000000;0.316326
5841.000000;0.316359
5840.000000;0.316463
5839.000000;0.316562
5838.000000;0.316621
5837.000000;0.316688
5836.000000;0.316821
5835.000000;0.317002
5834.000000;0.317152
5833.000000;0.317239
5832.000000;0.317324
5831.000000;0.317478
5830.000000;0.317693
5829.000000;0.317878
5828.000000;0.317959
5827.000000;0.317947
5826.000000;0.317928
5825.000000;0.317983
5824.000000;0.318137
5823.000000;0.318346
5822.000000;0.318553
5821.000000;0.318731
5820.000000;0.318891
5819.000000;0.319047
5818.000000;0.319199
5817.000000;0.319338
5816.000000;0.319465
5815.000000;0.319587
5814.000000;0.319718
5813.000000;0.319876
5812.000000;0.320080
5811.000000;0.320330
5810.000000;0.320603
5809.000000;0.320866
5808.000000;0.321094
5807.000000;0.321276
5806.000000;0.321420
5805.000000;0.321553
5804.000000;0.321717
5803.000000;0.321936
5802.000000;0.322189
5801.000000;0.322427
5800.000000;0.322617
5799.000000;0.322778
5798.000000;0.322954
5797.000000;0.323171
5796.000000;0.323409
5795.000000;0.323630
5794.000000;0.323820
5793.000000;0.324008
5792.000000;0.324235
5791.000000;0.324506
5790.000000;0.324779
5789.000000;0.325004
5788.000000;0.325171
5787.000000;0.325322
5786.000000;0.325523
5785.000000;0.325812
5784.000000;0.326173
5783.000000;0.326552
5782.000000;0.326890
5781.000000;0.327162
5780.000000;0.327386
5779.000000;0.327608
5778.000000;0.327874
5777.000000;0.328201
5776.000000;0.328564
5775.000000;0.328909
5774.000000;0.329195
5773.000000;0.329431
5772.000000;0.329670
5771.000000;0.329962
5770.000000;0.330321
5769.000000;0.330717
5768.000000;0.331107
5767.000000;0.331465
5766.000000;0.331784
5765.000000;0.332071
5764.000000;0.332332
5763.000000;0.332585
5762.000000;0.332867
5761.000000;0.333219
5760.000000;0.333647
5759.000000;0.334110
5758.000000;0.334543
5757.000000;0.334912
5756.000000;0.335239
5755.000000;0.335573
5754.000000;0.335960
5753.000000;0.336416
5752.000000;0.336920
5751.000000;0.337426
5750.000000;0.337890
5749.000000;0.338299
5748.000000;0.338676
5747.000000;0.339045
5746.000000;0.339413
5745.000000;0.339768
5744.000000;0.340111
5743.000000;0.340462
5742.000000;0.340858
5741.000000;0.341324
5740.000000;0.341848
5739.000000;0.342388
5738.000000;0.342901
5737.000000;0.343369
5736.000000;0.343795
5735.000000;0.344207
5734.000000;0.344655
5733.000000;0.345185
5732.000000;0.345793
5731.000000;0.346406
5730.000000;0.346944
5729.000000;0.347394
5728.000000;0.347817
5727.000000;0.348277
5726.000000;0.348789
5725.000000;0.349322
5724.000000;0.349838
5723.000000;0.350318
5722.000000;0.350780
5721.000000;0.351269
5720.000000;0.351821
5719.000000;0.352414
5718.000000;0.352996
5717.000000;0.353535
5716.000000;0.354044
5715.000000;0.354561
5714.000000;0.355115
5713.000000;0.355724
5712.000000;0.356386
5711.000000;0.357066
5710.000000;0.357705
5709.000000;0.358271
5708.000000;0.358782
5707.000000;0.359286
5706.000000;0.359832
5705.000000;0.360447
5704.000000;0.361117
5703.000000;0.361774
5702.000000;0.362352
5701.000000;0.362855
5700.000000;0.363369
5699.000000;0.363968
5698.000000;0.364644
5697.000000;0.365349
5696.000000;0.366038
5695.000000;0.366727
5694.000000;0.367383
5693.000000;0.368090
5692.000000;0.368755
5691.000000;0.369354
5690.000000;0.369941
5689.000000;0.370467
5688.000000;0.370961
5687.000000;0.371467
5686.000000;0.372046
5685.000000;0.372720
5684.000000;0.373457
5683.000000;0.374192
5682.000000;0.374876
5681.000000;0.375515
5680.000000;0.376150
5679.000000;0.376787
5678.000000;0.377389
5677.000000;0.377940
5676.000000;0.378495
5675.000000;0.379128
5674.000000;0.379849
5673.000000;0.380599
5672.000000;0.381315
5671.000000;0.381962
5670.000000;0.382533
5669.000000;0.383053
5668.000000;0.383582
5667.000000;0.384172
5666.000000;0.384826
5665.000000;0.385501
5664.000000;0.386158
5663.000000;0.386786
5662.000000;0.387388
5661.000000;0.387968
5660.000000;0.388535
5659.000000;0.389098
5658.000000;0.389652
5657.000000;0.390186
5656.000000;0.390703
5655.000000;0.391222
5654.000000;0.391756
5653.000000;0.392304
5652.000000;0.392862
5651.000000;0.393431
5650.000000;0.394018
5649.000000;0.394626
5648.000000;0.395245
5647.000000;0.395853
5646.000000;0.396436
5645.000000;0.397011
5644.000000;0.397601
5643.000000;0.398205
5642.000000;0.398797
5641.000000;0.399371
5640.000000;0.399935
5639.000000;0.400474
5638.000000;0.400934
5637.000000;0.401306
5636.000000;0.401666
5635.000000;0.402097
5634.000000;0.402602
5633.000000;0.403122
5632.000000;0.403625
5631.000000;0.404116
5630.000000;0.404571
5629.000000;0.404935
5628.000000;0.405199
5627.000000;0.405432
5626.000000;0.405725
5625.000000;0.406123
5624.000000;0.406620
5623.000000;0.407163
5622.000000;0.407665
5621.000000;0.408048
5620.000000;0.408331
5619.000000;0.408618
5618.000000;0.408996
5617.000000;0.409456
5616.000000;0.409913
5615.000000;0.410294
5614.000000;0.410586
5613.000000;0.410813
5612.000000;0.411007
5611.000000;0.411191
5610.000000;0.411380
5609.000000;0.411586
5608.000000;0.411824
5607.000000;0.412111
5606.000000;0.412447
5605.000000;0.412821
5604.000000;0.413217
5603.000000;0.413627
5602.000000;0.414042
5601.000000;0.414426
5600.000000;0.414723
5599.000000;0.414909
5598.000000;0.415039
5597.000000;0.415213
5596.000000;0.415460
5595.000000;0.415694
5594.000000;0.415802
5593.000000;0.415784
5592.000000;0.415741
5591.000000;0.415756
5590.000000;0.415826
5589.000000;0.415907
5588.000000;0.415974
5587.000000;0.416013
5586.000000;0.416010
5585.000000;0.415980
5584.000000;0.415967
5583.000000;0.415994
5582.000000;0.416043
5581.000000;0.416099
5580.000000;0.416182
5579.000000;0.416294
5578.000000;0.416394
5577.000000;0.416447
5576.000000;0.416483
5575.000000;0.416544
5574.000000;0.416621
5573.000000;0.416681
5572.000000;0.416724
5571.000000;0.416766
5570.000000;0.416790
5569.000000;0.416782
5568.000000;0.416784
5567.000000;0.416835
5566.000000;0.416893
5565.000000;0.416884
5564.000000;0.416803
5563.000000;0.416713
5562.000000;0.416631
5561.000000;0.416524
5560.000000;0.416408
5559.000000;0.416345
5558.000000;0.416338
5557.000000;0.416315
5556.000000;0.416272
5555.000000;0.416330
5554.000000;0.416570
5553.000000;0.416899
5552.000000;0.417184
5551.000000;0.417447
5550.000000;0.417804
5549.000000;0.418227
5548.000000;0.418525
5547.000000;0.418564
5546.000000;0.418398
5545.000000;0.418149
5544.000000;0.417853
5543.000000;0.417468
5542.000000;0.417003
5541.000000;0.416553
5540.000000;0.416247
5539.000000;0.416153
5538.000000;0.416208
5537.000000;0.416278
5536.000000;0.416326
5535.000000;0.416465
5534.000000;0.416767
5533.000000;0.417104
5532.000000;0.417272
5531.000000;0.417232
5530.000000;0.417090
5529.000000;0.416875
5528.000000;0.416508
5527.000000;0.415999
5526.000000;0.415529
5525.000000;0.415294
5524.000000;0.415329
5523.000000;0.415523
5522.000000;0.415765
5521.000000;0.416034
5520.000000;0.416394
5519.000000;0.416918
5518.000000;0.417539
5517.000000;0.418031
5516.000000;0.418221
5515.000000;0.418142
5514.000000;0.417919
5513.000000;0.417556
5512.000000;0.417032
5511.000000;0.416581
5510.000000;0.416586
5509.000000;0.417110
5508.000000;0.417799
5507.000000;0.418346
5506.000000;0.418846
5505.000000;0.419516
5504.000000;0.420222
5503.000000;0.420588
5502.000000;0.420516
5501.000000;0.420240
5500.000000;0.419858
5499.000000;0.419173
5498.000000;0.418102
5497.000000;0.417163
5496.000000;0.417247
5495.000000;0.418701
5494.000000;0.420968
5493.000000;0.423264
5492.000000;0.425426
5491.000000;0.427818
5490.000000;0.430399
5489.000000;0.432441
5488.000000;0.433357
5487.000000;0.433339
5486.000000;0.432792
5485.000000;0.431559
5484.000000;0.429261
5483.000000;0.426199
5482.000000;0.423298
5481.000000;0.421087
5480.000000;0.419368
5479.000000;0.418239
5478.000000;0.418567
5477.000000;0.420896
5476.000000;0.424481
5475.000000;0.427855
5474.000000;0.430310
5473.000000;0.432169
5472.000000;0.433630
5471.000000;0.434313
5470.000000;0.434123
5469.000000;0.433680
5468.000000;0.433515
5467.000000;0.433419
5466.000000;0.432937
5465.000000;0.432318
5464.000000;0.432560
5463.000000;0.434306
5462.000000;0.437025
5461.000000;0.439466
5460.000000;0.440831
5459.000000;0.441372
5458.000000;0.441688
5457.000000;0.441788
5456.000000;0.441285
5455.000000;0.440149
5454.000000;0.438817
5453.000000;0.437769
5452.000000;0.437233
5451.000000;0.437181
5450.000000;0.437605
5449.000000;0.438880
5448.000000;0.441569
5447.000000;0.445593
5446.000000;0.449832
5445.000000;0.453400
5444.000000;0.456911
5443.000000;0.461285
5442.000000;0.465739
5441.000000;0.468366
5440.000000;0.468562
5439.000000;0.467799
5438.000000;0.467650
5437.000000;0.468039
5436.000000;0.468087
5435.000000;0.467705
5434.000000;0.467507
5433.000000;0.468085
5432.000000;0.469769
5431.000000;0.472516
5430.000000;0.475905
5429.000000;0.479440
5428.000000;0.482688
5427.000000;0.485151
5426.000000;0.486217
5425.000000;0.485605
5424.000000;0.483795
5423.000000;0.481621
5422.000000;0.479435
5421.000000;0.476922
5420.000000;0.473716
5419.000000;0.470093
5418.000000;0.467341
5417.000000;0.467291
5416.000000;0.470837
5415.000000;0.477101
5414.000000;0.484433
5413.000000;0.492224
5412.000000;0.501011
5411.000000;0.510492
5410.000000;0.518739
5409.000000;0.524144
5408.000000;0.527047
5407.000000;0.528439
5406.000000;0.528032
5405.000000;0.525064
5404.000000;0.520346
5403.000000;0.515963
5402.000000;0.513146
5401.000000;0.511630
5400.000000;0.511172
5399.000000;0.512132
5398.000000;0.514719
5397.000000;0.518914
5396.000000;0.524714
5395.000000;0.531874
5394.000000;0.539462
5393.000000;0.546421
5392.000000;0.552620
5391.000000;0.558392
5390.000000;0.563448
5389.000000;0.567250
5388.000000;0.570119
5387.000000;0.573000
5386.000000;0.576101
5385.000000;0.578806
5384.000000;0.581112
5383.000000;0.583997
5382.000000;0.587856
5381.000000;0.592087
5380.000000;0.596689
5379.000000;0.602450
5378.000000;0.609433
5377.000000;0.616633
5376.000000;0.623484
5375.000000;0.630709
5374.000000;0.638865
5373.000000;0.646982
5372.000000;0.653750
5371.000000;0.659047
5370.000000;0.663418
5369.000000;0.666861
5368.000000;0.669220
5367.000000;0.671447
5366.000000;0.675233
5365.000000;0.681302
5364.000000;0.688967
5363.000000;0.697455
5362.000000;0.706595
5361.000000;0.716176
5360.000000;0.725584
5359.000000;0.734415
5358.000000;0.743185
5357.000000;0.752985
5356.000000;0.764533
5355.000000;0.777763
5354.000000;0.791994
5353.000000;0.806420
5352.000000;0.820690
5351.000000;0.835009
5350.000000;0.849320
5349.000000;0.863084
5348.000000;0.876433
5347.000000;0.890581
5346.000000;0.906290
5345.000000;0.922594
5344.000000;0.937871
5343.000000;0.952173
5342.000000;0.967374
5341.000000;0.984377
5340.000000;1.001938
5339.000000;1.018868
5338.000000;1.035580
5337.000000;1.052596
5336.000000;1.069059
5335.000000;1.083999
5334.000000;1.098013
5333.000000;1.112471
5332.000000;1.127534
5331.000000;1.142335
5330.000000;1.156760
5329.000000;1.171754
5328.000000;1.187963
5327.000000;1.205134
5326.000000;1.223065
5325.000000;1.241893
5324.000000;1.261070
5323.000000;1.279569
5322.000000;1.297583
5321.000000;1.316313
5320.000000;1.335867
5319.000000;1.354865
5318.000000;1.372457
5317.000000;1.389360
5316.000000;1.406625
5315.000000;1.424684
5314.000000;1.443864
5313.000000;1.464487
5312.000000;1.485944
5311.000000;1.506922
5310.000000;1.526738
5309.000000;1.545510
5308.000000;1.563207
5307.000000;1.579618
5306.000000;1.595162
5305.000000;1.610458
5304.000000;1.625215
5303.000000;1.638776
5302.000000;1.651330
5301.000000;1.663293
5300.000000;1.674076
5299.000000;1.683014
5298.000000;1.691008
5297.000000;1.699484
5296.000000;1.707987
5295.000000;1.714650
5294.000000;1.719235
5293.000000;1.723741
5292.000000;1.729729
5291.000000;1.737000
5290.000000;1.744754
5289.000000;1.752369
5288.000000;1.759055
5287.000000;1.764145
5286.000000;1.767964
5285.000000;1.771208
5284.000000;1.773466
5283.000000;1.773582
5282.000000;1.771534
5281.000000;1.768854
5280.000000;1.767179
5279.000000;1.767211
5278.000000;1.768696
5277.000000;1.770615
5276.000000;1.771678
5275.000000;1.771444
5274.000000;1.770909
5273.000000;1.771269
5272.000000;1.772245
5271.000000;1.772688
5270.000000;1.772410
5269.000000;1.772289
5268.000000;1.773221
5267.000000;1.775684
5266.000000;1.779705
5265.000000;1.784577
5264.000000;1.789029
5263.000000;1.792439
5262.000000;1.795223
5261.000000;1.797589
5260.000000;1.798885
5259.000000;1.798973
5258.000000;1.798936
5257.000000;1.799278
5256.000000;1.798810
5255.000000;1.796630
5254.000000;1.793925
5253.000000;1.792420
5252.000000;1.792125
5251.000000;1.791989
5250.000000;1.791950
5249.000000;1.792533
5248.000000;1.793590
5247.000000;1.795048
5246.000000;1.797739
5245.000000;1.802076
5244.000000;1.806494
5243.000000;1.808854
5242.000000;1.808696
5241.000000;1.806613
5240.000000;1.802378
5239.000000;1.795891
5238.000000;1.789065
5237.000000;1.784400
5236.000000;1.782022
5235.000000;1.780287
5234.000000;1.778962
5233.000000;1.779355
5232.000000;1.781534
5231.000000;1.783674
5230.000000;1.784707
5229.000000;1.785912
5228.000000;1.788864
5227.000000;1.793138
5226.000000;1.796901
5225.000000;1.799031
5224.000000;1.799766
5223.000000;1.799859
5222.000000;1.799874
5221.000000;1.799788
5220.000000;1.798712
5219.000000;1.795542
5218.000000;1.790604
5217.000000;1.786007
5216.000000;1.783578
5215.000000;1.783152
5214.000000;1.783263
5213.000000;1.783115
5212.000000;1.783332
5211.000000;1.784726
5210.000000;1.787345
5209.000000;1.790774
5208.000000;1.794491
5207.000000;1.797837
5206.000000;1.800259
5205.000000;1.801819
5204.000000;1.803117
5203.000000;1.804475
5202.000000;1.805338
5201.000000;1.804804
5200.000000;1.802767
5199.000000;1.800048
5198.000000;1.797169
5197.000000;1.793580
5196.000000;1.788790
5195.000000;1.783973
5194.000000;1.781213
5193.000000;1.781070
5192.000000;1.781884
5191.000000;1.781730
5190.000000;1.780504
5189.000000;1.779542
5188.000000;1.779815
5187.000000;1.781238
5186.000000;1.783275
5185.000000;1.785443
5184.000000;1.787261
5183.000000;1.788328
5182.000000;1.788568
5181.000000;1.788018
5180.000000;1.786683
5179.000000;1.784878
5178.000000;1.783217
5177.000000;1.781814
5176.000000;1.780209
5175.000000;1.778536
5174.000000;1.777992
5173.000000;1.779364
5172.000000;1.781641
5171.000000;1.783059
5170.000000;1.783042
5169.000000;1.782324
5168.000000;1.781626
5167.000000;1.781173
5166.000000;1.781342
5165.000000;1.782572
5164.000000;1.784573
5163.000000;1.786388
5162.000000;1.787289
5161.000000;1.787222
5160.000000;1.786621
5159.000000;1.786211
5158.000000;1.786488
5157.000000;1.786873
5156.000000;1.786163
5155.000000;1.784520
5154.000000;1.783986
5153.000000;1.785974
5152.000000;1.789017
5151.000000;1.790485
5150.000000;1.789948
5149.000000;1.788957
5148.000000;1.788230
5147.000000;1.787156
5146.000000;1.785766
5145.000000;1.785094
5144.000000;1.785394
5143.000000;1.785773
5142.000000;1.785787
5141.000000;1.785858
5140.000000;1.785770
5139.000000;1.784527
5138.000000;1.782247
5137.000000;1.780775
5136.000000;1.781600
5135.000000;1.784276
5134.000000;1.787374
5133.000000;1.789845
5132.000000;1.791062
5131.000000;1.790774
5130.000000;1.789814
5129.000000;1.789728
5128.000000;1.790827
5127.000000;1.791504
5126.000000;1.790156
5125.000000;1.787001
5124.000000;1.783376
5123.000000;1.780264
5122.000000;1.778245
5121.000000;1.777895
5120.000000;1.779234
5119.000000;1.781393
5118.000000;1.783659
5117.000000;1.786398
5116.000000;1.790107
5115.000000;1.793910
5114.000000;1.795967
5113.000000;1.795350
5112.000000;1.792900
5111.000000;1.790276
5110.000000;1.788683
5109.000000;1.788342
5108.000000;1.788657
5107.000000;1.788864
5106.000000;1.788677
5105.000000;1.788317
5104.000000;1.788106
5103.000000;1.788306
5102.000000;1.789111
5101.000000;1.790341
5100.000000;1.791232
5099.000000;1.791065
5098.000000;1.789963
5097.000000;1.788540
5096.000000;1.786885
5095.000000;1.784724
5094.000000;1.782537
5093.000000;1.781568
5092.000000;1.782494
5091.000000;1.784713
5090.000000;1.787153
5089.000000;1.789260
5088.000000;1.790883
5087.000000;1.791835
5086.000000;1.791952
5085.000000;1.791168
5084.000000;1.789495
5083.000000;1.787356
5082.000000;1.785889
5081.000000;1.786201
5080.000000;1.788073
5079.000000;1.789943
5078.000000;1.790373
5077.000000;1.789221
5076.000000;1.787495
5075.000000;1.786516
5074.000000;1.787095
5073.000000;1.788884
5072.000000;1.790476
5071.000000;1.790790
5070.000000;1.790351
5069.000000;1.790551
5068.000000;1.791625
5067.000000;1.792204
5066.000000;1.791079
5065.000000;1.788620
5064.000000;1.786162
5063.000000;1.784747
5062.000000;1.784744
5061.000000;1.785931
5060.000000;1.787473
5059.000000;1.788368
5058.000000;1.788297
5057.000000;1.787675
5056.000000;1.786769
5055.000000;1.785480
5054.000000;1.784095
5053.000000;1.783321
5052.000000;1.783178
5051.000000;1.782643
5050.000000;1.780910
5049.000000;1.778484
5048.000000;1.776582
5047.000000;1.775926
5046.000000;1.776558
5045.000000;1.778221
5044.000000;1.780165
5043.000000;1.781155
5042.000000;1.780626
5041.000000;1.779568
5040.000000;1.779499
5039.000000;1.780756
5038.000000;1.782305
5037.000000;1.783055
5036.000000;1.782874
5035.000000;1.782205
5034.000000;1.781224
5033.000000;1.779654
5032.000000;1.777164
5031.000000;1.773776
5030.000000;1.770131
5029.000000;1.767487
5028.000000;1.767048
5027.000000;1.768913
5026.000000;1.771686
5025.000000;1.773365
5024.000000;1.773047
5023.000000;1.771709
5022.000000;1.771013
5021.000000;1.771525
5020.000000;1.772321
5019.000000;1.772149
5018.000000;1.770602
5017.000000;1.768182
5016.000000;1.765798
5015.000000;1.764430
5014.000000;1.764640
5013.000000;1.765834
5012.000000;1.766389
5011.000000;1.765186
5010.000000;1.762895
5009.000000;1.761236
5008.000000;1.761060
5007.000000;1.761548
5006.000000;1.761096
5005.000000;1.758863
5004.000000;1.755705
5003.000000;1.753670
5002.000000;1.754202
5001.000000;1.756574
5000.000000;1.758412
4999.000000;1.758228
4998.000000;1.756768
4997.000000;1.755581
4996.000000;1.754867
4995.000000;1.753569
4994.000000;1.751464
4993.000000;1.749415
4992.000000;1.748214
4991.000000;1.747777
4990.000000;1.747531
4989.000000;1.746748
4988.000000;1.744581
4987.000000;1.740708
4986.000000;1.736086
4985.000000;1.732339
4984.000000;1.730263
4983.000000;1.729496
4982.000000;1.729485
4981.000000;1.729977
4980.000000;1.730548
4979.000000;1.730491
4978.000000;1.729438
4977.000000;1.727572
4976.000000;1.725091
4975.000000;1.722079
4974.000000;1.718962
4973.000000;1.716410
4972.000000;1.714664
4971.000000;1.713434
4970.000000;1.712440
4969.000000;1.711479
4968.000000;1.710035
4967.000000;1.707592
4966.000000;1.704438
4965.000000;1.701531
4964.000000;1.699480
4963.000000;1.698241
4962.000000;1.697646
4961.000000;1.697484
4960.000000;1.697113
4959.000000;1.695891
4958.000000;1.694187
4957.000000;1.693059
4956.000000;1.692679
4955.000000;1.691909
4954.000000;1.689775
4953.000000;1.686548
4952.000000;1.682861
4951.000000;1.678665
4950.000000;1.673761
4949.000000;1.668761
4948.000000;1.664776
4947.000000;1.662307
4946.000000;1.660847
4945.000000;1.659349
4944.000000;1.656880
4943.000000;1.653219
4942.000000;1.649143
4941.000000;1.645908
4940.000000;1.644168
4939.000000;1.643568
4938.000000;1.643279
4937.000000;1.642472
4936.000000;1.640379
4935.000000;1.636636
4934.000000;1.631918
4933.000000;1.627712
4932.000000;1.625038
4931.000000;1.623672
4930.000000;1.622720
4929.000000;1.621496
4928.000000;1.619679
4927.000000;1.617202
4926.000000;1.614386
4925.000000;1.611792
4924.000000;1.609487
4923.000000;1.606903
4922.000000;1.603790
4921.000000;1.600819
4920.000000;1.598692
4919.000000;1.597002
4918.000000;1.594578
4917.000000;1.590864
4916.000000;1.586483
4915.000000;1.582507
4914.000000;1.579503
4913.000000;1.577230
4912.000000;1.574916
4911.000000;1.571886
4910.000000;1.568188
4909.000000;1.564521
4908.000000;1.561441
4907.000000;1.558828
4906.000000;1.556267
4905.000000;1.553670
4904.000000;1.551190
4903.000000;1.548776
4902.000000;1.546208
4901.000000;1.543468
4900.000000;1.540691
4899.000000;1.537799
4898.000000;1.534558
4897.000000;1.531063
4896.000000;1.527798
4895.000000;1.524982
4894.000000;1.522099
4893.000000;1.518332
4892.000000;1.513505
4891.000000;1.508459
4890.000000;1.504331
4889.000000;1.501538
4888.000000;1.499551
4887.000000;1.497489
4886.000000;1.494821
4885.000000;1.491529
4884.000000;1.487860
4883.000000;1.484146
4882.000000;1.480694
4881.000000;1.477600
4880.000000;1.474714
4879.000000;1.471928
4878.000000;1.469358
4877.000000;1.467056
4876.000000;1.464768
4875.000000;1.462303
4874.000000;1.459904
4873.000000;1.457808
4872.000000;1.455544
4871.000000;1.452238
4870.000000;1.447736
4869.000000;1.442944
4868.000000;1.438873
4867.000000;1.435789
4866.000000;1.433403
4865.000000;1.431354
4864.000000;1.429182
4863.000000;1.426298
4862.000000;1.422469
4861.000000;1.418165
4860.000000;1.414081
4859.000000;1.410391
4858.000000;1.406720
4857.000000;1.402705
4856.000000;1.398405
4855.000000;1.394268
4854.000000;1.390882
4853.000000;1.388552
4852.000000;1.386877
4851.000000;1.384839
4850.000000;1.381640
4849.000000;1.377488
4848.000000;1.373371
4847.000000;1.370096
4846.000000;1.367647
4845.000000;1.365399
4844.000000;1.362821
4843.000000;1.359944
4842.000000;1.357151
4841.000000;1.354525
4840.000000;1.351553
4839.000000;1.347714
4838.000000;1.343300
4837.000000;1.339298
4836.000000;1.336347
4835.000000;1.334083
4834.000000;1.331639
4833.000000;1.328551
4832.000000;1.324996
4831.000000;1.321406
4830.000000;1.318147
4829.000000;1.315392
4828.000000;1.312972
4827.000000;1.310389
4826.000000;1.307229
4825.000000;1.303565
4824.000000;1.299812
4823.000000;1.296255
4822.000000;1.292902
4821.000000;1.289683
4820.000000;1.286554
4819.000000;1.283405
4818.000000;1.280114
4817.000000;1.276769
4816.000000;1.273647
4815.000000;1.270908
4814.000000;1.268406
4813.000000;1.265840
4812.000000;1.263015
4811.000000;1.259915
4810.000000;1.256623
4809.000000;1.253240
4808.000000;1.249884
4807.000000;1.246682
4806.000000;1.243705
4805.000000;1.240863
4804.000000;1.237952
4803.000000;1.234933
4802.000000;1.232085
4801.000000;1.229713
4800.000000;1.227667
4799.000000;1.225368
4798.000000;1.222424
4797.000000;1.219076
4796.000000;1.215870
4795.000000;1.213010
4794.000000;1.210223
4793.000000;1.207190
4792.000000;1.203933
4791.000000;1.200751
4790.000000;1.197931
4789.000000;1.195516
4788.000000;1.193271
4787.000000;1.190853
4786.000000;1.188098
4785.000000;1.185140
4784.000000;1.182206
4783.000000;1.179347
4782.000000;1.176432
4781.000000;1.173375
4780.000000;1.170244
4779.000000;1.167187
4778.000000;1.164335
4777.000000;1.161754
4776.000000;1.159385
4775.000000;1.156990
4774.000000;1.154274
4773.000000;1.151143
4772.000000;1.147849
4771.000000;1.144817
4770.000000;1.142284
4769.000000;1.140088
4768.000000;1.137827
4767.000000;1.135258
4766.000000;1.132520
4765.000000;1.129928
4764.000000;1.127620
4763.000000;1.125477
4762.000000;1.123312
4761.000000;1.120991
4760.000000;1.118407
4759.000000;1.115534
4758.000000;1.112573
4757.000000;1.109878
4756.000000;1.107610
4755.000000;1.105543
4754.000000;1.103338
4753.000000;1.100921
4752.000000;1.098486
4751.000000;1.096186
4750.000000;1.093952
4749.000000;1.091624
4748.000000;1.089157
4747.000000;1.086666
4746.000000;1.084293
4745.000000;1.082059
4744.000000;1.079832
4743.000000;1.077468
4742.000000;1.074981
4741.000000;1.072525
4740.000000;1.070226
4739.000000;1.068094
4738.000000;1.066096
4737.000000;1.064181
4736.000000;1.062216
4735.000000;1.060007
4734.000000;1.057510
4733.000000;1.054939
4732.000000;1.052570
4731.000000;1.050479
4730.000000;1.048547
4729.000000;1.046657
4728.000000;1.044761
4727.000000;1.042799
4726.000000;1.040666
4725.000000;1.038330
4724.000000;1.035933
4723.000000;1.033734
4722.000000;1.031903
4721.000000;1.030339
4720.000000;1.028706
4719.000000;1.026748
4718.000000;1.024566
4717.000000;1.022510
4716.000000;1.020757
4715.000000;1.019118
4714.000000;1.017309
4713.000000;1.015300
4712.000000;1.013299
4711.000000;1.011488
4710.000000;1.009871
4709.000000;1.008337
4708.000000;1.006712
4707.000000;1.004817
4706.000000;1.002628
4705.000000;1.000408
4704.000000;0.998536
4703.000000;0.997145
4702.000000;0.996006
4701.000000;0.994800
4700.000000;0.993425
4699.000000;0.991977
4698.000000;0.990522
4697.000000;0.989013
4696.000000;0.987423
4695.000000;0.985821
4694.000000;0.984259
4693.000000;0.982651
4692.000000;0.980890
4691.000000;0.979054
4690.000000;0.977372
4689.000000;0.975938
4688.000000;0.974588
4687.000000;0.973125
4686.000000;0.971587
4685.000000;0.970145
4684.000000;0.968821
4683.000000;0.967469
4682.000000;0.966040
4681.000000;0.964668
4680.000000;0.963451
4679.000000;0.962266
4678.000000;0.960898
4677.000000;0.959259
4676.000000;0.957459
4675.000000;0.955735
4674.000000;0.954347
4673.000000;0.953387
4672.000000;0.952638
4671.000000;0.951722
4670.000000;0.950503
4669.000000;0.949225
4668.000000;0.948175
4667.000000;0.947345
4666.000000;0.946520
4665.000000;0.945593
4664.000000;0.944638
4663.000000;0.943711
4662.000000;0.942747
4661.000000;0.941649
4660.000000;0.940380
4659.000000;0.938983
4658.000000;0.937601
4657.000000;0.936444
4656.000000;0.935629
4655.000000;0.935035
4654.000000;0.934385
4653.000000;0.933477
4652.000000;0.932324
4651.000000;0.931110
4650.000000;0.930058
4649.000000;0.929292
4648.000000;0.928756
4647.000000;0.928262
4646.000000;0.927647
4645.000000;0.926835
4644.000000;0.925799
4643.000000;0.924579
4642.000000;0.923389
4641.000000;0.922529
4640.000000;0.922078
4639.000000;0.921748
4638.000000;0.921195
4637.000000;0.920375
4636.000000;0.919497
4635.000000;0.918715
4634.000000;0.918034
4633.000000;0.917440
4632.000000;0.916926
4631.000000;0.916388
4630.000000;0.915681
4629.000000;0.914800
4628.000000;0.913896
4627.000000;0.913123
4626.000000;0.912554
4625.000000;0.912212
4624.000000;0.912018
4623.000000;0.911744
4622.000000;0.911191
4621.000000;0.910436
4620.000000;0.909746
4619.000000;0.909218
4618.000000;0.908679
4617.000000;0.907997
4616.000000;0.907309
4615.000000;0.906836
4614.000000;0.906574
4613.000000;0.906316
4612.000000;0.905910
4611.000000;0.905408
4610.000000;0.904991
4609.000000;0.904774
4608.000000;0.904685
4607.000000;0.904526
4606.000000;0.904195
4605.000000;0.903830
4604.000000;0.903632
4603.000000;0.903568
4602.000000;0.903391
4601.000000;0.902997
4600.000000;0.902602
4599.000000;0.902464
4598.000000;0.902542
4597.000000;0.902554
4596.000000;0.902336
4595.000000;0.902020
4594.000000;0.901837
4593.000000;0.901834
4592.000000;0.901834
4591.000000;0.901648
4590.000000;0.901304
4589.000000;0.901016
4588.000000;0.900931
4587.000000;0.900976
4586.000000;0.901010
4585.000000;0.901035
4584.000000;0.901145
4583.000000;0.901309
4582.000000;0.901381
4581.000000;0.901335
4580.000000;0.901344
4579.000000;0.901532
4578.000000;0.901787
4577.000000;0.901904
4576.000000;0.901823
4575.000000;0.901654
4574.000000;0.901563
4573.000000;0.901716
4572.000000;0.902246
4571.000000;0.903114
4570.000000;0.904035
4569.000000;0.904664
4568.000000;0.904893
4567.000000;0.904912
4566.000000;0.905009
4565.000000;0.905352
4564.000000;0.905942
4563.000000;0.906665
4562.000000;0.907387
4561.000000;0.908043
4560.000000;0.908658
4559.000000;0.909278
4558.000000;0.909913
4557.000000;0.910582
4556.000000;0.911335
4555.000000;0.912159
4554.000000;0.912905
4553.000000;0.913429
4552.000000;0.913827
4551.000000;0.914408
4550.000000;0.915373
4549.000000;0.916563
4548.000000;0.917616
4547.000000;0.918326
4546.000000;0.918798
4545.000000;0.919253
4544.000000;0.919812
4543.000000;0.920506
4542.000000;0.921389
4541.000000;0.922507
4540.000000;0.923773
4539.000000;0.925001
4538.000000;0.926110
4537.000000;0.927162
4536.000000;0.928161
4535.000000;0.928958
4534.000000;0.929484
4533.000000;0.929992
4532.000000;0.930868
4531.000000;0.932206
4530.000000;0.933696
4529.000000;0.934942
4528.000000;0.935779
4527.000000;0.936308
4526.000000;0.936767
4525.000000;0.937426
4524.000000;0.938428
4523.000000;0.939628
4522.000000;0.940677
4521.000000;0.941389
4520.000000;0.941961
4519.000000;0.942746
4518.000000;0.943856
4517.000000;0.945069
4516.000000;0.946088
4515.000000;0.946808
4514.000000;0.947350
4513.000000;0.947949
4512.000000;0.948800
4511.000000;0.949936
4510.000000;0.951185
4509.000000;0.952279
4508.000000;0.953048
4507.000000;0.953554
4506.000000;0.954048
4505.000000;0.954768
4504.000000;0.955770
4503.000000;0.956923
4502.000000;0.958084
4501.000000;0.959236
4500.000000;0.960442
4499.000000;0.961685
4498.000000;0.962841
4497.000000;0.963826
4496.000000;0.964696
4495.000000;0.965602
4494.000000;0.966669
4493.000000;0.967940
4492.000000;0.969346
4491.000000;0.970751
4490.000000;0.972076
4489.000000;0.973375
4488.000000;0.974715
4487.000000;0.976018
4486.000000;0.977158
4485.000000;0.978238
4484.000000;0.979600
4483.000000;0.981418
4482.000000;0.983415
4481.000000;0.985112
4480.000000;0.986348
4479.000000;0.987423
4478.000000;0.988723
4477.000000;0.990331
4476.000000;0.992023
4475.000000;0.993586
4474.000000;0.995070
4473.000000;0.996732
4472.000000;0.998746
4471.000000;1.000969
4470.000000;1.003040
4469.000000;1.004740
4468.000000;1.006195
4467.000000;1.007701
4466.000000;1.009414
4465.000000;1.011268
4464.000000;1.013160
4463.000000;1.015090
4462.000000;1.017099
4461.000000;1.019161
4460.000000;1.021198
4459.000000;1.023186
4458.000000;1.025198
4457.000000;1.027327
4456.000000;1.029574
4455.000000;1.031816
4454.000000;1.033885
4453.000000;1.035683
4452.000000;1.037251
4451.000000;1.038749
4450.000000;1.040375
4449.000000;1.042249
4448.000000;1.044345
4447.000000;1.046568
4446.000000;1.048898
4445.000000;1.051360
4444.000000;1.053837
4443.000000;1.056045
4442.000000;1.057854
4441.000000;1.059561
4440.000000;1.061649
4439.000000;1.064271
4438.000000;1.067124
4437.000000;1.069853
4436.000000;1.072409
4435.000000;1.074907
4434.000000;1.077343
4433.000000;1.079616
4432.000000;1.081753
4431.000000;1.083939
4430.000000;1.086354
4429.000000;1.089100
4428.000000;1.092221
4427.000000;1.095619
4426.000000;1.098959
4425.000000;1.101834
4424.000000;1.104127
4423.000000;1.106140
4422.000000;1.108290
4421.000000;1.110769
4420.000000;1.113527
4419.000000;1.116469
4418.000000;1.119522
4417.000000;1.122539
4416.000000;1.125292
4415.000000;1.127698
4414.000000;1.129987
4413.000000;1.132559
4412.000000;1.135615
4411.000000;1.138976
4410.000000;1.142293
4409.000000;1.145367
4408.000000;1.148246
4407.000000;1.151072
4406.000000;1.153951
4405.000000;1.156954
4404.000000;1.160138
4403.000000;1.163499
4402.000000;1.166919
4401.000000;1.170205
4400.000000;1.173208
4399.000000;1.175945
4398.000000;1.178638
4397.000000;1.181590
4396.000000;1.184944
4395.000000;1.188537
4394.000000;1.192011
4393.000000;1.195119
4392.000000;1.197937
4391.000000;1.200794
4390.000000;1.203987
4389.000000;1.207522
4388.000000;1.211135
4387.000000;1.214594
4386.000000;1.217945
4385.000000;1.221389
4384.000000;1.224914
4383.000000;1.228256
4382.000000;1.231299
4381.000000;1.234360
4380.000000;1.237839
4379.000000;1.241680
4378.000000;1.245408
4377.000000;1.248761
4376.000000;1.252074
4375.000000;1.255860
4374.000000;1.260131
4373.000000;1.264323
4372.000000;1.267929
4371.000000;1.271052
4370.000000;1.274250
4369.000000;1.277963
4368.000000;1.282203
4367.000000;1.286711
4366.000000;1.291188
4365.000000;1.295342
4364.000000;1.298967
4363.000000;1.302193
4362.000000;1.305477
4361.000000;1.309152
4360.000000;1.313074
4359.000000;1.316982
4358.000000;1.321033
4357.000000;1.325578
4356.000000;1.330453
4355.000000;1.334961
4354.000000;1.338670
4353.000000;1.341849
4352.000000;1.344962
4351.000000;1.348210
4350.000000;1.351822
4349.000000;1.356278
4348.000000;1.361776
4347.000000;1.367737
4346.000000;1.373304
4345.000000;1.378174
4344.000000;1.382520
4343.000000;1.386334
4342.000000;1.389425
4341.000000;1.392083
4340.000000;1.395215
4339.000000;1.399609
4338.000000;1.405270
4337.000000;1.411423
4336.000000;1.417033
4335.000000;1.421537
4334.000000;1.425413
4333.000000;1.429820
4332.000000;1.435399
4331.000000;1.441594
4330.000000;1.447402
4329.000000;1.452498
4328.000000;1.457243
4327.000000;1.461868
4326.000000;1.466293
4325.000000;1.470641
4324.000000;1.475237
4323.000000;1.479993
4322.000000;1.484354
4321.000000;1.488048
4320.000000;1.491496
4319.000000;1.495343
4318.000000;1.499990
4317.000000;1.505624
4316.000000;1.512214
4315.000000;1.519281
4314.000000;1.525991
4313.000000;1.531703
4312.000000;1.536352
4311.000000;1.540382
4310.000000;1.544572
4309.000000;1.549707
4308.000000;1.555927
4307.000000;1.562430
4306.000000;1.568128
4305.000000;1.572564
4304.000000;1.576006
4303.000000;1.579027
4302.000000;1.582468
4301.000000;1.587395
4300.000000;1.594293
4299.000000;1.602325
4298.000000;1.610096
4297.000000;1.617109
4296.000000;1.623746
4295.000000;1.630070
4294.000000;1.635578
4293.000000;1.640183
4292.000000;1.644621
4291.000000;1.649579
4290.000000;1.655210
4289.000000;1.661575
4288.000000;1.668651
4287.000000;1.675826
4286.000000;1.682137
4285.000000;1.687215
4284.000000;1.691341
4283.000000;1.694531
4282.000000;1.696570
4281.000000;1.698181
4280.000000;1.700980
4279.000000;1.705874
4278.000000;1.712369
4277.000000;1.719763
4276.000000;1.728058
4275.000000;1.737108
4274.000000;1.745737
4273.000000;1.752498
4272.000000;1.756987
4271.000000;1.760115
4270.000000;1.763246
4269.000000;1.767355
4268.000000;1.772739
4267.000000;1.778948
4266.000000;1.785299
4265.000000;1.791430
4264.000000;1.797103
4263.000000;1.802115
4262.000000;1.807162
4261.000000;1.814181
4260.000000;1.824337
4259.000000;1.835692
4258.000000;1.844589
4257.000000;1.849804
4256.000000;1.853632
4255.000000;1.858373
4254.000000;1.863738
4253.000000;1.868625
4252.000000;1.873280
4251.000000;1.878243
4250.000000;1.883122
4249.000000;1.887824
4248.000000;1.893569
4247.000000;1.901144
4246.000000;1.909100
4245.000000;1.915256
4244.000000;1.919608
4243.000000;1.924239
4242.000000;1.930959
4241.000000;1.939619
4240.000000;1.948518
4239.000000;1.955789
4238.000000;1.960933
4237.000000;1.965181
4236.000000;1.970013
4235.000000;1.975301
4234.000000;1.979689
4233.000000;1.982872
4232.000000;1.986041
4231.000000;1.989636
4230.000000;1.992832
4229.000000;1.996261
4228.000000;2.002210
4227.000000;2.011576
4226.000000;2.022235
4225.000000;2.031216
4224.000000;2.038307
4223.000000;2.046106
4222.000000;2.057005
4221.000000;2.070853
4220.000000;2.084716
4219.000000;2.094415
4218.000000;2.097330
4217.000000;2.095315
4216.000000;2.093862
4215.000000;2.097199
4214.000000;2.105462
4213.000000;2.116025
4212.000000;2.125772
4211.000000;2.132231
4210.000000;2.134762
4209.000000;2.135652
4208.000000;2.138449
4207.000000;2.144335
4206.000000;2.151075
4205.000000;2.156123
4204.000000;2.159282
4203.000000;2.162117
4202.000000;2.166604
4201.000000;2.174702
4200.000000;2.187368
4199.000000;2.202454
4198.000000;2.215132
4197.000000;2.221828
4196.000000;2.223132
4195.000000;2.221886
4194.000000;2.220606
4193.000000;2.222315
4192.000000;2.229437
4191.000000;2.240747
4190.000000;2.251460
4189.000000;2.258748
4188.000000;2.264033
4187.000000;2.268312
4186.000000;2.270185
4185.000000;2.269814
4184.000000;2.271481
4183.000000;2.278373
4182.000000;2.288011
4181.000000;2.296088
4180.000000;2.302821
4179.000000;2.311803
4178.000000;2.324539
4177.000000;2.339308
4176.000000;2.352872
4175.000000;2.361719
4174.000000;2.364335
4173.000000;2.363917
4172.000000;2.366126
4171.000000;2.373504
4170.000000;2.381984
4169.000000;2.385132
4168.000000;2.381856
4167.000000;2.375778
4166.000000;2.370100
4165.000000;2.367352
4164.000000;2.370112
4163.000000;2.377898
4162.000000;2.385995
4161.000000;2.391022
4160.000000;2.395818
4159.000000;2.405766
4158.000000;2.421829
4157.000000;2.439703
4156.000000;2.454523
4155.000000;2.463849
4154.000000;2.467666
4153.000000;2.469968
4152.000000;2.476538
4151.000000;2.489279
4150.000000;2.503715
4149.000000;2.512309
4148.000000;2.512440
4147.000000;2.507300
4146.000000;2.501214
4145.000000;2.499141
4144.000000;2.505229
4143.000000;2.518701
4142.000000;2.532954
4141.000000;2.541731
4140.000000;2.546560
4139.000000;2.553532
4138.000000;2.562375
4137.000000;2.566497
4136.000000;2.562881
4135.000000;2.555608
4134.000000;2.550264
4133.000000;2.550831
4132.000000;2.558586
4131.000000;2.572389
4130.000000;2.589734
4129.000000;2.606344
4128.000000;2.615501
4127.000000;2.609625
4126.000000;2.589702
4125.000000;2.568942
4124.000000;2.560709
4123.000000;2.567579
4122.000000;2.583161
4121.000000;2.602444
4120.000000;2.626354
4119.000000;2.653401
4118.000000;2.673575
4117.000000;2.680148
4116.000000;2.677454
4115.000000;2.670090
4114.000000;2.657477
4113.000000;2.644017
4112.000000;2.642540
4111.000000;2.661464
4110.000000;2.693831
4109.000000;2.720834
4108.000000;2.727171
4107.000000;2.714648
4106.000000;2.698538
4105.000000;2.697036
4104.000000;2.721182
4103.000000;2.763611
4102.000000;2.797895
4101.000000;2.802929
4100.000000;2.785222
4099.000000;2.761570
4098.000000;2.739812
4097.000000;2.721833
4096.000000;2.708743
4095.000000;2.702227
4094.000000;2.701518
4093.000000;2.704282
4092.000000;2.710676
4091.000000;2.719598
4090.000000;2.726301
4089.000000;2.728770
4088.000000;2.730076
4087.000000;2.731793
4086.000000;2.733110
4085.000000;2.737494
4084.000000;2.746640
4083.000000;2.757795
4082.000000;2.767747
4081.000000;2.776482
4080.000000;2.786502
4079.000000;2.791117
4078.000000;2.781081
4077.000000;2.765067
4076.000000;2.760156
4075.000000;2.770007
4074.000000;2.786110
4073.000000;2.806032
4072.000000;2.833547
4071.000000;2.861930
4070.000000;2.871337
4069.000000;2.855178
4068.000000;2.832949
4067.000000;2.820374
4066.000000;2.813648
4065.000000;2.802333
4064.000000;2.789460
4063.000000;2.792226
4062.000000;2.808449
4061.000000;2.823223
4060.000000;2.832055
4059.000000;2.831712
4058.000000;2.817748
4057.000000;2.795628
4056.000000;2.778681
4055.000000;2.779836
4054.000000;2.806535
4053.000000;2.857740
4052.000000;2.915779
4051.000000;2.940572
4050.000000;2.910120
4049.000000;2.857416
4048.000000;2.827040
4047.000000;2.831985
4046.000000;2.857898
4045.000000;2.889984
4044.000000;2.926922
4043.000000;2.967851
4042.000000;2.999503
4041.000000;3.006291
4040.000000;2.995089
4039.000000;2.973579
4038.000000;2.935183
4037.000000;2.894601
4036.000000;2.876586
4035.000000;2.889743
4034.000000;2.922668
4033.000000;2.953757
4032.000000;2.966424
4031.000000;2.956237
4030.000000;2.931610
4029.000000;2.906050
4028.000000;2.897159
4027.000000;2.911668
4026.000000;2.933657
4025.000000;2.950865
4024.000000;2.970707
4023.000000;2.999883
4022.000000;3.035359
4021.000000;3.062847
4020.000000;3.065755
4019.000000;3.039285
4018.000000;2.997189
4017.000000;2.970216
4016.000000;2.979239
4015.000000;3.013174
4014.000000;3.032156
4013.000000;3.013554
4012.000000;2.985758
4011.000000;2.976380
4010.000000;2.981289
4009.000000;2.997715
4008.000000;3.037383
4007.000000;3.101069
4006.000000;3.152494
4005.000000;3.151117
4004.000000;3.127299
4003.000000;3.116984
4002.000000;3.096486
4001.000000;3.058330
4000.000000;3.020171
3999.000000;2.986910
3998.000000;2.969705
3997.000000;2.970004
3996.000000;2.981675
3995.000000;3.005804
3994.000000;3.046519
3993.000000;3.105859
3992.000000;3.171445
3991.000000;3.210390
3990.000000;3.200622
3989.000000;3.163177
3988.000000;3.168902
3987.000000;3.246094
3986.000000;3.304096
3985.000000;3.286713
3984.000000;3.236843
3983.000000;3.193437
3982.000000;3.189455
3981.000000;3.218956
3980.000000;3.265329
3979.000000;3.305023
3978.000000;3.293127
3977.000000;3.266329
3976.000000;3.262997
3975.000000;3.254126
3974.000000;3.209719
3973.000000;3.176630
3972.000000;3.221462
3971.000000;3.350404
3970.000000;3.527055
3969.000000;3.699445
3968.000000;3.653314
3967.000000;3.506826
3966.000000;3.463022
3965.000000;3.462151
3964.000000;3.427247
3963.000000;3.315350
3962.000000;3.188536
3961.000000;3.111314
3960.000000;3.102407
3959.000000;3.168978
3958.000000;3.286410
3957.000000;3.379094
3956.000000;3.373709
3955.000000;3.293807
3954.000000;3.222507
3953.000000;3.198600
3952.000000;3.193476
3951.000000;3.173609
3950.000000;3.159026
3949.000000;3.181395
3948.000000;3.248341
3947.000000;3.349963
3946.000000;3.438068
3945.000000;3.484166
3944.000000;3.548972
3943.000000;3.697653
3942.000000;3.829996
3941.000000;3.753075
3940.000000;3.666436
3939.000000;3.675292
3938.000000;3.732583
3937.000000;3.737940
3936.000000;3.705388
3935.000000;3.737671
3934.000000;3.782264
3933.000000;3.788168
3932.000000;3.788575
3931.000000;3.797581
3930.000000;3.791516
3929.000000;3.713776
3928.000000;3.672827
3927.000000;3.736234
3926.000000;3.787160
3925.000000;3.683724
3924.000000;3.535574
3923.000000;3.464343
3922.000000;3.475709
3921.000000;3.507649
3920.000000;3.500901
3919.000000;3.434232
3918.000000;3.360146
3917.000000;3.329125
3916.000000;3.335580
3915.000000;3.412955
3914.000000;3.559704
3913.000000;3.606463
3912.000000;3.534483
3911.000000;3.497334
3910.000000;3.510584
3909.000000;3.511039
3908.000000;3.509892
3907.000000;3.585702
3906.000000;3.781041
3905.000000;4.010733
3904.000000;3.952375
3903.000000;3.711918
3902.000000;3.526533
3901.000000;3.434795
3900.000000;3.402561
3899.000000;3.386885
3898.000000;3.350116
3897.000000;3.309579
3896.000000;3.333053
3895.000000;3.604632
3894.000000;4.128382
3893.000000;3.846241
3892.000000;3.756308
3891.000000;3.722531
3890.000000;3.675152
3889.000000;3.626986
3888.000000;3.566696
3887.000000;3.563461
3886.000000;3.569537
3885.000000;3.567477
3884.000000;3.629045
3883.000000;3.801041
3882.000000;3.836800
3881.000000;3.793097
3880.000000;3.832073
3879.000000;3.783450
3878.000000;3.658380
3877.000000;3.501404
3876.000000;3.384402
3875.000000;3.355186
3874.000000;3.431238
3873.000000;3.559409
3872.000000;3.613351
3871.000000;3.650074
3870.000000;3.951314
3869.000000;4.650716
3868.000000;4.113396
3867.000000;4.130277
3866.000000;4.572748
3865.000000;4.226976
3864.000000;4.077250
3863.000000;4.440404
3862.000000;4.705204
3861.000000;3.942979
3860.000000;3.663972
3859.000000;3.820656
3858.000000;4.112862
3857.000000;3.756355
3856.000000;3.635717
3855.000000;3.787238
3854.000000;3.899364
3853.000000;3.625651
3852.000000;3.304649
3851.000000;3.242921
3850.000000;3.328021
3849.000000;3.268059
3848.000000;3.277971
3847.000000;3.447799
3846.000000;3.662832
3845.000000;3.745632
3844.000000;3.739571
3843.000000;3.793997
3842.000000;3.939531
3841.000000;4.046630
3840.000000;4.025529
3839.000000;3.932949
3838.000000;3.721496
3837.000000;3.522424
3836.000000;3.413999
3835.000000;3.383379
3834.000000;3.427484
3833.000000;3.502571
3832.000000;3.724156
3831.000000;4.112276
3830.000000;3.690972
3829.000000;3.537516
3828.000000;3.742809
3827.000000;4.180590
3826.000000;4.396408
3825.000000;3.961225
3824.000000;3.719767
3823.000000;3.563260
3822.000000;3.459380
3821.000000;3.394084
3820.000000;3.350702
3819.000000;3.295117
3818.000000;3.324912
3817.000000;3.459148
3816.000000;3.461609
3815.000000;3.462258
3814.000000;3.545279
3813.000000;3.586604
3812.000000;3.630630
3811.000000;3.873055
3810.000000;4.232935
3809.000000;4.322079
3808.000000;4.621154
3807.000000;4.071982
3806.000000;3.634607
3805.000000;3.533766
3804.000000;3.816860
3803.000000;3.909721
3802.000000;3.643078
3801.000000;3.635448
3800.000000;3.599130
3799.000000;3.483114
3798.000000;3.380313
3797.000000;3.352829
3796.000000;3.453724
3795.000000;3.669329
3794.000000;3.705344
3793.000000;3.558780
3792.000000;3.435019
3791.000000;3.354136
3790.000000;3.385401
3789.000000;3.566739
3788.000000;4.011248
3787.000000;4.630303
3786.000000;4.148521
3785.000000;3.877257
3784.000000;3.835533
3783.000000;4.219058
3782.000000;3.979384
3781.000000;3.610459
3780.000000;3.557413
3779.000000;3.571155
3778.000000;3.657822
3777.000000;3.644200
3776.000000;3.492375
3775.000000;3.501100
3774.000000;3.590288
3773.000000;3.744836
3772.000000;4.317842
3771.000000;4.016064
3770.000000;3.650334
3769.000000;3.636366
3768.000000;3.720945
3767.000000;3.958808
3766.000000;4.505140
3765.000000;4.179906
3764.000000;3.924648
3763.000000;4.041678
3762.000000;3.940102
3761.000000;3.705645
3760.000000;3.644946
3759.000000;3.579375
3758.000000;3.676359
3757.000000;4.060790
3756.000000;3.726372
3755.000000;3.518173
3754.000000;3.575779
3753.000000;3.659746
3752.000000;3.771482
3751.000000;3.964231
3750.000000;4.179183
3749.000000;4.258040
3748.000000;4.274725
3747.000000;3.816567
3746.000000;3.588918
3745.000000;3.528775
3744.000000;3.339036
3743.000000;3.131473
3742.000000;2.959560
3741.000000;2.851106
3740.000000;2.897047
3739.000000;3.096735
3738.000000;3.289683
3737.000000;3.387202
3736.000000;3.463610
3735.000000;3.617338
3734.000000;3.880343
3733.000000;4.066886
3732.000000;4.140941
3731.000000;3.921831
3730.000000;3.610158
3729.000000;3.433564
3728.000000;3.436667
3727.000000;3.566681
3726.000000;3.718875
3725.000000;3.883674
3724.000000;3.816145
3723.000000;3.690279
3722.000000;3.692041
3721.000000;3.691953
3720.000000;3.684353
3719.000000;3.724862
3718.000000;3.815169
3717.000000;3.890095
3716.000000;3.930034
3715.000000;3.990354
3714.000000;4.009071
3713.000000;3.952955
3712.000000;3.963349
3711.000000;4.020714
3710.000000;3.888475
3709.000000;3.816035
3708.000000;3.829605
3707.000000;3.798317
3706.000000;3.830283
3705.000000;3.648468
3704.000000;3.521848
3703.000000;3.723186
3702.000000;3.782607
3701.000000;3.560658
3700.000000;3.557135
3699.000000;3.671554
3698.000000;3.793732
3697.000000;3.826740
3696.000000;3.820019
3695.000000;3.795977
3694.000000;3.793110
3693.000000;3.964842
3692.000000;4.101305
3691.000000;4.145411
3690.000000;4.252349
3689.000000;3.806372
3688.000000;3.526146
3687.000000;3.498047
3686.000000;3.638455
3685.000000;3.922916
3684.000000;3.796298
3683.000000;3.598647
3682.000000;3.687783
3681.000000;3.964443
3680.000000;3.954363
3679.000000;3.749677
3678.000000;3.647957
3677.000000;3.600763
3676.000000;3.623101
3675.000000;3.626593
3674.000000;3.567919
3673.000000;3.514003
3672.000000;3.495686
3671.000000;3.401201
3670.000000;3.415006
3669.000000;3.561000
3668.000000;3.462228
3667.000000;3.352820
3666.000000;3.344344
3665.000000;3.347239
3664.000000;3.413891
3663.000000;3.620553
3662.000000;3.814657
3661.000000;3.934297
3660.000000;4.199728
3659.000000;4.233507
3658.000000;4.237701
3657.000000;4.242306
3656.000000;4.013869
3655.000000;3.849598
3654.000000;3.731975
3653.000000;3.520325
3652.000000;3.346562
3651.000000;3.288632
3650.000000;3.303396
3649.000000;3.326542
3648.000000;3.332765
3647.000000;3.430646
3646.000000;3.673394
3645.000000;3.846951
3644.000000;3.916463
3643.000000;3.934466
3642.000000;3.987277
3641.000000;4.333133
3640.000000;4.170966
3639.000000;3.920340
3638.000000;3.832516
3637.000000;3.729643
3636.000000;3.688327
3635.000000;3.739066
3634.000000;3.808176
3633.000000;3.787969
3632.000000;3.693731
3631.000000;3.670794
3630.000000;3.765684
3629.000000;4.058076
3628.000000;4.415177
3627.000000;3.713885
3626.000000;3.592842
3625.000000;3.857635
3624.000000;3.741875
3623.000000;3.506493
3622.000000;3.482231
3621.000000;3.530000
3620.000000;3.593894
3619.000000;3.694878
3618.000000;3.707580
3617.000000;3.663545
3616.000000;3.655946
3615.000000;3.633650
3614.000000;3.627203
3613.000000;3.686666
3612.000000;3.752705
3611.000000;3.780441
3610.000000;3.809789
3609.000000;3.854671
3608.000000;3.855772
3607.000000;3.806095
3606.000000;3.856205
3605.000000;4.000186
3604.000000;4.003557
3603.000000;3.874310
3602.000000;3.855077
3601.000000;4.003831
3600.000000;3.968053
3599.000000;4.223214
3598.000000;4.312776
3597.000000;3.814424
3596.000000;3.718136
3595.000000;3.679657
3594.000000;3.656754
3593.000000;3.623197
3592.000000;3.604804
3591.000000;3.640448
3590.000000;3.634258
3589.000000;3.628479
3588.000000;3.676598
3587.000000;3.745001
3586.000000;3.815822
3585.000000;3.777365
3584.000000;3.713277
3583.000000;3.726179
3582.000000;3.727095
3581.000000;3.725321
3580.000000;3.808072
3579.000000;3.910461
3578.000000;3.899069
3577.000000;3.881867
3576.000000;3.841138
3575.000000;3.804613
3574.000000;3.810343
3573.000000;3.780885
3572.000000;3.767914
3571.000000;4.100914
3570.000000;4.585440
3569.000000;3.870435
3568.000000;3.646859
3567.000000;3.683597
3566.000000;3.979829
3565.000000;4.094098
3564.000000;3.968143
3563.000000;4.023834
3562.000000;4.113317
3561.000000;4.397531
3560.000000;4.409640
3559.000000;4.121637
3558.000000;3.916001
3557.000000;3.705924
3556.000000;3.623856
3555.000000;3.609332
3554.000000;3.777282
3553.000000;4.051139
3552.000000;3.715256
3551.000000;3.654913
3550.000000;3.985285
3549.000000;4.486189
3548.000000;4.007334
3547.000000;3.864120
3546.000000;3.982421
3545.000000;4.139417
3544.000000;4.086945
3543.000000;4.092960
3542.000000;4.148849
3541.000000;3.985276
3540.000000;3.917832
3539.000000;4.151210
3538.000000;4.448752
3537.000000;3.977113
3536.000000;3.784497
3535.000000;3.872735
3534.000000;3.991618
3533.000000;3.796167
3532.000000;3.595396
3531.000000;3.478677
3530.000000;3.438197
3529.000000;3.458285
3528.000000;3.497576
3527.000000;3.568985
3526.000000;3.611744
3525.000000;3.601579
3524.000000;3.637858
3523.000000;3.745610
3522.000000;3.818353
3521.000000;3.866385
3520.000000;3.936382
3519.000000;3.964419
3518.000000;4.120910
3517.000000;3.945214
3516.000000;3.934183
3515.000000;4.093061
3514.000000;3.606765
3513.000000;3.440400
3512.000000;3.469875
3511.000000;3.528830
3510.000000;3.625699
3509.000000;4.037322
3508.000000;4.241713
3507.000000;4.009609
3506.000000;4.357746
3505.000000;4.260654
3504.000000;4.027514
3503.000000;3.932637
3502.000000;3.801415
3501.000000;3.860481
3500.000000;4.138089
3499.000000;4.239720
3498.000000;4.001997
3497.000000;3.770414
3496.000000;3.653727
3495.000000;3.655737
3494.000000;3.680753
3493.000000;3.635466
3492.000000;3.592660
3491.000000;3.791216
3490.000000;4.359322
3489.000000;4.141552
3488.000000;3.692965
3487.000000;3.447849
3486.000000;3.350641
3485.000000;3.333002
3484.000000;3.360261
3483.000000;3.436956
3482.000000;3.544168
3481.000000;3.721231
3480.000000;4.312387
3479.000000;4.055892
3478.000000;3.663640
3477.000000;3.590077
3476.000000;3.588371
3475.000000;3.615734
3474.000000;3.772549
3473.000000;3.878556
3472.000000;3.580273
3471.000000;3.482104
3470.000000;3.534789
3469.000000;3.531597
3468.000000;3.492040
3467.000000;3.550864
3466.000000;3.581340
3465.000000;3.615248
3464.000000;3.785177
3463.000000;3.665411
3462.000000;3.464394
3461.000000;3.428283
3460.000000;3.529481
3459.000000;3.717767
3458.000000;3.884917
3457.000000;4.308903
3456.000000;4.039453
3455.000000;3.598849
3454.000000;3.434236
3453.000000;3.366698
3452.000000;3.382774
3451.000000;3.425325
3450.000000;3.434638
3449.000000;3.468473
3448.000000;3.519488
3447.000000;3.660499
3446.000000;4.018550
3445.000000;3.964124
3444.000000;3.829042
3443.000000;3.940257
3442.000000;4.311294
3441.000000;4.825625
3440.000000;4.240122
3439.000000;3.843209
3438.000000;3.701093
3437.000000;3.677433
3436.000000;3.588594
3435.000000;3.567580
3434.000000;3.639350
3433.000000;3.756426
3432.000000;3.840108
3431.000000;3.842751
3430.000000;3.949327
3429.000000;3.996824
3428.000000;3.758868
3427.000000;3.545820
3426.000000;3.453363
3425.000000;3.423181
3424.000000;3.458504
3423.000000;3.555119
3422.000000;3.613130
3421.000000;3.566144
3420.000000;3.525930
3419.000000;3.651593
3418.000000;3.766939
3417.000000;3.667702
3416.000000;3.627738
3415.000000;3.693889
3414.000000;3.859784
3413.000000;3.847312
3412.000000;4.085354
3411.000000;4.683577
3410.000000;3.754447
3409.000000;3.545033
3408.000000;3.584758
3407.000000;3.765801
3406.000000;3.768026
3405.000000;3.862019
3404.000000;3.901744
3403.000000;3.887062
3402.000000;4.051110
3401.000000;3.931283
3400.000000;3.751921
3399.000000;3.703254
3398.000000;3.872857
3397.000000;4.281627
3396.000000;3.855363
3395.000000;3.549043
3394.000000;3.495037
3393.000000;3.641909
3392.000000;3.917138
3391.000000;3.877347
3390.000000;3.642941
3389.000000;3.582869
3388.000000;3.721607
3387.000000;3.946146
3386.000000;4.034017
3385.000000;4.348308
3384.000000;4.066891
3383.000000;3.746849
3382.000000;3.748318
3381.000000;3.965552
3380.000000;4.537880
3379.000000;4.419569
3378.000000;3.865046
3377.000000;3.691798
3376.000000;3.696973
3375.000000;3.763721
3374.000000;3.725227
3373.000000;3.600823
3372.000000;3.528773
3371.000000;3.558695
3370.000000;3.661002
3369.000000;3.736292
3368.000000;3.699168
3367.000000;3.602984
3366.000000;3.471986
3365.000000;3.335119
3364.000000;3.246136
3363.000000;3.227217
3362.000000;3.271743
3361.000000;3.363984
3360.000000;3.523971
3359.000000;3.720788
3358.000000;3.803993
3357.000000;3.809091
3356.000000;3.780508
3355.000000;4.040539
3354.000000;4.084156
3353.000000;4.036471
3352.000000;4.086844
3351.000000;3.776744
3350.000000;3.716966
3349.000000;3.686719
3348.000000;4.019673
3347.000000;3.930784
3346.000000;3.509670
3345.000000;3.432601
3344.000000;3.398700
3343.000000;3.395011
3342.000000;3.515734
3341.000000;3.573392
3340.000000;3.536810
3339.000000;3.637071
3338.000000;3.791491
3337.000000;3.919375
3336.000000;4.000427
3335.000000;3.852043
3334.000000;3.856992
3333.000000;4.362002
3332.000000;3.757197
3331.000000;3.512181
3330.000000;3.468540
3329.000000;3.497069
3328.000000;3.635295
3327.000000;3.996309
3326.000000;3.918339
3325.000000;3.638253
3324.000000;3.526279
3323.000000;3.436797
3322.000000;3.378383
3321.000000;3.320449
3320.000000;3.321973
3319.000000;3.430125
3318.000000;3.571007
3317.000000;3.493813
3316.000000;3.360860
3315.000000;3.376313
3314.000000;3.546092
3313.000000;3.636037
3312.000000;3.473562
3311.000000;3.372261
3310.000000;3.345528
3309.000000;3.327593
3308.000000;3.297520
3307.000000;3.283457
3306.000000;3.313991
3305.000000;3.381377
3304.000000;3.486150
3303.000000;3.603872
3302.000000;3.627832
3301.000000;3.552394
3300.000000;3.457082
3299.000000;3.471665
3298.000000;3.599686
3297.000000;3.709273
3296.000000;3.664869
3295.000000;3.522792
3294.000000;3.436073
3293.000000;3.452793
3292.000000;3.550991
3291.000000;3.596186
3290.000000;3.469757
3289.000000;3.386052
3288.000000;3.379217
3287.000000;3.384257
3286.000000;3.411254
3285.000000;3.493265
3284.000000;3.556213
3283.000000;3.528728
3282.000000;3.541275
3281.000000;3.620721
3280.000000;3.602835
3279.000000;3.671831
3278.000000;4.063267
3277.000000;4.288830
3276.000000;3.769514
3275.000000;3.724562
3274.000000;3.847945
3273.000000;4.206468
3272.000000;3.755264
3271.000000;3.547020
3270.000000;3.542788
3269.000000;3.556557
3268.000000;3.586191
3267.000000;3.760859
3266.000000;4.027489
3265.000000;3.971424
3264.000000;3.862361
3263.000000;3.827171
3262.000000;3.701595
3261.000000;3.463586
3260.000000;3.310335
3259.000000;3.313386
3258.000000;3.459684
3257.000000;3.732057
3256.000000;3.720606
3255.000000;3.510122
3254.000000;3.431327
3253.000000;3.452477
3252.000000;3.486605
3251.000000;3.681254
3250.000000;4.279299
3249.000000;3.779730
3248.000000;3.654318
3247.000000;3.754564
3246.000000;3.928481
3245.000000;3.821892
3244.000000;3.759076
3243.000000;3.935154
3242.000000;4.060184
3241.000000;3.926955
3240.000000;3.791501
3239.000000;3.879483
3238.000000;4.117753
3237.000000;4.435205
3236.000000;3.987528
3235.000000;3.733136
3234.000000;3.612256
3233.000000;3.599812
3232.000000;3.727044
3231.000000;3.832819
3230.000000;3.804244
3229.000000;3.674984
3228.000000;3.594133
3227.000000;3.689030
3226.000000;3.902748
3225.000000;3.841874
3224.000000;3.678972
3223.000000;3.693498
3222.000000;3.825988
3221.000000;3.819809
3220.000000;3.654998
3219.000000;3.600769
3218.000000;3.533632
3217.000000;3.354733
3216.000000;3.209173
3215.000000;3.159637
3214.000000;3.157179
3213.000000;3.140969
3212.000000;3.143533
3211.000000;3.235031
3210.000000;3.404766
3209.000000;3.498912
3208.000000;3.503097
3207.000000;3.564294
3206.000000;3.648060
3205.000000;3.965747
3204.000000;4.120384
3203.000000;4.120642
3202.000000;4.093445
3201.000000;4.059397
3200.000000;4.452839
3199.000000;4.001121
3198.000000;3.758949
3197.000000;3.536534
3196.000000;3.465456
3195.000000;3.482646
3194.000000;3.477866
3193.000000;3.548251
3192.000000;3.966731
3191.000000;3.907117
3190.000000;3.533264
3189.000000;3.487679
3188.000000;3.519299
3187.000000;3.662012
3186.000000;3.877959
3185.000000;4.014626
3184.000000;3.997853
3183.000000;4.337807
3182.000000;3.859685
3181.000000;3.541052
3180.000000;3.458890
3179.000000;3.549335
3178.000000;3.988785
3177.000000;4.197783
3176.000000;3.884486
3175.000000;3.681040
3174.000000;3.567180
3173.000000;3.761342
3172.000000;4.280705
3171.000000;4.056402
3170.000000;3.902874
3169.000000;3.825261
3168.000000;4.007491
3167.000000;3.905164
3166.000000;4.039120
3165.000000;3.902614
3164.000000;3.460284
3163.000000;3.459433
3162.000000;3.661427
3161.000000;4.089590
3160.000000;3.990591
3159.000000;3.672684
3158.000000;3.657569
3157.000000;3.780248
3156.000000;4.046232
3155.000000;4.117456
3154.000000;3.622781
3153.000000;3.444024
3152.000000;3.371234
3151.000000;3.288550
3150.000000;3.264669
3149.000000;3.361606
3148.000000;3.480243
3147.000000;3.458565
3146.000000;3.447501
3145.000000;3.471219
3144.000000;3.539713
3143.000000;3.624228
3142.000000;3.690192
3141.000000;3.842119
3140.000000;4.064751
3139.000000;4.000207
3138.000000;3.887253
3137.000000;3.977716
3136.000000;4.199584
3135.000000;4.158038
3134.000000;3.860235
3133.000000;3.650532
3132.000000;3.554267
3131.000000;3.679705
3130.000000;4.058888
3129.000000;3.596833
3128.000000;3.365033
3127.000000;3.412109
3126.000000;3.619707
3125.000000;3.639866
3124.000000;3.603185
3123.000000;3.828703
3122.000000;4.847716
3121.000000;4.235325
3120.000000;4.347729
3119.000000;4.407470
3118.000000;3.890589
3117.000000;3.744277
3116.000000;3.764622
3115.000000;3.697880
3114.000000;3.579329
3113.000000;3.486865
3112.000000;3.412180
3111.000000;3.424264
3110.000000;3.461452
3109.000000;3.451672
3108.000000;3.548512
3107.000000;4.028969
3106.000000;3.862475
3105.000000;3.654406
3104.000000;3.853497
3103.000000;4.160045
3102.000000;4.403322
3101.000000;3.833216
3100.000000;3.622022
3099.000000;3.701028
3098.000000;3.915174
3097.000000;3.862369
3096.000000;3.580655
3095.000000;3.397548
3094.000000;3.370171
3093.000000;3.507682
3092.000000;3.755864
3091.000000;3.844940
3090.000000;3.818100
3089.000000;4.119943
3088.000000;4.191944
3087.000000;3.893168
3086.000000;3.982252
3085.000000;3.836156
3084.000000;3.594986
3083.000000;3.429482
3082.000000;3.338028
3081.000000;3.331116
3080.000000;3.426290
3079.000000;3.983633
3078.000000;4.154449
3077.000000;3.664759
3076.000000;3.622927
3075.000000;3.828318
3074.000000;4.435682
3073.000000;4.107461
3072.000000;4.058287
3071.000000;4.136825
3070.000000;4.099389
3069.000000;3.679889
3068.000000;3.475051
3067.000000;3.578244
3066.000000;4.026350
3065.000000;4.103696
3064.000000;4.105945
3063.000000;4.076629
3062.000000;3.898100
3061.000000;3.760519
3060.000000;3.645322
3059.000000;3.467880
3058.000000;3.340820
3057.000000;3.344430
3056.000000;3.453773
3055.000000;3.574536
3054.000000;3.676659
3053.000000;3.748991
3052.000000;3.756257
3051.000000;3.881554
3050.000000;4.063083
3049.000000;3.810322
3048.000000;3.629278
3047.000000;3.723292
3046.000000;4.068133
3045.000000;4.434645
3044.000000;4.314613
3043.000000;3.938184
3042.000000;3.664391
3041.000000;3.429693
3040.000000;3.269596
3039.000000;3.228232
3038.000000;3.260024
3037.000000;3.296389
3036.000000;3.343485
3035.000000;3.470393
3034.000000;3.597845
3033.000000;3.624553
3032.000000;3.748532
3031.000000;3.804308
3030.000000;3.618413
3029.000000;3.509740
3028.000000;3.558066
3027.000000;4.098407
3026.000000;4.043713
3025.000000;3.706167
3024.000000;3.908748
3023.000000;3.961032
3022.000000;3.900581
3021.000000;3.935946
3020.000000;3.909428
3019.000000;3.655605
3018.000000;3.445452
3017.000000;3.360584
3016.000000;3.370373
3015.000000;3.414130
3014.000000;3.447637
3013.000000;3.663153
3012.000000;4.074837
3011.000000;3.592791
3010.000000;3.487120
3009.000000;3.513313
3008.000000;3.629475
3007.000000;3.794135
3006.000000;3.812116
3005.000000;3.794731
3004.000000;3.901341
3003.000000;4.242691
3002.000000;4.364872
3001.000000;3.769328
3000.000000;3.504505
2999.000000;3.402828
2998.000000;3.328389
2997.000000;3.312570
2996.000000;3.343052
2995.000000;3.440421
2994.000000;3.637245
2993.000000;3.518112
2992.000000;3.364187
2991.000000;3.366615
2990.000000;3.407894
2989.000000;3.466906
2988.000000;3.562764
2987.000000;3.624041
2986.000000;3.600090
2985.000000;3.531547
2984.000000;3.415378
2983.000000;3.428435
2982.000000;3.582390
2981.000000;3.565862
2980.000000;3.495132
2979.000000;3.503780
2978.000000;3.605507
2977.000000;3.931299
2976.000000;3.750741
2975.000000;3.541302
2974.000000;3.642085
2973.000000;4.065046
2972.000000;4.351882
2971.000000;3.849965
2970.000000;4.204761
2969.000000;3.770402
2968.000000;3.343735
2967.000000;3.274968
2966.000000;3.362409
2965.000000;3.614970
2964.000000;4.229204
2963.000000;3.638523
2962.000000;3.447073
2961.000000;3.676383
2960.000000;3.923288
2959.000000;3.630078
2958.000000;3.603322
2957.000000;3.561989
2956.000000;3.397178
2955.000000;3.292370
2954.000000;3.278571
2953.000000;3.336423
2952.000000;3.507293
2951.000000;3.996690
2950.000000;3.986709
2949.000000;3.625372
2948.000000;3.583293
2947.000000;3.570750
2946.000000;3.855101
2945.000000;3.872119
2944.000000;3.499364
2943.000000;3.449545
2942.000000;3.471333
2941.000000;3.419671
2940.000000;3.349715
2939.000000;3.362463
2938.000000;3.446474
2937.000000;3.472956
2936.000000;3.508714
2935.000000;3.659590
2934.000000;3.799655
2933.000000;3.779960
2932.000000;3.533572
2931.000000;3.378143
2930.000000;3.387285
2929.000000;3.482399
2928.000000;3.693299
2927.000000;3.921926
2926.000000;3.617968
2925.000000;3.486029
2924.000000;3.633700
2923.000000;4.087387
2922.000000;4.023737
2921.000000;4.035468
2920.000000;4.344811
2919.000000;3.882783
2918.000000;3.595634
2917.000000;3.466116
2916.000000;3.493054
2915.000000;3.694192
2914.000000;4.116429
2913.000000;4.267523
2912.000000;4.138976
2911.000000;4.590572
2910.000000;4.834882
2909.000000;4.669251
2908.000000;4.696162
2907.000000;4.007763
2906.000000;3.661961
2905.000000;3.609922
2904.000000;3.674413
2903.000000;3.669527
2902.000000;3.701658
2901.000000;3.926519
2900.000000;3.887742
2899.000000;3.662643
2898.000000;3.575586
2897.000000;3.528928
2896.000000;3.602597
2895.000000;3.907626
2894.000000;3.887762
2893.000000;3.569230
2892.000000;3.445747
2891.000000;3.441754
2890.000000;3.551319
2889.000000;3.702094
2888.000000;3.675115
2887.000000;3.610970
2886.000000;3.565184
2885.000000;3.432254
2884.000000;3.332989
2883.000000;3.332969
2882.000000;3.374414
2881.000000;3.424940
2880.000000;3.480653
2879.000000;3.564012
2878.000000;3.677476
2877.000000;3.696441
2876.000000;3.694593
2875.000000;3.746412
2874.000000;3.859977
2873.000000;3.869464
2872.000000;3.630523
2871.000000;3.550771
2870.000000;3.642290
2869.000000;3.676105
2868.000000;3.519284
2867.000000;3.425196
2866.000000;3.420567
2865.000000;3.425887
2864.000000;3.499423
2863.000000;3.923051
2862.000000;4.047341
2861.000000;3.763140
2860.000000;4.022436
2859.000000;4.010000
2858.000000;3.595101
2857.000000;3.438015
2856.000000;3.442470
2855.000000;3.534222
2854.000000;3.726797
2853.000000;4.077519
2852.000000;3.895339
2851.000000;3.671711
2850.000000;3.640143
2849.000000;3.629180
2848.000000;3.729319
2847.000000;3.957285
2846.000000;3.822272
2845.000000;3.839468
2844.000000;4.087354
2843.000000;3.936292
2842.000000;3.826531
2841.000000;3.817219
2840.000000;3.831623
2839.000000;3.691859
2838.000000;3.526703
2837.000000;3.590984
2836.000000;3.955517
2835.000000;4.124340
2834.000000;3.758382
2833.000000;3.585621
2832.000000;3.644612
2831.000000;4.007167
2830.000000;3.853943
2829.000000;3.515120
2828.000000;3.427359
2827.000000;3.538350
2826.000000;3.768268
2825.000000;3.686664
2824.000000;3.465304
2823.000000;3.355171
2822.000000;3.353499
2821.000000;3.418947
2820.000000;3.679831
2819.000000;3.821786
2818.000000;3.412369
2817.000000;3.277185
2816.000000;3.280707
2815.000000;3.337722
2814.000000;3.547308
2813.000000;3.905324
2812.000000;3.790649
2811.000000;3.629813
2810.000000;3.579929
2809.000000;3.567128
2808.000000;3.623281
2807.000000;3.536818
2806.000000;3.431868
2805.000000;3.469403
2804.000000;3.656871
2803.000000;3.731570
2802.000000;3.692902
2801.000000;3.689826
2800.000000;3.833510
2799.000000;4.490467
2798.000000;3.825535
2797.000000;3.437248
2796.000000;3.298210
2795.000000;3.301021
2794.000000;3.405998
2793.000000;3.427139
2792.000000;3.405354
2791.000000;3.532820
2790.000000;3.904426
2789.000000;4.523447
2788.000000;4.693697
2787.000000;4.697219
2786.000000;4.490859
2785.000000;3.883314
2784.000000;3.592298
2783.000000;3.542253
2782.000000;3.654578
2781.000000;3.792041
2780.000000;4.025844
2779.000000;4.536823
2778.000000;4.230085
2777.000000;3.963286
2776.000000;3.880039
2775.000000;4.094745
2774.000000;4.770822
2773.000000;4.129614
2772.000000;3.816950
2771.000000;3.631249
2770.000000;3.422592
2769.000000;3.368408
2768.000000;3.472529
2767.000000;3.582848
2766.000000;3.590867
2765.000000;3.534064
2764.000000;3.622279
2763.000000;3.983002
2762.000000;3.789938
2761.000000;3.612074
2760.000000;3.815965
2759.000000;4.053738
2758.000000;4.254033
2757.000000;4.035894
2756.000000;3.713680
2755.000000;3.745463
2754.000000;3.844451
2753.000000;3.831952
2752.000000;3.893786
2751.000000;3.849429
2750.000000;3.947389
2749.000000;4.049914
2748.000000;3.815737
2747.000000;3.805557
2746.000000;3.797950
2745.000000;3.648088
2744.000000;3.584429
2743.000000;3.712035
2742.000000;3.807975
2741.000000;3.704674
2740.000000;3.739843
2739.000000;3.987933
2738.000000;4.189103
2737.000000;3.702060
2736.000000;3.421815
2735.000000;3.376167
2734.000000;3.441377
2733.000000;3.510390
2732.000000;3.617602
2731.000000;3.889037
2730.000000;4.137170
2729.000000;3.905535
2728.000000;3.653240
2727.000000;3.648613
2726.000000;3.881857
2725.000000;3.991413
2724.000000;3.756000
2723.000000;3.496135
2722.000000;3.387022
2721.000000;3.473481
2720.000000;3.846093
2719.000000;4.401480
2718.000000;3.823687
2717.000000;3.554690
2716.000000;3.517610
2715.000000;3.731348
2714.000000;4.115078
2713.000000;4.141487
2712.000000;4.073153
2711.000000;3.940597
2710.000000;3.823062
2709.000000;3.605717
2708.000000;3.511978
2707.000000;3.519398
2706.000000;3.478507
2705.000000;3.533235
2704.000000;3.657749
2703.000000;3.642967
2702.000000;3.524831
2701.000000;3.363087
2700.000000;3.263799
2699.000000;3.289855
2698.000000;3.456941
2697.000000;3.629640
2696.000000;3.621585
2695.000000;3.602765
2694.000000;3.578775
2693.000000;3.769028
2692.000000;4.165532
2691.000000;4.017717
2690.000000;4.005962
2689.000000;3.838595
2688.000000;3.668872
2687.000000;3.596685
2686.000000;3.479589
2685.000000;3.368506
2684.000000;3.318817
2683.000000;3.388506
2682.000000;3.620518
2681.000000;3.870931
2680.000000;3.827089
2679.000000;3.921607
2678.000000;3.994593
2677.000000;3.772870
2676.000000;3.786226
2675.000000;3.828031
2674.000000;3.624700
2673.000000;3.482703
2672.000000;3.437562
2671.000000;3.381600
2670.000000;3.390701
2669.000000;3.456551
2668.000000;3.617891
2667.000000;3.697697
2666.000000;3.826942
2665.000000;4.615626
2664.000000;3.672907
2663.000000;3.438032
2662.000000;3.462140
2661.000000;3.501565
2660.000000;3.619440
2659.000000;3.989868
2658.000000;4.983549
2657.000000;4.118262
2656.000000;3.844580
2655.000000;3.766554
2654.000000;3.859161
2653.000000;3.806085
2652.000000;3.716158
2651.000000;3.695509
2650.000000;3.636129
2649.000000;3.679054
2648.000000;3.738608
2647.000000;3.596789
2646.000000;3.561161
2645.000000;3.650069
2644.000000;3.425357
2643.000000;3.254419
2642.000000;3.226144
2641.000000;3.193968
2640.000000;3.174427
2639.000000;3.263339
2638.000000;3.452054
2637.000000;3.526416
2636.000000;3.509466
2635.000000;3.624687
2634.000000;3.857948
2633.000000;3.822067
2632.000000;3.621669
2631.000000;3.541234
2630.000000;3.577041
2629.000000;3.624994
2628.000000;3.780231
2627.000000;4.106792
2626.000000;3.805786
2625.000000;3.581151
2624.000000;3.494805
2623.000000;3.361577
2622.000000;3.299024
2621.000000;3.382718
2620.000000;3.604821
2619.000000;3.798149
2618.000000;3.787951
2617.000000;3.811718
2616.000000;3.877587
2615.000000;3.739404
2614.000000;3.668917
2613.000000;3.759202
2612.000000;3.888360
2611.000000;3.742631
2610.000000;3.754646
2609.000000;4.204892
2608.000000;3.971168
2607.000000;3.766077
2606.000000;3.704113
2605.000000;3.584190
2604.000000;3.501379
2603.000000;3.506440
2602.000000;3.512543
2601.000000;3.391040
2600.000000;3.311531
2599.000000;3.374669
2598.000000;3.572955
2597.000000;3.922309
2596.000000;4.165959
2595.000000;3.711867
2594.000000;3.472643
2593.000000;3.614489
2592.000000;4.014109
2591.000000;3.651671
2590.000000;3.377899
2589.000000;3.304885
2588.000000;3.280002
2587.000000;3.361705
2586.000000;3.644389
2585.000000;3.624905
2584.000000;3.375009
2583.000000;3.307316
2582.000000;3.300761
2581.000000;3.335180
2580.000000;3.416494
2579.000000;3.548158
2578.000000;3.774992
2577.000000;4.148935
2576.000000;4.582138
2575.000000;3.995011
2574.000000;3.645654
2573.000000;3.670324
2572.000000;3.897019
2571.000000;3.787335
2570.000000;3.548416
2569.000000;3.405016
2568.000000;3.350126
2567.000000;3.451839
2566.000000;3.685552
2565.000000;3.683591
2564.000000;3.523769
2563.000000;3.559292
2562.000000;3.719014
2561.000000;3.642272
2560.000000;3.540626
2559.000000;3.532575
2558.000000;3.644882
2557.000000;3.945346
2556.000000;3.895334
2555.000000;3.790655
2554.000000;3.794999
2553.000000;3.631629
2552.000000;3.509054
2551.000000;3.534533
2550.000000;3.884277
2549.000000;4.192706
2548.000000;3.725395
2547.000000;3.610965
2546.000000;3.563947
2545.000000;3.524378
2544.000000;3.528483
2543.000000;3.692129
2542.000000;4.009624
2541.000000;3.921998
2540.000000;3.835978
2539.000000;3.719702
2538.000000;3.574619
2537.000000;3.675103
2536.000000;3.849455
2535.000000;3.725320
2534.000000;3.661214
2533.000000;3.745485
2532.000000;3.829231
2531.000000;3.647109
2530.000000;3.482710
2529.000000;3.493624
2528.000000;3.577776
2527.000000;3.548233
2526.000000;3.443469
2525.000000;3.370980
2524.000000;3.401700
2523.000000;3.752888
2522.000000;3.891387
2521.000000;3.499013
2520.000000;3.462713
2519.000000;3.472354
2518.000000;3.505976
2517.000000;3.550010
2516.000000;3.488498
2515.000000;3.445056
2514.000000;3.411777
2513.000000;3.378136
2512.000000;3.391476
2511.000000;3.458465
2510.000000;3.479806
2509.000000;3.415456
2508.000000;3.367248
2507.000000;3.438716
2506.000000;3.501590
2505.000000;3.425976
2504.000000;3.402636
2503.000000;3.496186
2502.000000;3.866403
2501.000000;3.887494
2500.000000;3.415526
2499.000000;3.273522
2498.000000;3.233242
2497.000000;3.209121
2496.000000;3.233270
2495.000000;3.365918
2494.000000;3.646591
2493.000000;3.778080
2492.000000;3.741207
2491.000000;4.056817
2490.000000;4.021732
2489.000000;3.613454
2488.000000;3.614348
2487.000000;3.773954
2486.000000;3.737047
2485.000000;3.681477
2484.000000;3.653171
2483.000000;3.604343
2482.000000;3.554760
2481.000000;3.682551
2480.000000;4.072716
2479.000000;3.830790
2478.000000;3.569789
2477.000000;3.505770
2476.000000;3.548176
2475.000000;3.693834
2474.000000;4.049385
2473.000000;4.198010
2472.000000;3.782579
2471.000000;3.601331
2470.000000;3.532012
2469.000000;3.867964
2468.000000;4.106770
2467.000000;3.600861
2466.000000;3.647701
2465.000000;3.758377
2464.000000;3.771997
2463.000000;3.716604
2462.000000;3.655148
2461.000000;3.664643
2460.000000;3.661915
2459.000000;3.578654
2458.000000;3.472653
2457.000000;3.478039
2456.000000;3.498597
2455.000000;3.532903
2454.000000;3.772969
2453.000000;4.014298
2452.000000;3.757432
2451.000000;3.588045
2450.000000;3.514607
2449.000000;3.661148
2448.000000;4.107038
2447.000000;3.910918
2446.000000;3.662357
2445.000000;3.449922
2444.000000;3.289977
2443.000000;3.223850
2442.000000;3.194306
2441.000000;3.168427
2440.000000;3.193282
2439.000000;3.346696
2438.000000;3.725064
2437.000000;4.313138
2436.000000;3.895202
2435.000000;3.591856
2434.000000;3.472155
2433.000000;3.421442
2432.000000;3.478920
2431.000000;3.550167
2430.000000;3.554189
2429.000000;3.666610
2428.000000;3.841031
2427.000000;3.834348
2426.000000;3.822964
2425.000000;3.828428
2424.000000;3.791958
2423.000000;3.862726
2422.000000;3.836757
2421.000000;3.680395
2420.000000;3.603290
2419.000000;3.561353
2418.000000;3.679442
2417.000000;3.807325
2416.000000;3.594127
2415.000000;3.596833
2414.000000;3.761699
2413.000000;3.823272
2412.000000;3.891325
2411.000000;3.891105
2410.000000;3.702518
2409.000000;3.766862
2408.000000;3.936661
2407.000000;3.973413
2406.000000;3.965269
2405.000000;3.683760
2404.000000;3.492733
2403.000000;3.450992
2402.000000;3.542762
2401.000000;3.728381
2400.000000;3.640209
2399.000000;3.513011
2398.000000;3.454760
2397.000000;3.398056
2396.000000;3.438814
2395.000000;3.677468
2394.000000;4.262339
2393.000000;4.682161
2392.000000;4.224932
2391.000000;4.069195
2390.000000;3.707226
2389.000000;3.416280
2388.000000;3.298685
2387.000000;3.303605
2386.000000;3.407455
2385.000000;3.622856
2384.000000;3.672746
2383.000000;3.671257
2382.000000;3.997615
2381.000000;3.942029
2380.000000;3.750193
2379.000000;3.843384
2378.000000;3.863646
2377.000000;3.678956
2376.000000;3.553735
2375.000000;3.611652
2374.000000;3.794419
2373.000000;3.803291
2372.000000;3.881190
2371.000000;4.603145
2370.000000;4.085216
2369.000000;3.647314
2368.000000;3.505210
2367.000000;3.672652
2366.000000;3.962204
2365.000000;3.706325
2364.000000;3.595274
2363.000000;3.704355
2362.000000;3.898958
2361.000000;3.754910
2360.000000;3.535805
2359.000000;3.493826
2358.000000;3.571351
2357.000000;3.815902
2356.000000;4.029464
2355.000000;3.514876
2354.000000;3.238221
2353.000000;3.171349
2352.000000;3.209532
2351.000000;3.295875
2350.000000;3.506277
2349.000000;3.723835
2348.000000;3.579920
2347.000000;3.503717
2346.000000;3.559105
2345.000000;3.670953
2344.000000;3.777881
2343.000000;3.803999
2342.000000;3.745919
2341.000000;3.688141
2340.000000;3.546403
2339.000000;3.628261
2338.000000;4.154943
2337.000000;4.043305
2336.000000;3.700868
2335.000000;3.531755
2334.000000;3.510217
2333.000000;3.566229
2332.000000;3.559039
2331.000000;3.705164
2330.000000;3.899993
2329.000000;3.637155
2328.000000;3.426692
2327.000000;3.416829
2326.000000;3.525951
2325.000000;3.510166
2324.000000;3.393971
2323.000000;3.366701
2322.000000;3.421256
2321.000000;3.504709
2320.000000;3.656586
2319.000000;4.049718
2318.000000;3.962373
2317.000000;3.718135
2316.000000;3.593560
2315.000000;3.586509
2314.000000;3.697352
2313.000000;3.874983
2312.000000;3.970151
2311.000000;3.685466
2310.000000;3.515862
2309.000000;3.491135
2308.000000;3.517974
2307.000000;3.547488
2306.000000;3.689497
2305.000000;4.022893
2304.000000;3.875716
2303.000000;3.703550
2302.000000;3.826342
2301.000000;3.984865
2300.000000;4.206277
2299.000000;4.160554
2298.000000;3.738836
2297.000000;3.570248
2296.000000;3.580899
2295.000000;3.710020
2294.000000;3.939007
2293.000000;4.557068
2292.000000;4.171655
2291.000000;3.761485
2290.000000;3.590944
2289.000000;3.572347
2288.000000;3.665913
2287.000000;3.883817
2286.000000;4.119379
2285.000000;3.879721
2284.000000;3.574545
2283.000000;3.504126
2282.000000;3.605698
2281.000000;3.753988
2280.000000;3.885515
2279.000000;4.047793
2278.000000;3.851058
2277.000000;3.952206
2276.000000;4.321432
2275.000000;3.903083
2274.000000;3.832530
2273.000000;3.809031
2272.000000;3.687824
2271.000000;3.649365
2270.000000;3.562398
2269.000000;3.527488
2268.000000;3.490379
2267.000000;3.454552
2266.000000;3.548567
2265.000000;3.964540
2264.000000;4.328077
2263.000000;3.829754
2262.000000;3.555397
2261.000000;3.452653
2260.000000;3.420798
2259.000000;3.455336
2258.000000;3.560155
2257.000000;3.711375
2256.000000;3.783328
2255.000000;3.522351
2254.000000;3.339201
2253.000000;3.340951
2252.000000;3.467193
2251.000000;3.657400
2250.000000;4.107035
2249.000000;3.896444
2248.000000;3.493081
2247.000000;3.475494
2246.000000;3.558585
2245.000000;3.531642
2244.000000;3.462523
2243.000000;3.536549
2242.000000;3.673326
2241.000000;3.568834
2240.000000;3.440674
2239.000000;3.462127
2238.000000;3.628698
2237.000000;3.790301
2236.000000;3.886434
2235.000000;3.721625
2234.000000;3.409061
2233.000000;3.356630
2232.000000;3.463370
2231.000000;3.609816
2230.000000;3.765804
2229.000000;3.961223
2228.000000;3.917600
2227.000000;3.544693
2226.000000;3.422979
2225.000000;3.607363
2224.000000;3.889360
2223.000000;3.711343
2222.000000;3.648528
2221.000000;3.703240
2220.000000;3.592016
2219.000000;3.388385
2218.000000;3.334160
2217.000000;3.394345
2216.000000;3.510982
2215.000000;3.569799
2214.000000;3.782017
2213.000000;3.740082
2212.000000;3.362196
2211.000000;3.225248
2210.000000;3.240030
2209.000000;3.336109
2208.000000;3.519216
2207.000000;3.664044
2206.000000;3.578790
2205.000000;3.542805
2204.000000;3.470937
2203.000000;3.539311
2202.000000;3.934693
2201.000000;4.550604
2200.000000;3.869038
2199.000000;4.004406
2198.000000;3.928909
2197.000000;3.604103
2196.000000;3.559578
2195.000000;3.736467
2194.000000;3.805345
2193.000000;3.446859
2192.000000;3.298040
2191.000000;3.361184
2190.000000;3.601963
2189.000000;3.836376
2188.000000;3.852945
2187.000000;3.843889
2186.000000;3.651489
2185.000000;3.488502
2184.000000;3.504437
2183.000000;3.800279
2182.000000;3.848210
2181.000000;3.649196
2180.000000;3.663181
2179.000000;4.135794
2178.000000;3.937274
2177.000000;3.720597
2176.000000;3.874666
2175.000000;3.861543
2174.000000;3.637828
2173.000000;3.655228
2172.000000;3.791233
2171.000000;4.020244
2170.000000;4.117863
2169.000000;3.866993
2168.000000;3.808950
2167.000000;3.652889
2166.000000;3.406150
2165.000000;3.363086
2164.000000;3.378705
2163.000000;3.365810
2162.000000;3.369462
2161.000000;3.486783
2160.000000;3.634958
2159.000000;3.559782
2158.000000;3.438301
2157.000000;3.350307
2156.000000;3.351924
2155.000000;3.578726
2154.000000;3.661018
2153.000000;3.469911
2152.000000;3.462017
2151.000000;3.560488
2150.000000;3.849792
2149.000000;4.483703
2148.000000;3.726844
2147.000000;3.601547
2146.000000;3.516503
2145.000000;3.574186
2144.000000;3.660385
2143.000000;3.565887
2142.000000;3.453988
2141.000000;3.575613
2140.000000;3.781472
2139.000000;3.677776
2138.000000;3.556125
2137.000000;3.509161
2136.000000;3.538855
2135.000000;3.592764
2134.000000;3.548930
2133.000000;3.540987
2132.000000;3.666002
2131.000000;3.893356
2130.000000;4.414973
2129.000000;3.741202
2128.000000;3.487660
2127.000000;3.531814
2126.000000;3.644683
2125.000000;3.568497
2124.000000;3.554008
2123.000000;3.562103
2122.000000;3.588946
2121.000000;3.832683
2120.000000;3.975781
2119.000000;3.804232
2118.000000;3.763272
2117.000000;3.578197
2116.000000;3.487762
2115.000000;3.521257
2114.000000;3.651509
2113.000000;3.692167
2112.000000;3.559377
2111.000000;3.523591
2110.000000;3.615283
2109.000000;3.729618
2108.000000;3.905840
2107.000000;4.141504
2106.000000;3.721176
2105.000000;3.633268
2104.000000;3.833615
2103.000000;4.343685
2102.000000;4.249811
2101.000000;3.840184
2100.000000;3.685117
2099.000000;3.526433
2098.000000;3.412669
2097.000000;3.494446
2096.000000;3.824745
2095.000000;4.543224
2094.000000;4.016231
2093.000000;3.612474
2092.000000;3.443358
2091.000000;3.443123
2090.000000;3.555529
2089.000000;3.714719
2088.000000;4.085709
2087.000000;3.856848
2086.000000;3.507515
2085.000000;3.545518
2084.000000;3.650843
2083.000000;3.661768
2082.000000;3.718561
2081.000000;3.836299
2080.000000;3.795121
2079.000000;4.340847
2078.000000;3.703982
2077.000000;3.450051
2076.000000;3.427208
2075.000000;3.400236
2074.000000;3.392604
2073.000000;3.442708
2072.000000;3.532964
2071.000000;3.582615
2070.000000;3.548215
2069.000000;3.472184
2068.000000;3.412789
2067.000000;3.357089
2066.000000;3.359562
2065.000000;3.541517
2064.000000;4.066690
2063.000000;4.548312
2062.000000;3.730667
2061.000000;3.478651
2060.000000;3.347424
2059.000000;3.293229
2058.000000;3.329841
2057.000000;3.517433
2056.000000;3.899796
2055.000000;4.138089
2054.000000;3.789038
2053.000000;3.487721
2052.000000;3.387167
2051.000000;3.499005
2050.000000;3.642244
2049.000000;3.639362
2048.000000;3.675159
2047.000000;3.739305
2046.000000;3.916027
2045.000000;3.794556
2044.000000;3.568433
2043.000000;3.461360
2042.000000;3.340417
2041.000000;3.327556
2040.000000;3.465646
2039.000000;3.625048
2038.000000;3.487071
2037.000000;3.412008
2036.000000;3.416295
2035.000000;3.469857
2034.000000;3.596374
2033.000000;3.763077
2032.000000;3.714184
2031.000000;3.404510
2030.000000;3.248361
2029.000000;3.285705
2028.000000;3.473990
2027.000000;3.662903
2026.000000;3.766466
2025.000000;3.945508
2024.000000;3.906506
2023.000000;4.019167
2022.000000;3.898015
2021.000000;3.920216
2020.000000;4.268655
2019.000000;3.804446
2018.000000;3.569065
2017.000000;3.475508
2016.000000;3.553086
2015.000000;3.939386
2014.000000;4.302847
2013.000000;3.986156
2012.000000;3.777891
2011.000000;3.495265
2010.000000;3.385790
2009.000000;3.477681
2008.000000;3.792371
2007.000000;4.132390
2006.000000;4.022538
2005.000000;3.795844
2004.000000;3.684612
2003.000000;3.784400
2002.000000;3.713998
2001.000000;3.683108
2000.000000;3.715312
1999.000000;3.546077
1998.000000;3.400255
1997.000000;3.366930
1996.000000;3.442861
1995.000000;3.340665
1994.000000;3.210822
1993.000000;3.270126
1992.000000;3.497674
1991.000000;3.854428
1990.000000;4.652298
1989.000000;3.990637
1988.000000;3.671267
1987.000000;3.570563
1986.000000;3.598415
1985.000000;3.766797
1984.000000;4.197978
1983.000000;3.954154
1982.000000;3.706410
1981.000000;3.889899
1980.000000;4.116121
1979.000000;3.796005
1978.000000;3.500341
1977.000000;3.419299
1976.000000;3.459628
1975.000000;3.502608
1974.000000;3.454448
1973.000000;3.311712
1972.000000;3.250365
1971.000000;3.369234
1970.000000;3.691267
1969.000000;3.585313
1968.000000;3.369706
1967.000000;3.347570
1966.000000;3.588944
1965.000000;3.770985
1964.000000;3.304856
1963.000000;3.139729
1962.000000;3.088628
1961.000000;3.103990
1960.000000;3.189414
1959.000000;3.409808
1958.000000;3.967586
1957.000000;4.090273
1956.000000;3.901763
1955.000000;4.040793
1954.000000;3.552930
1953.000000;3.377700
1952.000000;3.371627
1951.000000;3.458755
1950.000000;3.521405
1949.000000;3.435670
1948.000000;3.333417
1947.000000;3.275362
1946.000000;3.203896
1945.000000;3.109413
1944.000000;3.068415
1943.000000;3.124706
1942.000000;3.255001
1941.000000;3.411926
1940.000000;3.559922
1939.000000;3.465019
1938.000000;3.408122
1937.000000;3.650290
1936.000000;3.853463
1935.000000;3.683653
1934.000000;3.745223
1933.000000;3.737733
1932.000000;3.701202
1931.000000;3.654561
1930.000000;3.574818
1929.000000;3.875170
1928.000000;4.306290
1927.000000;3.631764
1926.000000;3.433543
1925.000000;3.300693
1924.000000;3.304011
1923.000000;3.552668
1922.000000;3.809785
1921.000000;3.762042
1920.000000;3.772341
1919.000000;3.707207
1918.000000;3.706844
1917.000000;3.787594
1916.000000;4.091315
1915.000000;4.020373
1914.000000;4.003899
1913.000000;4.235245
1912.000000;3.733949
1911.000000;3.578623
1910.000000;3.497985
1909.000000;3.471017
1908.000000;3.452631
1907.000000;3.361865
1906.000000;3.432724
1905.000000;3.857231
1904.000000;3.625918
1903.000000;3.395732
1902.000000;3.439475
1901.000000;3.429738
1900.000000;3.357533
1899.000000;3.347884
1898.000000;3.444607
1897.000000;3.680893
1896.000000;4.421918
1895.000000;4.301885
1894.000000;3.866077
1893.000000;4.034350
1892.000000;3.949861
1891.000000;3.800623
1890.000000;3.819976
1889.000000;3.968210
1888.000000;3.748739
1887.000000;3.512192
1886.000000;3.459132
1885.000000;3.522526
1884.000000;3.623328
1883.000000;3.625179
1882.000000;3.552031
1881.000000;3.542913
1880.000000;3.572054
1879.000000;3.677190
1878.000000;3.802519
1877.000000;3.583255
1876.000000;3.336996
1875.000000;3.197870
1874.000000;3.159319
1873.000000;3.277039
1872.000000;3.547391
1871.000000;3.613373
1870.000000;3.440374
1869.000000;3.308890
1868.000000;3.240998
1867.000000;3.262351
1866.000000;3.345871
1865.000000;3.419058
1864.000000;3.444565
1863.000000;3.529332
1862.000000;3.730162
1861.000000;3.888748
1860.000000;3.970359
1859.000000;3.845570
1858.000000;3.500700
1857.000000;3.259305
1856.000000;3.162654
1855.000000;3.186682
1854.000000;3.256363
1853.000000;3.372107
1852.000000;3.585128
1851.000000;3.836261
1850.000000;4.185200
1849.000000;3.888977
1848.000000;3.676488
1847.000000;3.899015
1846.000000;3.746389
1845.000000;3.483045
1844.000000;3.447620
1843.000000;3.518027
1842.000000;3.621214
1841.000000;3.693251
1840.000000;3.757031
1839.000000;3.804563
1838.000000;3.644275
1837.000000;3.348973
1836.000000;3.196972
1835.000000;3.231335
1834.000000;3.390692
1833.000000;3.506875
1832.000000;3.549820
1831.000000;3.736032
1830.000000;4.190924
1829.000000;4.258868
1828.000000;3.821692
1827.000000;3.542442
1826.000000;3.484253
1825.000000;3.483378
1824.000000;3.365001
1823.000000;3.349004
1822.000000;3.501406
1821.000000;3.683267
1820.000000;4.127759
1819.000000;4.059374
1818.000000;3.574421
1817.000000;3.594039
1816.000000;3.612512
1815.000000;3.524205
1814.000000;3.517366
1813.000000;3.647576
1812.000000;3.851482
1811.000000;3.694931
1810.000000;3.597084
1809.000000;3.747566
1808.000000;4.029481
1807.000000;4.090613
1806.000000;3.867854
1805.000000;4.024604
1804.000000;3.922812
1803.000000;3.501405
1802.000000;3.308770
1801.000000;3.274099
1800.000000;3.338606
1799.000000;3.562759
1798.000000;4.094957
1797.000000;3.835805
1796.000000;3.517185
1795.000000;3.439647
1794.000000;3.442420
1793.000000;3.463085
1792.000000;3.738461
1791.000000;4.038717
1790.000000;3.497222
1789.000000;3.302912
1788.000000;3.213418
1787.000000;3.123195
1786.000000;3.094412
1785.000000;3.189988
1784.000000;3.430548
1783.000000;3.811461
1782.000000;4.313695
1781.000000;3.842568
1780.000000;3.627324
1779.000000;3.823269
1778.000000;4.743570
1777.000000;4.410015
1776.000000;3.848241
1775.000000;3.732437
1774.000000;3.864170
1773.000000;4.281307
1772.000000;4.029420
1771.000000;3.526383
1770.000000;3.375513
1769.000000;3.447053
1768.000000;3.886759
1767.000000;4.291364
1766.000000;3.614277
1765.000000;3.386118
1764.000000;3.264932
1763.000000;3.213548
1762.000000;3.290455
1761.000000;3.765541
1760.000000;3.745942
1759.000000;3.377747
1758.000000;3.372463
1757.000000;3.356618
1756.000000;3.416123
1755.000000;3.540755
1754.000000;3.523390
1753.000000;3.512955
1752.000000;3.597125
1751.000000;3.738510
1750.000000;3.806683
1749.000000;3.641698
1748.000000;3.498183
1747.000000;3.723769
1746.000000;4.286887
1745.000000;3.755279
1744.000000;3.594188
1743.000000;3.540809
1742.000000;3.526713
1741.000000;3.447784
1740.000000;3.383591
1739.000000;3.527277
1738.000000;3.772417
1737.000000;3.841569
1736.000000;3.662447
1735.000000;3.499163
1734.000000;3.431212
1733.000000;3.355472
1732.000000;3.432861
1731.000000;3.735912
1730.000000;3.584186
1729.000000;3.486478
1728.000000;3.634755
1727.000000;3.678932
1726.000000;3.619610
1725.000000;3.599711
1724.000000;3.603582
1723.000000;3.572670
1722.000000;3.578299
1721.000000;3.725202
1720.000000;3.850965
1719.000000;3.709401
1718.000000;3.568090
1717.000000;3.615964
1716.000000;3.731034
1715.000000;3.709800
1714.000000;3.703948
1713.000000;3.655026
1712.000000;3.625941
1711.000000;3.531104
1710.000000;3.337089
1709.000000;3.243072
1708.000000;3.225425
1707.000000;3.231476
1706.000000;3.253051
1705.000000;3.321287
1704.000000;3.432174
1703.000000;3.443179
1702.000000;3.415681
1701.000000;3.455718
1700.000000;3.534707
1699.000000;3.631426
1698.000000;3.646434
1697.000000;3.728454
1696.000000;3.922202
1695.000000;3.636152
1694.000000;3.458989
1693.000000;3.448732
1692.000000;3.780601
1691.000000;4.425328
1690.000000;3.795046
1689.000000;3.766849
1688.000000;3.428795
1687.000000;3.242624
1686.000000;3.260147
1685.000000;3.280239
1684.000000;3.359859
1683.000000;3.398562
1682.000000;3.375036
1681.000000;3.425928
1680.000000;3.521751
1679.000000;3.941847
1678.000000;3.950391
1677.000000;3.503187
1676.000000;3.467905
1675.000000;3.513045
1674.000000;3.522314
1673.000000;3.604953
1672.000000;3.804375
1671.000000;3.631158
1670.000000;3.454034
1669.000000;3.420968
1668.000000;3.443427
1667.000000;3.466143
1666.000000;3.676295
1665.000000;3.984323
1664.000000;3.579173
1663.000000;3.487746
1662.000000;3.574054
1661.000000;3.579545
1660.000000;3.540555
1659.000000;3.787937
1658.000000;4.067949
1657.000000;3.655201
1656.000000;3.525173
1655.000000;3.549013
1654.000000;3.799461
1653.000000;3.960483
1652.000000;3.561554
1651.000000;3.408336
1650.000000;3.400858
1649.000000;3.412899
1648.000000;3.433451
1647.000000;3.492049
1646.000000;3.569734
1645.000000;3.354554
1644.000000;3.211221
1643.000000;3.232563
1642.000000;3.294588
1641.000000;3.380943
1640.000000;3.447974
1639.000000;3.423174
1638.000000;3.404536
1637.000000;3.513642
1636.000000;3.650506
1635.000000;3.567519
1634.000000;3.560278
1633.000000;3.853073
1632.000000;3.893120
1631.000000;3.856073
1630.000000;3.831600
1629.000000;3.449814
1628.000000;3.201821
1627.000000;3.109467
1626.000000;3.089539
1625.000000;3.121301
1624.000000;3.165639
1623.000000;3.335688
1622.000000;3.901223
1621.000000;3.483164
1620.000000;3.175347
1619.000000;3.148644
1618.000000;3.187936
1617.000000;3.363994
1616.000000;3.565573
1615.000000;3.401138
1614.000000;3.206321
1613.000000;3.137928
1612.000000;3.123357
1611.000000;3.136338
1610.000000;3.255076
1609.000000;3.693442
1608.000000;3.660218
1607.000000;3.327158
1606.000000;3.313301
1605.000000;3.382839
1604.000000;3.410005
1603.000000;3.195065
1602.000000;3.000831
1601.000000;2.979993
1600.000000;3.092127
1599.000000;3.285937
1598.000000;3.623710
1597.000000;3.638407
1596.000000;3.424939
1595.000000;3.435911
1594.000000;3.535539
1593.000000;3.896015
1592.000000;3.633284
1591.000000;3.366390
1590.000000;3.386895
1589.000000;3.533573
1588.000000;3.932232
1587.000000;3.749429
1586.000000;3.438175
1585.000000;3.315591
1584.000000;3.220749
1583.000000;3.172605
1582.000000;3.246582
1581.000000;3.411987
1580.000000;3.397543
1579.000000;3.393721
1578.000000;3.385389
1577.000000;3.247816
1576.000000;3.183750
1575.000000;3.204684
1574.000000;3.414032
1573.000000;3.644577
1572.000000;3.476957
1571.000000;3.368218
1570.000000;3.291167
1569.000000;3.227974
1568.000000;3.222997
1567.000000;3.330155
1566.000000;3.529765
1565.000000;3.484939
1564.000000;3.325378
1563.000000;3.362171
1562.000000;3.514129
1561.000000;3.477586
1560.000000;3.417845
1559.000000;3.457764
1558.000000;3.406071
1557.000000;3.439269
1556.000000;3.818567
1555.000000;4.084415
1554.000000;3.857719
1553.000000;3.667790
1552.000000;3.396477
1551.000000;3.363107
1550.000000;3.638489
1549.000000;4.156625
1548.000000;3.947734
1547.000000;3.732435
1546.000000;3.619905
1545.000000;3.434212
1544.000000;3.328357
1543.000000;3.258810
1542.000000;3.211882
1541.000000;3.243984
1540.000000;3.343657
1539.000000;3.418574
1538.000000;3.380655
1537.000000;3.357015
1536.000000;3.457054
1535.000000;3.736160
1534.000000;4.003773
1533.000000;3.548153
1532.000000;3.324037
1531.000000;3.307017
1530.000000;3.426937
1529.000000;3.646110
1528.000000;3.449804
1527.000000;3.226791
1526.000000;3.185926
1525.000000;3.224814
1524.000000;3.458544
1523.000000;3.948262
1522.000000;3.596581
1521.000000;3.329392
1520.000000;3.242450
1519.000000;3.224680
1518.000000;3.311988
1517.000000;3.531740
1516.000000;3.981376
1515.000000;3.761513
1514.000000;3.458482
1513.000000;3.356038
1512.000000;3.353657
1511.000000;3.488574
1510.000000;3.769099
1509.000000;4.071888
1508.000000;3.792728
1507.000000;3.571300
1506.000000;3.433371
1505.000000;3.437485
1504.000000;3.505634
1503.000000;3.412102
1502.000000;3.430129
1501.000000;3.806660
1500.000000;3.753252
1499.000000;3.412109
1498.000000;3.399313
1497.000000;3.465900
1496.000000;3.577268
1495.000000;3.868599
1494.000000;3.985029
1493.000000;3.431363
1492.000000;3.192646
1491.000000;3.141797
1490.000000;3.173183
1489.000000;3.204310
1488.000000;3.318641
1487.000000;3.914526
1486.000000;3.752284
1485.000000;3.337159
1484.000000;3.281743
1483.000000;3.247171
1482.000000;3.415195
1481.000000;4.058254
1480.000000;3.555636
1479.000000;3.371722
1478.000000;3.384285
1477.000000;3.321962
1476.000000;3.280478
1475.000000;3.241103
1474.000000;3.270006
1473.000000;3.396367
1472.000000;3.539809
1471.000000;3.533193
1470.000000;3.503672
1469.000000;3.523917
1468.000000;4.005109
1467.000000;3.954746
1466.000000;3.497362
1465.000000;3.610386
1464.000000;3.671676
1463.000000;3.704069
1462.000000;4.036592
1461.000000;3.792531
1460.000000;3.534502
1459.000000;3.458144
1458.000000;3.573496
1457.000000;3.921293
1456.000000;3.685487
1455.000000;3.555993
1454.000000;3.647391
1453.000000;3.805817
1452.000000;4.142548
1451.000000;4.219850
1450.000000;4.216194
1449.000000;4.205660
1448.000000;3.854418
1447.000000;3.504325
1446.000000;3.350464
1445.000000;3.355472
1444.000000;3.393513
1443.000000;3.464414
1442.000000;3.606892
1441.000000;3.645832
1440.000000;3.811018
1439.000000;3.766976
1438.000000;3.386672
1437.000000;3.227258
1436.000000;3.201839
1435.000000;3.246528
1434.000000;3.288952
1433.000000;3.251529
1432.000000;3.276229
1431.000000;3.594256
1430.000000;3.677615
1429.000000;3.369031
1428.000000;3.301920
1427.000000;3.262924
1426.000000;3.199520
1425.000000;3.188796
1424.000000;3.175997
1423.000000;3.145638
1422.000000;3.172639
1421.000000;3.270807
1420.000000;3.395105
1419.000000;3.559189
1418.000000;3.685264
1417.000000;3.527530
1416.000000;3.792797
1415.000000;3.825634
1414.000000;3.152496
1413.000000;2.951968
1412.000000;2.870597
1411.000000;2.844546
1410.000000;2.893899
1409.000000;3.078667
1408.000000;3.449136
1407.000000;3.628519
1406.000000;3.476272
1405.000000;3.297129
1404.000000;3.181196
1403.000000;3.196529
1402.000000;3.407578
1401.000000;3.456051
1400.000000;3.220816
1399.000000;3.193477
1398.000000;3.342491
1397.000000;3.759309
1396.000000;4.304933
1395.000000;3.611246
1394.000000;3.358487
1393.000000;3.217451
1392.000000;3.171023
1391.000000;3.295152
1390.000000;3.566739
1389.000000;3.365145
1388.000000;3.124076
1387.000000;3.057433
1386.000000;3.006948
1385.000000;2.983893
1384.000000;3.029678
1383.000000;3.177955
1382.000000;3.490151
1381.000000;3.511801
1380.000000;3.456222
1379.000000;3.834720
1378.000000;3.751814
1377.000000;3.550575
1376.000000;3.547988
1375.000000;3.452855
1374.000000;3.463836
1373.000000;3.892442
1372.000000;3.636221
1371.000000;3.299497
1370.000000;3.228147
1369.000000;3.346934
1368.000000;3.788671
1367.000000;3.500017
1366.000000;3.188605
1365.000000;3.137515
1364.000000;3.164286
1363.000000;3.216607
1362.000000;3.254006
1361.000000;3.254084
1360.000000;3.353263
1359.000000;3.657561
1358.000000;3.475632
1357.000000;3.298782
1356.000000;3.321612
1355.000000;3.178191
1354.000000;3.015587
1353.000000;2.945169
1352.000000;2.991159
1351.000000;3.158832
1350.000000;3.243141
1349.000000;3.193845
1348.000000;3.174455
1347.000000;3.214656
1346.000000;3.346206
1345.000000;3.297997
1344.000000;3.173442
1343.000000;3.254812
1342.000000;3.399402
1341.000000;3.418910
1340.000000;3.451917
1339.000000;3.706436
1338.000000;4.034464
1337.000000;3.444465
1336.000000;3.214475
1335.000000;3.221775
1334.000000;3.356852
1333.000000;3.532088
1332.000000;3.421567
1331.000000;3.128980
1330.000000;2.999562
1329.000000;3.048331
1328.000000;3.335858
1327.000000;3.736998
1326.000000;3.277121
1325.000000;3.066754
1324.000000;3.095251
1323.000000;3.287630
1322.000000;3.795083
1321.000000;3.751142
1320.000000;3.291229
1319.000000;3.152488
1318.000000;3.136653
1317.000000;3.150343
1316.000000;3.202247
1315.000000;3.340586
1314.000000;3.458322
1313.000000;3.729206
1312.000000;3.754878
1311.000000;3.133453
1310.000000;2.953732
1309.000000;2.988909
1308.000000;3.210892
1307.000000;3.554545
1306.000000;3.797937
1305.000000;3.704105
1304.000000;3.501775
1303.000000;3.396664
1302.000000;3.392271
1301.000000;3.465037
1300.000000;3.291924
1299.000000;3.143324
1298.000000;3.131466
1297.000000;3.163308
1296.000000;3.224875
1295.000000;3.258972
1294.000000;3.233593
1293.000000;3.206726
1292.000000;3.190064
1291.000000;3.216203
1290.000000;3.262193
1289.000000;3.338103
1288.000000;3.381377
1287.000000;3.308607
1286.000000;3.172467
1285.000000;3.018833
1284.000000;2.939982
1283.000000;2.979691
1282.000000;3.084942
1281.000000;3.087498
1280.000000;3.014852
1279.000000;2.964608
1278.000000;2.941924
1277.000000;2.984569
1276.000000;3.095552
1275.000000;3.402911
1274.000000;3.423562
1273.000000;3.056353
1272.000000;2.903103
1271.000000;2.892073
1270.000000;2.979284
1269.000000;3.091774
1268.000000;3.108706
1267.000000;3.020630
1266.000000;2.896491
1265.000000;2.812606
1264.000000;2.832541
1263.000000;3.019744
1262.000000;3.386527
1261.000000;3.401257
1260.000000;3.268113
1259.000000;3.145646
1258.000000;3.098789
1257.000000;3.425925
1256.000000;3.720937
1255.000000;3.145939
1254.000000;3.041618
1253.000000;3.033212
1252.000000;3.172098
1251.000000;3.585073
1250.000000;3.680447
1249.000000;3.518592
1248.000000;3.431870
1247.000000;3.418362
1246.000000;3.941038
1245.000000;3.691412
1244.000000;3.258837
1243.000000;3.041725
1242.000000;2.937812
1241.000000;2.959075
1240.000000;3.036294
1239.000000;3.096964
1238.000000;3.251279
1237.000000;3.308029
1236.000000;3.053352
1235.000000;2.981544
1234.000000;3.044638
1233.000000;3.219126
1232.000000;3.681335
1231.000000;3.936133
1230.000000;3.341434
1229.000000;3.121955
1228.000000;2.960031
1227.000000;2.889083
1226.000000;2.870608
1225.000000;2.886282
1224.000000;2.965331
1223.000000;3.197658
1222.000000;3.320687
1221.000000;3.173981
1220.000000;3.150572
1219.000000;3.228214
1218.000000;3.259924
1217.000000;3.178704
1216.000000;3.186420
1215.000000;3.430142
1214.000000;3.983881
1213.000000;3.653774
1212.000000;3.520915
1211.000000;3.467322
1210.000000;3.182845
1209.000000;2.908018
1208.000000;2.756468
1207.000000;2.718983
1206.000000;2.792536
1205.000000;2.999387
1204.000000;3.341571
1203.000000;3.555668
1202.000000;3.375928
1201.000000;3.200688
1200.000000;3.124194
