Criado como novo conjunto de dados;"e2410_daniel_v2.spp","20162.8 Secs"
cm-1;Abs
10000.000000;0.477210
9999.000000;0.476550
9998.000000;0.475836
9997.000000;0.475108
9996.000000;0.474355
9995.000000;0.473557
9994.000000;0.472860
9993.000000;0.472426
9992.000000;0.472158
9991.000000;0.471794
9990.000000;0.471293
9989.000000;0.470835
9988.000000;0.470453
9987.000000;0.469982
9986.000000;0.469395
9985.000000;0.468852
9984.000000;0.468391
9983.000000;0.467882
9982.000000;0.467347
9981.000000;0.466973
9980.000000;0.466735
9979.000000;0.466345
9978.000000;0.465666
9977.000000;0.464887
9976.000000;0.464196
9975.000000;0.463576
9974.000000;0.463005
9973.000000;0.462567
9972.000000;0.462262
9971.000000;0.461944
9970.000000;0.461550
9969.000000;0.461133
9968.000000;0.460675
9967.000000;0.460092
9966.000000;0.459455
9965.000000;0.458926
9964.000000;0.458482
9963.000000;0.457973
9962.000000;0.457451
9961.000000;0.457100
9960.000000;0.456852
9959.000000;0.456404
9958.000000;0.455668
9957.000000;0.454899
9956.000000;0.454318
9955.000000;0.453930
9954.000000;0.453697
9953.000000;0.453578
9952.000000;0.453340
9951.000000;0.452695
9950.000000;0.451709
9949.000000;0.450788
9948.000000;0.450187
9947.000000;0.449822
9946.000000;0.449548
9945.000000;0.449318
9944.000000;0.449025
9943.000000;0.448526
9942.000000;0.447889
9941.000000;0.447329
9940.000000;0.446882
9939.000000;0.446431
9938.000000;0.446024
9937.000000;0.445802
9936.000000;0.445608
9935.000000;0.445073
9934.000000;0.444162
9933.000000;0.443282
9932.000000;0.442725
9931.000000;0.442362
9930.000000;0.441959
9929.000000;0.441471
9928.000000;0.440911
9927.000000;0.440241
9926.000000;0.439511
9925.000000;0.438857
9924.000000;0.438316
9923.000000;0.437843
9922.000000;0.437494
9921.000000;0.437332
9920.000000;0.437170
9919.000000;0.436760
9918.000000;0.436210
9917.000000;0.435837
9916.000000;0.435621
9915.000000;0.435199
9914.000000;0.434461
9913.000000;0.433700
9912.000000;0.433117
9911.000000;0.432576
9910.000000;0.431971
9909.000000;0.431453
9908.000000;0.431116
9907.000000;0.430789
9906.000000;0.430313
9905.000000;0.429747
9904.000000;0.429174
9903.000000;0.428564
9902.000000;0.427941
9901.000000;0.427426
9900.000000;0.427035
9899.000000;0.426688
9898.000000;0.426435
9897.000000;0.426389
9896.000000;0.426371
9895.000000;0.425984
9894.000000;0.425120
9893.000000;0.424101
9892.000000;0.423234
9891.000000;0.422532
9890.000000;0.421948
9889.000000;0.421559
9888.000000;0.421362
9887.000000;0.421172
9886.000000;0.420860
9885.000000;0.420479
9884.000000;0.420071
9883.000000;0.419577
9882.000000;0.419012
9881.000000;0.418488
9880.000000;0.418013
9879.000000;0.417495
9878.000000;0.416973
9877.000000;0.416581
9876.000000;0.416277
9875.000000;0.415870
9874.000000;0.415328
9873.000000;0.414765
9872.000000;0.414151
9871.000000;0.413351
9870.000000;0.412474
9869.000000;0.411844
9868.000000;0.411571
9867.000000;0.411446
9866.000000;0.411291
9865.000000;0.411093
9864.000000;0.410769
9863.000000;0.410161
9862.000000;0.409351
9861.000000;0.408646
9860.000000;0.408160
9859.000000;0.407710
9858.000000;0.407179
9857.000000;0.406682
9856.000000;0.406300
9855.000000;0.405963
9854.000000;0.405674
9853.000000;0.405537
9852.000000;0.405467
9851.000000;0.405164
9850.000000;0.404485
9849.000000;0.403599
9848.000000;0.402708
9847.000000;0.401886
9846.000000;0.401249
9845.000000;0.400943
9844.000000;0.400876
9843.000000;0.400713
9842.000000;0.400257
9841.000000;0.399595
9840.000000;0.398852
9839.000000;0.398076
9838.000000;0.397391
9837.000000;0.396957
9836.000000;0.396699
9835.000000;0.396360
9834.000000;0.395897
9833.000000;0.395523
9832.000000;0.395317
9831.000000;0.395077
9830.000000;0.394656
9829.000000;0.394132
9828.000000;0.393572
9827.000000;0.392912
9826.000000;0.392193
9825.000000;0.391609
9824.000000;0.391218
9823.000000;0.390847
9822.000000;0.390377
9821.000000;0.389896
9820.000000;0.389484
9819.000000;0.389072
9818.000000;0.388601
9817.000000;0.388109
9816.000000;0.387610
9815.000000;0.387095
9814.000000;0.386643
9813.000000;0.386319
9812.000000;0.385957
9811.000000;0.385319
9810.000000;0.384476
9809.000000;0.383763
9808.000000;0.383344
9807.000000;0.383084
9806.000000;0.382842
9805.000000;0.382590
9804.000000;0.382244
9803.000000;0.381674
9802.000000;0.380951
9801.000000;0.380311
9800.000000;0.379835
9799.000000;0.379413
9798.000000;0.379023
9797.000000;0.378734
9796.000000;0.378457
9795.000000;0.378007
9794.000000;0.377449
9793.000000;0.377063
9792.000000;0.376909
9791.000000;0.376732
9790.000000;0.376346
9789.000000;0.375812
9788.000000;0.375215
9787.000000;0.374580
9786.000000;0.374026
9785.000000;0.373674
9784.000000;0.373355
9783.000000;0.372753
9782.000000;0.371902
9781.000000;0.371203
9780.000000;0.370873
9779.000000;0.370692
9778.000000;0.370382
9777.000000;0.369914
9776.000000;0.369354
9775.000000;0.368723
9774.000000;0.368116
9773.000000;0.367684
9772.000000;0.367408
9771.000000;0.367105
9770.000000;0.366727
9769.000000;0.366394
9768.000000;0.366115
9767.000000;0.365776
9766.000000;0.365410
9765.000000;0.365156
9764.000000;0.364922
9763.000000;0.364441
9762.000000;0.363715
9761.000000;0.363051
9760.000000;0.362571
9759.000000;0.362065
9758.000000;0.361425
9757.000000;0.360849
9756.000000;0.360457
9755.000000;0.360050
9754.000000;0.359447
9753.000000;0.358778
9752.000000;0.358240
9751.000000;0.357820
9750.000000;0.357414
9749.000000;0.357023
9748.000000;0.356689
9747.000000;0.356399
9746.000000;0.356155
9745.000000;0.355961
9744.000000;0.355691
9743.000000;0.355190
9742.000000;0.354540
9741.000000;0.353978
9740.000000;0.353536
9739.000000;0.353030
9738.000000;0.352445
9737.000000;0.351981
9736.000000;0.351665
9735.000000;0.351242
9734.000000;0.350584
9733.000000;0.349911
9732.000000;0.349453
9731.000000;0.349158
9730.000000;0.348878
9729.000000;0.348584
9728.000000;0.348253
9727.000000;0.347773
9726.000000;0.347135
9725.000000;0.346531
9724.000000;0.346115
9723.000000;0.345816
9722.000000;0.345482
9721.000000;0.345061
9720.000000;0.344556
9719.000000;0.343979
9718.000000;0.343423
9717.000000;0.343003
9716.000000;0.342682
9715.000000;0.342300
9714.000000;0.341814
9713.000000;0.341318
9712.000000;0.340836
9711.000000;0.340296
9710.000000;0.339714
9709.000000;0.339172
9708.000000;0.338616
9707.000000;0.337929
9706.000000;0.337226
9705.000000;0.336803
9704.000000;0.336741
9703.000000;0.336781
9702.000000;0.336674
9701.000000;0.336405
9700.000000;0.336025
9699.000000;0.335516
9698.000000;0.334910
9697.000000;0.334323
9696.000000;0.333788
9695.000000;0.333252
9694.000000;0.332761
9693.000000;0.332444
9692.000000;0.332258
9691.000000;0.331984
9690.000000;0.331522
9689.000000;0.330983
9688.000000;0.330464
9687.000000;0.329938
9686.000000;0.329419
9685.000000;0.329016
9684.000000;0.328757
9683.000000;0.328539
9682.000000;0.328276
9681.000000;0.327950
9680.000000;0.327518
9679.000000;0.326959
9678.000000;0.326405
9677.000000;0.326009
9676.000000;0.325699
9675.000000;0.325263
9674.000000;0.324666
9673.000000;0.324072
9672.000000;0.323576
9671.000000;0.323145
9670.000000;0.322766
9669.000000;0.322439
9668.000000;0.322048
9667.000000;0.321491
9666.000000;0.320902
9665.000000;0.320474
9664.000000;0.320128
9663.000000;0.319633
9662.000000;0.319001
9661.000000;0.318471
9660.000000;0.318140
9659.000000;0.317916
9658.000000;0.317782
9657.000000;0.317769
9656.000000;0.317681
9655.000000;0.317234
9654.000000;0.316507
9653.000000;0.315889
9652.000000;0.315536
9651.000000;0.315220
9650.000000;0.314766
9649.000000;0.314271
9648.000000;0.313814
9647.000000;0.313305
9646.000000;0.312737
9645.000000;0.312274
9644.000000;0.311971
9643.000000;0.311673
9642.000000;0.311295
9641.000000;0.310939
9640.000000;0.310641
9639.000000;0.310283
9638.000000;0.309851
9637.000000;0.309510
9636.000000;0.309313
9635.000000;0.309079
9634.000000;0.308660
9633.000000;0.308101
9632.000000;0.307470
9631.000000;0.306763
9630.000000;0.306068
9629.000000;0.305559
9628.000000;0.305251
9627.000000;0.304967
9626.000000;0.304610
9625.000000;0.304264
9624.000000;0.303973
9623.000000;0.303667
9622.000000;0.303333
9621.000000;0.303018
9620.000000;0.302643
9619.000000;0.302077
9618.000000;0.301399
9617.000000;0.300835
9616.000000;0.300391
9615.000000;0.299879
9614.000000;0.299321
9613.000000;0.298979
9612.000000;0.298913
9611.000000;0.298826
9610.000000;0.298490
9609.000000;0.298008
9608.000000;0.297549
9607.000000;0.297102
9606.000000;0.296649
9605.000000;0.296293
9604.000000;0.296036
9603.000000;0.295671
9602.000000;0.295073
9601.000000;0.294393
9600.000000;0.293838
9599.000000;0.293434
9598.000000;0.293113
9597.000000;0.292847
9596.000000;0.292583
9595.000000;0.292222
9594.000000;0.291771
9593.000000;0.291331
9592.000000;0.290895
9591.000000;0.290365
9590.000000;0.289813
9589.000000;0.289481
9588.000000;0.289415
9587.000000;0.289316
9586.000000;0.288894
9585.000000;0.288192
9584.000000;0.287466
9583.000000;0.286912
9582.000000;0.286600
9581.000000;0.286477
9580.000000;0.286340
9579.000000;0.285965
9578.000000;0.285356
9577.000000;0.284729
9576.000000;0.284226
9575.000000;0.283814
9574.000000;0.283453
9573.000000;0.283173
9572.000000;0.282936
9571.000000;0.282639
9570.000000;0.282303
9569.000000;0.282050
9568.000000;0.281863
9567.000000;0.281561
9566.000000;0.281062
9565.000000;0.280470
9564.000000;0.279884
9563.000000;0.279323
9562.000000;0.278873
9561.000000;0.278648
9560.000000;0.278558
9559.000000;0.278337
9558.000000;0.277886
9557.000000;0.277365
9556.000000;0.276897
9555.000000;0.276423
9554.000000;0.275902
9553.000000;0.275442
9552.000000;0.275108
9551.000000;0.274815
9550.000000;0.274501
9549.000000;0.274228
9548.000000;0.274003
9547.000000;0.273692
9546.000000;0.273197
9545.000000;0.272584
9544.000000;0.271979
9543.000000;0.271465
9542.000000;0.271128
9541.000000;0.270989
9540.000000;0.270877
9539.000000;0.270541
9538.000000;0.269962
9537.000000;0.269375
9536.000000;0.268933
9535.000000;0.268550
9534.000000;0.268127
9533.000000;0.267739
9532.000000;0.267482
9531.000000;0.267297
9530.000000;0.267052
9529.000000;0.266689
9528.000000;0.266238
9527.000000;0.265765
9526.000000;0.265344
9525.000000;0.264975
9524.000000;0.264555
9523.000000;0.264035
9522.000000;0.263565
9521.000000;0.263306
9520.000000;0.263162
9519.000000;0.262872
9518.000000;0.262348
9517.000000;0.261739
9516.000000;0.261180
9515.000000;0.260706
9514.000000;0.260387
9513.000000;0.260306
9512.000000;0.260353
9511.000000;0.260244
9510.000000;0.259807
9509.000000;0.259112
9508.000000;0.258314
9507.000000;0.257555
9506.000000;0.257007
9505.000000;0.256771
9504.000000;0.256723
9503.000000;0.256614
9502.000000;0.256347
9501.000000;0.256010
9500.000000;0.255647
9499.000000;0.255217
9498.000000;0.254751
9497.000000;0.254351
9496.000000;0.253999
9495.000000;0.253582
9494.000000;0.253123
9493.000000;0.252786
9492.000000;0.252633
9491.000000;0.252549
9490.000000;0.252424
9489.000000;0.252214
9488.000000;0.251861
9487.000000;0.251344
9486.000000;0.250818
9485.000000;0.250480
9484.000000;0.250287
9483.000000;0.250001
9482.000000;0.249527
9481.000000;0.248992
9480.000000;0.248494
9479.000000;0.247981
9478.000000;0.247435
9477.000000;0.246948
9476.000000;0.246569
9475.000000;0.246225
9474.000000;0.245857
9473.000000;0.245489
9472.000000;0.245155
9471.000000;0.244872
9470.000000;0.244672
9469.000000;0.244524
9468.000000;0.244259
9467.000000;0.243758
9466.000000;0.243150
9465.000000;0.242661
9464.000000;0.242303
9463.000000;0.241921
9462.000000;0.241493
9461.000000;0.241151
9460.000000;0.240937
9459.000000;0.240748
9458.000000;0.240521
9457.000000;0.240261
9456.000000;0.239916
9455.000000;0.239450
9454.000000;0.239012
9453.000000;0.238792
9452.000000;0.238732
9451.000000;0.238588
9450.000000;0.238256
9449.000000;0.237812
9448.000000;0.237280
9447.000000;0.236624
9446.000000;0.235978
9445.000000;0.235589
9444.000000;0.235481
9443.000000;0.235412
9442.000000;0.235199
9441.000000;0.234881
9440.000000;0.234520
9439.000000;0.234111
9438.000000;0.233708
9437.000000;0.233433
9436.000000;0.233278
9435.000000;0.233090
9434.000000;0.232788
9433.000000;0.232436
9432.000000;0.232085
9431.000000;0.231711
9430.000000;0.231335
9429.000000;0.231015
9428.000000;0.230723
9427.000000;0.230386
9426.000000;0.230046
9425.000000;0.229786
9424.000000;0.229549
9423.000000;0.229203
9422.000000;0.228756
9421.000000;0.228307
9420.000000;0.227831
9419.000000;0.227238
9418.000000;0.226618
9417.000000;0.226180
9416.000000;0.225942
9415.000000;0.225733
9414.000000;0.225497
9413.000000;0.225340
9412.000000;0.225269
9411.000000;0.225137
9410.000000;0.224865
9409.000000;0.224515
9408.000000;0.224097
9407.000000;0.223551
9406.000000;0.222960
9405.000000;0.222543
9404.000000;0.222369
9403.000000;0.222262
9402.000000;0.222049
9401.000000;0.221723
9400.000000;0.221348
9399.000000;0.220959
9398.000000;0.220602
9397.000000;0.220316
9396.000000;0.220056
9395.000000;0.219756
9394.000000;0.219441
9393.000000;0.219141
9392.000000;0.218757
9391.000000;0.218202
9390.000000;0.217601
9389.000000;0.217134
9388.000000;0.216765
9387.000000;0.216337
9386.000000;0.215884
9385.000000;0.215574
9384.000000;0.215397
9383.000000;0.215166
9382.000000;0.214821
9381.000000;0.214480
9380.000000;0.214185
9379.000000;0.213881
9378.000000;0.213612
9377.000000;0.213476
9376.000000;0.213380
9375.000000;0.213114
9374.000000;0.212701
9373.000000;0.212414
9372.000000;0.212382
9371.000000;0.212441
9370.000000;0.212407
9369.000000;0.212259
9368.000000;0.211999
9367.000000;0.211576
9366.000000;0.211022
9365.000000;0.210458
9364.000000;0.209935
9363.000000;0.209435
9362.000000;0.209046
9361.000000;0.208896
9360.000000;0.208900
9359.000000;0.208798
9358.000000;0.208483
9357.000000;0.208085
9356.000000;0.207706
9355.000000;0.207309
9354.000000;0.206906
9353.000000;0.206611
9352.000000;0.206450
9351.000000;0.206298
9350.000000;0.206074
9349.000000;0.205802
9348.000000;0.205472
9347.000000;0.205037
9346.000000;0.204566
9345.000000;0.204195
9344.000000;0.203917
9343.000000;0.203592
9342.000000;0.203201
9341.000000;0.202855
9340.000000;0.202571
9339.000000;0.202251
9338.000000;0.201890
9337.000000;0.201587
9336.000000;0.201321
9335.000000;0.200968
9334.000000;0.200572
9333.000000;0.200341
9332.000000;0.200314
9331.000000;0.200258
9330.000000;0.199984
9329.000000;0.199564
9328.000000;0.199155
9327.000000;0.198798
9326.000000;0.198478
9325.000000;0.198203
9324.000000;0.197942
9323.000000;0.197628
9322.000000;0.197276
9321.000000;0.196967
9320.000000;0.196689
9319.000000;0.196332
9318.000000;0.195878
9317.000000;0.195434
9316.000000;0.195081
9315.000000;0.194817
9314.000000;0.194651
9313.000000;0.194579
9312.000000;0.194486
9311.000000;0.194248
9310.000000;0.193903
9309.000000;0.193578
9308.000000;0.193284
9307.000000;0.192953
9306.000000;0.192639
9305.000000;0.192432
9304.000000;0.192232
9303.000000;0.191857
9302.000000;0.191372
9301.000000;0.191049
9300.000000;0.190985
9299.000000;0.190991
9298.000000;0.190889
9297.000000;0.190668
9296.000000;0.190322
9295.000000;0.189806
9294.000000;0.189219
9293.000000;0.188792
9292.000000;0.188598
9291.000000;0.188463
9290.000000;0.188233
9289.000000;0.187938
9288.000000;0.187639
9287.000000;0.187322
9286.000000;0.187006
9285.000000;0.186783
9284.000000;0.186649
9283.000000;0.186453
9282.000000;0.186097
9281.000000;0.185654
9280.000000;0.185234
9279.000000;0.184859
9278.000000;0.184519
9277.000000;0.184221
9276.000000;0.183950
9275.000000;0.183693
9274.000000;0.183486
9273.000000;0.183334
9272.000000;0.183137
9271.000000;0.182829
9270.000000;0.182528
9269.000000;0.182383
9268.000000;0.182315
9267.000000;0.182116
9266.000000;0.181757
9265.000000;0.181388
9264.000000;0.181066
9263.000000;0.180723
9262.000000;0.180385
9261.000000;0.180174
9260.000000;0.180076
9259.000000;0.179936
9258.000000;0.179698
9257.000000;0.179451
9256.000000;0.179213
9255.000000;0.178885
9254.000000;0.178472
9253.000000;0.178109
9252.000000;0.177858
9251.000000;0.177648
9250.000000;0.177449
9249.000000;0.177303
9248.000000;0.177155
9247.000000;0.176876
9246.000000;0.176463
9245.000000;0.176048
9244.000000;0.175666
9243.000000;0.175242
9242.000000;0.174802
9241.000000;0.174485
9240.000000;0.174319
9239.000000;0.174182
9238.000000;0.174025
9237.000000;0.173924
9236.000000;0.173874
9235.000000;0.173737
9234.000000;0.173465
9233.000000;0.173173
9232.000000;0.172924
9231.000000;0.172645
9230.000000;0.172300
9229.000000;0.171976
9228.000000;0.171713
9227.000000;0.171434
9226.000000;0.171098
9225.000000;0.170778
9224.000000;0.170542
9223.000000;0.170381
9222.000000;0.170281
9221.000000;0.170228
9220.000000;0.170124
9219.000000;0.169857
9218.000000;0.169474
9217.000000;0.169135
9216.000000;0.168882
9215.000000;0.168624
9214.000000;0.168355
9213.000000;0.168181
9212.000000;0.168116
9211.000000;0.168019
9210.000000;0.167780
9209.000000;0.167427
9208.000000;0.167023
9207.000000;0.166607
9206.000000;0.166243
9205.000000;0.165984
9204.000000;0.165773
9203.000000;0.165520
9202.000000;0.165262
9201.000000;0.165092
9200.000000;0.164962
9199.000000;0.164725
9198.000000;0.164381
9197.000000;0.164080
9196.000000;0.163886
9195.000000;0.163727
9194.000000;0.163555
9193.000000;0.163391
9192.000000;0.163217
9191.000000;0.162986
9190.000000;0.162759
9189.000000;0.162624
9188.000000;0.162522
9187.000000;0.162313
9186.000000;0.162010
9185.000000;0.161729
9184.000000;0.161459
9183.000000;0.161094
9182.000000;0.160686
9181.000000;0.160421
9180.000000;0.160308
9179.000000;0.160159
9178.000000;0.159899
9177.000000;0.159667
9176.000000;0.159535
9175.000000;0.159377
9174.000000;0.159087
9173.000000;0.158741
9172.000000;0.158427
9171.000000;0.158105
9170.000000;0.157727
9169.000000;0.157360
9168.000000;0.157095
9167.000000;0.156943
9166.000000;0.156871
9165.000000;0.156812
9164.000000;0.156645
9163.000000;0.156294
9162.000000;0.155882
9161.000000;0.155620
9160.000000;0.155538
9159.000000;0.155459
9158.000000;0.155263
9157.000000;0.155010
9156.000000;0.154785
9155.000000;0.154587
9154.000000;0.154401
9153.000000;0.154228
9152.000000;0.154022
9151.000000;0.153741
9150.000000;0.153468
9149.000000;0.153342
9148.000000;0.153328
9147.000000;0.153247
9146.000000;0.153020
9145.000000;0.152740
9144.000000;0.152472
9143.000000;0.152184
9142.000000;0.151882
9141.000000;0.151645
9140.000000;0.151459
9139.000000;0.151206
9138.000000;0.150861
9137.000000;0.150564
9136.000000;0.150422
9135.000000;0.150363
9134.000000;0.150241
9133.000000;0.149981
9132.000000;0.149601
9131.000000;0.149192
9130.000000;0.148891
9129.000000;0.148753
9128.000000;0.148648
9127.000000;0.148413
9126.000000;0.148079
9125.000000;0.147817
9124.000000;0.147692
9123.000000;0.147605
9122.000000;0.147472
9121.000000;0.147302
9120.000000;0.147094
9119.000000;0.146823
9118.000000;0.146548
9117.000000;0.146373
9116.000000;0.146288
9115.000000;0.146179
9114.000000;0.146006
9113.000000;0.145826
9112.000000;0.145646
9111.000000;0.145391
9110.000000;0.145047
9109.000000;0.144714
9108.000000;0.144480
9107.000000;0.144354
9106.000000;0.144302
9105.000000;0.144242
9104.000000;0.144041
9103.000000;0.143649
9102.000000;0.143192
9101.000000;0.142835
9100.000000;0.142583
9099.000000;0.142365
9098.000000;0.142213
9097.000000;0.142196
9096.000000;0.142221
9095.000000;0.142094
9094.000000;0.141784
9093.000000;0.141440
9092.000000;0.141179
9091.000000;0.140995
9090.000000;0.140859
9089.000000;0.140735
9088.000000;0.140529
9087.000000;0.140180
9086.000000;0.139802
9085.000000;0.139564
9084.000000;0.139468
9083.000000;0.139390
9082.000000;0.139301
9081.000000;0.139268
9080.000000;0.139257
9079.000000;0.139128
9078.000000;0.138829
9077.000000;0.138439
9076.000000;0.138040
9075.000000;0.137680
9074.000000;0.137438
9073.000000;0.137352
9072.000000;0.137321
9071.000000;0.137218
9070.000000;0.137069
9069.000000;0.136971
9068.000000;0.136887
9067.000000;0.136704
9066.000000;0.136449
9065.000000;0.136256
9064.000000;0.136150
9063.000000;0.136036
9062.000000;0.135890
9061.000000;0.135753
9060.000000;0.135591
9059.000000;0.135340
9058.000000;0.135066
9057.000000;0.134888
9056.000000;0.134763
9055.000000;0.134540
9054.000000;0.134213
9053.000000;0.133915
9052.000000;0.133688
9051.000000;0.133457
9050.000000;0.133215
9049.000000;0.133044
9048.000000;0.132932
9047.000000;0.132784
9046.000000;0.132601
9045.000000;0.132478
9044.000000;0.132408
9043.000000;0.132284
9042.000000;0.132098
9041.000000;0.131945
9040.000000;0.131817
9039.000000;0.131590
9038.000000;0.131225
9037.000000;0.130841
9036.000000;0.130549
9035.000000;0.130363
9034.000000;0.130267
9033.000000;0.130219
9032.000000;0.130122
9031.000000;0.129907
9030.000000;0.129656
9029.000000;0.129489
9028.000000;0.129392
9027.000000;0.129285
9026.000000;0.129196
9025.000000;0.129185
9024.000000;0.129172
9023.000000;0.129026
9022.000000;0.128767
9021.000000;0.128502
9020.000000;0.128211
9019.000000;0.127825
9018.000000;0.127452
9017.000000;0.127270
9016.000000;0.127257
9015.000000;0.127224
9014.000000;0.127107
9013.000000;0.126981
9012.000000;0.126830
9011.000000;0.126558
9010.000000;0.126224
9009.000000;0.126007
9008.000000;0.125924
9007.000000;0.125816
9006.000000;0.125613
9005.000000;0.125404
9004.000000;0.125226
9003.000000;0.125029
9002.000000;0.124857
9001.000000;0.124826
9000.000000;0.124873
8999.000000;0.124782
8998.000000;0.124502
8997.000000;0.124230
8996.000000;0.124102
8995.000000;0.124036
8994.000000;0.123921
8993.000000;0.123772
8992.000000;0.123602
8991.000000;0.123350
8990.000000;0.123014
8989.000000;0.122695
8988.000000;0.122442
8987.000000;0.122196
8986.000000;0.121948
8985.000000;0.121783
8984.000000;0.121719
8983.000000;0.121656
8982.000000;0.121539
8981.000000;0.121435
8980.000000;0.121386
8979.000000;0.121317
8978.000000;0.121152
8977.000000;0.120901
8976.000000;0.120603
8975.000000;0.120281
8974.000000;0.119980
8973.000000;0.119734
8972.000000;0.119513
8971.000000;0.119296
8970.000000;0.119158
8969.000000;0.119166
8968.000000;0.119211
8967.000000;0.119120
8966.000000;0.118890
8965.000000;0.118666
8964.000000;0.118514
8963.000000;0.118388
8962.000000;0.118284
8961.000000;0.118242
8960.000000;0.118209
8959.000000;0.118095
8958.000000;0.117944
8957.000000;0.117869
8956.000000;0.117836
8955.000000;0.117696
8954.000000;0.117440
8953.000000;0.117207
8952.000000;0.117038
8951.000000;0.116817
8950.000000;0.116492
8949.000000;0.116161
8948.000000;0.115903
8947.000000;0.115699
8946.000000;0.115542
8945.000000;0.115465
8944.000000;0.115425
8943.000000;0.115324
8942.000000;0.115160
8941.000000;0.115010
8940.000000;0.114873
8939.000000;0.114697
8938.000000;0.114547
8937.000000;0.114548
8936.000000;0.114660
8935.000000;0.114681
8934.000000;0.114513
8933.000000;0.114248
8932.000000;0.113980
8931.000000;0.113720
8930.000000;0.113494
8929.000000;0.113370
8928.000000;0.113325
8927.000000;0.113261
8926.000000;0.113162
8925.000000;0.113075
8924.000000;0.112939
8923.000000;0.112622
8922.000000;0.112172
8921.000000;0.111835
8920.000000;0.111772
8919.000000;0.111899
8918.000000;0.112045
8917.000000;0.112127
8916.000000;0.112113
8915.000000;0.111989
8914.000000;0.111815
8913.000000;0.111694
8912.000000;0.111629
8911.000000;0.111542
8910.000000;0.111415
8909.000000;0.111303
8908.000000;0.111190
8907.000000;0.110985
8906.000000;0.110672
8905.000000;0.110345
8904.000000;0.110073
8903.000000;0.109869
8902.000000;0.109786
8901.000000;0.109881
8900.000000;0.110073
8899.000000;0.110182
8898.000000;0.110127
8897.000000;0.109964
8896.000000;0.109734
8895.000000;0.109414
8894.000000;0.109036
8893.000000;0.108697
8892.000000;0.108418
8891.000000;0.108143
8890.000000;0.107887
8889.000000;0.107765
8888.000000;0.107843
8887.000000;0.108071
8886.000000;0.108354
8885.000000;0.108579
8884.000000;0.108615
8883.000000;0.108412
8882.000000;0.108112
8881.000000;0.107902
8880.000000;0.107794
8879.000000;0.107657
8878.000000;0.107437
8877.000000;0.107177
8876.000000;0.106889
8875.000000;0.106565
8874.000000;0.106307
8873.000000;0.106253
8872.000000;0.106370
8871.000000;0.106489
8870.000000;0.106537
8869.000000;0.106587
8868.000000;0.106686
8867.000000;0.106790
8866.000000;0.106874
8865.000000;0.106935
8864.000000;0.106904
8863.000000;0.106702
8862.000000;0.106384
8861.000000;0.106090
8860.000000;0.105856
8859.000000;0.105632
8858.000000;0.105453
8857.000000;0.105404
8856.000000;0.105452
8855.000000;0.105490
8854.000000;0.105530
8853.000000;0.105653
8852.000000;0.105773
8851.000000;0.105690
8850.000000;0.105384
8849.000000;0.105063
8848.000000;0.104873
8847.000000;0.104765
8846.000000;0.104674
8845.000000;0.104649
8844.000000;0.104706
8843.000000;0.104733
8842.000000;0.104632
8841.000000;0.104444
8840.000000;0.104282
8839.000000;0.104223
8838.000000;0.104280
8837.000000;0.104381
8836.000000;0.104379
8835.000000;0.104198
8834.000000;0.103966
8833.000000;0.103878
8832.000000;0.103936
8831.000000;0.103966
8830.000000;0.103877
8829.000000;0.103743
8828.000000;0.103649
8827.000000;0.103612
8826.000000;0.103656
8825.000000;0.103820
8824.000000;0.104052
8823.000000;0.104246
8822.000000;0.104384
8821.000000;0.104525
8820.000000;0.104661
8819.000000;0.104714
8818.000000;0.104689
8817.000000;0.104677
8816.000000;0.104726
8815.000000;0.104825
8814.000000;0.104981
8813.000000;0.105179
8812.000000;0.105293
8811.000000;0.105200
8810.000000;0.104967
8809.000000;0.104757
8808.000000;0.104594
8807.000000;0.104390
8806.000000;0.104183
8805.000000;0.104146
8804.000000;0.104339
8803.000000;0.104637
8802.000000;0.104897
8801.000000;0.105065
8800.000000;0.105098
8799.000000;0.104971
8798.000000;0.104786
8797.000000;0.104703
8796.000000;0.104741
8795.000000;0.104790
8794.000000;0.104810
8793.000000;0.104869
8792.000000;0.104979
8791.000000;0.105059
8790.000000;0.105087
8789.000000;0.105128
8788.000000;0.105222
8787.000000;0.105371
8786.000000;0.105625
8785.000000;0.106002
8784.000000;0.106342
8783.000000;0.106414
8782.000000;0.106204
8781.000000;0.105930
8780.000000;0.105770
8779.000000;0.105733
8778.000000;0.105785
8777.000000;0.105913
8776.000000;0.106047
8775.000000;0.106099
8774.000000;0.106124
8773.000000;0.106275
8772.000000;0.106572
8771.000000;0.106868
8770.000000;0.107066
8769.000000;0.107204
8768.000000;0.107313
8767.000000;0.107366
8766.000000;0.107402
8765.000000;0.107522
8764.000000;0.107715
8763.000000;0.107840
8762.000000;0.107839
8761.000000;0.107816
8760.000000;0.107861
8759.000000;0.107951
8758.000000;0.108048
8757.000000;0.108175
8756.000000;0.108320
8755.000000;0.108414
8754.000000;0.108436
8753.000000;0.108436
8752.000000;0.108445
8751.000000;0.108464
8750.000000;0.108559
8749.000000;0.108802
8748.000000;0.109121
8747.000000;0.109353
8746.000000;0.109466
8745.000000;0.109574
8744.000000;0.109717
8743.000000;0.109800
8742.000000;0.109805
8741.000000;0.109888
8740.000000;0.110172
8739.000000;0.110577
8738.000000;0.110935
8737.000000;0.111180
8736.000000;0.111350
8735.000000;0.111490
8734.000000;0.111619
8733.000000;0.111732
8732.000000;0.111792
8731.000000;0.111784
8730.000000;0.111776
8729.000000;0.111860
8728.000000;0.112025
8727.000000;0.112172
8726.000000;0.112243
8725.000000;0.112266
8724.000000;0.112295
8723.000000;0.112376
8722.000000;0.112561
8721.000000;0.112833
8720.000000;0.113073
8719.000000;0.113192
8718.000000;0.113260
8717.000000;0.113401
8716.000000;0.113597
8715.000000;0.113711
8714.000000;0.113689
8713.000000;0.113597
8712.000000;0.113510
8711.000000;0.113478
8710.000000;0.113563
8709.000000;0.113767
8708.000000;0.113970
8707.000000;0.114066
8706.000000;0.114131
8705.000000;0.114302
8704.000000;0.114537
8703.000000;0.114670
8702.000000;0.114667
8701.000000;0.114670
8700.000000;0.114782
8699.000000;0.114965
8698.000000;0.115146
8697.000000;0.115284
8696.000000;0.115316
8695.000000;0.115205
8694.000000;0.115028
8693.000000;0.114924
8692.000000;0.114924
8691.000000;0.114963
8690.000000;0.115010
8689.000000;0.115086
8688.000000;0.115172
8687.000000;0.115238
8686.000000;0.115329
8685.000000;0.115481
8684.000000;0.115601
8683.000000;0.115574
8682.000000;0.115449
8681.000000;0.115367
8680.000000;0.115343
8679.000000;0.115302
8678.000000;0.115279
8677.000000;0.115384
8676.000000;0.115577
8675.000000;0.115669
8674.000000;0.115579
8673.000000;0.115407
8672.000000;0.115249
8671.000000;0.115103
8670.000000;0.114985
8669.000000;0.114971
8668.000000;0.115083
8667.000000;0.115254
8666.000000;0.115439
8665.000000;0.115625
8664.000000;0.115745
8663.000000;0.115712
8662.000000;0.115549
8661.000000;0.115370
8660.000000;0.115218
8659.000000;0.115064
8658.000000;0.114928
8657.000000;0.114884
8656.000000;0.114915
8655.000000;0.114918
8654.000000;0.114846
8653.000000;0.114736
8652.000000;0.114600
8651.000000;0.114420
8650.000000;0.114236
8649.000000;0.114116
8648.000000;0.114041
8647.000000;0.113949
8646.000000;0.113863
8645.000000;0.113841
8644.000000;0.113838
8643.000000;0.113762
8642.000000;0.113644
8641.000000;0.113588
8640.000000;0.113585
8639.000000;0.113522
8638.000000;0.113367
8637.000000;0.113196
8636.000000;0.113037
8635.000000;0.112833
8634.000000;0.112577
8633.000000;0.112352
8632.000000;0.112222
8631.000000;0.112202
8630.000000;0.112302
8629.000000;0.112476
8628.000000;0.112578
8627.000000;0.112494
8626.000000;0.112297
8625.000000;0.112145
8624.000000;0.112059
8623.000000;0.111951
8622.000000;0.111829
8621.000000;0.111778
8620.000000;0.111782
8619.000000;0.111734
8618.000000;0.111619
8617.000000;0.111518
8616.000000;0.111433
8615.000000;0.111273
8614.000000;0.111019
8613.000000;0.110757
8612.000000;0.110528
8611.000000;0.110317
8610.000000;0.110168
8609.000000;0.110151
8608.000000;0.110207
8607.000000;0.110189
8606.000000;0.110064
8605.000000;0.109933
8604.000000;0.109836
8603.000000;0.109706
8602.000000;0.109509
8601.000000;0.109305
8600.000000;0.109132
8599.000000;0.108972
8598.000000;0.108843
8597.000000;0.108773
8596.000000;0.108690
8595.000000;0.108487
8594.000000;0.108186
8593.000000;0.107936
8592.000000;0.107813
8591.000000;0.107767
8590.000000;0.107758
8589.000000;0.107784
8588.000000;0.107786
8587.000000;0.107661
8586.000000;0.107408
8585.000000;0.107135
8584.000000;0.106921
8583.000000;0.106768
8582.000000;0.106681
8581.000000;0.106670
8580.000000;0.106676
8579.000000;0.106609
8578.000000;0.106461
8577.000000;0.106282
8576.000000;0.106063
8575.000000;0.105773
8574.000000;0.105468
8573.000000;0.105234
8572.000000;0.105046
8571.000000;0.104834
8570.000000;0.104629
8569.000000;0.104515
8568.000000;0.104453
8567.000000;0.104326
8566.000000;0.104122
8565.000000;0.103947
8564.000000;0.103846
8563.000000;0.103774
8562.000000;0.103720
8561.000000;0.103704
8560.000000;0.103668
8559.000000;0.103531
8558.000000;0.103335
8557.000000;0.103195
8556.000000;0.103104
8555.000000;0.102943
8554.000000;0.102685
8553.000000;0.102431
8552.000000;0.102249
8551.000000;0.102104
8550.000000;0.101972
8549.000000;0.101858
8548.000000;0.101712
8547.000000;0.101476
8546.000000;0.101223
8545.000000;0.101102
8544.000000;0.101115
8543.000000;0.101089
8542.000000;0.100911
8541.000000;0.100649
8540.000000;0.100427
8539.000000;0.100289
8538.000000;0.100199
8537.000000;0.100087
8536.000000;0.099879
8535.000000;0.099588
8534.000000;0.099345
8533.000000;0.099257
8532.000000;0.099235
8531.000000;0.099111
8530.000000;0.098864
8529.000000;0.098620
8528.000000;0.098450
8527.000000;0.098314
8526.000000;0.098192
8525.000000;0.098117
8524.000000;0.098073
8523.000000;0.098005
8522.000000;0.097916
8521.000000;0.097849
8520.000000;0.097784
8519.000000;0.097662
8518.000000;0.097506
8517.000000;0.097367
8516.000000;0.097198
8515.000000;0.096915
8514.000000;0.096579
8513.000000;0.096351
8512.000000;0.096275
8511.000000;0.096239
8510.000000;0.096161
8509.000000;0.096051
8508.000000;0.095918
8507.000000;0.095735
8506.000000;0.095536
8505.000000;0.095400
8504.000000;0.095332
8503.000000;0.095256
8502.000000;0.095132
8501.000000;0.094978
8500.000000;0.094797
8499.000000;0.094593
8498.000000;0.094434
8497.000000;0.094373
8496.000000;0.094330
8495.000000;0.094184
8494.000000;0.093944
8493.000000;0.093717
8492.000000;0.093515
8491.000000;0.093273
8490.000000;0.093007
8489.000000;0.092815
8488.000000;0.092703
8487.000000;0.092579
8486.000000;0.092410
8485.000000;0.092271
8484.000000;0.092200
8483.000000;0.092145
8482.000000;0.092063
8481.000000;0.091966
8480.000000;0.091845
8479.000000;0.091674
8478.000000;0.091488
8477.000000;0.091355
8476.000000;0.091265
8475.000000;0.091136
8474.000000;0.090930
8473.000000;0.090675
8472.000000;0.090418
8471.000000;0.090218
8470.000000;0.090163
8469.000000;0.090252
8468.000000;0.090322
8467.000000;0.090212
8466.000000;0.089971
8465.000000;0.089767
8464.000000;0.089648
8463.000000;0.089530
8462.000000;0.089376
8461.000000;0.089242
8460.000000;0.089140
8459.000000;0.089015
8458.000000;0.088866
8457.000000;0.088753
8456.000000;0.088671
8455.000000;0.088540
8454.000000;0.088332
8453.000000;0.088100
8452.000000;0.087892
8451.000000;0.087726
8450.000000;0.087624
8449.000000;0.087571
8448.000000;0.087467
8447.000000;0.087245
8446.000000;0.086991
8445.000000;0.086848
8444.000000;0.086824
8443.000000;0.086802
8442.000000;0.086718
8441.000000;0.086593
8440.000000;0.086436
8439.000000;0.086258
8438.000000;0.086142
8437.000000;0.086149
8436.000000;0.086197
8435.000000;0.086136
8434.000000;0.085951
8433.000000;0.085745
8432.000000;0.085563
8431.000000;0.085361
8430.000000;0.085123
8429.000000;0.084881
8428.000000;0.084641
8427.000000;0.084396
8426.000000;0.084195
8425.000000;0.084072
8424.000000;0.083957
8423.000000;0.083778
8422.000000;0.083603
8421.000000;0.083548
8420.000000;0.083579
8419.000000;0.083571
8418.000000;0.083506
8417.000000;0.083459
8416.000000;0.083420
8415.000000;0.083311
8414.000000;0.083145
8413.000000;0.083013
8412.000000;0.082912
8411.000000;0.082755
8410.000000;0.082533
8409.000000;0.082339
8408.000000;0.082204
8407.000000;0.082087
8406.000000;0.081998
8405.000000;0.081988
8404.000000;0.082003
8403.000000;0.081916
8402.000000;0.081705
8401.000000;0.081470
8400.000000;0.081273
8399.000000;0.081075
8398.000000;0.080866
8397.000000;0.080698
8396.000000;0.080588
8395.000000;0.080476
8394.000000;0.080321
8393.000000;0.080138
8392.000000;0.079942
8391.000000;0.079748
8390.000000;0.079597
8389.000000;0.079491
8388.000000;0.079341
8387.000000;0.079081
8386.000000;0.078804
8385.000000;0.078647
8384.000000;0.078593
8383.000000;0.078525
8382.000000;0.078416
8381.000000;0.078329
8380.000000;0.078255
8379.000000;0.078124
8378.000000;0.077961
8377.000000;0.077873
8376.000000;0.077866
8375.000000;0.077827
8374.000000;0.077705
8373.000000;0.077565
8372.000000;0.077452
8371.000000;0.077332
8370.000000;0.077179
8369.000000;0.077001
8368.000000;0.076781
8367.000000;0.076499
8366.000000;0.076221
8365.000000;0.076047
8364.000000;0.075981
8363.000000;0.075943
8362.000000;0.075886
8361.000000;0.075803
8360.000000;0.075646
8359.000000;0.075379
8358.000000;0.075086
8357.000000;0.074898
8356.000000;0.074812
8355.000000;0.074720
8354.000000;0.074584
8353.000000;0.074461
8352.000000;0.074356
8351.000000;0.074203
8350.000000;0.073980
8349.000000;0.073749
8348.000000;0.073543
8347.000000;0.073354
8346.000000;0.073196
8345.000000;0.073082
8344.000000;0.072946
8343.000000;0.072708
8342.000000;0.072418
8341.000000;0.072199
8340.000000;0.072074
8339.000000;0.071962
8338.000000;0.071827
8337.000000;0.071716
8336.000000;0.071632
8335.000000;0.071510
8334.000000;0.071308
8333.000000;0.071030
8332.000000;0.070677
8331.000000;0.070300
8330.000000;0.070055
8329.000000;0.070055
8328.000000;0.070184
8327.000000;0.070199
8326.000000;0.070012
8325.000000;0.069743
8324.000000;0.069508
8323.000000;0.069306
8322.000000;0.069111
8321.000000;0.068948
8320.000000;0.068819
8319.000000;0.068678
8318.000000;0.068511
8317.000000;0.068347
8316.000000;0.068185
8315.000000;0.068005
8314.000000;0.067846
8313.000000;0.067765
8312.000000;0.067720
8311.000000;0.067611
8310.000000;0.067421
8309.000000;0.067221
8308.000000;0.067046
8307.000000;0.066864
8306.000000;0.066672
8305.000000;0.066502
8304.000000;0.066348
8303.000000;0.066173
8302.000000;0.065997
8301.000000;0.065865
8300.000000;0.065752
8299.000000;0.065587
8298.000000;0.065363
8297.000000;0.065135
8296.000000;0.064926
8295.000000;0.064724
8294.000000;0.064554
8293.000000;0.064455
8292.000000;0.064384
8291.000000;0.064257
8290.000000;0.064066
8289.000000;0.063862
8288.000000;0.063673
8287.000000;0.063516
8286.000000;0.063445
8285.000000;0.063476
8284.000000;0.063479
8283.000000;0.063295
8282.000000;0.062926
8281.000000;0.062518
8280.000000;0.062182
8279.000000;0.061940
8278.000000;0.061799
8277.000000;0.061750
8276.000000;0.061716
8275.000000;0.061610
8274.000000;0.061445
8273.000000;0.061283
8272.000000;0.061116
8271.000000;0.060894
8270.000000;0.060636
8269.000000;0.060403
8268.000000;0.060175
8267.000000;0.059896
8266.000000;0.059605
8265.000000;0.059392
8264.000000;0.059262
8263.000000;0.059146
8262.000000;0.059019
8261.000000;0.058897
8260.000000;0.058743
8259.000000;0.058518
8258.000000;0.058288
8257.000000;0.058150
8256.000000;0.058078
8255.000000;0.057949
8254.000000;0.057722
8253.000000;0.057461
8252.000000;0.057211
8251.000000;0.056971
8250.000000;0.056778
8249.000000;0.056670
8248.000000;0.056602
8247.000000;0.056493
8246.000000;0.056351
8245.000000;0.056226
8244.000000;0.056085
8243.000000;0.055858
8242.000000;0.055578
8241.000000;0.055350
8240.000000;0.055190
8239.000000;0.055026
8238.000000;0.054851
8237.000000;0.054723
8236.000000;0.054640
8235.000000;0.054542
8234.000000;0.054431
8233.000000;0.054364
8232.000000;0.054314
8231.000000;0.054182
8230.000000;0.053933
8229.000000;0.053633
8228.000000;0.053336
8227.000000;0.053058
8226.000000;0.052834
8225.000000;0.052692
8224.000000;0.052572
8223.000000;0.052385
8222.000000;0.052144
8221.000000;0.051923
8220.000000;0.051716
8219.000000;0.051461
8218.000000;0.051171
8217.000000;0.050936
8216.000000;0.050770
8215.000000;0.050604
8214.000000;0.050415
8213.000000;0.050253
8212.000000;0.050140
8211.000000;0.050039
8210.000000;0.049927
8209.000000;0.049796
8208.000000;0.049606
8207.000000;0.049347
8206.000000;0.049114
8205.000000;0.049013
8204.000000;0.049002
8203.000000;0.048946
8202.000000;0.048810
8201.000000;0.048661
8200.000000;0.048510
8199.000000;0.048294
8198.000000;0.048013
8197.000000;0.047755
8196.000000;0.047565
8195.000000;0.047410
8194.000000;0.047269
8193.000000;0.047150
8192.000000;0.047016
8191.000000;0.046806
8190.000000;0.046544
8189.000000;0.046321
8188.000000;0.046157
8187.000000;0.045997
8186.000000;0.045818
8185.000000;0.045651
8184.000000;0.045491
8183.000000;0.045294
8182.000000;0.045078
8181.000000;0.044899
8180.000000;0.044752
8179.000000;0.044579
8178.000000;0.044380
8177.000000;0.044215
8176.000000;0.044092
8175.000000;0.043960
8174.000000;0.043795
8173.000000;0.043619
8172.000000;0.043434
8171.000000;0.043233
8170.000000;0.043056
8169.000000;0.042943
8168.000000;0.042839
8167.000000;0.042660
8166.000000;0.042424
8165.000000;0.042218
8164.000000;0.042058
8163.000000;0.041890
8162.000000;0.041710
8161.000000;0.041564
8160.000000;0.041439
8159.000000;0.041276
8158.000000;0.041078
8157.000000;0.040909
8156.000000;0.040771
8155.000000;0.040610
8154.000000;0.040420
8153.000000;0.040247
8152.000000;0.040091
8151.000000;0.039900
8150.000000;0.039669
8149.000000;0.039452
8148.000000;0.039263
8147.000000;0.039068
8146.000000;0.038861
8145.000000;0.038665
8144.000000;0.038467
8143.000000;0.038245
8142.000000;0.038027
8141.000000;0.037844
8140.000000;0.037644
8139.000000;0.037369
8138.000000;0.037074
8137.000000;0.036874
8136.000000;0.036786
8135.000000;0.036717
8134.000000;0.036608
8133.000000;0.036464
8132.000000;0.036274
8131.000000;0.036016
8130.000000;0.035736
8129.000000;0.035515
8128.000000;0.035347
8127.000000;0.035171
8126.000000;0.034983
8125.000000;0.034841
8124.000000;0.034753
8123.000000;0.034671
8122.000000;0.034576
8121.000000;0.034476
8120.000000;0.034335
8119.000000;0.034109
8118.000000;0.033838
8117.000000;0.033609
8116.000000;0.033431
8115.000000;0.033259
8114.000000;0.033099
8113.000000;0.032989
8112.000000;0.032888
8111.000000;0.032703
8110.000000;0.032418
8109.000000;0.032113
8108.000000;0.031839
8107.000000;0.031595
8106.000000;0.031410
8105.000000;0.031309
8104.000000;0.031226
8103.000000;0.031050
8102.000000;0.030785
8101.000000;0.030562
8100.000000;0.030456
8099.000000;0.030411
8098.000000;0.030328
8097.000000;0.030159
8096.000000;0.029901
8095.000000;0.029578
8094.000000;0.029261
8093.000000;0.029015
8092.000000;0.028827
8091.000000;0.028646
8090.000000;0.028463
8089.000000;0.028300
8088.000000;0.028142
8087.000000;0.027960
8086.000000;0.027780
8085.000000;0.027644
8084.000000;0.027532
8083.000000;0.027399
8082.000000;0.027266
8081.000000;0.027169
8080.000000;0.027062
8079.000000;0.026876
8078.000000;0.026640
8077.000000;0.026443
8076.000000;0.026285
8075.000000;0.026088
8074.000000;0.025836
8073.000000;0.025611
8072.000000;0.025467
8071.000000;0.025356
8070.000000;0.025209
8069.000000;0.024987
8068.000000;0.024692
8067.000000;0.024370
8066.000000;0.024110
8065.000000;0.023952
8064.000000;0.023824
8063.000000;0.023640
8062.000000;0.023428
8061.000000;0.023271
8060.000000;0.023164
8059.000000;0.023022
8058.000000;0.022813
8057.000000;0.022580
8056.000000;0.022355
8055.000000;0.022148
8054.000000;0.021985
8053.000000;0.021876
8052.000000;0.021757
8051.000000;0.021562
8050.000000;0.021329
8049.000000;0.021151
8048.000000;0.021042
8047.000000;0.020937
8046.000000;0.020790
8045.000000;0.020592
8044.000000;0.020329
8043.000000;0.020015
8042.000000;0.019731
8041.000000;0.019533
8040.000000;0.019368
8039.000000;0.019159
8038.000000;0.018940
8037.000000;0.018784
8036.000000;0.018658
8035.000000;0.018475
8034.000000;0.018243
8033.000000;0.018049
8032.000000;0.017909
8031.000000;0.017756
8030.000000;0.017578
8029.000000;0.017419
8028.000000;0.017269
8027.000000;0.017077
8026.000000;0.016870
8025.000000;0.016723
8024.000000;0.016620
8023.000000;0.016452
8022.000000;0.016181
8021.000000;0.015884
8020.000000;0.015627
8019.000000;0.015396
8018.000000;0.015178
8017.000000;0.015009
8016.000000;0.014897
8015.000000;0.014794
8014.000000;0.014652
8013.000000;0.014466
8012.000000;0.014242
8011.000000;0.013987
8010.000000;0.013730
8009.000000;0.013494
8008.000000;0.013268
8007.000000;0.013044
8006.000000;0.012855
8005.000000;0.012717
8004.000000;0.012576
8003.000000;0.012382
8002.000000;0.012179
8001.000000;0.012029
8000.000000;0.011905
7999.000000;0.011734
7998.000000;0.011537
7997.000000;0.011385
7996.000000;0.011281
7995.000000;0.011154
7994.000000;0.010984
7993.000000;0.010806
7992.000000;0.010618
7991.000000;0.010379
7990.000000;0.010090
7989.000000;0.009796
7988.000000;0.009516
7987.000000;0.009250
7986.000000;0.009033
7985.000000;0.008887
7984.000000;0.008752
7983.000000;0.008556
7982.000000;0.008332
7981.000000;0.008164
7980.000000;0.008047
7979.000000;0.007893
7978.000000;0.007677
7977.000000;0.007448
7976.000000;0.007231
7975.000000;0.007002
7974.000000;0.006763
7973.000000;0.006549
7972.000000;0.006363
7971.000000;0.006184
7970.000000;0.006019
7969.000000;0.005884
7968.000000;0.005737
7967.000000;0.005529
7966.000000;0.005298
7965.000000;0.005113
7964.000000;0.004957
7963.000000;0.004747
7962.000000;0.004469
7961.000000;0.004191
7960.000000;0.003958
7959.000000;0.003762
7958.000000;0.003608
7957.000000;0.003508
7956.000000;0.003410
7955.000000;0.003231
7954.000000;0.002981
7953.000000;0.002757
7952.000000;0.002612
7951.000000;0.002502
7950.000000;0.002376
7949.000000;0.002228
7948.000000;0.002068
7947.000000;0.001896
7946.000000;0.001721
7945.000000;0.001553
7944.000000;0.001375
7943.000000;0.001182
7942.000000;0.001003
7941.000000;0.000861
7940.000000;0.000714
7939.000000;0.000509
7938.000000;0.000258
7937.000000;0.000013
7936.000000;-0.000203
7935.000000;-0.000387
7934.000000;-0.000520
7933.000000;-0.000616
7932.000000;-0.000758
7931.000000;-0.001004
7930.000000;-0.001304
7929.000000;-0.001560
7928.000000;-0.001748
7927.000000;-0.001898
7926.000000;-0.002020
7925.000000;-0.002127
7924.000000;-0.002283
7923.000000;-0.002528
7922.000000;-0.002789
7921.000000;-0.002966
7920.000000;-0.003083
7919.000000;-0.003240
7918.000000;-0.003465
7917.000000;-0.003694
7916.000000;-0.003882
7915.000000;-0.004040
7914.000000;-0.004183
7913.000000;-0.004324
7912.000000;-0.004497
7911.000000;-0.004708
7910.000000;-0.004896
7909.000000;-0.005012
7908.000000;-0.005114
7907.000000;-0.005281
7906.000000;-0.005496
7905.000000;-0.005691
7904.000000;-0.005870
7903.000000;-0.006093
7902.000000;-0.006347
7901.000000;-0.006562
7900.000000;-0.006723
7899.000000;-0.006872
7898.000000;-0.007017
7897.000000;-0.007127
7896.000000;-0.007224
7895.000000;-0.007364
7894.000000;-0.007543
7893.000000;-0.007704
7892.000000;-0.007851
7891.000000;-0.008053
7890.000000;-0.008342
7889.000000;-0.008676
7888.000000;-0.008994
7887.000000;-0.009256
7886.000000;-0.009437
7885.000000;-0.009553
7884.000000;-0.009671
7883.000000;-0.009837
7882.000000;-0.010012
7881.000000;-0.010141
7880.000000;-0.010241
7879.000000;-0.010363
7878.000000;-0.010501
7877.000000;-0.010628
7876.000000;-0.010760
7875.000000;-0.010936
7874.000000;-0.011133
7873.000000;-0.011301
7872.000000;-0.011441
7871.000000;-0.011587
7870.000000;-0.011745
7869.000000;-0.011917
7868.000000;-0.012133
7867.000000;-0.012393
7866.000000;-0.012624
7865.000000;-0.012771
7864.000000;-0.012880
7863.000000;-0.013019
7862.000000;-0.013172
7861.000000;-0.013296
7860.000000;-0.013426
7859.000000;-0.013610
7858.000000;-0.013818
7857.000000;-0.013994
7856.000000;-0.014166
7855.000000;-0.014387
7854.000000;-0.014624
7853.000000;-0.014803
7852.000000;-0.014929
7851.000000;-0.015053
7850.000000;-0.015168
7849.000000;-0.015253
7848.000000;-0.015374
7847.000000;-0.015604
7846.000000;-0.015883
7845.000000;-0.016074
7844.000000;-0.016152
7843.000000;-0.016212
7842.000000;-0.016312
7841.000000;-0.016421
7840.000000;-0.016528
7839.000000;-0.016670
7838.000000;-0.016840
7837.000000;-0.016988
7836.000000;-0.017115
7835.000000;-0.017280
7834.000000;-0.017502
7833.000000;-0.017738
7832.000000;-0.017964
7831.000000;-0.018188
7830.000000;-0.018392
7829.000000;-0.018541
7828.000000;-0.018660
7827.000000;-0.018802
7826.000000;-0.018954
7825.000000;-0.019054
7824.000000;-0.019104
7823.000000;-0.019179
7822.000000;-0.019323
7821.000000;-0.019504
7820.000000;-0.019685
7819.000000;-0.019864
7818.000000;-0.020036
7817.000000;-0.020179
7816.000000;-0.020289
7815.000000;-0.020378
7814.000000;-0.020446
7813.000000;-0.020508
7812.000000;-0.020619
7811.000000;-0.020814
7810.000000;-0.021043
7809.000000;-0.021231
7808.000000;-0.021370
7807.000000;-0.021497
7806.000000;-0.021615
7805.000000;-0.021715
7804.000000;-0.021831
7803.000000;-0.022001
7802.000000;-0.022191
7801.000000;-0.022347
7800.000000;-0.022482
7799.000000;-0.022641
7798.000000;-0.022805
7797.000000;-0.022923
7796.000000;-0.023007
7795.000000;-0.023119
7794.000000;-0.023272
7793.000000;-0.023424
7792.000000;-0.023554
7791.000000;-0.023675
7790.000000;-0.023787
7789.000000;-0.023888
7788.000000;-0.024015
7787.000000;-0.024205
7786.000000;-0.024434
7785.000000;-0.024648
7784.000000;-0.024838
7783.000000;-0.025004
7782.000000;-0.025105
7781.000000;-0.025115
7780.000000;-0.025105
7779.000000;-0.025178
7778.000000;-0.025342
7777.000000;-0.025524
7776.000000;-0.025684
7775.000000;-0.025849
7774.000000;-0.026035
7773.000000;-0.026224
7772.000000;-0.026394
7771.000000;-0.026531
7770.000000;-0.026610
7769.000000;-0.026635
7768.000000;-0.026660
7767.000000;-0.026730
7766.000000;-0.026813
7765.000000;-0.026869
7764.000000;-0.026930
7763.000000;-0.027051
7762.000000;-0.027211
7761.000000;-0.027344
7760.000000;-0.027441
7759.000000;-0.027540
7758.000000;-0.027646
7757.000000;-0.027732
7756.000000;-0.027804
7755.000000;-0.027889
7754.000000;-0.027991
7753.000000;-0.028108
7752.000000;-0.028260
7751.000000;-0.028445
7750.000000;-0.028597
7749.000000;-0.028672
7748.000000;-0.028723
7747.000000;-0.028827
7746.000000;-0.028968
7745.000000;-0.029070
7744.000000;-0.029122
7743.000000;-0.029178
7742.000000;-0.029269
7741.000000;-0.029376
7740.000000;-0.029488
7739.000000;-0.029606
7738.000000;-0.029711
7737.000000;-0.029801
7736.000000;-0.029919
7735.000000;-0.030094
7734.000000;-0.030267
7733.000000;-0.030365
7732.000000;-0.030394
7731.000000;-0.030412
7730.000000;-0.030444
7729.000000;-0.030487
7728.000000;-0.030566
7727.000000;-0.030685
7726.000000;-0.030780
7725.000000;-0.030789
7724.000000;-0.030763
7723.000000;-0.030802
7722.000000;-0.030923
7721.000000;-0.031061
7720.000000;-0.031171
7719.000000;-0.031259
7718.000000;-0.031332
7717.000000;-0.031393
7716.000000;-0.031462
7715.000000;-0.031548
7714.000000;-0.031625
7713.000000;-0.031692
7712.000000;-0.031805
7711.000000;-0.031989
7710.000000;-0.032174
7709.000000;-0.032278
7708.000000;-0.032322
7707.000000;-0.032364
7706.000000;-0.032396
7705.000000;-0.032379
7704.000000;-0.032352
7703.000000;-0.032390
7702.000000;-0.032491
7701.000000;-0.032594
7700.000000;-0.032675
7699.000000;-0.032754
7698.000000;-0.032826
7697.000000;-0.032871
7696.000000;-0.032923
7695.000000;-0.033025
7694.000000;-0.033149
7693.000000;-0.033232
7692.000000;-0.033269
7691.000000;-0.033297
7690.000000;-0.033320
7689.000000;-0.033315
7688.000000;-0.033304
7687.000000;-0.033333
7686.000000;-0.033404
7685.000000;-0.033489
7684.000000;-0.033578
7683.000000;-0.033656
7682.000000;-0.033680
7681.000000;-0.033643
7680.000000;-0.033614
7679.000000;-0.033657
7678.000000;-0.033744
7677.000000;-0.033814
7676.000000;-0.033866
7675.000000;-0.033933
7674.000000;-0.033996
7673.000000;-0.034019
7672.000000;-0.034022
7671.000000;-0.034036
7670.000000;-0.034045
7669.000000;-0.034025
7668.000000;-0.034013
7667.000000;-0.034049
7666.000000;-0.034100
7665.000000;-0.034126
7664.000000;-0.034153
7663.000000;-0.034227
7662.000000;-0.034314
7661.000000;-0.034356
7660.000000;-0.034356
7659.000000;-0.034343
7658.000000;-0.034304
7657.000000;-0.034234
7656.000000;-0.034197
7655.000000;-0.034243
7654.000000;-0.034311
7653.000000;-0.034323
7652.000000;-0.034309
7651.000000;-0.034346
7650.000000;-0.034420
7649.000000;-0.034460
7648.000000;-0.034462
7647.000000;-0.034474
7646.000000;-0.034496
7645.000000;-0.034489
7644.000000;-0.034471
7643.000000;-0.034491
7642.000000;-0.034534
7641.000000;-0.034543
7640.000000;-0.034515
7639.000000;-0.034489
7638.000000;-0.034463
7637.000000;-0.034413
7636.000000;-0.034361
7635.000000;-0.034336
7634.000000;-0.034304
7633.000000;-0.034221
7632.000000;-0.034124
7631.000000;-0.034082
7630.000000;-0.034083
7629.000000;-0.034071
7628.000000;-0.034055
7627.000000;-0.034083
7626.000000;-0.034130
7625.000000;-0.034130
7624.000000;-0.034093
7623.000000;-0.034081
7622.000000;-0.034098
7621.000000;-0.034085
7620.000000;-0.034024
7619.000000;-0.033953
7618.000000;-0.033886
7617.000000;-0.033795
7616.000000;-0.033694
7615.000000;-0.033631
7614.000000;-0.033620
7613.000000;-0.033640
7612.000000;-0.033681
7611.000000;-0.033735
7610.000000;-0.033751
7609.000000;-0.033669
7608.000000;-0.033496
7607.000000;-0.033295
7606.000000;-0.033107
7605.000000;-0.032954
7604.000000;-0.032865
7603.000000;-0.032845
7602.000000;-0.032840
7601.000000;-0.032811
7600.000000;-0.032792
7599.000000;-0.032811
7598.000000;-0.032814
7597.000000;-0.032730
7596.000000;-0.032588
7595.000000;-0.032464
7594.000000;-0.032374
7593.000000;-0.032287
7592.000000;-0.032216
7591.000000;-0.032185
7590.000000;-0.032149
7589.000000;-0.032048
7588.000000;-0.031904
7587.000000;-0.031787
7586.000000;-0.031706
7585.000000;-0.031614
7584.000000;-0.031506
7583.000000;-0.031416
7582.000000;-0.031346
7581.000000;-0.031269
7580.000000;-0.031191
7579.000000;-0.031129
7578.000000;-0.031045
7577.000000;-0.030893
7576.000000;-0.030691
7575.000000;-0.030497
7574.000000;-0.030322
7573.000000;-0.030145
7572.000000;-0.029981
7571.000000;-0.029861
7570.000000;-0.029770
7569.000000;-0.029678
7568.000000;-0.029596
7567.000000;-0.029540
7566.000000;-0.029476
7565.000000;-0.029371
7564.000000;-0.029252
7563.000000;-0.029145
7562.000000;-0.029006
7561.000000;-0.028793
7560.000000;-0.028555
7559.000000;-0.028375
7558.000000;-0.028261
7557.000000;-0.028167
7556.000000;-0.028081
7555.000000;-0.028001
7554.000000;-0.027884
7553.000000;-0.027698
7552.000000;-0.027487
7551.000000;-0.027311
7550.000000;-0.027147
7549.000000;-0.026950
7548.000000;-0.026754
7547.000000;-0.026625
7546.000000;-0.026546
7545.000000;-0.026441
7544.000000;-0.026281
7543.000000;-0.026101
7542.000000;-0.025924
7541.000000;-0.025752
7540.000000;-0.025600
7539.000000;-0.025471
7538.000000;-0.025329
7537.000000;-0.025155
7536.000000;-0.024984
7535.000000;-0.024830
7534.000000;-0.024636
7533.000000;-0.024365
7532.000000;-0.024075
7531.000000;-0.023835
7530.000000;-0.023624
7529.000000;-0.023400
7528.000000;-0.023186
7527.000000;-0.023015
7526.000000;-0.022853
7525.000000;-0.022662
7524.000000;-0.022479
7523.000000;-0.022343
7522.000000;-0.022209
7521.000000;-0.022027
7520.000000;-0.021828
7519.000000;-0.021655
7518.000000;-0.021456
7517.000000;-0.021180
7516.000000;-0.020890
7515.000000;-0.020677
7514.000000;-0.020515
7513.000000;-0.020307
7512.000000;-0.020045
7511.000000;-0.019793
7510.000000;-0.019577
7509.000000;-0.019367
7508.000000;-0.019172
7507.000000;-0.019009
7506.000000;-0.018858
7505.000000;-0.018678
7504.000000;-0.018439
7503.000000;-0.018259
7502.000000;-0.018039
7501.000000;-0.017748
7500.000000;-0.017440
7499.000000;-0.017180
7498.000000;-0.016938
7497.000000;-0.016660
7496.000000;-0.016377
7495.000000;-0.016145
7494.000000;-0.015936
7493.000000;-0.015689
7492.000000;-0.015417
7491.000000;-0.015158
7490.000000;-0.014896
7489.000000;-0.014601
7488.000000;-0.014310
7487.000000;-0.014062
7486.000000;-0.013820
7485.000000;-0.013559
7484.000000;-0.013352
7483.000000;-0.013251
7482.000000;-0.013167
7481.000000;-0.012977
7480.000000;-0.012704
7479.000000;-0.012463
7478.000000;-0.012279
7477.000000;-0.012099
7476.000000;-0.011911
7475.000000;-0.011745
7474.000000;-0.011573
7473.000000;-0.011327
7472.000000;-0.011009
7471.000000;-0.010676
7470.000000;-0.010357
7469.000000;-0.010059
7468.000000;-0.009807
7467.000000;-0.009594
7466.000000;-0.009341
7465.000000;-0.009007
7464.000000;-0.008684
7463.000000;-0.008475
7462.000000;-0.008341
7461.000000;-0.008169
7460.000000;-0.007932
7459.000000;-0.007677
7458.000000;-0.007415
7457.000000;-0.007139
7456.000000;-0.006889
7455.000000;-0.006699
7454.000000;-0.006506
7453.000000;-0.006237
7452.000000;-0.005924
7451.000000;-0.005642
7450.000000;-0.005384
7449.000000;-0.005110
7448.000000;-0.004848
7447.000000;-0.004629
7446.000000;-0.004403
7445.000000;-0.004116
7444.000000;-0.003813
7443.000000;-0.003560
7442.000000;-0.003324
7441.000000;-0.003049
7440.000000;-0.002761
7439.000000;-0.002499
7438.000000;-0.002218
7437.000000;-0.001891
7436.000000;-0.001622
7435.000000;-0.001515
7434.000000;-0.001467
7433.000000;-0.001271
7432.000000;-0.000885
7431.000000;-0.000460
7430.000000;-0.000123
7429.000000;0.000130
7428.000000;0.000370
7427.000000;0.000694
7426.000000;0.001183
7425.000000;0.001773
7424.000000;0.002253
7423.000000;0.002517
7422.000000;0.002740
7421.000000;0.003143
7420.000000;0.003680
7419.000000;0.004123
7418.000000;0.004370
7417.000000;0.004511
7416.000000;0.004631
7415.000000;0.004711
7414.000000;0.004757
7413.000000;0.004887
7412.000000;0.005215
7411.000000;0.005732
7410.000000;0.006293
7409.000000;0.006689
7408.000000;0.006848
7407.000000;0.006967
7406.000000;0.007316
7405.000000;0.007912
7404.000000;0.008523
7403.000000;0.008972
7402.000000;0.009356
7401.000000;0.009941
7400.000000;0.010823
7399.000000;0.011798
7398.000000;0.012595
7397.000000;0.013150
7396.000000;0.013625
7395.000000;0.014171
7394.000000;0.014695
7393.000000;0.014959
7392.000000;0.014896
7391.000000;0.014748
7390.000000;0.014886
7389.000000;0.015542
7388.000000;0.016753
7387.000000;0.018419
7386.000000;0.020143
7385.000000;0.021176
7384.000000;0.021126
7383.000000;0.020754
7382.000000;0.021382
7381.000000;0.023209
7380.000000;0.024760
7379.000000;0.024567
7378.000000;0.022953
7377.000000;0.021556
7376.000000;0.021500
7375.000000;0.022517
7374.000000;0.023576
7373.000000;0.023895
7372.000000;0.023362
7371.000000;0.022442
7370.000000;0.021919
7369.000000;0.022403
7368.000000;0.023790
7367.000000;0.025396
7366.000000;0.026546
7365.000000;0.026780
7364.000000;0.026058
7363.000000;0.025221
7362.000000;0.025678
7361.000000;0.027851
7360.000000;0.030307
7359.000000;0.031225
7358.000000;0.030550
7357.000000;0.030020
7356.000000;0.031111
7355.000000;0.033705
7354.000000;0.036634
7353.000000;0.038892
7352.000000;0.040273
7351.000000;0.041453
7350.000000;0.043320
7349.000000;0.045770
7348.000000;0.047515
7347.000000;0.047600
7346.000000;0.046694
7345.000000;0.045971
7344.000000;0.045238
7343.000000;0.043456
7342.000000;0.040966
7341.000000;0.039606
7340.000000;0.040105
7339.000000;0.040931
7338.000000;0.040372
7337.000000;0.038669
7336.000000;0.037489
7335.000000;0.038220
7334.000000;0.040989
7333.000000;0.044455
7332.000000;0.046441
7331.000000;0.045925
7330.000000;0.044411
7329.000000;0.044225
7328.000000;0.045438
7327.000000;0.045629
7326.000000;0.043161
7325.000000;0.039482
7324.000000;0.037262
7323.000000;0.037196
7322.000000;0.037846
7321.000000;0.038107
7320.000000;0.038469
7319.000000;0.039976
7318.000000;0.042966
7317.000000;0.046630
7316.000000;0.049361
7315.000000;0.050071
7314.000000;0.049684
7313.000000;0.050523
7312.000000;0.053471
7311.000000;0.056499
7310.000000;0.056938
7309.000000;0.054733
7308.000000;0.052477
7307.000000;0.052458
7306.000000;0.054528
7305.000000;0.056902
7304.000000;0.057937
7303.000000;0.057112
7302.000000;0.055428
7301.000000;0.054974
7300.000000;0.056983
7299.000000;0.059979
7298.000000;0.061024
7297.000000;0.059169
7296.000000;0.056565
7295.000000;0.055751
7294.000000;0.056803
7293.000000;0.057790
7292.000000;0.057373
7291.000000;0.056101
7290.000000;0.055335
7289.000000;0.055711
7288.000000;0.056878
7287.000000;0.058135
7286.000000;0.058973
7285.000000;0.059403
7284.000000;0.059856
7283.000000;0.060681
7282.000000;0.061837
7281.000000;0.063088
7280.000000;0.064350
7279.000000;0.065690
7278.000000;0.067055
7277.000000;0.068230
7276.000000;0.069203
7275.000000;0.070352
7274.000000;0.072048
7273.000000;0.074134
7272.000000;0.075984
7271.000000;0.077159
7270.000000;0.077925
7269.000000;0.078983
7268.000000;0.080674
7267.000000;0.082653
7266.000000;0.084392
7265.000000;0.085872
7264.000000;0.087544
7263.000000;0.089645
7262.000000;0.091797
7261.000000;0.093486
7260.000000;0.094782
7259.000000;0.096209
7258.000000;0.098006
7257.000000;0.100065
7256.000000;0.102590
7255.000000;0.106150
7254.000000;0.110911
7253.000000;0.115954
7252.000000;0.119797
7251.000000;0.122024
7250.000000;0.124017
7249.000000;0.127426
7248.000000;0.132010
7247.000000;0.135770
7246.000000;0.137549
7245.000000;0.138721
7244.000000;0.141556
7243.000000;0.146304
7242.000000;0.150649
7241.000000;0.152377
7240.000000;0.152162
7239.000000;0.152870
7238.000000;0.156207
7237.000000;0.160941
7236.000000;0.164538
7235.000000;0.166008
7234.000000;0.166876
7233.000000;0.169170
7232.000000;0.172807
7231.000000;0.175707
7230.000000;0.176309
7229.000000;0.175304
7228.000000;0.174820
7227.000000;0.176443
7226.000000;0.180105
7225.000000;0.184386
7224.000000;0.187768
7223.000000;0.189904
7222.000000;0.191756
7221.000000;0.194440
7220.000000;0.198042
7219.000000;0.201704
7218.000000;0.204722
7217.000000;0.207316
7216.000000;0.210203
7215.000000;0.213627
7214.000000;0.217242
7213.000000;0.220810
7212.000000;0.224577
7211.000000;0.228876
7210.000000;0.233592
7209.000000;0.238182
7208.000000;0.242244
7207.000000;0.245987
7206.000000;0.249991
7205.000000;0.254432
7204.000000;0.258752
7203.000000;0.262258
7202.000000;0.264954
7201.000000;0.267557
7200.000000;0.270723
7199.000000;0.274459
7198.000000;0.278427
7197.000000;0.282568
7196.000000;0.287228
7195.000000;0.292706
7194.000000;0.298947
7193.000000;0.305642
7192.000000;0.312454
7191.000000;0.319014
7190.000000;0.325041
7189.000000;0.330820
7188.000000;0.337112
7187.000000;0.344108
7186.000000;0.350709
7185.000000;0.355538
7184.000000;0.358641
7183.000000;0.361672
7182.000000;0.366108
7181.000000;0.371712
7180.000000;0.377110
7179.000000;0.381599
7178.000000;0.385791
7177.000000;0.390654
7176.000000;0.396605
7175.000000;0.403555
7174.000000;0.411274
7173.000000;0.419378
7172.000000;0.427430
7171.000000;0.435091
7170.000000;0.442127
7169.000000;0.448562
7168.000000;0.454813
7167.000000;0.461266
7166.000000;0.467487
7165.000000;0.472350
7164.000000;0.475428
7163.000000;0.477961
7162.000000;0.481720
7161.000000;0.486949
7160.000000;0.492219
7159.000000;0.496544
7158.000000;0.500676
7157.000000;0.505888
7156.000000;0.512364
7155.000000;0.519233
7154.000000;0.525797
7153.000000;0.532273
7152.000000;0.539362
7151.000000;0.547370
7150.000000;0.555844
7149.000000;0.563867
7148.000000;0.570828
7147.000000;0.577164
7146.000000;0.584038
7145.000000;0.591876
7144.000000;0.599518
7143.000000;0.605465
7142.000000;0.609861
7141.000000;0.614358
7140.000000;0.619963
7139.000000;0.625881
7138.000000;0.630832
7137.000000;0.634778
7136.000000;0.638785
7135.000000;0.643569
7134.000000;0.648894
7133.000000;0.654297
7132.000000;0.659792
7131.000000;0.665765
7130.000000;0.672566
7129.000000;0.680240
7128.000000;0.688363
7127.000000;0.696093
7126.000000;0.702861
7125.000000;0.709139
7124.000000;0.716048
7123.000000;0.723915
7122.000000;0.731550
7121.000000;0.737460
7120.000000;0.741674
7119.000000;0.745802
7118.000000;0.751084
7117.000000;0.756935
7116.000000;0.761788
7115.000000;0.765134
7114.000000;0.768095
7113.000000;0.772012
7112.000000;0.777175
7111.000000;0.783065
7110.000000;0.789112
7109.000000;0.795023
7108.000000;0.800790
7107.000000;0.806530
7106.000000;0.812216
7105.000000;0.817471
7104.000000;0.821864
7103.000000;0.825717
7102.000000;0.830207
7101.000000;0.836110
7100.000000;0.842663
7099.000000;0.848254
7098.000000;0.852215
7097.000000;0.855399
7096.000000;0.858957
7095.000000;0.863123
7094.000000;0.867335
7093.000000;0.871061
7092.000000;0.874241
7091.000000;0.877201
7090.000000;0.880339
7089.000000;0.883858
7088.000000;0.887715
7087.000000;0.891796
7086.000000;0.896062
7085.000000;0.900407
7084.000000;0.904546
7083.000000;0.908306
7082.000000;0.911926
7081.000000;0.915683
7080.000000;0.919443
7079.000000;0.923015
7078.000000;0.926675
7077.000000;0.930803
7076.000000;0.935162
7075.000000;0.939067
7074.000000;0.942244
7073.000000;0.944999
7072.000000;0.947644
7071.000000;0.950273
7070.000000;0.953022
7069.000000;0.955991
7068.000000;0.958907
7067.000000;0.961325
7066.000000;0.963232
7065.000000;0.965099
7064.000000;0.967255
7063.000000;0.969642
7062.000000;0.972258
7061.000000;0.975302
7060.000000;0.978715
7059.000000;0.982054
7058.000000;0.984933
7057.000000;0.987302
7056.000000;0.989341
7055.000000;0.991385
7054.000000;0.993819
7053.000000;0.996656
7052.000000;0.999319
7051.000000;1.001264
7050.000000;1.002721
7049.000000;1.004397
7048.000000;1.006541
7047.000000;1.008733
7046.000000;1.010510
7045.000000;1.011736
7044.000000;1.012458
7043.000000;1.012926
7042.000000;1.013733
7041.000000;1.015368
7040.000000;1.017559
7039.000000;1.019505
7038.000000;1.020801
7037.000000;1.021728
7036.000000;1.022694
7035.000000;1.023850
7034.000000;1.025248
7033.000000;1.026874
7032.000000;1.028488
7031.000000;1.029860
7030.000000;1.031183
7029.000000;1.032852
7028.000000;1.034832
7027.000000;1.036680
7026.000000;1.038165
7025.000000;1.039422
7024.000000;1.040503
7023.000000;1.041299
7022.000000;1.041916
7021.000000;1.042640
7020.000000;1.043537
7019.000000;1.044457
7018.000000;1.045410
7017.000000;1.046489
7016.000000;1.047473
7015.000000;1.047966
7014.000000;1.047986
7013.000000;1.047972
7012.000000;1.048145
7011.000000;1.048343
7010.000000;1.048563
7009.000000;1.049184
7008.000000;1.050474
7007.000000;1.052196
7006.000000;1.053849
7005.000000;1.055050
7004.000000;1.055652
7003.000000;1.055778
7002.000000;1.055789
7001.000000;1.056022
7000.000000;1.056509
6999.000000;1.057090
6998.000000;1.057705
6997.000000;1.058335
6996.000000;1.058818
6995.000000;1.059088
6994.000000;1.059428
6993.000000;1.060100
6992.000000;1.060823
6991.000000;1.061008
6990.000000;1.060521
6989.000000;1.059910
6988.000000;1.059794
6987.000000;1.060238
6986.000000;1.060749
6985.000000;1.060757
6984.000000;1.060172
6983.000000;1.059509
6982.000000;1.059339
6981.000000;1.059615
6980.000000;1.059787
6979.000000;1.059640
6978.000000;1.059561
6977.000000;1.059821
6976.000000;1.060137
6975.000000;1.060279
6974.000000;1.060542
6973.000000;1.061103
6972.000000;1.061385
6971.000000;1.060670
6970.000000;1.059088
6969.000000;1.057423
6968.000000;1.056212
6967.000000;1.055560
6966.000000;1.055545
6965.000000;1.056142
6964.000000;1.056868
6963.000000;1.057128
6962.000000;1.056930
6961.000000;1.056784
6960.000000;1.056922
6959.000000;1.057053
6958.000000;1.056835
6957.000000;1.056170
6956.000000;1.055086
6955.000000;1.053799
6954.000000;1.052811
6953.000000;1.052501
6952.000000;1.052603
6951.000000;1.052478
6950.000000;1.051858
6949.000000;1.051010
6948.000000;1.050223
6947.000000;1.049497
6946.000000;1.048748
6945.000000;1.048035
6944.000000;1.047528
6943.000000;1.047350
6942.000000;1.047384
6941.000000;1.047184
6940.000000;1.046314
6939.000000;1.044946
6938.000000;1.043839
6937.000000;1.043466
6936.000000;1.043414
6935.000000;1.042920
6934.000000;1.041784
6933.000000;1.040439
6932.000000;1.039337
6931.000000;1.038630
6930.000000;1.038261
6929.000000;1.038062
6928.000000;1.037869
6927.000000;1.037692
6926.000000;1.037614
6925.000000;1.037516
6924.000000;1.037213
6923.000000;1.036863
6922.000000;1.036798
6921.000000;1.036811
6920.000000;1.036163
6919.000000;1.034554
6918.000000;1.032586
6917.000000;1.030932
6916.000000;1.029554
6915.000000;1.028156
6914.000000;1.026905
6913.000000;1.026183
6912.000000;1.025950
6911.000000;1.025812
6910.000000;1.025469
6909.000000;1.024750
6908.000000;1.023574
6907.000000;1.022229
6906.000000;1.021277
6905.000000;1.020826
6904.000000;1.020293
6903.000000;1.019260
6902.000000;1.018150
6901.000000;1.017547
6900.000000;1.017277
6899.000000;1.016704
6898.000000;1.015657
6897.000000;1.014512
6896.000000;1.013589
6895.000000;1.012951
6894.000000;1.012600
6893.000000;1.012381
6892.000000;1.011869
6891.000000;1.010785
6890.000000;1.009380
6889.000000;1.008049
6888.000000;1.006810
6887.000000;1.005492
6886.000000;1.004177
6885.000000;1.003036
6884.000000;1.002006
6883.000000;1.000991
6882.000000;1.000169
6881.000000;0.999677
6880.000000;0.999210
6879.000000;0.998383
6878.000000;0.997270
6877.000000;0.996218
6876.000000;0.995317
6875.000000;0.994448
6874.000000;0.993659
6873.000000;0.993095
6872.000000;0.992686
6871.000000;0.992204
6870.000000;0.991462
6869.000000;0.990269
6868.000000;0.988511
6867.000000;0.986554
6866.000000;0.985139
6865.000000;0.984536
6864.000000;0.984139
6863.000000;0.983291
6862.000000;0.982133
6861.000000;0.981187
6860.000000;0.980482
6859.000000;0.979644
6858.000000;0.978545
6857.000000;0.977309
6856.000000;0.975929
6855.000000;0.974444
6854.000000;0.973246
6853.000000;0.972604
6852.000000;0.972056
6851.000000;0.970866
6850.000000;0.969005
6849.000000;0.967113
6848.000000;0.965541
6847.000000;0.963990
6846.000000;0.962100
6845.000000;0.959948
6844.000000;0.957840
6843.000000;0.955961
6842.000000;0.954330
6841.000000;0.952856
6840.000000;0.951373
6839.000000;0.949808
6838.000000;0.948281
6837.000000;0.946917
6836.000000;0.945651
6835.000000;0.944320
6834.000000;0.942803
6833.000000;0.940974
6832.000000;0.938731
6831.000000;0.936219
6830.000000;0.933784
6829.000000;0.931576
6828.000000;0.929428
6827.000000;0.927267
6826.000000;0.925263
6825.000000;0.923408
6824.000000;0.921344
6823.000000;0.918872
6822.000000;0.916316
6821.000000;0.914080
6820.000000;0.912116
6819.000000;0.910158
6818.000000;0.908149
6817.000000;0.906115
6816.000000;0.903874
6815.000000;0.901270
6814.000000;0.898471
6813.000000;0.895748
6812.000000;0.893137
6811.000000;0.890571
6810.000000;0.888104
6809.000000;0.885772
6808.000000;0.883459
6807.000000;0.881150
6806.000000;0.879057
6805.000000;0.877204
6804.000000;0.875157
6803.000000;0.872505
6802.000000;0.869391
6801.000000;0.866284
6800.000000;0.863419
6799.000000;0.860732
6798.000000;0.858111
6797.000000;0.855421
6796.000000;0.852484
6795.000000;0.849319
6794.000000;0.846207
6793.000000;0.843321
6792.000000;0.840493
6791.000000;0.837567
6790.000000;0.834697
6789.000000;0.832066
6788.000000;0.829565
6787.000000;0.827000
6786.000000;0.824360
6785.000000;0.821625
6784.000000;0.818612
6783.000000;0.815321
6782.000000;0.812167
6781.000000;0.809536
6780.000000;0.807290
6779.000000;0.804997
6778.000000;0.802437
6777.000000;0.799618
6776.000000;0.796542
6775.000000;0.793302
6774.000000;0.790193
6773.000000;0.787391
6772.000000;0.784675
6771.000000;0.781733
6770.000000;0.778614
6769.000000;0.775585
6768.000000;0.772707
6767.000000;0.769838
6766.000000;0.766912
6765.000000;0.763934
6764.000000;0.760829
6763.000000;0.757593
6762.000000;0.754466
6761.000000;0.751676
6760.000000;0.749108
6759.000000;0.746456
6758.000000;0.743607
6757.000000;0.740675
6756.000000;0.737749
6755.000000;0.734858
6754.000000;0.732054
6753.000000;0.729314
6752.000000;0.726458
6751.000000;0.723373
6750.000000;0.720211
6749.000000;0.717164
6748.000000;0.714181
6747.000000;0.711126
6746.000000;0.708075
6745.000000;0.705200
6744.000000;0.702470
6743.000000;0.699707
6742.000000;0.696874
6741.000000;0.694062
6740.000000;0.691257
6739.000000;0.688356
6738.000000;0.685356
6737.000000;0.682333
6736.000000;0.679268
6735.000000;0.676084
6734.000000;0.672850
6733.000000;0.669763
6732.000000;0.666916
6731.000000;0.664217
6730.000000;0.661524
6729.000000;0.658786
6728.000000;0.656042
6727.000000;0.653358
6726.000000;0.650718
6725.000000;0.647990
6724.000000;0.645068
6723.000000;0.642044
6722.000000;0.639121
6721.000000;0.636312
6720.000000;0.633462
6719.000000;0.630514
6718.000000;0.627612
6717.000000;0.624859
6716.000000;0.622107
6715.000000;0.619229
6714.000000;0.616340
6713.000000;0.613567
6712.000000;0.610846
6711.000000;0.608161
6710.000000;0.605454
6709.000000;0.602723
6708.000000;0.599977
6707.000000;0.597093
6706.000000;0.594219
6705.000000;0.591451
6704.000000;0.588753
6703.000000;0.586051
6702.000000;0.583370
6701.000000;0.580706
6700.000000;0.577943
6699.000000;0.575040
6698.000000;0.572149
6697.000000;0.569406
6696.000000;0.566762
6695.000000;0.564124
6694.000000;0.561505
6693.000000;0.558895
6692.000000;0.556169
6691.000000;0.553305
6690.000000;0.550530
6689.000000;0.548055
6688.000000;0.545764
6687.000000;0.543351
6686.000000;0.540682
6685.000000;0.537853
6684.000000;0.535001
6683.000000;0.532208
6682.000000;0.529512
6681.000000;0.526856
6680.000000;0.524104
6679.000000;0.521242
6678.000000;0.518458
6677.000000;0.515902
6676.000000;0.513472
6675.000000;0.510990
6674.000000;0.508460
6673.000000;0.505997
6672.000000;0.503586
6671.000000;0.501093
6670.000000;0.498451
6669.000000;0.495701
6668.000000;0.492898
6667.000000;0.490112
6666.000000;0.487456
6665.000000;0.484968
6664.000000;0.482527
6663.000000;0.479992
6662.000000;0.477377
6661.000000;0.474790
6660.000000;0.472270
6659.000000;0.469811
6658.000000;0.467442
6657.000000;0.465168
6656.000000;0.462884
6655.000000;0.460490
6654.000000;0.458054
6653.000000;0.455717
6652.000000;0.453481
6651.000000;0.451210
6650.000000;0.448818
6649.000000;0.446351
6648.000000;0.443895
6647.000000;0.441498
6646.000000;0.439146
6645.000000;0.436775
6644.000000;0.434302
6643.000000;0.431720
6642.000000;0.429116
6641.000000;0.426566
6640.000000;0.424081
6639.000000;0.421656
6638.000000;0.419312
6637.000000;0.417016
6636.000000;0.414668
6635.000000;0.412233
6634.000000;0.409799
6633.000000;0.407452
6632.000000;0.405166
6631.000000;0.402891
6630.000000;0.400645
6629.000000;0.398443
6628.000000;0.396225
6627.000000;0.393935
6626.000000;0.391611
6625.000000;0.389311
6624.000000;0.387026
6623.000000;0.384742
6622.000000;0.382503
6621.000000;0.380327
6620.000000;0.378147
6619.000000;0.375913
6618.000000;0.373680
6617.000000;0.371516
6616.000000;0.369379
6615.000000;0.367189
6614.000000;0.364942
6613.000000;0.362682
6612.000000;0.360413
6611.000000;0.358135
6610.000000;0.355896
6609.000000;0.353740
6608.000000;0.351630
6607.000000;0.349510
6606.000000;0.347379
6605.000000;0.345258
6604.000000;0.343117
6603.000000;0.340916
6602.000000;0.338672
6601.000000;0.336441
6600.000000;0.334259
6599.000000;0.332150
6598.000000;0.330127
6597.000000;0.328148
6596.000000;0.326138
6595.000000;0.324089
6594.000000;0.322075
6593.000000;0.320120
6592.000000;0.318136
6591.000000;0.316050
6590.000000;0.313909
6589.000000;0.311808
6588.000000;0.309768
6587.000000;0.307754
6586.000000;0.305752
6585.000000;0.303756
6584.000000;0.301747
6583.000000;0.299723
6582.000000;0.297721
6581.000000;0.295753
6580.000000;0.293783
6579.000000;0.291804
6578.000000;0.289856
6577.000000;0.287940
6576.000000;0.285990
6575.000000;0.283965
6574.000000;0.281929
6573.000000;0.279959
6572.000000;0.278065
6571.000000;0.276217
6570.000000;0.274391
6569.000000;0.272550
6568.000000;0.270648
6567.000000;0.268694
6566.000000;0.266759
6565.000000;0.264863
6564.000000;0.262944
6563.000000;0.260959
6562.000000;0.258953
6561.000000;0.256993
6560.000000;0.255116
6559.000000;0.253352
6558.000000;0.251708
6557.000000;0.250082
6556.000000;0.248307
6555.000000;0.246350
6554.000000;0.244362
6553.000000;0.242496
6552.000000;0.240740
6551.000000;0.239011
6550.000000;0.237286
6549.000000;0.235561
6548.000000;0.233785
6547.000000;0.231928
6546.000000;0.230057
6545.000000;0.228260
6544.000000;0.226542
6543.000000;0.224854
6542.000000;0.223178
6541.000000;0.221513
6540.000000;0.219826
6539.000000;0.218105
6538.000000;0.216389
6537.000000;0.214690
6536.000000;0.212952
6535.000000;0.211144
6534.000000;0.209335
6533.000000;0.207610
6532.000000;0.205962
6531.000000;0.204330
6530.000000;0.202691
6529.000000;0.201047
6528.000000;0.199375
6527.000000;0.197656
6526.000000;0.195917
6525.000000;0.194191
6524.000000;0.192473
6523.000000;0.190776
6522.000000;0.189153
6521.000000;0.187618
6520.000000;0.186101
6519.000000;0.184532
6518.000000;0.182937
6517.000000;0.181374
6516.000000;0.179846
6515.000000;0.178310
6514.000000;0.176748
6513.000000;0.175158
6512.000000;0.173536
6511.000000;0.171904
6510.000000;0.170313
6509.000000;0.168776
6508.000000;0.167236
6507.000000;0.165659
6506.000000;0.164084
6505.000000;0.162549
6504.000000;0.161020
6503.000000;0.159466
6502.000000;0.157924
6501.000000;0.156435
6500.000000;0.154958
6499.000000;0.153428
6498.000000;0.151855
6497.000000;0.150291
6496.000000;0.148755
6495.000000;0.147243
6494.000000;0.145782
6493.000000;0.144384
6492.000000;0.143002
6491.000000;0.141566
6490.000000;0.140070
6489.000000;0.138555
6488.000000;0.137048
6487.000000;0.135555
6486.000000;0.134095
6485.000000;0.132686
6484.000000;0.131313
6483.000000;0.129947
6482.000000;0.128577
6481.000000;0.127202
6480.000000;0.125809
6479.000000;0.124390
6478.000000;0.122958
6477.000000;0.121529
6476.000000;0.120103
6475.000000;0.118694
6474.000000;0.117315
6473.000000;0.115943
6472.000000;0.114530
6471.000000;0.113090
6470.000000;0.111703
6469.000000;0.110411
6468.000000;0.109153
6467.000000;0.107846
6466.000000;0.106480
6465.000000;0.105102
6464.000000;0.103742
6463.000000;0.102398
6462.000000;0.101058
6461.000000;0.099696
6460.000000;0.098295
6459.000000;0.096880
6458.000000;0.095511
6457.000000;0.094208
6456.000000;0.092937
6455.000000;0.091685
6454.000000;0.090484
6453.000000;0.089348
6452.000000;0.088218
6451.000000;0.087023
6450.000000;0.085746
6449.000000;0.084413
6448.000000;0.083057
6447.000000;0.081723
6446.000000;0.080446
6445.000000;0.079206
6444.000000;0.077944
6443.000000;0.076655
6442.000000;0.075400
6441.000000;0.074212
6440.000000;0.073051
6439.000000;0.071873
6438.000000;0.070678
6437.000000;0.069468
6436.000000;0.068222
6435.000000;0.066955
6434.000000;0.065734
6433.000000;0.064584
6432.000000;0.063440
6431.000000;0.062244
6430.000000;0.061023
6429.000000;0.059829
6428.000000;0.058652
6427.000000;0.057461
6426.000000;0.056270
6425.000000;0.055111
6424.000000;0.053973
6423.000000;0.052824
6422.000000;0.051662
6421.000000;0.050510
6420.000000;0.049376
6419.000000;0.048253
6418.000000;0.047127
6417.000000;0.045974
6416.000000;0.044774
6415.000000;0.043563
6414.000000;0.042417
6413.000000;0.041351
6412.000000;0.040294
6411.000000;0.039192
6410.000000;0.038079
6409.000000;0.037008
6408.000000;0.035967
6407.000000;0.034917
6406.000000;0.033862
6405.000000;0.032819
6404.000000;0.031772
6403.000000;0.030694
6402.000000;0.029590
6401.000000;0.028482
6400.000000;0.027378
6399.000000;0.026292
6398.000000;0.025251
6397.000000;0.024253
6396.000000;0.023253
6395.000000;0.022224
6394.000000;0.021188
6393.000000;0.020169
6392.000000;0.019158
6391.000000;0.018150
6390.000000;0.017168
6389.000000;0.016205
6388.000000;0.015199
6387.000000;0.014117
6386.000000;0.013005
6385.000000;0.011932
6384.000000;0.010907
6383.000000;0.009904
6382.000000;0.008924
6381.000000;0.007969
6380.000000;0.007008
6379.000000;0.006015
6378.000000;0.005012
6377.000000;0.004032
6376.000000;0.003065
6375.000000;0.002087
6374.000000;0.001114
6373.000000;0.000174
6372.000000;-0.000741
6371.000000;-0.001662
6370.000000;-0.002599
6369.000000;-0.003547
6368.000000;-0.004510
6367.000000;-0.005485
6366.000000;-0.006454
6365.000000;-0.007415
6364.000000;-0.008393
6363.000000;-0.009392
6362.000000;-0.010372
6361.000000;-0.011298
6360.000000;-0.012191
6359.000000;-0.013092
6358.000000;-0.014008
6357.000000;-0.014915
6356.000000;-0.015799
6355.000000;-0.016654
6354.000000;-0.017479
6353.000000;-0.018297
6352.000000;-0.019153
6351.000000;-0.020061
6350.000000;-0.020990
6349.000000;-0.021919
6348.000000;-0.022862
6347.000000;-0.023819
6346.000000;-0.024738
6345.000000;-0.025565
6344.000000;-0.026313
6343.000000;-0.027042
6342.000000;-0.027802
6341.000000;-0.028611
6340.000000;-0.029461
6339.000000;-0.030317
6338.000000;-0.031144
6337.000000;-0.031948
6336.000000;-0.032773
6335.000000;-0.033639
6334.000000;-0.034511
6333.000000;-0.035357
6332.000000;-0.036180
6331.000000;-0.037002
6330.000000;-0.037834
6329.000000;-0.038685
6328.000000;-0.039567
6327.000000;-0.040455
6326.000000;-0.041307
6325.000000;-0.042125
6324.000000;-0.042961
6323.000000;-0.043836
6322.000000;-0.044689
6321.000000;-0.045459
6320.000000;-0.046156
6319.000000;-0.046840
6318.000000;-0.047548
6317.000000;-0.048291
6316.000000;-0.049067
6315.000000;-0.049864
6314.000000;-0.050654
6313.000000;-0.051443
6312.000000;-0.052259
6311.000000;-0.053099
6310.000000;-0.053907
6309.000000;-0.054651
6308.000000;-0.055361
6307.000000;-0.056077
6306.000000;-0.056794
6305.000000;-0.057508
6304.000000;-0.058256
6303.000000;-0.059060
6302.000000;-0.059880
6301.000000;-0.060666
6300.000000;-0.061425
6299.000000;-0.062192
6298.000000;-0.062959
6297.000000;-0.063686
6296.000000;-0.064365
6295.000000;-0.065025
6294.000000;-0.065689
6293.000000;-0.066355
6292.000000;-0.067029
6291.000000;-0.067723
6290.000000;-0.068431
6289.000000;-0.069138
6288.000000;-0.069831
6287.000000;-0.070510
6286.000000;-0.071176
6285.000000;-0.071843
6284.000000;-0.072535
6283.000000;-0.073256
6282.000000;-0.073969
6281.000000;-0.074643
6280.000000;-0.075286
6279.000000;-0.075931
6278.000000;-0.076601
6277.000000;-0.077297
6276.000000;-0.078008
6275.000000;-0.078708
6274.000000;-0.079378
6273.000000;-0.080036
6272.000000;-0.080726
6271.000000;-0.081451
6270.000000;-0.082160
6269.000000;-0.082809
6268.000000;-0.083420
6267.000000;-0.084041
6266.000000;-0.084693
6265.000000;-0.085358
6264.000000;-0.086012
6263.000000;-0.086651
6262.000000;-0.087285
6261.000000;-0.087935
6260.000000;-0.088614
6259.000000;-0.089302
6258.000000;-0.089971
6257.000000;-0.090618
6256.000000;-0.091263
6255.000000;-0.091907
6254.000000;-0.092527
6253.000000;-0.093125
6252.000000;-0.093727
6251.000000;-0.094343
6250.000000;-0.094952
6249.000000;-0.095546
6248.000000;-0.096151
6247.000000;-0.096776
6246.000000;-0.097393
6245.000000;-0.097979
6244.000000;-0.098555
6243.000000;-0.099151
6242.000000;-0.099772
6241.000000;-0.100400
6240.000000;-0.101032
6239.000000;-0.101663
6238.000000;-0.102284
6237.000000;-0.102890
6236.000000;-0.103480
6235.000000;-0.104042
6234.000000;-0.104566
6233.000000;-0.105074
6232.000000;-0.105614
6231.000000;-0.106204
6230.000000;-0.106821
6229.000000;-0.107445
6228.000000;-0.108076
6227.000000;-0.108701
6226.000000;-0.109291
6225.000000;-0.109845
6224.000000;-0.110403
6223.000000;-0.110992
6222.000000;-0.111593
6221.000000;-0.112172
6220.000000;-0.112720
6219.000000;-0.113232
6218.000000;-0.113709
6217.000000;-0.114183
6216.000000;-0.114697
6215.000000;-0.115254
6214.000000;-0.115802
6213.000000;-0.116313
6212.000000;-0.116826
6211.000000;-0.117385
6210.000000;-0.117984
6209.000000;-0.118587
6208.000000;-0.119181
6207.000000;-0.119764
6206.000000;-0.120319
6205.000000;-0.120838
6204.000000;-0.121338
6203.000000;-0.121851
6202.000000;-0.122396
6201.000000;-0.122973
6200.000000;-0.123571
6199.000000;-0.124155
6198.000000;-0.124688
6197.000000;-0.125174
6196.000000;-0.125661
6195.000000;-0.126170
6194.000000;-0.126665
6193.000000;-0.127117
6192.000000;-0.127548
6191.000000;-0.128009
6190.000000;-0.128515
6189.000000;-0.129045
6188.000000;-0.129578
6187.000000;-0.130101
6186.000000;-0.130608
6185.000000;-0.131110
6184.000000;-0.131626
6183.000000;-0.132151
6182.000000;-0.132659
6181.000000;-0.133140
6180.000000;-0.133612
6179.000000;-0.134093
6178.000000;-0.134579
6177.000000;-0.135068
6176.000000;-0.135572
6175.000000;-0.136083
6174.000000;-0.136566
6173.000000;-0.137010
6172.000000;-0.137445
6171.000000;-0.137900
6170.000000;-0.138362
6169.000000;-0.138808
6168.000000;-0.139251
6167.000000;-0.139721
6166.000000;-0.140234
6165.000000;-0.140785
6164.000000;-0.141351
6163.000000;-0.141893
6162.000000;-0.142373
6161.000000;-0.142800
6160.000000;-0.143217
6159.000000;-0.143649
6158.000000;-0.144086
6157.000000;-0.144517
6156.000000;-0.144964
6155.000000;-0.145442
6154.000000;-0.145935
6153.000000;-0.146423
6152.000000;-0.146902
6151.000000;-0.147367
6150.000000;-0.147811
6149.000000;-0.148241
6148.000000;-0.148685
6147.000000;-0.149155
6146.000000;-0.149625
6145.000000;-0.150073
6144.000000;-0.150503
6143.000000;-0.150929
6142.000000;-0.151356
6141.000000;-0.151790
6140.000000;-0.152242
6139.000000;-0.152710
6138.000000;-0.153167
6137.000000;-0.153602
6136.000000;-0.154031
6135.000000;-0.154466
6134.000000;-0.154895
6133.000000;-0.155311
6132.000000;-0.155726
6131.000000;-0.156146
6130.000000;-0.156557
6129.000000;-0.156952
6128.000000;-0.157347
6127.000000;-0.157750
6126.000000;-0.158148
6125.000000;-0.158535
6124.000000;-0.158926
6123.000000;-0.159331
6122.000000;-0.159739
6121.000000;-0.160148
6120.000000;-0.160577
6119.000000;-0.161037
6118.000000;-0.161507
6117.000000;-0.161959
6116.000000;-0.162380
6115.000000;-0.162768
6114.000000;-0.163127
6113.000000;-0.163481
6112.000000;-0.163864
6111.000000;-0.164281
6110.000000;-0.164700
6109.000000;-0.165095
6108.000000;-0.165471
6107.000000;-0.165840
6106.000000;-0.166205
6105.000000;-0.166570
6104.000000;-0.166951
6103.000000;-0.167341
6102.000000;-0.167718
6101.000000;-0.168072
6100.000000;-0.168426
6099.000000;-0.168804
6098.000000;-0.169207
6097.000000;-0.169634
6096.000000;-0.170082
6095.000000;-0.170525
6094.000000;-0.170924
6093.000000;-0.171267
6092.000000;-0.171586
6091.000000;-0.171915
6090.000000;-0.172260
6089.000000;-0.172611
6088.000000;-0.172960
6087.000000;-0.173299
6086.000000;-0.173630
6085.000000;-0.173980
6084.000000;-0.174369
6083.000000;-0.174777
6082.000000;-0.175157
6081.000000;-0.175506
6080.000000;-0.175863
6079.000000;-0.176246
6078.000000;-0.176621
6077.000000;-0.176960
6076.000000;-0.177273
6075.000000;-0.177584
6074.000000;-0.177897
6073.000000;-0.178213
6072.000000;-0.178554
6071.000000;-0.178938
6070.000000;-0.179351
6069.000000;-0.179767
6068.000000;-0.180166
6067.000000;-0.180534
6066.000000;-0.180865
6065.000000;-0.181171
6064.000000;-0.181473
6063.000000;-0.181774
6062.000000;-0.182061
6061.000000;-0.182344
6060.000000;-0.182647
6059.000000;-0.182970
6058.000000;-0.183284
6057.000000;-0.183581
6056.000000;-0.183882
6055.000000;-0.184198
6054.000000;-0.184513
6053.000000;-0.184829
6052.000000;-0.185165
6051.000000;-0.185521
6050.000000;-0.185862
6049.000000;-0.186161
6048.000000;-0.186433
6047.000000;-0.186702
6046.000000;-0.186974
6045.000000;-0.187251
6044.000000;-0.187547
6043.000000;-0.187864
6042.000000;-0.188196
6041.000000;-0.188545
6040.000000;-0.188918
6039.000000;-0.189291
6038.000000;-0.189621
6037.000000;-0.189899
6036.000000;-0.190153
6035.000000;-0.190411
6034.000000;-0.190668
6033.000000;-0.190929
6032.000000;-0.191209
6031.000000;-0.191505
6030.000000;-0.191787
6029.000000;-0.192050
6028.000000;-0.192316
6027.000000;-0.192599
6026.000000;-0.192881
6025.000000;-0.193155
6024.000000;-0.193436
6023.000000;-0.193720
6022.000000;-0.193971
6021.000000;-0.194178
6020.000000;-0.194384
6019.000000;-0.194633
6018.000000;-0.194917
6017.000000;-0.195206
6016.000000;-0.195481
6015.000000;-0.195734
6014.000000;-0.195957
6013.000000;-0.196159
6012.000000;-0.196374
6011.000000;-0.196622
6010.000000;-0.196892
6009.000000;-0.197173
6008.000000;-0.197463
6007.000000;-0.197748
6006.000000;-0.198003
6005.000000;-0.198231
6004.000000;-0.198467
6003.000000;-0.198734
6002.000000;-0.199008
6001.000000;-0.199266
6000.000000;-0.199513
5999.000000;-0.199754
5998.000000;-0.199969
5997.000000;-0.200147
5996.000000;-0.200315
5995.000000;-0.200500
5994.000000;-0.200699
5993.000000;-0.200904
5992.000000;-0.201126
5991.000000;-0.201368
5990.000000;-0.201606
5989.000000;-0.201820
5988.000000;-0.202021
5987.000000;-0.202227
5986.000000;-0.202427
5985.000000;-0.202605
5984.000000;-0.202766
5983.000000;-0.202933
5982.000000;-0.203115
5981.000000;-0.203320
5980.000000;-0.203555
5979.000000;-0.203809
5978.000000;-0.204041
5977.000000;-0.204230
5976.000000;-0.204396
5975.000000;-0.204575
5974.000000;-0.204774
5973.000000;-0.204971
5972.000000;-0.205154
5971.000000;-0.205321
5970.000000;-0.205475
5969.000000;-0.205619
5968.000000;-0.205769
5967.000000;-0.205946
5966.000000;-0.206151
5965.000000;-0.206367
5964.000000;-0.206567
5963.000000;-0.206734
5962.000000;-0.206872
5961.000000;-0.207008
5960.000000;-0.207162
5959.000000;-0.207326
5958.000000;-0.207484
5957.000000;-0.207644
5956.000000;-0.207830
5955.000000;-0.208029
5954.000000;-0.208196
5953.000000;-0.208308
5952.000000;-0.208388
5951.000000;-0.208475
5950.000000;-0.208587
5949.000000;-0.208726
5948.000000;-0.208881
5947.000000;-0.209028
5946.000000;-0.209147
5945.000000;-0.209255
5944.000000;-0.209387
5943.000000;-0.209543
5942.000000;-0.209683
5941.000000;-0.209771
5940.000000;-0.209819
5939.000000;-0.209864
5938.000000;-0.209939
5937.000000;-0.210062
5936.000000;-0.210220
5935.000000;-0.210369
5934.000000;-0.210469
5933.000000;-0.210539
5932.000000;-0.210639
5931.000000;-0.210786
5930.000000;-0.210936
5929.000000;-0.211047
5928.000000;-0.211124
5927.000000;-0.211197
5926.000000;-0.211272
5925.000000;-0.211350
5924.000000;-0.211442
5923.000000;-0.211556
5922.000000;-0.211684
5921.000000;-0.211815
5920.000000;-0.211943
5919.000000;-0.212062
5918.000000;-0.212157
5917.000000;-0.212229
5916.000000;-0.212293
5915.000000;-0.212361
5914.000000;-0.212428
5913.000000;-0.212496
5912.000000;-0.212577
5911.000000;-0.212669
5910.000000;-0.212758
5909.000000;-0.212840
5908.000000;-0.212925
5907.000000;-0.213009
5906.000000;-0.213078
5905.000000;-0.213139
5904.000000;-0.213221
5903.000000;-0.213327
5902.000000;-0.213428
5901.000000;-0.213506
5900.000000;-0.213578
5899.000000;-0.213662
5898.000000;-0.213741
5897.000000;-0.213790
5896.000000;-0.213809
5895.000000;-0.213813
5894.000000;-0.213819
5893.000000;-0.213842
5892.000000;-0.213894
5891.000000;-0.213957
5890.000000;-0.214004
5889.000000;-0.214028
5888.000000;-0.214058
5887.000000;-0.214108
5886.000000;-0.214159
5885.000000;-0.214191
5884.000000;-0.214214
5883.000000;-0.214243
5882.000000;-0.214275
5881.000000;-0.214301
5880.000000;-0.214326
5879.000000;-0.214355
5878.000000;-0.214383
5877.000000;-0.214397
5876.000000;-0.214397
5875.000000;-0.214390
5874.000000;-0.214383
5873.000000;-0.214385
5872.000000;-0.214389
5871.000000;-0.214375
5870.000000;-0.214332
5869.000000;-0.214276
5868.000000;-0.214237
5867.000000;-0.214220
5866.000000;-0.214207
5865.000000;-0.214189
5864.000000;-0.214178
5863.000000;-0.214178
5862.000000;-0.214174
5861.000000;-0.214155
5860.000000;-0.214117
5859.000000;-0.214056
5858.000000;-0.213974
5857.000000;-0.213899
5856.000000;-0.213859
5855.000000;-0.213844
5854.000000;-0.213820
5853.000000;-0.213772
5852.000000;-0.213714
5851.000000;-0.213657
5850.000000;-0.213595
5849.000000;-0.213527
5848.000000;-0.213463
5847.000000;-0.213398
5846.000000;-0.213319
5845.000000;-0.213228
5844.000000;-0.213137
5843.000000;-0.213040
5842.000000;-0.212917
5841.000000;-0.212782
5840.000000;-0.212670
5839.000000;-0.212592
5838.000000;-0.212518
5837.000000;-0.212419
5836.000000;-0.212292
5835.000000;-0.212141
5834.000000;-0.211976
5833.000000;-0.211823
5832.000000;-0.211704
5831.000000;-0.211595
5830.000000;-0.211454
5829.000000;-0.211280
5828.000000;-0.211119
5827.000000;-0.210988
5826.000000;-0.210851
5825.000000;-0.210678
5824.000000;-0.210475
5823.000000;-0.210267
5822.000000;-0.210069
5821.000000;-0.209900
5820.000000;-0.209785
5819.000000;-0.209711
5818.000000;-0.209622
5817.000000;-0.209477
5816.000000;-0.209289
5815.000000;-0.209087
5814.000000;-0.208886
5813.000000;-0.208691
5812.000000;-0.208510
5811.000000;-0.208344
5810.000000;-0.208174
5809.000000;-0.207993
5808.000000;-0.207812
5807.000000;-0.207636
5806.000000;-0.207440
5805.000000;-0.207206
5804.000000;-0.206951
5803.000000;-0.206712
5802.000000;-0.206506
5801.000000;-0.206326
5800.000000;-0.206140
5799.000000;-0.205917
5798.000000;-0.205646
5797.000000;-0.205358
5796.000000;-0.205091
5795.000000;-0.204850
5794.000000;-0.204611
5793.000000;-0.204367
5792.000000;-0.204132
5791.000000;-0.203908
5790.000000;-0.203669
5789.000000;-0.203404
5788.000000;-0.203126
5787.000000;-0.202836
5786.000000;-0.202515
5785.000000;-0.202160
5784.000000;-0.201803
5783.000000;-0.201471
5782.000000;-0.201162
5781.000000;-0.200864
5780.000000;-0.200579
5779.000000;-0.200313
5778.000000;-0.200054
5777.000000;-0.199777
5776.000000;-0.199470
5775.000000;-0.199132
5774.000000;-0.198777
5773.000000;-0.198430
5772.000000;-0.198100
5771.000000;-0.197767
5770.000000;-0.197398
5769.000000;-0.197002
5768.000000;-0.196622
5767.000000;-0.196290
5766.000000;-0.195990
5765.000000;-0.195686
5764.000000;-0.195360
5763.000000;-0.195010
5762.000000;-0.194634
5761.000000;-0.194235
5760.000000;-0.193823
5759.000000;-0.193411
5758.000000;-0.193011
5757.000000;-0.192628
5756.000000;-0.192247
5755.000000;-0.191837
5754.000000;-0.191380
5753.000000;-0.190905
5752.000000;-0.190453
5751.000000;-0.190032
5750.000000;-0.189606
5749.000000;-0.189151
5748.000000;-0.188671
5747.000000;-0.188182
5746.000000;-0.187698
5745.000000;-0.187231
5744.000000;-0.186781
5743.000000;-0.186327
5742.000000;-0.185849
5741.000000;-0.185357
5740.000000;-0.184879
5739.000000;-0.184426
5738.000000;-0.183984
5737.000000;-0.183539
5736.000000;-0.183081
5735.000000;-0.182594
5734.000000;-0.182071
5733.000000;-0.181526
5732.000000;-0.180988
5731.000000;-0.180463
5730.000000;-0.179943
5729.000000;-0.179426
5728.000000;-0.178906
5727.000000;-0.178361
5726.000000;-0.177776
5725.000000;-0.177176
5724.000000;-0.176596
5723.000000;-0.176034
5722.000000;-0.175463
5721.000000;-0.174882
5720.000000;-0.174315
5719.000000;-0.173764
5718.000000;-0.173197
5717.000000;-0.172596
5716.000000;-0.171973
5715.000000;-0.171348
5714.000000;-0.170737
5713.000000;-0.170153
5712.000000;-0.169602
5711.000000;-0.169054
5710.000000;-0.168469
5709.000000;-0.167844
5708.000000;-0.167208
5707.000000;-0.166584
5706.000000;-0.165961
5705.000000;-0.165336
5704.000000;-0.164684
5703.000000;-0.163994
5702.000000;-0.163283
5701.000000;-0.162558
5700.000000;-0.161878
5699.000000;-0.161255
5698.000000;-0.160662
5697.000000;-0.160057
5696.000000;-0.159427
5695.000000;-0.158773
5694.000000;-0.158099
5693.000000;-0.157415
5692.000000;-0.156735
5691.000000;-0.156068
5690.000000;-0.155425
5689.000000;-0.154822
5688.000000;-0.154244
5687.000000;-0.153637
5686.000000;-0.152960
5685.000000;-0.152237
5684.000000;-0.151526
5683.000000;-0.150846
5682.000000;-0.150173
5681.000000;-0.149498
5680.000000;-0.148836
5679.000000;-0.148188
5678.000000;-0.147525
5677.000000;-0.146834
5676.000000;-0.146140
5675.000000;-0.145473
5674.000000;-0.144836
5673.000000;-0.144211
5672.000000;-0.143575
5671.000000;-0.142916
5670.000000;-0.142230
5669.000000;-0.141526
5668.000000;-0.140813
5667.000000;-0.140098
5666.000000;-0.139390
5665.000000;-0.138705
5664.000000;-0.138047
5663.000000;-0.137401
5662.000000;-0.136764
5661.000000;-0.136155
5660.000000;-0.135588
5659.000000;-0.135040
5658.000000;-0.134480
5657.000000;-0.133900
5656.000000;-0.133309
5655.000000;-0.132709
5654.000000;-0.132101
5653.000000;-0.131496
5652.000000;-0.130893
5651.000000;-0.130263
5650.000000;-0.129599
5649.000000;-0.128933
5648.000000;-0.128300
5647.000000;-0.127689
5646.000000;-0.127067
5645.000000;-0.126439
5644.000000;-0.125843
5643.000000;-0.125304
5642.000000;-0.124818
5641.000000;-0.124365
5640.000000;-0.123920
5639.000000;-0.123448
5638.000000;-0.122931
5637.000000;-0.122384
5636.000000;-0.121828
5635.000000;-0.121266
5634.000000;-0.120701
5633.000000;-0.120160
5632.000000;-0.119659
5631.000000;-0.119179
5630.000000;-0.118695
5629.000000;-0.118216
5628.000000;-0.117756
5627.000000;-0.117299
5626.000000;-0.116831
5625.000000;-0.116374
5624.000000;-0.115960
5623.000000;-0.115588
5622.000000;-0.115240
5621.000000;-0.114906
5620.000000;-0.114571
5619.000000;-0.114196
5618.000000;-0.113771
5617.000000;-0.113338
5616.000000;-0.112936
5615.000000;-0.112552
5614.000000;-0.112165
5613.000000;-0.111804
5612.000000;-0.111508
5611.000000;-0.111261
5610.000000;-0.111008
5609.000000;-0.110717
5608.000000;-0.110389
5607.000000;-0.110032
5606.000000;-0.109663
5605.000000;-0.109310
5604.000000;-0.108991
5603.000000;-0.108699
5602.000000;-0.108435
5601.000000;-0.108237
5600.000000;-0.108122
5599.000000;-0.108047
5598.000000;-0.107948
5597.000000;-0.107797
5596.000000;-0.107600
5595.000000;-0.107374
5594.000000;-0.107165
5593.000000;-0.107020
5592.000000;-0.106934
5591.000000;-0.106839
5590.000000;-0.106700
5589.000000;-0.106549
5588.000000;-0.106419
5587.000000;-0.106279
5586.000000;-0.106093
5585.000000;-0.105894
5584.000000;-0.105739
5583.000000;-0.105630
5582.000000;-0.105525
5581.000000;-0.105410
5580.000000;-0.105287
5579.000000;-0.105152
5578.000000;-0.105018
5577.000000;-0.104925
5576.000000;-0.104890
5575.000000;-0.104873
5574.000000;-0.104841
5573.000000;-0.104825
5572.000000;-0.104847
5571.000000;-0.104860
5570.000000;-0.104822
5569.000000;-0.104780
5568.000000;-0.104799
5567.000000;-0.104861
5566.000000;-0.104902
5565.000000;-0.104920
5564.000000;-0.104958
5563.000000;-0.104997
5562.000000;-0.104969
5561.000000;-0.104860
5560.000000;-0.104719
5559.000000;-0.104562
5558.000000;-0.104340
5557.000000;-0.104052
5556.000000;-0.103794
5555.000000;-0.103667
5554.000000;-0.103661
5553.000000;-0.103713
5552.000000;-0.103807
5551.000000;-0.103974
5550.000000;-0.104218
5549.000000;-0.104484
5548.000000;-0.104706
5547.000000;-0.104866
5546.000000;-0.105007
5545.000000;-0.105169
5544.000000;-0.105331
5543.000000;-0.105394
5542.000000;-0.105270
5541.000000;-0.105000
5540.000000;-0.104725
5539.000000;-0.104532
5538.000000;-0.104416
5537.000000;-0.104395
5536.000000;-0.104562
5535.000000;-0.104968
5534.000000;-0.105484
5533.000000;-0.105893
5532.000000;-0.106083
5531.000000;-0.106105
5530.000000;-0.106067
5529.000000;-0.106010
5528.000000;-0.105858
5527.000000;-0.105536
5526.000000;-0.105081
5525.000000;-0.104648
5524.000000;-0.104377
5523.000000;-0.104248
5522.000000;-0.104170
5521.000000;-0.104182
5520.000000;-0.104402
5519.000000;-0.104772
5518.000000;-0.105006
5517.000000;-0.104919
5516.000000;-0.104692
5515.000000;-0.104606
5514.000000;-0.104583
5513.000000;-0.104273
5512.000000;-0.103607
5511.000000;-0.102940
5510.000000;-0.102599
5509.000000;-0.102516
5508.000000;-0.102505
5507.000000;-0.102719
5506.000000;-0.103430
5505.000000;-0.104404
5504.000000;-0.104910
5503.000000;-0.104408
5502.000000;-0.103143
5501.000000;-0.101825
5500.000000;-0.100695
5499.000000;-0.099296
5498.000000;-0.097302
5497.000000;-0.095208
5496.000000;-0.093830
5495.000000;-0.093289
5494.000000;-0.093055
5493.000000;-0.092976
5492.000000;-0.093653
5491.000000;-0.095486
5490.000000;-0.097903
5489.000000;-0.100010
5488.000000;-0.101573
5487.000000;-0.102856
5486.000000;-0.103683
5485.000000;-0.103340
5484.000000;-0.101705
5483.000000;-0.099608
5482.000000;-0.097674
5481.000000;-0.095615
5480.000000;-0.093112
5479.000000;-0.090827
5478.000000;-0.089672
5477.000000;-0.089539
5476.000000;-0.089667
5475.000000;-0.089970
5474.000000;-0.090995
5473.000000;-0.092631
5472.000000;-0.093824
5471.000000;-0.093594
5470.000000;-0.091970
5469.000000;-0.089867
5468.000000;-0.088167
5467.000000;-0.087072
5466.000000;-0.086252
5465.000000;-0.085454
5464.000000;-0.084928
5463.000000;-0.085102
5462.000000;-0.085913
5461.000000;-0.086860
5460.000000;-0.087650
5459.000000;-0.088369
5458.000000;-0.088987
5457.000000;-0.089013
5456.000000;-0.087749
5455.000000;-0.085032
5454.000000;-0.081617
5453.000000;-0.078454
5452.000000;-0.075590
5451.000000;-0.072142
5450.000000;-0.067871
5449.000000;-0.064198
5448.000000;-0.062638
5447.000000;-0.062754
5446.000000;-0.062820
5445.000000;-0.062197
5444.000000;-0.061849
5443.000000;-0.062537
5442.000000;-0.063561
5441.000000;-0.063746
5440.000000;-0.062844
5439.000000;-0.061348
5438.000000;-0.059567
5437.000000;-0.057489
5436.000000;-0.055103
5435.000000;-0.052645
5434.000000;-0.050749
5433.000000;-0.050205
5432.000000;-0.051236
5431.000000;-0.053031
5430.000000;-0.054511
5429.000000;-0.055629
5428.000000;-0.057337
5427.000000;-0.060160
5426.000000;-0.063240
5425.000000;-0.064892
5424.000000;-0.063842
5423.000000;-0.060184
5422.000000;-0.055121
5421.000000;-0.049509
5420.000000;-0.043102
5419.000000;-0.035591
5418.000000;-0.027982
5417.000000;-0.022036
5416.000000;-0.018302
5415.000000;-0.015918
5414.000000;-0.014508
5413.000000;-0.014964
5412.000000;-0.017727
5411.000000;-0.021461
5410.000000;-0.024398
5409.000000;-0.026083
5408.000000;-0.027014
5407.000000;-0.027213
5406.000000;-0.026043
5405.000000;-0.023305
5404.000000;-0.019302
5403.000000;-0.014175
5402.000000;-0.008247
5401.000000;-0.002292
5400.000000;0.003123
5399.000000;0.008142
5398.000000;0.012923
5397.000000;0.016958
5396.000000;0.019956
5395.000000;0.022566
5394.000000;0.025411
5393.000000;0.028129
5392.000000;0.030218
5391.000000;0.032268
5390.000000;0.035190
5389.000000;0.038859
5388.000000;0.042610
5387.000000;0.046758
5386.000000;0.052110
5385.000000;0.058192
5384.000000;0.063806
5383.000000;0.069079
5382.000000;0.075196
5381.000000;0.082199
5380.000000;0.088656
5379.000000;0.093768
5378.000000;0.098236
5377.000000;0.102501
5376.000000;0.105852
5375.000000;0.107999
5374.000000;0.110184
5373.000000;0.113854
5372.000000;0.119146
5371.000000;0.125417
5370.000000;0.132442
5369.000000;0.140305
5368.000000;0.148593
5367.000000;0.156737
5366.000000;0.164773
5365.000000;0.173156
5364.000000;0.182263
5363.000000;0.192258
5362.000000;0.203068
5361.000000;0.214358
5360.000000;0.225965
5359.000000;0.238362
5358.000000;0.251856
5357.000000;0.265535
5356.000000;0.278203
5355.000000;0.290359
5354.000000;0.303648
5353.000000;0.318055
5352.000000;0.331571
5351.000000;0.343384
5350.000000;0.355557
5349.000000;0.370303
5348.000000;0.386985
5347.000000;0.403364
5346.000000;0.418846
5345.000000;0.434458
5344.000000;0.450296
5343.000000;0.465117
5342.000000;0.478510
5341.000000;0.491661
5340.000000;0.505779
5339.000000;0.520982
5338.000000;0.536789
5337.000000;0.552950
5336.000000;0.569315
5335.000000;0.585977
5334.000000;0.603843
5333.000000;0.623892
5332.000000;0.645585
5331.000000;0.666993
5330.000000;0.686982
5329.000000;0.706446
5328.000000;0.726889
5327.000000;0.748565
5326.000000;0.770781
5325.000000;0.793176
5324.000000;0.816017
5323.000000;0.839875
5322.000000;0.865393
5321.000000;0.892664
5320.000000;0.920777
5319.000000;0.948772
5318.000000;0.976929
5317.000000;1.006261
5316.000000;1.036798
5315.000000;1.067745
5314.000000;1.099052
5313.000000;1.131050
5312.000000;1.162823
5311.000000;1.192923
5310.000000;1.221721
5309.000000;1.251012
5308.000000;1.281373
5307.000000;1.311922
5306.000000;1.342287
5305.000000;1.372565
5304.000000;1.401803
5303.000000;1.429022
5302.000000;1.455197
5301.000000;1.481751
5300.000000;1.508235
5299.000000;1.533814
5298.000000;1.559319
5297.000000;1.585028
5296.000000;1.608580
5295.000000;1.628467
5294.000000;1.646980
5293.000000;1.666087
5292.000000;1.683886
5291.000000;1.698680
5290.000000;1.712642
5289.000000;1.727102
5288.000000;1.738731
5287.000000;1.745541
5286.000000;1.751493
5285.000000;1.759754
5284.000000;1.767087
5283.000000;1.770263
5282.000000;1.772373
5281.000000;1.777011
5280.000000;1.781994
5279.000000;1.784323
5278.000000;1.786362
5277.000000;1.791093
5276.000000;1.796257
5275.000000;1.798683
5274.000000;1.799950
5273.000000;1.802582
5272.000000;1.805871
5271.000000;1.809783
5270.000000;1.817073
5269.000000;1.827272
5268.000000;1.834219
5267.000000;1.834470
5266.000000;1.832319
5265.000000;1.831720
5264.000000;1.829922
5263.000000;1.824287
5262.000000;1.818665
5261.000000;1.817100
5260.000000;1.817409
5259.000000;1.816167
5258.000000;1.814818
5257.000000;1.815172
5256.000000;1.814820
5255.000000;1.812055
5254.000000;1.810343
5253.000000;1.812629
5252.000000;1.816146
5251.000000;1.818019
5250.000000;1.820548
5249.000000;1.825997
5248.000000;1.830958
5247.000000;1.831079
5246.000000;1.827075
5245.000000;1.821252
5244.000000;1.813486
5243.000000;1.805233
5242.000000;1.801379
5241.000000;1.803388
5240.000000;1.806007
5239.000000;1.804865
5238.000000;1.802830
5237.000000;1.803758
5236.000000;1.806065
5235.000000;1.807604
5234.000000;1.810734
5233.000000;1.817025
5232.000000;1.822223
5231.000000;1.821798
5230.000000;1.817979
5229.000000;1.815741
5228.000000;1.815824
5227.000000;1.816233
5226.000000;1.816105
5225.000000;1.814455
5224.000000;1.809088
5223.000000;1.800807
5222.000000;1.794442
5221.000000;1.792691
5220.000000;1.793099
5219.000000;1.793372
5218.000000;1.795174
5217.000000;1.799688
5216.000000;1.804206
5215.000000;1.806574
5214.000000;1.808571
5213.000000;1.811532
5212.000000;1.813610
5211.000000;1.814042
5210.000000;1.814978
5209.000000;1.816390
5208.000000;1.814425
5207.000000;1.807870
5206.000000;1.801186
5205.000000;1.797581
5204.000000;1.794541
5203.000000;1.789647
5202.000000;1.785475
5201.000000;1.784955
5200.000000;1.786846
5199.000000;1.788974
5198.000000;1.791284
5197.000000;1.793180
5196.000000;1.792477
5195.000000;1.789996
5194.000000;1.789896
5193.000000;1.792730
5192.000000;1.793608
5191.000000;1.789786
5190.000000;1.785080
5189.000000;1.783398
5188.000000;1.783793
5187.000000;1.784816
5186.000000;1.788047
5185.000000;1.793551
5184.000000;1.796646
5183.000000;1.794124
5182.000000;1.789149
5181.000000;1.785704
5180.000000;1.783637
5179.000000;1.781948
5178.000000;1.781984
5177.000000;1.783900
5176.000000;1.784355
5175.000000;1.781272
5174.000000;1.777209
5173.000000;1.774973
5172.000000;1.773897
5171.000000;1.773147
5170.000000;1.774236
5169.000000;1.777430
5168.000000;1.779980
5167.000000;1.780446
5166.000000;1.780855
5165.000000;1.782335
5164.000000;1.782837
5163.000000;1.781415
5162.000000;1.780188
5161.000000;1.779815
5160.000000;1.778118
5159.000000;1.775217
5158.000000;1.774707
5157.000000;1.777442
5156.000000;1.779360
5155.000000;1.778341
5154.000000;1.777806
5153.000000;1.780103
5152.000000;1.782235
5151.000000;1.781722
5150.000000;1.781392
5149.000000;1.784000
5148.000000;1.787059
5147.000000;1.787161
5146.000000;1.785462
5145.000000;1.784733
5144.000000;1.784744
5143.000000;1.784321
5142.000000;1.784237
5141.000000;1.785137
5140.000000;1.785914
5139.000000;1.786644
5138.000000;1.789359
5137.000000;1.793437
5136.000000;1.794529
5135.000000;1.790848
5134.000000;1.786240
5133.000000;1.784423
5132.000000;1.784422
5131.000000;1.783879
5130.000000;1.783149
5129.000000;1.783297
5128.000000;1.783874
5127.000000;1.784992
5126.000000;1.787856
5125.000000;1.791162
5124.000000;1.790763
5123.000000;1.786017
5122.000000;1.781716
5121.000000;1.781277
5120.000000;1.782933
5119.000000;1.783916
5118.000000;1.784479
5117.000000;1.785229
5116.000000;1.784679
5115.000000;1.782501
5114.000000;1.781054
5113.000000;1.781611
5112.000000;1.782599
5111.000000;1.782956
5110.000000;1.783683
5109.000000;1.784674
5108.000000;1.784264
5107.000000;1.783421
5106.000000;1.785329
5105.000000;1.789663
5104.000000;1.792162
5103.000000;1.791279
5102.000000;1.790502
5101.000000;1.791745
5100.000000;1.791956
5099.000000;1.788882
5098.000000;1.785075
5097.000000;1.783207
5096.000000;1.782439
5095.000000;1.781963
5094.000000;1.783280
5093.000000;1.786085
5092.000000;1.786494
5091.000000;1.782804
5090.000000;1.778833
5089.000000;1.778340
5088.000000;1.780145
5087.000000;1.781186
5086.000000;1.780815
5085.000000;1.779579
5084.000000;1.777314
5083.000000;1.774937
5082.000000;1.774711
5081.000000;1.776817
5080.000000;1.778640
5079.000000;1.779171
5078.000000;1.780655
5077.000000;1.783905
5076.000000;1.786128
5075.000000;1.785436
5074.000000;1.783521
5073.000000;1.781821
5072.000000;1.779393
5071.000000;1.776370
5070.000000;1.774996
5069.000000;1.775384
5068.000000;1.774626
5067.000000;1.772037
5066.000000;1.770879
5065.000000;1.772803
5064.000000;1.775048
5063.000000;1.775281
5062.000000;1.775077
5061.000000;1.776132
5060.000000;1.776982
5059.000000;1.776064
5058.000000;1.774511
5057.000000;1.773259
5056.000000;1.770895
5055.000000;1.767003
5054.000000;1.763912
5053.000000;1.762810
5052.000000;1.761511
5051.000000;1.758279
5050.000000;1.754793
5049.000000;1.753178
5048.000000;1.753393
5047.000000;1.754909
5046.000000;1.757904
5045.000000;1.761449
5044.000000;1.763282
5043.000000;1.762917
5042.000000;1.762184
5041.000000;1.761632
5040.000000;1.759891
5039.000000;1.757491
5038.000000;1.756866
5037.000000;1.757604
5036.000000;1.756101
5035.000000;1.751318
5034.000000;1.746722
5033.000000;1.744579
5032.000000;1.742635
5031.000000;1.738572
5030.000000;1.733909
5029.000000;1.731082
5028.000000;1.729931
5027.000000;1.729223
5026.000000;1.728811
5025.000000;1.728676
5024.000000;1.728165
5023.000000;1.727452
5022.000000;1.727388
5021.000000;1.727243
5020.000000;1.725305
5019.000000;1.722158
5018.000000;1.720331
5017.000000;1.719974
5016.000000;1.718242
5015.000000;1.713724
5014.000000;1.708291
5013.000000;1.703993
5012.000000;1.701243
5011.000000;1.700177
5010.000000;1.700548
5009.000000;1.700090
5008.000000;1.696421
5007.000000;1.690855
5006.000000;1.686957
5005.000000;1.685160
5004.000000;1.683016
5003.000000;1.680234
5002.000000;1.678888
5001.000000;1.678689
5000.000000;1.676622
4999.000000;1.672002
4998.000000;1.667502
4997.000000;1.664351
4996.000000;1.660930
4995.000000;1.657085
4994.000000;1.655393
4993.000000;1.656441
4992.000000;1.656806
4991.000000;1.653783
4990.000000;1.648889
4989.000000;1.644684
4988.000000;1.641524
4987.000000;1.638949
4986.000000;1.636871
4985.000000;1.634073
4984.000000;1.628550
4983.000000;1.620666
4982.000000;1.613258
4981.000000;1.607592
4980.000000;1.602215
4979.000000;1.596616
4978.000000;1.592611
4977.000000;1.590796
4976.000000;1.588878
4975.000000;1.585069
4974.000000;1.580504
4973.000000;1.576745
4972.000000;1.573567
4971.000000;1.570529
4970.000000;1.568157
4969.000000;1.566142
4968.000000;1.562632
4967.000000;1.556842
4966.000000;1.550352
4965.000000;1.544650
4964.000000;1.539460
4963.000000;1.534348
4962.000000;1.529829
4961.000000;1.525924
4960.000000;1.521625
4959.000000;1.516763
4958.000000;1.512455
4957.000000;1.508912
4956.000000;1.504793
4955.000000;1.499409
4954.000000;1.493645
4953.000000;1.487988
4952.000000;1.481707
4951.000000;1.474850
4950.000000;1.468966
4949.000000;1.464849
4948.000000;1.461304
4947.000000;1.457118
4946.000000;1.452688
4945.000000;1.448734
4944.000000;1.444813
4943.000000;1.440055
4942.000000;1.434332
4941.000000;1.428045
4940.000000;1.421693
4939.000000;1.416118
4938.000000;1.412137
4937.000000;1.409289
4936.000000;1.405975
4935.000000;1.401210
4934.000000;1.395357
4933.000000;1.389056
4932.000000;1.382582
4931.000000;1.376332
4930.000000;1.370756
4929.000000;1.365719
4928.000000;1.360868
4927.000000;1.356414
4926.000000;1.352605
4925.000000;1.348755
4924.000000;1.343986
4923.000000;1.338623
4922.000000;1.333561
4921.000000;1.328675
4920.000000;1.323305
4919.000000;1.317861
4918.000000;1.313339
4917.000000;1.309496
4916.000000;1.305102
4915.000000;1.299875
4914.000000;1.294620
4913.000000;1.289675
4912.000000;1.284767
4911.000000;1.280186
4910.000000;1.276386
4909.000000;1.272520
4908.000000;1.267087
4907.000000;1.260145
4906.000000;1.253351
4905.000000;1.247727
4904.000000;1.242903
4903.000000;1.238470
4902.000000;1.234445
4901.000000;1.230246
4900.000000;1.224893
4899.000000;1.218633
4898.000000;1.212955
4897.000000;1.208638
4896.000000;1.204986
4895.000000;1.201168
4894.000000;1.197062
4893.000000;1.192563
4892.000000;1.187355
4891.000000;1.181715
4890.000000;1.176411
4889.000000;1.171490
4888.000000;1.166216
4887.000000;1.160412
4886.000000;1.154839
4885.000000;1.150020
4884.000000;1.145680
4883.000000;1.141484
4882.000000;1.137359
4881.000000;1.132969
4880.000000;1.127861
4879.000000;1.122347
4878.000000;1.117330
4877.000000;1.113116
4876.000000;1.109189
4875.000000;1.105168
4874.000000;1.101066
4873.000000;1.096627
4872.000000;1.091433
4871.000000;1.085759
4870.000000;1.080363
4869.000000;1.075383
4868.000000;1.070334
4867.000000;1.065224
4866.000000;1.060664
4865.000000;1.056799
4864.000000;1.053053
4863.000000;1.049077
4862.000000;1.045045
4861.000000;1.040908
4860.000000;1.036298
4859.000000;1.031353
4858.000000;1.026766
4857.000000;1.022795
4856.000000;1.018973
4855.000000;1.014882
4854.000000;1.010524
4853.000000;1.005880
4852.000000;1.000928
4851.000000;0.996115
4850.000000;0.991960
4849.000000;0.988138
4848.000000;0.983783
4847.000000;0.978788
4846.000000;0.973935
4845.000000;0.969628
4844.000000;0.965434
4843.000000;0.961045
4842.000000;0.956815
4841.000000;0.953038
4840.000000;0.949454
4839.000000;0.945783
4838.000000;0.942068
4837.000000;0.938223
4836.000000;0.933916
4835.000000;0.929163
4834.000000;0.924478
4833.000000;0.920190
4832.000000;0.916107
4831.000000;0.912015
4830.000000;0.907982
4829.000000;0.904044
4828.000000;0.900085
4827.000000;0.896164
4826.000000;0.892444
4825.000000;0.888754
4824.000000;0.884733
4823.000000;0.880454
4822.000000;0.876333
4821.000000;0.872396
4820.000000;0.868237
4819.000000;0.863781
4818.000000;0.859471
4817.000000;0.855561
4816.000000;0.851810
4815.000000;0.848001
4814.000000;0.844262
4813.000000;0.840698
4812.000000;0.837153
4811.000000;0.833509
4810.000000;0.829794
4809.000000;0.825967
4808.000000;0.821977
4807.000000;0.818052
4806.000000;0.814472
4805.000000;0.811037
4804.000000;0.807270
4803.000000;0.803167
4802.000000;0.799207
4801.000000;0.795602
4800.000000;0.792088
4799.000000;0.788536
4798.000000;0.785196
4797.000000;0.782180
4796.000000;0.779201
4795.000000;0.776022
4794.000000;0.772730
4793.000000;0.769405
4792.000000;0.765941
4791.000000;0.762350
4790.000000;0.758841
4789.000000;0.755446
4788.000000;0.751955
4787.000000;0.748315
4786.000000;0.744726
4785.000000;0.741254
4784.000000;0.737733
4783.000000;0.734163
4782.000000;0.730806
4781.000000;0.727759
4780.000000;0.724787
4779.000000;0.721686
4778.000000;0.718467
4777.000000;0.715118
4776.000000;0.711571
4775.000000;0.708015
4774.000000;0.704861
4773.000000;0.702218
4772.000000;0.699703
4771.000000;0.696904
4770.000000;0.693758
4769.000000;0.690374
4768.000000;0.686813
4767.000000;0.683219
4766.000000;0.679890
4765.000000;0.677031
4764.000000;0.674554
4763.000000;0.672199
4762.000000;0.669693
4761.000000;0.666820
4760.000000;0.663575
4759.000000;0.660259
4758.000000;0.657188
4757.000000;0.654326
4756.000000;0.651409
4755.000000;0.648404
4754.000000;0.645523
4753.000000;0.642818
4752.000000;0.640090
4751.000000;0.637236
4750.000000;0.634389
4749.000000;0.631650
4748.000000;0.628945
4747.000000;0.626211
4746.000000;0.623498
4745.000000;0.620814
4744.000000;0.618078
4743.000000;0.615289
4742.000000;0.612550
4741.000000;0.609925
4740.000000;0.607431
4739.000000;0.605117
4738.000000;0.602961
4737.000000;0.600742
4736.000000;0.598260
4735.000000;0.595634
4734.000000;0.593156
4733.000000;0.590897
4732.000000;0.588682
4731.000000;0.586401
4730.000000;0.584083
4729.000000;0.581706
4728.000000;0.579209
4727.000000;0.576679
4726.000000;0.574257
4725.000000;0.571898
4724.000000;0.569460
4723.000000;0.567017
4722.000000;0.564789
4721.000000;0.562800
4720.000000;0.560838
4719.000000;0.558769
4718.000000;0.556634
4717.000000;0.554478
4716.000000;0.552319
4715.000000;0.550255
4714.000000;0.548354
4713.000000;0.546472
4712.000000;0.544414
4711.000000;0.542252
4710.000000;0.540207
4709.000000;0.538285
4708.000000;0.536297
4707.000000;0.534225
4706.000000;0.532249
4705.000000;0.530418
4704.000000;0.528578
4703.000000;0.526640
4702.000000;0.524674
4701.000000;0.522710
4700.000000;0.520689
4699.000000;0.518648
4698.000000;0.516713
4697.000000;0.514919
4696.000000;0.513218
4695.000000;0.511645
4694.000000;0.510241
4693.000000;0.508853
4692.000000;0.507269
4691.000000;0.505531
4690.000000;0.503874
4689.000000;0.502356
4688.000000;0.500818
4687.000000;0.499196
4686.000000;0.497590
4685.000000;0.496028
4684.000000;0.494414
4683.000000;0.492750
4682.000000;0.491155
4681.000000;0.489653
4680.000000;0.488149
4679.000000;0.486639
4678.000000;0.485211
4677.000000;0.483831
4676.000000;0.482349
4675.000000;0.480756
4674.000000;0.479218
4673.000000;0.477853
4672.000000;0.476650
4671.000000;0.475600
4670.000000;0.474672
4669.000000;0.473678
4668.000000;0.472406
4667.000000;0.470913
4666.000000;0.469475
4665.000000;0.468233
4664.000000;0.467081
4663.000000;0.465907
4662.000000;0.464717
4661.000000;0.463513
4660.000000;0.462260
4659.000000;0.461010
4658.000000;0.459870
4657.000000;0.458823
4656.000000;0.457765
4655.000000;0.456703
4654.000000;0.455749
4653.000000;0.454902
4652.000000;0.454033
4651.000000;0.453073
4650.000000;0.452050
4649.000000;0.450971
4648.000000;0.449847
4647.000000;0.448803
4646.000000;0.447956
4645.000000;0.447215
4644.000000;0.446397
4643.000000;0.445496
4642.000000;0.444640
4641.000000;0.443829
4640.000000;0.442945
4639.000000;0.442004
4638.000000;0.441148
4637.000000;0.440404
4636.000000;0.439665
4635.000000;0.438919
4634.000000;0.438255
4633.000000;0.437642
4632.000000;0.436941
4631.000000;0.436144
4630.000000;0.435401
4629.000000;0.434779
4628.000000;0.434191
4627.000000;0.433584
4626.000000;0.433004
4625.000000;0.432453
4624.000000;0.431890
4623.000000;0.431350
4622.000000;0.430906
4621.000000;0.430479
4620.000000;0.429905
4619.000000;0.429173
4618.000000;0.428441
4617.000000;0.427806
4616.000000;0.427248
4615.000000;0.426763
4614.000000;0.426357
4613.000000;0.425940
4612.000000;0.425406
4611.000000;0.424823
4610.000000;0.424349
4609.000000;0.424001
4608.000000;0.423665
4607.000000;0.423324
4606.000000;0.423042
4605.000000;0.422785
4604.000000;0.422451
4603.000000;0.422076
4602.000000;0.421789
4601.000000;0.421577
4600.000000;0.421315
4599.000000;0.421010
4598.000000;0.420795
4597.000000;0.420690
4596.000000;0.420593
4595.000000;0.420493
4594.000000;0.420479
4593.000000;0.420534
4592.000000;0.420533
4591.000000;0.420455
4590.000000;0.420387
4589.000000;0.420327
4588.000000;0.420205
4587.000000;0.420086
4586.000000;0.420125
4585.000000;0.420307
4584.000000;0.420452
4583.000000;0.420500
4582.000000;0.420563
4581.000000;0.420689
4580.000000;0.420802
4579.000000;0.420911
4578.000000;0.421139
4577.000000;0.421501
4576.000000;0.421844
4575.000000;0.422065
4574.000000;0.422217
4573.000000;0.422354
4572.000000;0.422475
4571.000000;0.422635
4570.000000;0.422934
4569.000000;0.423330
4568.000000;0.423659
4567.000000;0.423885
4566.000000;0.424162
4565.000000;0.424624
4564.000000;0.425241
4563.000000;0.425920
4562.000000;0.426591
4561.000000;0.427187
4560.000000;0.427666
4559.000000;0.428084
4558.000000;0.428531
4557.000000;0.429006
4556.000000;0.429489
4555.000000;0.430070
4554.000000;0.430848
4553.000000;0.431762
4552.000000;0.432677
4551.000000;0.433584
4550.000000;0.434528
4549.000000;0.435404
4548.000000;0.436057
4547.000000;0.436548
4546.000000;0.437106
4545.000000;0.437819
4544.000000;0.438595
4543.000000;0.439399
4542.000000;0.440308
4541.000000;0.441326
4540.000000;0.442359
4539.000000;0.443391
4538.000000;0.444482
4537.000000;0.445595
4536.000000;0.446614
4535.000000;0.447525
4534.000000;0.448399
4533.000000;0.449232
4532.000000;0.450005
4531.000000;0.450836
4530.000000;0.451856
4529.000000;0.452946
4528.000000;0.453859
4527.000000;0.454583
4526.000000;0.455347
4525.000000;0.456250
4524.000000;0.457166
4523.000000;0.458023
4522.000000;0.458932
4521.000000;0.459952
4520.000000;0.460958
4519.000000;0.461833
4518.000000;0.462619
4517.000000;0.463417
4516.000000;0.464270
4515.000000;0.465190
4514.000000;0.466163
4513.000000;0.467102
4512.000000;0.467945
4511.000000;0.468791
4510.000000;0.469787
4509.000000;0.470912
4508.000000;0.472008
4507.000000;0.473017
4506.000000;0.474011
4505.000000;0.475016
4504.000000;0.475988
4503.000000;0.476953
4502.000000;0.478002
4501.000000;0.479145
4500.000000;0.480325
4499.000000;0.481535
4498.000000;0.482795
4497.000000;0.484056
4496.000000;0.485292
4495.000000;0.486597
4494.000000;0.488034
4493.000000;0.489474
4492.000000;0.490775
4491.000000;0.492026
4490.000000;0.493406
4489.000000;0.494883
4488.000000;0.496289
4487.000000;0.497631
4486.000000;0.499057
4485.000000;0.500572
4484.000000;0.502025
4483.000000;0.503376
4482.000000;0.504734
4481.000000;0.506153
4480.000000;0.507617
4479.000000;0.509186
4478.000000;0.510941
4477.000000;0.512798
4476.000000;0.514584
4475.000000;0.516281
4474.000000;0.517993
4473.000000;0.519727
4472.000000;0.521405
4471.000000;0.523070
4470.000000;0.524836
4469.000000;0.526692
4468.000000;0.528546
4467.000000;0.530442
4466.000000;0.532500
4465.000000;0.534681
4464.000000;0.536816
4463.000000;0.538835
4462.000000;0.540781
4461.000000;0.542666
4460.000000;0.544502
4459.000000;0.546416
4458.000000;0.548504
4457.000000;0.550667
4456.000000;0.552775
4455.000000;0.554903
4454.000000;0.557164
4453.000000;0.559456
4452.000000;0.561621
4451.000000;0.563749
4450.000000;0.566032
4449.000000;0.568428
4448.000000;0.570740
4447.000000;0.572958
4446.000000;0.575218
4445.000000;0.577518
4444.000000;0.579768
4443.000000;0.582040
4442.000000;0.584482
4441.000000;0.587041
4440.000000;0.589561
4439.000000;0.592078
4438.000000;0.594721
4437.000000;0.597415
4436.000000;0.599972
4435.000000;0.602420
4434.000000;0.604937
4433.000000;0.607551
4432.000000;0.610173
4431.000000;0.612845
4430.000000;0.615642
4429.000000;0.618436
4428.000000;0.621061
4427.000000;0.623616
4426.000000;0.626321
4425.000000;0.629171
4424.000000;0.632044
4423.000000;0.634985
4422.000000;0.638036
4421.000000;0.640960
4420.000000;0.643532
4419.000000;0.645987
4418.000000;0.648778
4417.000000;0.651995
4416.000000;0.655382
4415.000000;0.658812
4414.000000;0.662291
4413.000000;0.665626
4412.000000;0.668558
4411.000000;0.671196
4410.000000;0.673902
4409.000000;0.676796
4408.000000;0.679755
4407.000000;0.682828
4406.000000;0.686180
4405.000000;0.689705
4404.000000;0.693115
4403.000000;0.696385
4402.000000;0.699731
4401.000000;0.703191
4400.000000;0.706642
4399.000000;0.710126
4398.000000;0.713745
4397.000000;0.717331
4396.000000;0.720630
4395.000000;0.723746
4394.000000;0.726977
4393.000000;0.730321
4392.000000;0.733588
4391.000000;0.736868
4390.000000;0.740405
4389.000000;0.744127
4388.000000;0.747765
4387.000000;0.751363
4386.000000;0.755144
4385.000000;0.759025
4384.000000;0.762783
4383.000000;0.766572
4382.000000;0.770702
4381.000000;0.774997
4380.000000;0.778968
4379.000000;0.782567
4378.000000;0.786174
4377.000000;0.789911
4376.000000;0.793572
4375.000000;0.797182
4374.000000;0.801006
4373.000000;0.805012
4372.000000;0.808920
4371.000000;0.812779
4370.000000;0.816881
4369.000000;0.821146
4368.000000;0.825192
4367.000000;0.829042
4366.000000;0.833128
4365.000000;0.837603
4364.000000;0.842212
4363.000000;0.846825
4362.000000;0.851487
4361.000000;0.855969
4360.000000;0.859975
4359.000000;0.863809
4358.000000;0.868156
4357.000000;0.873104
4356.000000;0.878027
4355.000000;0.882475
4354.000000;0.886589
4353.000000;0.890621
4352.000000;0.894691
4351.000000;0.899096
4350.000000;0.904182
4349.000000;0.909767
4348.000000;0.915229
4347.000000;0.920265
4346.000000;0.925056
4345.000000;0.929737
4344.000000;0.934284
4343.000000;0.938901
4342.000000;0.943857
4341.000000;0.948960
4340.000000;0.953805
4339.000000;0.958483
4338.000000;0.963408
4337.000000;0.968541
4336.000000;0.973487
4335.000000;0.978274
4334.000000;0.983261
4333.000000;0.988389
4332.000000;0.993353
4331.000000;0.998424
4330.000000;1.004220
4329.000000;1.010630
4328.000000;1.016803
4327.000000;1.022255
4326.000000;1.027213
4325.000000;1.031878
4324.000000;1.036305
4323.000000;1.041014
4322.000000;1.046767
4321.000000;1.053505
4320.000000;1.060305
4319.000000;1.066536
4318.000000;1.072321
4317.000000;1.077866
4316.000000;1.083229
4315.000000;1.088805
4314.000000;1.095125
4313.000000;1.101951
4312.000000;1.108329
4311.000000;1.113736
4310.000000;1.118508
4309.000000;1.123112
4308.000000;1.127793
4307.000000;1.132949
4306.000000;1.138990
4305.000000;1.145714
4304.000000;1.152504
4303.000000;1.159144
4302.000000;1.165797
4301.000000;1.172305
4300.000000;1.178371
4299.000000;1.184322
4298.000000;1.190704
4297.000000;1.197243
4296.000000;1.203109
4295.000000;1.208112
4294.000000;1.212889
4293.000000;1.218069
4292.000000;1.223947
4291.000000;1.230656
4290.000000;1.237860
4289.000000;1.244669
4288.000000;1.250764
4287.000000;1.257090
4286.000000;1.264541
4285.000000;1.272580
4284.000000;1.280173
4283.000000;1.287301
4282.000000;1.294245
4281.000000;1.300251
4280.000000;1.304622
4279.000000;1.308541
4278.000000;1.314017
4277.000000;1.321427
4276.000000;1.329568
4275.000000;1.337693
4274.000000;1.345874
4273.000000;1.353687
4272.000000;1.360372
4271.000000;1.366195
4270.000000;1.372137
4269.000000;1.378487
4268.000000;1.385083
4267.000000;1.392457
4266.000000;1.401085
4265.000000;1.409933
4264.000000;1.417465
4263.000000;1.423642
4262.000000;1.429343
4261.000000;1.434736
4260.000000;1.439851
4259.000000;1.445697
4258.000000;1.452982
4257.000000;1.460576
4256.000000;1.467189
4255.000000;1.473704
4254.000000;1.481545
4253.000000;1.489803
4252.000000;1.496656
4251.000000;1.502568
4250.000000;1.509373
4249.000000;1.517111
4248.000000;1.524630
4247.000000;1.532362
4246.000000;1.541594
4245.000000;1.551630
4244.000000;1.560637
4243.000000;1.569019
4242.000000;1.578592
4241.000000;1.588758
4240.000000;1.596923
4239.000000;1.602502
4238.000000;1.607452
4237.000000;1.613214
4236.000000;1.619989
4235.000000;1.628331
4234.000000;1.638371
4233.000000;1.648039
4232.000000;1.655132
4231.000000;1.660529
4230.000000;1.666337
4229.000000;1.672522
4228.000000;1.678612
4227.000000;1.686688
4226.000000;1.698450
4225.000000;1.710887
4224.000000;1.719001
4223.000000;1.722403
4222.000000;1.724852
4221.000000;1.728459
4220.000000;1.733492
4219.000000;1.741862
4218.000000;1.755141
4217.000000;1.770527
4216.000000;1.783055
4215.000000;1.792000
4214.000000;1.800715
4213.000000;1.810155
4212.000000;1.818060
4211.000000;1.824358
4210.000000;1.831761
4209.000000;1.841411
4208.000000;1.852738
4207.000000;1.866279
4206.000000;1.881590
4205.000000;1.893752
4204.000000;1.898184
4203.000000;1.898169
4202.000000;1.900925
4201.000000;1.908120
4200.000000;1.916159
4199.000000;1.923456
4198.000000;1.930947
4197.000000;1.937298
4196.000000;1.940648
4195.000000;1.944200
4194.000000;1.952709
4193.000000;1.965497
4192.000000;1.977799
4191.000000;1.988004
4190.000000;1.997548
4189.000000;2.005572
4188.000000;2.011236
4187.000000;2.018215
4186.000000;2.029196
4185.000000;2.038906
4184.000000;2.041097
4183.000000;2.039866
4182.000000;2.043624
4181.000000;2.052137
4180.000000;2.059636
4179.000000;2.067853
4178.000000;2.082845
4177.000000;2.101132
4176.000000;2.111636
4175.000000;2.112653
4174.000000;2.115197
4173.000000;2.126181
4172.000000;2.141402
4171.000000;2.156286
4170.000000;2.169323
4169.000000;2.178716
4168.000000;2.184359
4167.000000;2.191190
4166.000000;2.201515
4165.000000;2.208188
4164.000000;2.205632
4163.000000;2.200629
4162.000000;2.203517
4161.000000;2.213801
4160.000000;2.224218
4159.000000;2.235241
4158.000000;2.252050
4157.000000;2.275013
4156.000000;2.295394
4155.000000;2.306564
4154.000000;2.310227
4153.000000;2.305542
4152.000000;2.294416
4151.000000;2.288848
4150.000000;2.298377
4149.000000;2.316953
4148.000000;2.331795
4147.000000;2.345288
4146.000000;2.363745
4145.000000;2.377215
4144.000000;2.373202
4143.000000;2.361019
4142.000000;2.360285
4141.000000;2.373202
4140.000000;2.386814
4139.000000;2.396443
4138.000000;2.405961
4137.000000;2.416315
4136.000000;2.425835
4135.000000;2.437969
4134.000000;2.455908
4133.000000;2.470004
4132.000000;2.474821
4131.000000;2.485534
4130.000000;2.516764
4129.000000;2.553830
4128.000000;2.558598
4127.000000;2.530022
4126.000000;2.500982
4125.000000;2.486538
4124.000000;2.485785
4123.000000;2.496912
4122.000000;2.510660
4121.000000;2.519055
4120.000000;2.520934
4119.000000;2.519702
4118.000000;2.522775
4117.000000;2.527276
4116.000000;2.528496
4115.000000;2.533991
4114.000000;2.546968
4113.000000;2.555724
4112.000000;2.552883
4111.000000;2.556802
4110.000000;2.582125
4109.000000;2.616109
4108.000000;2.638223
4107.000000;2.653057
4106.000000;2.680551
4105.000000;2.708103
4104.000000;2.705687
4103.000000;2.684076
4102.000000;2.671699
4101.000000;2.672337
4100.000000;2.670784
4099.000000;2.668743
4098.000000;2.672283
4097.000000;2.673771
4096.000000;2.669928
4095.000000;2.672782
4094.000000;2.693853
4093.000000;2.720859
4092.000000;2.734209
4091.000000;2.738811
4090.000000;2.743999
4089.000000;2.753946
4088.000000;2.755596
4087.000000;2.746155
4086.000000;2.743590
4085.000000;2.741854
4084.000000;2.727625
4083.000000;2.723950
4082.000000;2.752168
4081.000000;2.785457
4080.000000;2.781215
4079.000000;2.754212
4078.000000;2.752330
4077.000000;2.776891
4076.000000;2.806152
4075.000000;2.853558
4074.000000;2.907040
4073.000000;2.912898
4072.000000;2.867864
4071.000000;2.822716
4070.000000;2.803780
4069.000000;2.788687
4068.000000;2.757174
4067.000000;2.730295
4066.000000;2.729704
4065.000000;2.743023
4064.000000;2.750628
4063.000000;2.765463
4062.000000;2.810595
4061.000000;2.871723
4060.000000;2.891436
4059.000000;2.874279
4058.000000;2.867371
4057.000000;2.870355
4056.000000;2.871852
4055.000000;2.891731
4054.000000;2.937808
4053.000000;2.962889
4052.000000;2.946925
4051.000000;2.927711
4050.000000;2.934945
4049.000000;2.963444
4048.000000;2.968412
4047.000000;2.959691
4046.000000;2.968042
4045.000000;2.985604
4044.000000;3.005939
4043.000000;3.040729
4042.000000;3.106712
4041.000000;3.133814
4040.000000;3.091850
4039.000000;3.060320
4038.000000;3.042866
4037.000000;3.025655
4036.000000;2.997091
4035.000000;2.978652
4034.000000;2.999576
4033.000000;3.024605
4032.000000;3.031049
4031.000000;3.070855
4030.000000;3.164728
4029.000000;3.284246
4028.000000;3.330278
4027.000000;3.240764
4026.000000;3.150180
4025.000000;3.086926
4024.000000;3.004165
4023.000000;2.952375
4022.000000;2.968492
4021.000000;3.012318
4020.000000;3.022820
4019.000000;3.007760
4018.000000;3.007530
4017.000000;3.032051
4016.000000;3.084635
4015.000000;3.194881
4014.000000;3.335082
4013.000000;3.338907
4012.000000;3.184422
4011.000000;3.072241
4010.000000;3.049573
4009.000000;3.028182
4008.000000;2.972098
4007.000000;2.959205
4006.000000;3.010967
4005.000000;3.079382
4004.000000;3.087165
4003.000000;3.038370
4002.000000;3.002580
4001.000000;3.053517
4000.000000;3.196347
3999.000000;3.326909
3998.000000;3.401238
3997.000000;3.339778
3996.000000;3.161142
3995.000000;3.055702
3994.000000;3.039934
3993.000000;3.064659
3992.000000;3.076201
3991.000000;3.076013
3990.000000;3.082156
3989.000000;3.056702
3988.000000;3.011930
3987.000000;3.020363
3986.000000;3.114606
3985.000000;3.223639
3984.000000;3.276736
3983.000000;3.291920
3982.000000;3.241370
3981.000000;3.151115
3980.000000;3.035055
3979.000000;2.982236
3978.000000;3.037863
3977.000000;3.156936
3976.000000;3.226240
3975.000000;3.206735
3974.000000;3.168305
3973.000000;3.139879
3972.000000;3.150882
3971.000000;3.221993
3970.000000;3.368086
3969.000000;3.684063
3968.000000;3.634689
3967.000000;3.328130
3966.000000;3.191424
3965.000000;3.129533
3964.000000;3.097200
3963.000000;3.068190
3962.000000;3.071349
3961.000000;3.106082
3960.000000;3.143764
3959.000000;3.197801
3958.000000;3.233874
3957.000000;3.179859
3956.000000;3.162412
3955.000000;3.319543
3954.000000;3.586108
3953.000000;3.578688
3952.000000;3.422067
3951.000000;3.312678
3950.000000;3.295825
3949.000000;3.300806
3948.000000;3.216423
3947.000000;3.111949
3946.000000;3.035438
3945.000000;2.965634
3944.000000;2.913669
3943.000000;2.946745
3942.000000;3.107967
3941.000000;3.298050
3940.000000;3.289124
3939.000000;3.215848
3938.000000;3.166452
3937.000000;3.116789
3936.000000;3.108178
3935.000000;3.184811
3934.000000;3.375457
3933.000000;3.632646
3932.000000;3.801548
3931.000000;3.720918
3930.000000;3.658123
3929.000000;3.610157
3928.000000;3.442216
3927.000000;3.418203
3926.000000;3.499055
3925.000000;3.475291
3924.000000;3.408089
3923.000000;3.532293
3922.000000;3.798766
3921.000000;3.627348
3920.000000;3.340289
3919.000000;3.190341
3918.000000;3.183099
3917.000000;3.238662
3916.000000;3.259273
3915.000000;3.291148
3914.000000;3.338777
3913.000000;3.287544
3912.000000;3.192434
3911.000000;3.153311
3910.000000;3.206573
3909.000000;3.245529
3908.000000;3.167425
3907.000000;3.165828
3906.000000;3.278570
3905.000000;3.299797
3904.000000;3.250025
3903.000000;3.312035
3902.000000;3.211905
3901.000000;3.036947
3900.000000;3.015531
3899.000000;3.102274
3898.000000;3.196784
3897.000000;3.189860
3896.000000;3.129057
3895.000000;3.120337
3894.000000;3.113604
3893.000000;3.089087
3892.000000;3.128592
3891.000000;3.114896
3890.000000;3.036270
3889.000000;3.090990
3888.000000;3.256768
3887.000000;3.382182
3886.000000;3.344094
3885.000000;3.333035
3884.000000;3.397639
3883.000000;3.466354
3882.000000;3.767437
3881.000000;3.381668
3880.000000;3.069011
3879.000000;3.072073
3878.000000;3.221906
3877.000000;3.286319
3876.000000;3.242526
3875.000000;3.268724
3874.000000;3.331176
3873.000000;3.431122
3872.000000;3.752854
3871.000000;3.685357
3870.000000;3.502975
3869.000000;3.791617
3868.000000;3.571406
3867.000000;3.293739
3866.000000;3.261469
3865.000000;3.270689
3864.000000;3.246956
3863.000000;3.156108
3862.000000;3.117984
3861.000000;3.241793
3860.000000;3.427256
3859.000000;3.500364
3858.000000;4.013488
3857.000000;3.536204
3856.000000;3.219412
3855.000000;3.259189
3854.000000;3.240960
3853.000000;3.181311
3852.000000;3.168528
3851.000000;3.282800
3850.000000;3.503808
3849.000000;3.473738
3848.000000;3.261694
3847.000000;3.121254
3846.000000;3.067163
3845.000000;3.107592
3844.000000;3.294079
3843.000000;3.525883
3842.000000;3.555671
3841.000000;3.334331
3840.000000;3.031576
3839.000000;2.930251
3838.000000;3.054289
3837.000000;3.258591
3836.000000;3.260610
3835.000000;3.111584
3834.000000;3.005137
3833.000000;3.043268
3832.000000;3.189573
3831.000000;3.303034
3830.000000;3.303388
3829.000000;3.307364
3828.000000;3.452745
3827.000000;3.627595
3826.000000;3.761565
3825.000000;3.310940
3824.000000;2.956982
3823.000000;2.994069
3822.000000;3.222644
3821.000000;3.501174
3820.000000;3.778947
3819.000000;3.386726
3818.000000;3.228561
3817.000000;3.491837
3816.000000;4.343000
3815.000000;3.860942
3814.000000;3.555651
3813.000000;3.279491
3812.000000;3.186268
3811.000000;3.220203
3810.000000;3.204930
3809.000000;3.124773
3808.000000;3.070746
3807.000000;3.163679
3806.000000;3.377491
3805.000000;3.438477
3804.000000;3.289505
3803.000000;3.232117
3802.000000;3.323967
3801.000000;3.401030
3800.000000;3.282716
3799.000000;3.212311
3798.000000;3.209194
3797.000000;3.238139
3796.000000;3.297805
3795.000000;3.395137
3794.000000;3.503328
3793.000000;3.434211
3792.000000;3.337122
3791.000000;3.401730
3790.000000;3.526833
3789.000000;3.521714
3788.000000;3.569771
3787.000000;3.553947
3786.000000;3.281539
3785.000000;3.016960
3784.000000;2.897995
3783.000000;2.946202
3782.000000;3.046222
3781.000000;3.090274
3780.000000;3.182144
3779.000000;3.380470
3778.000000;3.611664
3777.000000;3.581134
3776.000000;3.356930
3775.000000;3.353621
3774.000000;3.359320
3773.000000;3.115014
3772.000000;3.043630
3771.000000;3.244086
3770.000000;3.664774
3769.000000;3.837602
3768.000000;3.412449
3767.000000;3.172800
3766.000000;3.051072
3765.000000;3.293975
3764.000000;4.031380
3763.000000;3.366807
3762.000000;3.375197
3761.000000;3.473453
3760.000000;3.750447
3759.000000;3.898893
3758.000000;3.774255
3757.000000;3.846539
3756.000000;3.171883
3755.000000;3.038895
3754.000000;3.113874
3753.000000;3.214216
3752.000000;3.287841
3751.000000;3.335637
3750.000000;3.390009
3749.000000;3.200475
3748.000000;3.119832
3747.000000;3.437849
3746.000000;3.836279
3745.000000;3.648394
3744.000000;3.649730
3743.000000;3.471310
3742.000000;3.303070
3741.000000;3.251807
3740.000000;3.291266
3739.000000;3.408866
3738.000000;3.501691
3737.000000;3.380799
3736.000000;3.253425
3735.000000;3.564199
3734.000000;3.973843
3733.000000;3.681588
3732.000000;4.133479
3731.000000;4.570303
3730.000000;4.559779
3729.000000;4.269939
3728.000000;3.711914
3727.000000;3.403873
3726.000000;3.267846
3725.000000;3.423503
3724.000000;3.647588
3723.000000;3.472206
3722.000000;3.351090
3721.000000;3.232332
3720.000000;3.106387
3719.000000;3.058149
3718.000000;3.110293
3717.000000;3.130058
3716.000000;3.034538
3715.000000;3.091865
3714.000000;3.482537
3713.000000;4.193867
3712.000000;3.895091
3711.000000;3.548763
3710.000000;3.374325
3709.000000;3.333552
3708.000000;3.363659
3707.000000;3.368987
3706.000000;3.302548
3705.000000;3.204329
3704.000000;3.202392
3703.000000;3.206088
3702.000000;3.092931
3701.000000;3.058948
3700.000000;3.165395
3699.000000;3.353385
3698.000000;3.524896
3697.000000;3.418023
3696.000000;3.220770
3695.000000;3.259349
3694.000000;3.369211
3693.000000;3.295101
3692.000000;3.414014
3691.000000;3.690673
3690.000000;3.727534
3689.000000;3.837562
3688.000000;3.944935
3687.000000;3.775997
3686.000000;3.812039
3685.000000;3.702805
3684.000000;3.341732
3683.000000;3.256617
3682.000000;3.327672
3681.000000;3.373391
3680.000000;3.180618
3679.000000;3.021275
3678.000000;3.086693
3677.000000;3.261177
3676.000000;3.420956
3675.000000;3.428161
3674.000000;3.435480
3673.000000;3.401078
3672.000000;3.372749
3671.000000;3.789782
3670.000000;3.712217
3669.000000;3.397952
3668.000000;3.382394
3667.000000;3.269518
3666.000000;3.242157
3665.000000;3.366418
3664.000000;3.410093
3663.000000;3.301206
3662.000000;3.262220
3661.000000;3.406790
3660.000000;3.596460
3659.000000;3.282241
3658.000000;2.990112
3657.000000;2.883684
3656.000000;2.859500
3655.000000;2.842738
3654.000000;2.884973
3653.000000;3.201451
3652.000000;3.723347
3651.000000;3.344721
3650.000000;3.139259
3649.000000;3.181444
3648.000000;3.583143
3647.000000;3.707871
3646.000000;3.406119
3645.000000;3.282187
3644.000000;3.164081
3643.000000;3.135887
3642.000000;3.106229
3641.000000;3.025654
3640.000000;3.057849
3639.000000;3.374329
3638.000000;3.443612
3637.000000;3.234919
3636.000000;3.369424
3635.000000;3.781094
3634.000000;3.584232
3633.000000;3.257835
3632.000000;3.132231
3631.000000;3.358403
3630.000000;4.078622
3629.000000;3.538345
3628.000000;3.440077
3627.000000;3.414177
3626.000000;3.404158
3625.000000;3.616673
3624.000000;3.766377
3623.000000;4.006784
3622.000000;4.033866
3621.000000;3.544311
3620.000000;3.469497
3619.000000;3.884485
3618.000000;4.296000
3617.000000;3.930637
3616.000000;3.586619
3615.000000;3.442728
3614.000000;3.677038
3613.000000;3.625462
3612.000000;3.441246
3611.000000;3.413233
3610.000000;3.296334
3609.000000;3.139142
3608.000000;3.054153
3607.000000;3.105940
3606.000000;3.227126
3605.000000;3.311394
3604.000000;3.472164
3603.000000;3.784614
3602.000000;3.973035
3601.000000;4.067030
3600.000000;3.851655
3599.000000;3.759924
3598.000000;3.666743
3597.000000;3.550055
3596.000000;3.774732
3595.000000;4.143581
3594.000000;4.052191
3593.000000;4.023986
3592.000000;3.744667
3591.000000;3.582209
3590.000000;3.425159
3589.000000;3.276372
3588.000000;3.288348
3587.000000;3.480371
3586.000000;3.920925
3585.000000;3.628612
3584.000000;3.335520
3583.000000;3.369890
3582.000000;3.705935
3581.000000;3.918269
3580.000000;3.414094
3579.000000;3.200950
3578.000000;3.123346
3577.000000;3.145147
3576.000000;3.318215
3575.000000;3.600455
3574.000000;3.579088
3573.000000;3.507898
3572.000000;3.639869
3571.000000;3.732622
3570.000000;3.654473
3569.000000;3.596397
3568.000000;3.639904
3567.000000;3.642114
3566.000000;3.754342
3565.000000;3.847433
3564.000000;3.475545
3563.000000;3.404824
3562.000000;3.967647
3561.000000;3.894810
3560.000000;3.496390
3559.000000;3.681604
3558.000000;4.045944
3557.000000;4.298489
3556.000000;4.416376
3555.000000;3.946123
3554.000000;3.724104
3553.000000;3.594537
3552.000000;3.372178
3551.000000;3.339507
3550.000000;3.515125
3549.000000;3.502207
3548.000000;3.326080
3547.000000;3.339616
3546.000000;3.497666
3545.000000;3.528142
3544.000000;3.428145
3543.000000;3.453211
3542.000000;3.517363
3541.000000;3.451084
3540.000000;3.493010
3539.000000;3.465632
3538.000000;3.436724
3537.000000;3.691729
3536.000000;3.551386
3535.000000;3.428610
3534.000000;3.661041
3533.000000;4.007824
3532.000000;4.551917
3531.000000;4.302632
3530.000000;3.968131
3529.000000;3.649318
3528.000000;3.521057
3527.000000;3.522606
3526.000000;3.370472
3525.000000;3.314762
3524.000000;3.441860
3523.000000;3.487466
3522.000000;3.318872
3521.000000;3.202198
3520.000000;3.173265
3519.000000;3.157095
3518.000000;3.167217
3517.000000;3.233113
3516.000000;3.283902
3515.000000;3.274964
3514.000000;3.267315
3513.000000;3.370401
3512.000000;3.530577
3511.000000;3.593556
3510.000000;3.740762
3509.000000;3.676791
3508.000000;3.488253
3507.000000;3.514859
3506.000000;3.710312
3505.000000;3.769265
3504.000000;3.648976
3503.000000;3.631450
3502.000000;3.669889
3501.000000;3.604931
3500.000000;3.602751
3499.000000;3.651929
3498.000000;3.446055
3497.000000;3.406990
3496.000000;3.598675
3495.000000;3.779194
3494.000000;3.667932
3493.000000;3.461109
3492.000000;3.510083
3491.000000;3.674498
3490.000000;3.520866
3489.000000;3.502815
3488.000000;3.397810
3487.000000;3.335158
3486.000000;3.431289
3485.000000;3.337867
3484.000000;3.277837
3483.000000;3.355695
3482.000000;3.278686
3481.000000;3.220808
3480.000000;3.377424
3479.000000;3.740376
3478.000000;3.767072
3477.000000;3.476708
3476.000000;3.349363
3475.000000;3.425181
3474.000000;3.645059
3473.000000;3.769539
3472.000000;4.056228
3471.000000;3.561260
3470.000000;3.183997
3469.000000;3.121993
3468.000000;3.300943
3467.000000;3.691773
3466.000000;4.149422
3465.000000;4.040903
3464.000000;3.523128
3463.000000;3.502110
3462.000000;3.561263
3461.000000;3.512853
3460.000000;3.562135
3459.000000;3.465681
3458.000000;3.275198
3457.000000;3.293763
3456.000000;3.714312
3455.000000;3.911497
3454.000000;3.575652
3453.000000;3.729700
3452.000000;3.581925
3451.000000;3.368665
3450.000000;3.314070
3449.000000;3.250209
3448.000000;3.247275
3447.000000;3.473827
3446.000000;3.729421
3445.000000;3.544959
3444.000000;3.549049
3443.000000;3.591055
3442.000000;3.490156
3441.000000;3.293022
3440.000000;3.176962
3439.000000;3.251719
3438.000000;3.343437
3437.000000;3.316392
3436.000000;3.499357
3435.000000;3.635967
3434.000000;3.493912
3433.000000;3.592489
3432.000000;3.675618
3431.000000;3.537790
3430.000000;3.423937
3429.000000;3.777720
3428.000000;3.968008
3427.000000;3.603596
3426.000000;3.724205
3425.000000;4.071997
3424.000000;3.882998
3423.000000;3.453546
3422.000000;3.272329
3421.000000;3.362168
3420.000000;3.534469
3419.000000;3.357273
3418.000000;3.354642
3417.000000;3.526717
3416.000000;3.483660
3415.000000;3.566224
3414.000000;3.851740
3413.000000;3.694860
3412.000000;3.538500
3411.000000;3.812579
3410.000000;3.760113
3409.000000;3.466159
3408.000000;3.558565
3407.000000;3.686730
3406.000000;3.550374
3405.000000;3.516142
3404.000000;3.724132
3403.000000;4.201808
3402.000000;3.819195
3401.000000;3.341307
3400.000000;3.184625
3399.000000;3.229126
3398.000000;3.400769
3397.000000;3.518506
3396.000000;3.655462
3395.000000;3.503185
3394.000000;3.233307
3393.000000;3.209133
3392.000000;3.334045
3391.000000;3.384991
3390.000000;3.344995
3389.000000;3.488823
3388.000000;4.020920
3387.000000;3.607828
3386.000000;3.690715
3385.000000;4.136120
3384.000000;3.512206
3383.000000;3.480766
3382.000000;3.532039
3381.000000;3.491255
3380.000000;3.451419
3379.000000;3.903191
3378.000000;4.216906
3377.000000;3.751635
3376.000000;3.826913
3375.000000;3.543393
3374.000000;3.515920
3373.000000;3.689030
3372.000000;4.083087
3371.000000;3.834962
3370.000000;3.510044
3369.000000;3.605788
3368.000000;3.866518
3367.000000;3.849805
3366.000000;3.857927
3365.000000;3.448916
3364.000000;3.231733
3363.000000;3.233277
3362.000000;3.327673
3361.000000;3.403516
3360.000000;3.558937
3359.000000;3.908350
3358.000000;3.470552
3357.000000;3.222195
3356.000000;3.117976
3355.000000;3.127302
3354.000000;3.163569
3353.000000;3.192387
3352.000000;3.276763
3351.000000;3.418647
3350.000000;3.584532
3349.000000;3.552458
3348.000000;3.459637
3347.000000;3.400113
3346.000000;3.530544
3345.000000;3.831901
3344.000000;3.360271
3343.000000;3.214477
3342.000000;3.337152
3341.000000;3.488603
3340.000000;3.605220
3339.000000;3.507984
3338.000000;3.367361
3337.000000;3.396752
3336.000000;3.341201
3335.000000;3.428945
3334.000000;3.545844
3333.000000;3.277815
3332.000000;3.257170
3331.000000;3.432100
3330.000000;3.653991
3329.000000;3.503594
3328.000000;3.318643
3327.000000;3.347183
3326.000000;3.633755
3325.000000;3.876669
3324.000000;3.482380
3323.000000;3.210316
3322.000000;3.117362
3321.000000;3.161582
3320.000000;3.277060
3319.000000;3.299304
3318.000000;3.337008
3317.000000;3.975785
3316.000000;3.447125
3315.000000;3.230981
3314.000000;3.295516
3313.000000;3.355720
3312.000000;3.482340
3311.000000;3.718113
3310.000000;3.629741
3309.000000;3.595556
3308.000000;3.789222
3307.000000;4.015588
3306.000000;3.678728
3305.000000;3.813069
3304.000000;3.759732
3303.000000;3.478903
3302.000000;3.503823
3301.000000;3.711053
3300.000000;3.727814
3299.000000;3.501298
3298.000000;3.458401
3297.000000;3.813443
3296.000000;3.477436
3295.000000;3.216701
3294.000000;3.276481
3293.000000;3.235986
3292.000000;3.132281
3291.000000;3.121946
3290.000000;3.138284
3289.000000;3.094065
3288.000000;3.096614
3287.000000;3.262556
3286.000000;3.308396
3285.000000;3.288264
3284.000000;3.533906
3283.000000;4.077190
3282.000000;3.777885
3281.000000;3.585086
3280.000000;3.490352
3279.000000;3.631403
3278.000000;3.777223
3277.000000;3.559090
3276.000000;3.457326
3275.000000;3.568440
3274.000000;3.469505
3273.000000;3.337312
3272.000000;3.317863
3271.000000;3.378776
3270.000000;3.455492
3269.000000;3.387342
3268.000000;3.340338
3267.000000;3.492874
3266.000000;4.371735
3265.000000;4.054319
3264.000000;3.518496
3263.000000;3.283302
3262.000000;3.140235
3261.000000;3.179976
3260.000000;3.714930
3259.000000;3.443140
3258.000000;3.204129
3257.000000;3.196876
3256.000000;3.176408
3255.000000;3.258431
3254.000000;3.478649
3253.000000;3.397200
3252.000000;3.241728
3251.000000;3.244506
3250.000000;3.181814
3249.000000;3.023683
3248.000000;2.995987
3247.000000;3.134407
3246.000000;3.379620
3245.000000;3.515848
3244.000000;3.502146
3243.000000;3.639723
3242.000000;4.071121
3241.000000;4.105796
3240.000000;3.864979
3239.000000;3.564807
3238.000000;3.476776
3237.000000;3.562164
3236.000000;3.277931
3235.000000;3.206301
3234.000000;3.371862
3233.000000;3.266086
3232.000000;3.131870
3231.000000;3.119190
3230.000000;3.153764
3229.000000;3.273336
3228.000000;3.342131
3227.000000;3.349348
3226.000000;3.289355
3225.000000;3.180508
3224.000000;3.194711
3223.000000;3.213825
3222.000000;3.152459
3221.000000;3.232190
3220.000000;3.534894
3219.000000;3.749365
3218.000000;3.666833
3217.000000;3.514891
3216.000000;3.358046
3215.000000;3.423625
3214.000000;3.292222
3213.000000;3.128090
3212.000000;3.119200
3211.000000;3.184211
3210.000000;3.236253
3209.000000;3.693160
3208.000000;3.691413
3207.000000;3.448619
3206.000000;3.586372
3205.000000;3.580247
3204.000000;3.788450
3203.000000;3.504313
3202.000000;3.230029
3201.000000;3.222918
3200.000000;3.302105
3199.000000;3.443177
3198.000000;3.877485
3197.000000;4.151109
3196.000000;3.669154
3195.000000;3.672622
3194.000000;3.948683
3193.000000;3.574287
3192.000000;3.371916
3191.000000;3.404435
3190.000000;3.424428
3189.000000;3.399779
3188.000000;3.422265
3187.000000;3.624779
3186.000000;3.622080
3185.000000;3.333135
3184.000000;3.163966
3183.000000;3.190700
3182.000000;3.430100
3181.000000;3.366214
3180.000000;3.558579
3179.000000;3.671359
3178.000000;3.311337
3177.000000;3.410812
3176.000000;3.611518
3175.000000;3.604249
3174.000000;3.715081
3173.000000;4.031363
3172.000000;3.568981
3171.000000;3.339433
3170.000000;3.206711
3169.000000;3.214916
3168.000000;3.292446
3167.000000;3.631595
3166.000000;4.200607
3165.000000;3.360860
3164.000000;3.202361
3163.000000;3.115434
3162.000000;3.085882
3161.000000;3.171620
3160.000000;3.363055
3159.000000;3.766637
3158.000000;3.760969
3157.000000;3.582722
3156.000000;3.772514
3155.000000;3.780005
3154.000000;3.679786
3153.000000;3.516355
3152.000000;3.328540
3151.000000;3.251782
3150.000000;3.201777
3149.000000;3.103775
3148.000000;3.110780
3147.000000;3.406840
3146.000000;4.033508
3145.000000;3.917233
3144.000000;3.783743
3143.000000;3.398967
3142.000000;3.336690
3141.000000;3.176289
3140.000000;3.126285
3139.000000;3.331569
3138.000000;3.480377
3137.000000;3.435294
3136.000000;3.694675
3135.000000;3.724212
3134.000000;3.541210
3133.000000;3.279889
3132.000000;3.059674
3131.000000;2.990759
3130.000000;3.039313
3129.000000;3.098900
3128.000000;3.179778
3127.000000;3.409733
3126.000000;3.400723
3125.000000;3.327712
3124.000000;3.359028
3123.000000;3.159499
3122.000000;3.027190
3121.000000;3.069657
3120.000000;3.225389
3119.000000;3.335375
3118.000000;3.364992
3117.000000;3.294417
3116.000000;3.132603
3115.000000;3.092228
3114.000000;3.173057
3113.000000;3.278713
3112.000000;3.488976
3111.000000;3.834363
3110.000000;3.407259
3109.000000;3.207430
3108.000000;3.103830
3107.000000;3.087766
3106.000000;3.186748
3105.000000;3.297424
3104.000000;3.374969
3103.000000;3.594498
3102.000000;3.541196
3101.000000;3.335949
3100.000000;3.261975
3099.000000;3.239588
3098.000000;3.206336
3097.000000;3.164364
3096.000000;3.162758
3095.000000;3.256958
3094.000000;3.229124
3093.000000;3.219327
3092.000000;3.459124
3091.000000;3.831658
3090.000000;3.473942
3089.000000;3.257429
3088.000000;3.169847
3087.000000;3.351452
3086.000000;3.611742
3085.000000;3.405416
3084.000000;3.453413
3083.000000;3.654205
3082.000000;3.681400
3081.000000;3.702803
3080.000000;3.890974
3079.000000;4.028261
3078.000000;3.610962
3077.000000;3.328799
3076.000000;3.146992
3075.000000;3.052380
3074.000000;3.029294
3073.000000;2.983736
3072.000000;2.974640
3071.000000;3.072774
3070.000000;3.282738
3069.000000;3.427632
3068.000000;3.440424
3067.000000;3.384452
3066.000000;3.282725
3065.000000;3.253245
3064.000000;3.335909
3063.000000;3.668796
3062.000000;3.774610
3061.000000;3.642980
3060.000000;3.495983
3059.000000;3.403112
3058.000000;3.352207
3057.000000;3.263819
3056.000000;3.322314
3055.000000;3.405666
3054.000000;3.364390
3053.000000;3.307066
3052.000000;3.394020
3051.000000;3.398222
3050.000000;3.100620
3049.000000;2.972029
3048.000000;3.018834
3047.000000;3.128488
3046.000000;3.460385
3045.000000;3.459220
3044.000000;3.150619
3043.000000;3.148403
3042.000000;3.254963
3041.000000;3.233592
3040.000000;3.189523
3039.000000;3.256184
3038.000000;3.391427
3037.000000;3.483407
3036.000000;3.441439
3035.000000;3.500150
3034.000000;3.706225
3033.000000;3.835333
3032.000000;3.924454
3031.000000;3.470469
3030.000000;3.160695
3029.000000;3.106704
3028.000000;3.357356
3027.000000;3.754468
3026.000000;3.479130
3025.000000;3.412924
3024.000000;3.541158
3023.000000;3.829428
3022.000000;3.559626
3021.000000;3.546384
3020.000000;3.677796
3019.000000;3.705698
3018.000000;3.706693
3017.000000;3.475987
3016.000000;3.475765
3015.000000;3.383137
3014.000000;3.209810
3013.000000;3.278343
3012.000000;3.572762
3011.000000;3.669850
3010.000000;3.362636
3009.000000;3.175802
3008.000000;3.139310
3007.000000;3.167694
3006.000000;3.159854
3005.000000;3.276228
3004.000000;3.411577
3003.000000;3.293365
3002.000000;3.273705
3001.000000;3.223719
3000.000000;3.195790
2999.000000;3.320836
2998.000000;3.399688
2997.000000;3.330735
2996.000000;3.343688
2995.000000;3.551759
2994.000000;3.769877
2993.000000;3.908552
2992.000000;4.015195
2991.000000;3.986265
2990.000000;3.439831
2989.000000;3.254364
2988.000000;3.229653
2987.000000;3.195582
2986.000000;3.184414
2985.000000;3.294535
2984.000000;3.601476
2983.000000;3.777075
2982.000000;3.473399
2981.000000;3.270223
2980.000000;3.170878
2979.000000;3.185517
2978.000000;3.245865
2977.000000;3.455666
2976.000000;3.620345
2975.000000;3.674463
2974.000000;3.973907
2973.000000;3.822222
2972.000000;3.587308
2971.000000;3.472631
2970.000000;3.414056
2969.000000;3.482533
2968.000000;3.692899
2967.000000;3.708691
2966.000000;3.616131
2965.000000;3.688327
2964.000000;3.896677
2963.000000;3.840868
2962.000000;3.687819
2961.000000;3.303324
2960.000000;3.049221
2959.000000;3.027967
2958.000000;3.124541
2957.000000;3.157542
2956.000000;3.144215
2955.000000;3.223923
2954.000000;3.563038
2953.000000;3.658993
2952.000000;3.320060
2951.000000;3.238501
2950.000000;3.205271
2949.000000;3.354125
2948.000000;3.515081
2947.000000;3.477995
2946.000000;3.533566
2945.000000;3.477856
2944.000000;3.522428
2943.000000;3.808946
2942.000000;3.818753
2941.000000;3.468482
2940.000000;3.427103
2939.000000;3.993235
2938.000000;3.590986
2937.000000;3.428566
2936.000000;3.457828
2935.000000;3.388147
2934.000000;3.343038
2933.000000;3.246011
2932.000000;3.210247
2931.000000;3.405178
2930.000000;3.746867
2929.000000;3.463911
2928.000000;3.348608
2927.000000;3.426517
2926.000000;3.603436
2925.000000;3.779664
2924.000000;3.808131
2923.000000;3.661467
2922.000000;3.496829
2921.000000;3.353134
2920.000000;3.296399
2919.000000;3.424791
2918.000000;3.484329
2917.000000;3.514822
2916.000000;3.711377
2915.000000;3.970656
2914.000000;3.847542
2913.000000;3.494588
2912.000000;3.379106
2911.000000;3.395785
2910.000000;3.328555
2909.000000;3.272633
2908.000000;3.351010
2907.000000;3.496532
2906.000000;3.693333
2905.000000;3.818219
2904.000000;3.343314
2903.000000;3.402374
2902.000000;3.725026
2901.000000;3.316951
2900.000000;3.228927
2899.000000;3.249804
2898.000000;3.208624
2897.000000;3.227302
2896.000000;3.375008
2895.000000;3.353722
2894.000000;3.141828
2893.000000;3.149959
2892.000000;3.374703
2891.000000;3.990809
2890.000000;4.014553
2889.000000;3.369147
2888.000000;3.148065
2887.000000;3.163730
2886.000000;3.303380
2885.000000;3.176972
2884.000000;3.087005
2883.000000;3.149206
2882.000000;3.158238
2881.000000;3.225014
2880.000000;3.505244
2879.000000;3.549056
2878.000000;3.471920
2877.000000;3.844244
2876.000000;3.657459
2875.000000;3.274447
2874.000000;3.121493
2873.000000;3.144099
2872.000000;3.431557
2871.000000;3.585300
2870.000000;3.324105
2869.000000;3.333772
2868.000000;3.419092
2867.000000;3.433200
2866.000000;3.430366
2865.000000;3.319384
2864.000000;3.260372
2863.000000;3.363312
2862.000000;3.415805
2861.000000;3.261942
2860.000000;3.177698
2859.000000;3.293011
2858.000000;3.411774
2857.000000;3.420819
2856.000000;3.485509
2855.000000;3.396144
2854.000000;3.239844
2853.000000;3.105455
2852.000000;3.062488
2851.000000;3.182872
2850.000000;3.439623
2849.000000;3.487151
2848.000000;3.337911
2847.000000;3.262048
2846.000000;3.169089
2845.000000;3.029923
2844.000000;2.966672
2843.000000;3.045549
2842.000000;3.204998
2841.000000;3.259922
2840.000000;3.288176
2839.000000;3.427688
2838.000000;3.692561
2837.000000;3.607993
2836.000000;3.428273
2835.000000;3.805152
2834.000000;3.765142
2833.000000;3.486258
2832.000000;3.592263
2831.000000;3.597806
2830.000000;3.655537
2829.000000;3.577345
2828.000000;3.350778
2827.000000;3.388581
2826.000000;3.601283
2825.000000;3.486398
2824.000000;3.315708
2823.000000;3.304100
2822.000000;3.298715
2821.000000;3.539142
2820.000000;4.252497
2819.000000;3.723848
2818.000000;3.485899
2817.000000;3.287333
2816.000000;3.323593
2815.000000;3.712959
2814.000000;3.672909
2813.000000;3.507800
2812.000000;3.621245
2811.000000;3.482708
2810.000000;3.311513
2809.000000;3.370588
2808.000000;3.524971
2807.000000;3.460439
2806.000000;3.439471
2805.000000;3.529962
2804.000000;3.375881
2803.000000;3.312354
2802.000000;3.261761
2801.000000;3.117596
2800.000000;3.084999
2799.000000;3.172069
2798.000000;3.235118
2797.000000;3.293964
2796.000000;3.631784
2795.000000;3.792679
2794.000000;3.665607
2793.000000;3.864810
2792.000000;3.654155
2791.000000;3.607316
2790.000000;4.010451
2789.000000;4.094792
2788.000000;3.505393
2787.000000;3.343210
2786.000000;3.302886
2785.000000;3.272020
2784.000000;3.216782
2783.000000;3.196932
2782.000000;3.226780
2781.000000;3.130255
2780.000000;3.071886
2779.000000;3.162283
2778.000000;3.237419
2777.000000;3.217652
2776.000000;3.269443
2775.000000;3.341571
2774.000000;3.294311
2773.000000;3.198977
2772.000000;3.232585
2771.000000;3.498313
2770.000000;3.775053
2769.000000;3.862176
2768.000000;3.642272
2767.000000;3.427974
2766.000000;3.353268
2765.000000;3.203033
2764.000000;3.156329
2763.000000;3.332495
2762.000000;3.546154
2761.000000;3.437430
2760.000000;3.320182
2759.000000;3.342756
2758.000000;3.407987
2757.000000;3.308796
2756.000000;3.346864
2755.000000;3.722097
2754.000000;3.569445
2753.000000;3.422282
2752.000000;3.445960
2751.000000;3.355391
2750.000000;3.226349
2749.000000;3.305444
2748.000000;3.677276
2747.000000;3.468904
2746.000000;3.319523
2745.000000;3.475805
2744.000000;3.720047
2743.000000;3.529468
2742.000000;3.300540
2741.000000;3.251333
2740.000000;3.237871
2739.000000;3.324059
2738.000000;3.496176
2737.000000;3.598767
2736.000000;3.564822
2735.000000;3.603510
2734.000000;3.807838
2733.000000;3.527676
2732.000000;3.315801
2731.000000;3.345745
2730.000000;3.408019
2729.000000;3.335390
2728.000000;3.250070
2727.000000;3.307929
2726.000000;3.450928
2725.000000;3.362303
2724.000000;3.277878
2723.000000;3.460574
2722.000000;3.538302
2721.000000;3.323965
2720.000000;3.277830
2719.000000;3.392060
2718.000000;3.398352
2717.000000;3.275449
2716.000000;3.186772
2715.000000;3.111853
2714.000000;3.073552
2713.000000;3.096649
2712.000000;3.200666
2711.000000;3.331894
2710.000000;3.321661
2709.000000;3.215722
2708.000000;3.283792
2707.000000;3.723898
2706.000000;3.763316
2705.000000;3.598194
2704.000000;3.639185
2703.000000;3.640144
2702.000000;3.887647
2701.000000;3.766068
2700.000000;3.378290
2699.000000;3.269856
2698.000000;3.517491
2697.000000;3.470256
2696.000000;3.174431
2695.000000;3.131073
2694.000000;3.168353
2693.000000;3.157739
2692.000000;3.128874
2691.000000;3.210640
2690.000000;3.345478
2689.000000;3.285894
2688.000000;3.162588
2687.000000;3.233627
2686.000000;3.503300
2685.000000;3.558965
2684.000000;3.375414
2683.000000;3.192444
2682.000000;3.081805
2681.000000;3.063786
2680.000000;3.080479
2679.000000;3.090941
2678.000000;3.100553
2677.000000;3.150320
2676.000000;3.351946
2675.000000;3.691865
2674.000000;3.703788
2673.000000;3.422333
2672.000000;3.295494
2671.000000;3.500757
2670.000000;3.556197
2669.000000;3.318090
2668.000000;3.315552
2667.000000;3.385062
2666.000000;3.575271
2665.000000;3.700749
2664.000000;3.408031
2663.000000;3.340425
2662.000000;3.519880
2661.000000;3.482495
2660.000000;3.207598
2659.000000;3.123426
2658.000000;3.151708
2657.000000;3.149446
2656.000000;3.174770
2655.000000;3.333441
2654.000000;3.546409
2653.000000;3.697730
2652.000000;4.050081
2651.000000;3.712166
2650.000000;3.273706
2649.000000;3.189383
2648.000000;3.351466
2647.000000;3.427744
2646.000000;3.481572
2645.000000;3.564915
2644.000000;3.229295
2643.000000;3.115482
2642.000000;3.214479
2641.000000;3.190482
2640.000000;3.152665
2639.000000;3.210814
2638.000000;3.229254
2637.000000;3.243415
2636.000000;3.341862
2635.000000;3.512858
2634.000000;3.830357
2633.000000;3.794199
2632.000000;3.420412
2631.000000;3.438369
2630.000000;3.569384
2629.000000;3.770465
2628.000000;4.031329
2627.000000;3.469610
2626.000000;3.260312
2625.000000;3.362507
2624.000000;3.644539
2623.000000;3.689172
2622.000000;4.080397
2621.000000;3.787709
2620.000000;3.255486
2619.000000;3.156749
2618.000000;3.072296
2617.000000;2.956384
2616.000000;2.958401
2615.000000;3.135742
2614.000000;3.496714
2613.000000;3.672766
2612.000000;3.659183
2611.000000;3.983434
2610.000000;3.741788
2609.000000;3.371074
2608.000000;3.371133
2607.000000;3.439173
2606.000000;3.358684
2605.000000;3.315961
2604.000000;3.249171
2603.000000;3.297511
2602.000000;3.583355
2601.000000;4.013440
2600.000000;4.000584
2599.000000;3.554586
2598.000000;3.396698
2597.000000;3.500053
2596.000000;3.780930
2595.000000;3.606176
2594.000000;3.431964
2593.000000;3.517071
2592.000000;3.721234
2591.000000;3.910964
2590.000000;3.737035
2589.000000;3.810669
2588.000000;3.782305
2587.000000;3.698279
2586.000000;3.925099
2585.000000;3.623228
2584.000000;3.403517
2583.000000;3.291573
2582.000000;3.249416
2581.000000;3.330533
2580.000000;3.253494
2579.000000;3.128581
2578.000000;3.096388
2577.000000;3.135671
2576.000000;3.191148
2575.000000;3.171660
2574.000000;3.162008
2573.000000;3.300263
2572.000000;3.458239
2571.000000;3.433408
2570.000000;3.535522
2569.000000;3.346691
2568.000000;3.085171
2567.000000;3.015178
2566.000000;2.999162
2565.000000;2.995824
2564.000000;2.984376
2563.000000;3.037868
2562.000000;3.244580
2561.000000;3.431822
2560.000000;3.463182
2559.000000;3.640372
2558.000000;3.730573
2557.000000;3.537953
2556.000000;3.447793
2555.000000;3.309861
2554.000000;3.220878
2553.000000;3.190946
2552.000000;3.158071
2551.000000;3.229890
2550.000000;3.471893
2549.000000;3.483781
2548.000000;3.217793
2547.000000;3.207498
2546.000000;3.283615
2545.000000;3.240205
2544.000000;3.372919
2543.000000;3.595134
2542.000000;3.440565
2541.000000;3.372903
2540.000000;3.333406
2539.000000;3.402264
2538.000000;4.012543
2537.000000;4.018274
2536.000000;3.656245
2535.000000;3.827665
2534.000000;3.732268
2533.000000;3.368783
2532.000000;3.110865
2531.000000;3.012934
2530.000000;3.094117
2529.000000;3.186049
2528.000000;3.458253
2527.000000;4.124564
2526.000000;3.681564
2525.000000;3.880997
2524.000000;3.655719
2523.000000;3.475753
2522.000000;3.494076
2521.000000;3.308819
2520.000000;3.234557
2519.000000;3.594180
2518.000000;3.640254
2517.000000;3.274569
2516.000000;3.407795
2515.000000;3.466426
2514.000000;3.304813
2513.000000;3.154747
2512.000000;3.094334
2511.000000;3.154034
2510.000000;3.256216
2509.000000;3.376658
2508.000000;3.486476
2507.000000;3.573030
2506.000000;3.799848
2505.000000;3.903768
2504.000000;3.609847
2503.000000;3.475833
2502.000000;3.340705
2501.000000;3.174433
2500.000000;3.084085
2499.000000;3.147990
2498.000000;3.262797
2497.000000;3.261673
2496.000000;3.344012
2495.000000;3.586595
2494.000000;3.566710
2493.000000;3.474402
2492.000000;3.467901
2491.000000;3.390680
2490.000000;3.506666
2489.000000;3.497840
2488.000000;3.308667
2487.000000;3.283272
2486.000000;3.222176
2485.000000;3.244565
2484.000000;3.484250
2483.000000;3.502297
2482.000000;3.254835
2481.000000;3.200295
2480.000000;3.283230
2479.000000;3.285344
2478.000000;3.245647
2477.000000;3.332998
2476.000000;3.515433
2475.000000;3.434172
2474.000000;3.293397
2473.000000;3.346836
2472.000000;3.332072
2471.000000;3.299067
2470.000000;3.378214
2469.000000;3.531777
2468.000000;3.843265
2467.000000;4.089612
2466.000000;4.248643
2465.000000;3.919572
2464.000000;3.748796
2463.000000;3.487821
2462.000000;3.243455
2461.000000;3.233705
2460.000000;3.313505
2459.000000;3.317201
2458.000000;3.502909
2457.000000;3.828812
2456.000000;3.451909
2455.000000;3.407425
2454.000000;3.731879
2453.000000;3.848724
2452.000000;3.762070
2451.000000;3.616342
2450.000000;3.565621
2449.000000;3.840530
2448.000000;3.662848
2447.000000;3.576469
2446.000000;3.478727
2445.000000;3.285675
2444.000000;3.349435
2443.000000;3.561313
2442.000000;3.553932
2441.000000;3.379091
2440.000000;3.324163
2439.000000;3.524465
2438.000000;3.447853
2437.000000;3.321414
2436.000000;3.533653
2435.000000;3.970851
2434.000000;4.585059
2433.000000;4.158618
2432.000000;3.694104
2431.000000;3.484966
2430.000000;3.703160
2429.000000;3.633822
2428.000000;3.237703
2427.000000;3.282710
2426.000000;3.886272
2425.000000;3.728116
2424.000000;3.473500
2423.000000;3.407351
2422.000000;3.335708
2421.000000;3.387749
2420.000000;3.466788
2419.000000;3.369773
2418.000000;3.252767
2417.000000;3.375713
2416.000000;3.633771
2415.000000;3.567975
2414.000000;3.524614
2413.000000;3.465423
2412.000000;3.609082
2411.000000;3.728461
2410.000000;3.422883
2409.000000;3.398486
2408.000000;3.401998
2407.000000;3.222045
2406.000000;3.200643
2405.000000;3.512433
2404.000000;3.602681
2403.000000;3.654376
2402.000000;3.815102
2401.000000;3.546363
2400.000000;3.334502
2399.000000;3.253522
2398.000000;3.325958
2397.000000;3.358937
2396.000000;3.284818
2395.000000;3.314654
2394.000000;3.522171
2393.000000;3.599236
2392.000000;3.399027
2391.000000;3.355045
2390.000000;3.345035
2389.000000;3.404016
2388.000000;3.724914
2387.000000;3.819487
2386.000000;3.426675
2385.000000;3.493799
2384.000000;3.733538
2383.000000;3.608610
2382.000000;3.332817
2381.000000;3.232772
2380.000000;3.274325
2379.000000;3.333439
2378.000000;3.351540
2377.000000;3.425075
2376.000000;4.030336
2375.000000;3.718028
2374.000000;3.364142
2373.000000;3.564800
2372.000000;3.490058
2371.000000;3.345334
2370.000000;3.371213
2369.000000;3.408704
2368.000000;3.308309
2367.000000;3.175562
2366.000000;3.215137
2365.000000;3.325972
2364.000000;3.322137
2363.000000;3.515817
2362.000000;3.888738
2361.000000;3.805031
2360.000000;3.842372
2359.000000;3.513425
2358.000000;3.271473
2357.000000;3.655997
2356.000000;3.660152
2355.000000;3.284371
2354.000000;3.360429
2353.000000;3.262721
2352.000000;3.140952
2351.000000;3.317173
2350.000000;3.292907
2349.000000;3.110413
2348.000000;3.129448
2347.000000;3.261158
2346.000000;3.310424
2345.000000;3.320296
2344.000000;3.538738
2343.000000;3.642656
2342.000000;3.157156
2341.000000;3.041435
2340.000000;3.145572
2339.000000;3.281645
2338.000000;3.343185
2337.000000;3.236042
2336.000000;3.117607
2335.000000;3.211565
2334.000000;3.474621
2333.000000;3.855560
2332.000000;4.072810
2331.000000;3.822731
2330.000000;3.632379
2329.000000;3.314749
2328.000000;3.329699
2327.000000;3.852470
2326.000000;3.782928
2325.000000;3.574494
2324.000000;3.829666
2323.000000;4.008642
2322.000000;3.665448
2321.000000;3.403969
2320.000000;3.415444
2319.000000;3.727516
2318.000000;3.493828
2317.000000;3.350008
2316.000000;3.390377
2315.000000;3.516042
2314.000000;3.701810
2313.000000;3.619497
2312.000000;3.546788
2311.000000;3.652899
2310.000000;3.605222
2309.000000;3.644442
2308.000000;4.025150
2307.000000;4.573203
2306.000000;4.343187
2305.000000;3.618887
2304.000000;3.410167
2303.000000;3.676153
2302.000000;3.984366
2301.000000;3.953568
2300.000000;4.237702
2299.000000;3.796664
2298.000000;3.834862
2297.000000;3.797358
2296.000000;3.488883
2295.000000;3.460605
2294.000000;3.564929
2293.000000;3.618180
2292.000000;3.797806
2291.000000;3.904960
2290.000000;3.625743
2289.000000;3.501152
2288.000000;3.423715
2287.000000;3.322349
2286.000000;3.230721
2285.000000;3.324033
2284.000000;3.650948
2283.000000;3.740304
2282.000000;3.439501
2281.000000;3.518059
2280.000000;3.907197
2279.000000;3.698426
2278.000000;3.375652
2277.000000;3.267998
2276.000000;3.449186
2275.000000;3.679761
2274.000000;3.368069
2273.000000;3.301531
2272.000000;3.413752
2271.000000;3.430141
2270.000000;3.300325
2269.000000;3.339343
2268.000000;3.451335
2267.000000;3.357548
2266.000000;3.213518
2265.000000;3.207062
2264.000000;3.303647
2263.000000;3.383655
2262.000000;3.406332
2261.000000;3.534810
2260.000000;3.791117
2259.000000;3.855195
2258.000000;3.797505
2257.000000;4.347787
2256.000000;3.508072
2255.000000;3.469750
2254.000000;3.663445
2253.000000;3.728517
2252.000000;3.508482
2251.000000;3.321439
2250.000000;3.135872
2249.000000;3.123966
2248.000000;3.231697
2247.000000;3.213994
2246.000000;3.092655
2245.000000;3.103329
2244.000000;3.257016
2243.000000;3.309153
2242.000000;3.298614
2241.000000;3.448411
2240.000000;3.667140
2239.000000;3.586621
2238.000000;3.544279
2237.000000;3.896152
2236.000000;3.356699
2235.000000;3.265644
2234.000000;3.480607
2233.000000;3.482761
2232.000000;3.364441
2231.000000;3.283490
2230.000000;3.225376
2229.000000;3.272855
2228.000000;3.438217
2227.000000;3.713451
2226.000000;3.929884
2225.000000;3.662176
2224.000000;3.373650
2223.000000;3.472050
2222.000000;3.940495
2221.000000;3.906142
2220.000000;3.578628
2219.000000;3.494204
2218.000000;3.424539
2217.000000;3.288880
2216.000000;3.192597
2215.000000;3.277639
2214.000000;3.351819
2213.000000;3.712542
2212.000000;3.532065
2211.000000;3.245515
2210.000000;3.160865
2209.000000;3.086131
2208.000000;3.106204
2207.000000;3.331602
2206.000000;3.785566
2205.000000;3.592218
2204.000000;3.345143
2203.000000;3.442134
2202.000000;3.526053
2201.000000;3.302095
2200.000000;3.250518
2199.000000;3.311694
2198.000000;3.423461
2197.000000;3.428067
2196.000000;3.507566
2195.000000;3.647437
2194.000000;3.481711
2193.000000;3.526024
2192.000000;3.862021
2191.000000;3.446045
2190.000000;3.185480
2189.000000;3.256397
2188.000000;3.426964
2187.000000;3.431420
2186.000000;3.521455
2185.000000;3.824086
2184.000000;3.803675
2183.000000;3.549697
2182.000000;3.317349
2181.000000;3.356636
2180.000000;3.501853
2179.000000;3.777055
2178.000000;4.005924
2177.000000;3.665963
2176.000000;3.773409
2175.000000;3.813737
2174.000000;3.804780
2173.000000;3.922744
2172.000000;3.833439
2171.000000;4.161914
2170.000000;3.606018
2169.000000;3.685900
2168.000000;3.714648
2167.000000;3.538725
2166.000000;3.397549
2165.000000;3.175077
2164.000000;3.051101
2163.000000;3.094122
2162.000000;3.357918
2161.000000;3.561365
2160.000000;3.714573
2159.000000;3.620589
2158.000000;3.536442
2157.000000;3.845082
2156.000000;3.676373
2155.000000;3.496231
2154.000000;3.215109
2153.000000;3.143135
2152.000000;3.246263
2151.000000;3.265999
2150.000000;3.169732
2149.000000;3.232068
2148.000000;3.289128
2147.000000;3.387210
2146.000000;3.856091
2145.000000;3.550300
2144.000000;3.246568
2143.000000;3.256921
2142.000000;3.553502
2141.000000;3.993629
2140.000000;3.562181
2139.000000;3.374529
2138.000000;3.365666
2137.000000;3.313092
2136.000000;3.214965
2135.000000;3.688089
2134.000000;3.733894
2133.000000;3.548958
2132.000000;3.711293
2131.000000;3.550158
2130.000000;3.467414
2129.000000;3.279684
2128.000000;3.159171
2127.000000;3.101495
2126.000000;3.084290
2125.000000;3.149039
2124.000000;3.312620
2123.000000;3.436566
2122.000000;3.374418
2121.000000;3.282487
2120.000000;3.226185
2119.000000;3.453387
2118.000000;3.685089
2117.000000;3.390767
2116.000000;3.314907
2115.000000;3.388191
2114.000000;3.373592
2113.000000;3.225266
2112.000000;3.232872
2111.000000;3.419679
2110.000000;3.550910
2109.000000;3.759809
2108.000000;4.242966
2107.000000;3.985134
2106.000000;3.655544
2105.000000;3.280993
2104.000000;3.102934
2103.000000;3.133452
2102.000000;3.246177
2101.000000;3.259574
2100.000000;3.443726
2099.000000;3.710910
2098.000000;3.337527
2097.000000;3.614128
2096.000000;3.642487
2095.000000;3.397863
2094.000000;3.441289
2093.000000;3.336533
2092.000000;3.222944
2091.000000;3.273989
2090.000000;3.608029
2089.000000;3.767325
2088.000000;3.800054
2087.000000;3.825022
2086.000000;3.705025
2085.000000;4.027526
2084.000000;3.617642
2083.000000;4.082859
2082.000000;3.740748
2081.000000;4.021717
2080.000000;3.899861
2079.000000;3.703167
2078.000000;3.435768
2077.000000;3.208387
2076.000000;3.254472
2075.000000;3.541682
2074.000000;4.424914
2073.000000;3.863673
2072.000000;3.524422
2071.000000;3.493531
2070.000000;3.633242
2069.000000;4.118145
2068.000000;3.800152
2067.000000;3.473174
2066.000000;3.498665
2065.000000;3.463909
2064.000000;3.194681
2063.000000;3.226688
2062.000000;3.346404
2061.000000;3.373962
2060.000000;3.670178
2059.000000;3.685016
2058.000000;3.279761
2057.000000;3.208231
2056.000000;3.225232
2055.000000;3.213214
2054.000000;3.256803
2053.000000;3.615722
2052.000000;4.441464
2051.000000;3.944508
2050.000000;3.508971
2049.000000;3.334596
2048.000000;3.253967
2047.000000;3.345927
2046.000000;3.536817
2045.000000;3.595690
2044.000000;3.801297
2043.000000;3.711729
2042.000000;3.202073
2041.000000;3.106702
2040.000000;3.117444
2039.000000;3.129165
2038.000000;3.192944
2037.000000;3.399418
2036.000000;3.640577
2035.000000;3.512099
2034.000000;3.287736
2033.000000;3.246686
2032.000000;3.347920
2031.000000;3.450097
2030.000000;3.362127
2029.000000;3.348301
2028.000000;3.788213
2027.000000;3.532478
2026.000000;3.236871
2025.000000;3.261679
2024.000000;3.242755
2023.000000;3.146095
2022.000000;3.150327
2021.000000;3.431793
2020.000000;3.374730
2019.000000;3.327549
2018.000000;3.390581
2017.000000;3.231049
2016.000000;3.230641
2015.000000;3.495466
2014.000000;3.717590
2013.000000;3.662565
2012.000000;3.433151
2011.000000;3.247482
2010.000000;3.118078
2009.000000;2.988303
2008.000000;2.989333
2007.000000;3.162420
2006.000000;3.202303
2005.000000;3.127233
2004.000000;3.250893
2003.000000;3.387925
2002.000000;3.341246
2001.000000;3.453034
2000.000000;3.731447
1999.000000;3.833515
1998.000000;3.744026
1997.000000;3.616373
1996.000000;3.581549
1995.000000;3.438557
1994.000000;3.281979
1993.000000;3.412702
1992.000000;3.737345
1991.000000;3.831903
1990.000000;4.501448
1989.000000;4.105534
1988.000000;3.647611
1987.000000;3.303881
1986.000000;3.361994
1985.000000;3.800558
1984.000000;3.846645
1983.000000;3.753807
1982.000000;3.208606
1981.000000;3.023081
1980.000000;2.991066
1979.000000;3.011898
1978.000000;3.140354
1977.000000;3.231951
1976.000000;3.131712
1975.000000;3.170360
1974.000000;3.313739
1973.000000;3.455069
1972.000000;4.099024
1971.000000;3.545499
1970.000000;3.262777
1969.000000;3.303456
1968.000000;3.410661
1967.000000;3.377403
1966.000000;3.400135
1965.000000;3.794534
1964.000000;3.802619
1963.000000;3.714315
1962.000000;3.528352
1961.000000;3.458209
1960.000000;3.771507
1959.000000;3.537298
1958.000000;3.234545
1957.000000;3.363340
1956.000000;3.631655
1955.000000;3.809570
1954.000000;3.644521
1953.000000;3.249671
1952.000000;3.130827
1951.000000;3.184344
1950.000000;3.336156
1949.000000;3.334076
1948.000000;3.240786
1947.000000;3.422803
1946.000000;3.783190
1945.000000;3.517472
1944.000000;3.263595
1943.000000;3.228163
1942.000000;3.190341
1941.000000;3.078949
1940.000000;3.122117
1939.000000;3.457945
1938.000000;3.728944
1937.000000;3.717741
1936.000000;3.739487
1935.000000;3.618765
1934.000000;3.506699
1933.000000;3.651959
1932.000000;3.684635
1931.000000;3.632620
1930.000000;3.513140
1929.000000;3.437224
1928.000000;3.663797
1927.000000;3.588401
1926.000000;3.256114
1925.000000;3.312052
1924.000000;3.571609
1923.000000;3.548234
1922.000000;3.427780
1921.000000;3.356576
1920.000000;3.272740
1919.000000;3.317202
1918.000000;3.338841
1917.000000;3.266595
1916.000000;3.363581
1915.000000;3.677247
1914.000000;3.453495
1913.000000;3.543070
1912.000000;3.950234
1911.000000;3.621550
1910.000000;3.575723
1909.000000;3.691587
1908.000000;3.530405
1907.000000;3.551559
1906.000000;3.507438
1905.000000;3.277765
1904.000000;3.286278
1903.000000;3.380491
1902.000000;3.263326
1901.000000;3.506684
1900.000000;3.920203
1899.000000;3.372420
1898.000000;3.312797
1897.000000;3.385765
1896.000000;3.425955
1895.000000;3.412577
1894.000000;3.257218
1893.000000;3.216291
1892.000000;3.291347
1891.000000;3.190879
1890.000000;3.136768
1889.000000;3.307856
1888.000000;3.721539
1887.000000;3.495740
1886.000000;3.318575
1885.000000;3.461306
1884.000000;3.680777
1883.000000;3.775855
1882.000000;3.564883
1881.000000;3.679349
1880.000000;3.583729
1879.000000;3.360767
1878.000000;3.382196
1877.000000;3.397202
1876.000000;3.315666
1875.000000;3.356706
1874.000000;3.434220
1873.000000;3.331863
1872.000000;3.328938
1871.000000;3.469673
1870.000000;3.382307
1869.000000;3.230340
1868.000000;3.285339
1867.000000;3.637864
1866.000000;3.908395
1865.000000;3.852344
1864.000000;3.900370
1863.000000;3.658777
1862.000000;3.515488
1861.000000;3.627783
1860.000000;3.733161
1859.000000;3.463155
1858.000000;3.208704
1857.000000;3.161654
1856.000000;3.249703
1855.000000;3.323125
1854.000000;3.321776
1853.000000;3.349238
1852.000000;3.564058
1851.000000;3.651783
1850.000000;3.516377
1849.000000;3.794460
1848.000000;3.602734
1847.000000;3.452006
1846.000000;3.480381
1845.000000;3.359468
1844.000000;3.366366
1843.000000;3.564236
1842.000000;3.630168
1841.000000;3.292530
1840.000000;3.132611
1839.000000;3.277066
1838.000000;3.452888
1837.000000;3.365370
1836.000000;3.397734
1835.000000;3.750833
1834.000000;3.792725
1833.000000;3.469228
1832.000000;3.316028
1831.000000;3.287450
1830.000000;3.412407
1829.000000;3.730009
1828.000000;3.979473
1827.000000;3.580723
1826.000000;3.348996
1825.000000;3.250169
1824.000000;3.152405
1823.000000;3.244155
1822.000000;3.388255
1821.000000;3.290105
1820.000000;3.261172
1819.000000;3.242084
1818.000000;3.201767
1817.000000;3.159116
1816.000000;3.190496
1815.000000;3.326807
1814.000000;3.371486
1813.000000;3.313373
1812.000000;3.254704
1811.000000;3.387320
1810.000000;3.572567
1809.000000;3.375423
1808.000000;3.327882
1807.000000;3.359595
1806.000000;3.301615
1805.000000;3.431622
1804.000000;3.849627
1803.000000;3.732896
1802.000000;3.385511
1801.000000;3.115454
1800.000000;3.097442
1799.000000;3.437408
1798.000000;3.311996
1797.000000;3.065503
1796.000000;3.135561
1795.000000;3.395480
1794.000000;3.682286
1793.000000;3.655704
1792.000000;3.569321
1791.000000;3.462337
1790.000000;3.366432
1789.000000;3.219200
1788.000000;3.261303
1787.000000;3.671415
1786.000000;3.357013
1785.000000;3.084647
1784.000000;3.200225
1783.000000;3.477814
1782.000000;3.276553
1781.000000;3.212177
1780.000000;3.405654
1779.000000;3.729643
1778.000000;4.143478
1777.000000;3.604105
1776.000000;3.437225
1775.000000;3.665867
1774.000000;4.277126
1773.000000;4.101399
1772.000000;3.571427
1771.000000;3.631699
1770.000000;4.020099
1769.000000;3.366331
1768.000000;3.153363
1767.000000;3.319049
1766.000000;3.593235
1765.000000;3.540153
1764.000000;3.484061
1763.000000;3.324411
1762.000000;3.117820
1761.000000;3.067998
1760.000000;3.121385
1759.000000;3.128794
1758.000000;3.096173
1757.000000;3.167178
1756.000000;3.488904
1755.000000;3.565655
1754.000000;3.442018
1753.000000;3.904829
1752.000000;3.595201
1751.000000;3.492173
1750.000000;4.218711
1749.000000;3.732761
1748.000000;3.481095
1747.000000;3.485578
1746.000000;3.568822
1745.000000;3.424775
1744.000000;3.408701
1743.000000;3.735058
1742.000000;3.603869
1741.000000;3.513106
1740.000000;3.878622
1739.000000;4.228556
1738.000000;3.997141
1737.000000;3.769590
1736.000000;3.557152
1735.000000;3.593692
1734.000000;3.729874
1733.000000;3.413574
1732.000000;3.301044
1731.000000;3.475188
1730.000000;3.345178
1729.000000;3.260040
1728.000000;3.453482
1727.000000;3.782279
1726.000000;4.111660
1725.000000;3.840549
1724.000000;3.871249
1723.000000;3.761006
1722.000000;3.361734
1721.000000;3.320631
1720.000000;3.404823
1719.000000;3.277564
1718.000000;3.115804
1717.000000;3.125730
1716.000000;3.247412
1715.000000;3.369838
1714.000000;3.370905
1713.000000;3.393501
1712.000000;3.458029
1711.000000;3.424747
1710.000000;3.647524
1709.000000;3.762447
1708.000000;3.241691
1707.000000;3.133354
1706.000000;3.624764
1705.000000;3.549206
1704.000000;3.237867
1703.000000;3.399030
1702.000000;3.787319
1701.000000;3.768754
1700.000000;3.296681
1699.000000;3.074103
1698.000000;3.067280
1697.000000;3.081676
1696.000000;3.225670
1695.000000;3.567622
1694.000000;3.109569
1693.000000;2.935239
1692.000000;3.097998
1691.000000;3.451370
1690.000000;3.343853
1689.000000;3.301780
1688.000000;3.632554
1687.000000;3.810415
1686.000000;3.622101
1685.000000;3.236798
1684.000000;3.113013
1683.000000;3.537123
1682.000000;3.819514
1681.000000;3.402363
1680.000000;3.524943
1679.000000;3.580518
1678.000000;4.052080
1677.000000;3.811397
1676.000000;3.294369
1675.000000;3.183420
1674.000000;3.245903
1673.000000;3.582460
1672.000000;3.607850
1671.000000;3.234492
1670.000000;3.039402
1669.000000;3.025605
1668.000000;3.190043
1667.000000;3.268286
1666.000000;3.201460
1665.000000;3.502685
1664.000000;3.881348
1663.000000;3.412755
1662.000000;3.440263
1661.000000;3.353630
1660.000000;3.172566
1659.000000;3.312577
1658.000000;3.620487
1657.000000;3.470511
1656.000000;3.302626
1655.000000;3.289525
1654.000000;3.367666
1653.000000;3.563814
1652.000000;3.965628
1651.000000;3.792002
1650.000000;3.435715
1649.000000;3.450562
1648.000000;3.557968
1647.000000;3.680805
1646.000000;3.950503
1645.000000;3.484809
1644.000000;3.424951
1643.000000;3.882624
1642.000000;4.344608
1641.000000;3.967379
1640.000000;3.604137
1639.000000;3.638143
1638.000000;4.014727
1637.000000;3.874540
1636.000000;3.381050
1635.000000;3.415813
1634.000000;3.941946
1633.000000;3.832219
1632.000000;3.317123
1631.000000;3.146001
1630.000000;3.084088
1629.000000;3.070432
1628.000000;3.442832
1627.000000;3.550872
1626.000000;3.217977
1625.000000;3.415540
1624.000000;3.505274
1623.000000;3.428821
1622.000000;3.481665
1621.000000;3.594186
1620.000000;4.221735
1619.000000;3.573450
1618.000000;3.300154
1617.000000;3.347951
1616.000000;3.574255
1615.000000;3.532172
1614.000000;3.417852
1613.000000;3.744076
1612.000000;3.310859
1611.000000;3.105156
1610.000000;3.173690
1609.000000;3.307818
1608.000000;3.594227
1607.000000;3.482191
1606.000000;3.359788
1605.000000;3.505471
1604.000000;3.563983
1603.000000;3.320708
1602.000000;3.334970
1601.000000;3.393454
1600.000000;3.262347
1599.000000;3.432017
1598.000000;3.460429
1597.000000;3.194398
1596.000000;3.199289
1595.000000;3.200190
1594.000000;3.291160
1593.000000;4.330376
1592.000000;3.572479
1591.000000;3.433675
1590.000000;3.925324
1589.000000;3.211763
1588.000000;3.034414
1587.000000;3.204983
1586.000000;3.613133
1585.000000;3.731053
1584.000000;3.425504
1583.000000;3.412876
1582.000000;3.790438
1581.000000;3.592442
1580.000000;3.361510
1579.000000;3.482142
1578.000000;3.540080
1577.000000;3.804906
1576.000000;3.658670
1575.000000;3.577724
1574.000000;3.680162
1573.000000;3.319736
1572.000000;3.298063
1571.000000;3.625081
1570.000000;3.340053
1569.000000;3.161794
1568.000000;3.244911
1567.000000;3.403984
1566.000000;4.013751
1565.000000;3.544138
1564.000000;3.366954
1563.000000;3.714899
1562.000000;3.777114
1561.000000;3.623324
1560.000000;3.791574
1559.000000;3.561761
1558.000000;3.316427
1557.000000;3.547555
1556.000000;3.745395
1555.000000;3.854794
1554.000000;3.739721
1553.000000;3.489311
1552.000000;3.579859
1551.000000;3.443817
1550.000000;3.305571
1549.000000;3.603226
1548.000000;3.689795
1547.000000;3.405956
1546.000000;3.634546
1545.000000;3.501019
1544.000000;3.165536
1543.000000;3.114120
1542.000000;3.173147
1541.000000;3.182350
1540.000000;3.114478
1539.000000;3.146685
1538.000000;3.301167
1537.000000;3.634746
1536.000000;4.285853
1535.000000;3.460794
1534.000000;3.126906
1533.000000;3.061247
1532.000000;3.262352
1531.000000;3.793949
1530.000000;3.621542
1529.000000;3.421199
1528.000000;3.524389
1527.000000;3.891616
1526.000000;3.625141
1525.000000;3.448247
1524.000000;3.511138
1523.000000;3.572962
1522.000000;3.558931
1521.000000;3.285279
1520.000000;3.166219
1519.000000;3.350427
1518.000000;3.516835
1517.000000;3.387934
1516.000000;3.572790
1515.000000;3.805219
1514.000000;3.696618
1513.000000;3.394481
1512.000000;3.364443
1511.000000;3.904411
1510.000000;3.646609
1509.000000;3.351597
1508.000000;3.325163
1507.000000;3.344940
1506.000000;3.358694
1505.000000;3.396702
1504.000000;3.324347
1503.000000;3.157999
1502.000000;3.129024
1501.000000;3.348685
1500.000000;3.892063
1499.000000;4.263811
1498.000000;3.899487
1497.000000;3.619657
1496.000000;3.585885
1495.000000;3.504021
1494.000000;3.427192
1493.000000;3.535288
1492.000000;3.444171
1491.000000;3.185765
1490.000000;3.132391
1489.000000;3.410936
1488.000000;3.959404
1487.000000;3.529156
1486.000000;3.158456
1485.000000;3.059801
1484.000000;3.153570
1483.000000;3.108860
1482.000000;2.985066
1481.000000;3.117997
1480.000000;3.480833
1479.000000;3.496665
1478.000000;3.280223
1477.000000;3.266709
1476.000000;3.446075
1475.000000;3.464512
1474.000000;3.666926
1473.000000;3.721201
1472.000000;3.283567
1471.000000;3.314348
1470.000000;3.287943
1469.000000;3.244217
1468.000000;3.376785
1467.000000;3.401733
1466.000000;3.379122
1465.000000;3.347196
1464.000000;3.229441
1463.000000;3.307026
1462.000000;3.892408
1461.000000;3.491851
1460.000000;3.204095
1459.000000;3.223011
1458.000000;3.274838
1457.000000;3.269763
1456.000000;3.333739
1455.000000;3.333483
1454.000000;3.243749
1453.000000;3.349937
1452.000000;3.348049
1451.000000;3.205984
1450.000000;3.272005
1449.000000;3.660328
1448.000000;3.713576
1447.000000;3.378474
1446.000000;3.205108
1445.000000;3.121625
1444.000000;3.148873
1443.000000;3.041028
1442.000000;2.947653
1441.000000;3.064227
1440.000000;3.457672
1439.000000;3.862784
1438.000000;3.558457
1437.000000;3.420097
1436.000000;3.424144
1435.000000;3.517984
1434.000000;3.421689
1433.000000;3.160743
1432.000000;3.129152
1431.000000;3.452328
1430.000000;3.395444
1429.000000;3.346926
1428.000000;3.471948
1427.000000;3.213027
1426.000000;3.159922
1425.000000;3.181025
1424.000000;3.254924
1423.000000;3.312569
1422.000000;3.268475
1421.000000;3.292969
1420.000000;3.390933
1419.000000;3.695804
1418.000000;3.590118
1417.000000;3.424304
1416.000000;3.302132
1415.000000;3.154422
1414.000000;3.335056
1413.000000;3.727630
1412.000000;3.290047
1411.000000;2.981269
1410.000000;2.956124
1409.000000;3.236872
1408.000000;3.753251
1407.000000;3.524994
1406.000000;3.541944
1405.000000;3.748125
1404.000000;3.360859
1403.000000;3.300100
1402.000000;3.586596
1401.000000;3.371021
1400.000000;3.220423
1399.000000;3.360401
1398.000000;3.266346
1397.000000;3.139838
1396.000000;3.195722
1395.000000;3.300563
1394.000000;3.577445
1393.000000;3.880703
1392.000000;3.400642
1391.000000;3.286852
1390.000000;3.413846
1389.000000;3.464912
1388.000000;3.519630
1387.000000;3.552919
1386.000000;3.437122
1385.000000;3.700857
1384.000000;3.862619
1383.000000;3.855030
1382.000000;3.501393
1381.000000;3.380986
1380.000000;3.990959
1379.000000;4.264328
1378.000000;3.501946
1377.000000;3.181341
1376.000000;3.073295
1375.000000;3.105141
1374.000000;3.138224
1373.000000;3.180943
1372.000000;3.431496
1371.000000;3.301998
1370.000000;2.980941
1369.000000;3.019528
1368.000000;3.305540
1367.000000;3.342754
1366.000000;3.297111
1365.000000;3.494093
1364.000000;3.441207
1363.000000;3.295993
1362.000000;3.480330
1361.000000;3.733012
1360.000000;3.464444
1359.000000;3.477660
1358.000000;3.403955
1357.000000;3.125821
1356.000000;3.085031
1355.000000;3.183487
1354.000000;3.187903
1353.000000;3.134232
1352.000000;3.073907
1351.000000;2.906939
1350.000000;2.773297
1349.000000;2.799333
1348.000000;3.020345
1347.000000;3.484413
1346.000000;4.115813
1345.000000;3.604170
1344.000000;3.452760
1343.000000;3.831613
1342.000000;3.381500
1341.000000;3.136076
1340.000000;3.139820
1339.000000;3.378248
1338.000000;3.943906
1337.000000;3.551895
1336.000000;3.211362
1335.000000;3.124624
1334.000000;3.070799
1333.000000;3.114278
1332.000000;3.346904
1331.000000;3.891307
1330.000000;3.998746
1329.000000;3.653835
1328.000000;3.366826
1327.000000;3.075945
1326.000000;2.955933
1325.000000;3.008699
1324.000000;3.169413
1323.000000;3.261388
1322.000000;3.302983
1321.000000;3.208730
1320.000000;3.156102
1319.000000;3.282335
1318.000000;3.204068
1317.000000;3.142021
1316.000000;3.330481
1315.000000;3.754795
1314.000000;3.802629
1313.000000;3.334211
1312.000000;3.105687
1311.000000;3.063527
1310.000000;3.081152
1309.000000;3.040362
1308.000000;2.967795
1307.000000;3.002300
1306.000000;3.108370
1305.000000;3.152860
1304.000000;3.278466
1303.000000;3.402047
1302.000000;3.278831
1301.000000;3.306273
1300.000000;3.421712
1299.000000;3.371114
1298.000000;3.305966
1297.000000;3.392968
1296.000000;3.558992
1295.000000;3.563420
1294.000000;3.714793
1293.000000;3.684760
1292.000000;3.376545
1291.000000;3.372018
1290.000000;3.327069
1289.000000;3.135215
1288.000000;3.011244
1287.000000;2.957867
1286.000000;2.969326
1285.000000;3.283947
1284.000000;4.068926
1283.000000;3.499598
1282.000000;3.397956
1281.000000;3.511036
1280.000000;3.682078
1279.000000;3.532756
1278.000000;3.411934
1277.000000;3.082128
1276.000000;2.909455
1275.000000;2.986668
1274.000000;3.284343
1273.000000;3.338528
1272.000000;3.365514
1271.000000;3.580234
1270.000000;3.929225
1269.000000;3.270285
1268.000000;3.048667
1267.000000;3.213202
1266.000000;3.317242
1265.000000;3.146679
1264.000000;3.167250
1263.000000;3.293150
1262.000000;3.083150
1261.000000;3.028624
1260.000000;3.199347
1259.000000;3.524938
1258.000000;3.915644
1257.000000;3.487688
1256.000000;3.266921
1255.000000;3.558620
1254.000000;3.694686
1253.000000;3.385390
1252.000000;3.415637
1251.000000;3.397100
1250.000000;3.391510
1249.000000;3.318256
1248.000000;3.252165
1247.000000;3.638797
1246.000000;3.481114
1245.000000;3.267390
1244.000000;3.253587
1243.000000;3.153478
1242.000000;3.013460
1241.000000;2.910225
1240.000000;2.965586
1239.000000;3.052824
1238.000000;2.900118
1237.000000;2.888990
1236.000000;3.043460
1235.000000;3.236326
1234.000000;3.427612
1233.000000;3.465257
1232.000000;3.223600
1231.000000;3.100586
1230.000000;3.099168
1229.000000;3.205666
1228.000000;3.177980
1227.000000;3.091451
1226.000000;3.191862
1225.000000;3.164552
1224.000000;2.967336
1223.000000;2.988789
1222.000000;3.097918
1221.000000;3.157839
1220.000000;3.312301
1219.000000;3.463597
1218.000000;3.338559
1217.000000;3.409022
1216.000000;3.505557
1215.000000;3.216173
1214.000000;2.987863
1213.000000;2.928043
1212.000000;2.897242
1211.000000;2.869468
1210.000000;2.964498
1209.000000;3.152552
1208.000000;3.118016
1207.000000;3.294744
1206.000000;3.591737
1205.000000;3.317782
1204.000000;3.633187
1203.000000;3.417717
1202.000000;2.983720
1201.000000;2.791003
1200.000000;2.655422
