Criado como novo conjunto de dados;"e2410_daniel_v2.spp","92166.9 Secs"
cm-1;Abs
10000.000000;0.097351
9999.000000;0.098058
9998.000000;0.098766
9997.000000;0.099478
9996.000000;0.100155
9995.000000;0.100689
9994.000000;0.101057
9993.000000;0.101338
9992.000000;0.101647
9991.000000;0.102108
9990.000000;0.102765
9989.000000;0.103517
9988.000000;0.104211
9987.000000;0.104814
9986.000000;0.105422
9985.000000;0.106082
9984.000000;0.106720
9983.000000;0.107265
9982.000000;0.107762
9981.000000;0.108272
9980.000000;0.108776
9979.000000;0.109263
9978.000000;0.109833
9977.000000;0.110567
9976.000000;0.111360
9975.000000;0.112011
9974.000000;0.112457
9973.000000;0.112828
9972.000000;0.113257
9971.000000;0.113750
9970.000000;0.114274
9969.000000;0.114880
9968.000000;0.115638
9967.000000;0.116509
9966.000000;0.117344
9965.000000;0.118031
9964.000000;0.118614
9963.000000;0.119245
9962.000000;0.120015
9961.000000;0.120862
9960.000000;0.121637
9959.000000;0.122251
9958.000000;0.122733
9957.000000;0.123176
9956.000000;0.123655
9955.000000;0.124207
9954.000000;0.124842
9953.000000;0.125542
9952.000000;0.126275
9951.000000;0.127008
9950.000000;0.127699
9949.000000;0.128289
9948.000000;0.128768
9947.000000;0.129239
9946.000000;0.129867
9945.000000;0.130701
9944.000000;0.131602
9943.000000;0.132378
9942.000000;0.132973
9941.000000;0.133494
9940.000000;0.134076
9939.000000;0.134756
9938.000000;0.135443
9937.000000;0.135968
9936.000000;0.136225
9935.000000;0.136316
9934.000000;0.136529
9933.000000;0.137096
9932.000000;0.137954
9931.000000;0.138812
9930.000000;0.139448
9929.000000;0.139898
9928.000000;0.140331
9927.000000;0.140844
9926.000000;0.141423
9925.000000;0.142059
9924.000000;0.142789
9923.000000;0.143618
9922.000000;0.144474
9921.000000;0.145280
9920.000000;0.146027
9919.000000;0.146742
9918.000000;0.147428
9917.000000;0.148066
9916.000000;0.148674
9915.000000;0.149302
9914.000000;0.149979
9913.000000;0.150692
9912.000000;0.151408
9911.000000;0.152083
9910.000000;0.152648
9909.000000;0.153059
9908.000000;0.153359
9907.000000;0.153658
9906.000000;0.154051
9905.000000;0.154582
9904.000000;0.155286
9903.000000;0.156154
9902.000000;0.157055
9901.000000;0.157789
9900.000000;0.158290
9899.000000;0.158711
9898.000000;0.159227
9897.000000;0.159834
9896.000000;0.160437
9895.000000;0.161080
9894.000000;0.161943
9893.000000;0.163071
9892.000000;0.164214
9891.000000;0.165024
9890.000000;0.165398
9889.000000;0.165584
9888.000000;0.165968
9887.000000;0.166720
9886.000000;0.167657
9885.000000;0.168444
9884.000000;0.168948
9883.000000;0.169345
9882.000000;0.169886
9881.000000;0.170640
9880.000000;0.171503
9879.000000;0.172382
9878.000000;0.173244
9877.000000;0.174043
9876.000000;0.174730
9875.000000;0.175345
9874.000000;0.175983
9873.000000;0.176640
9872.000000;0.177185
9871.000000;0.177551
9870.000000;0.177890
9869.000000;0.178450
9868.000000;0.179324
9867.000000;0.180345
9866.000000;0.181237
9865.000000;0.181856
9864.000000;0.182313
9863.000000;0.182849
9862.000000;0.183586
9861.000000;0.184417
9860.000000;0.185188
9859.000000;0.185915
9858.000000;0.186726
9857.000000;0.187625
9856.000000;0.188423
9855.000000;0.188979
9854.000000;0.189401
9853.000000;0.189956
9852.000000;0.190779
9851.000000;0.191720
9850.000000;0.192478
9849.000000;0.192882
9848.000000;0.193046
9847.000000;0.193278
9846.000000;0.193832
9845.000000;0.194765
9844.000000;0.195954
9843.000000;0.197193
9842.000000;0.198255
9841.000000;0.199000
9840.000000;0.199506
9839.000000;0.200018
9838.000000;0.200690
9837.000000;0.201435
9836.000000;0.202109
9835.000000;0.202718
9834.000000;0.203337
9833.000000;0.203926
9832.000000;0.204410
9831.000000;0.204891
9830.000000;0.205572
9829.000000;0.206450
9828.000000;0.207291
9827.000000;0.207954
9826.000000;0.208544
9825.000000;0.209201
9824.000000;0.209904
9823.000000;0.210614
9822.000000;0.211431
9821.000000;0.212439
9820.000000;0.213468
9819.000000;0.214183
9818.000000;0.214426
9817.000000;0.214390
9816.000000;0.214484
9815.000000;0.215059
9814.000000;0.216178
9813.000000;0.217565
9812.000000;0.218796
9811.000000;0.219627
9810.000000;0.220150
9809.000000;0.220637
9808.000000;0.221302
9807.000000;0.222196
9806.000000;0.223230
9805.000000;0.224241
9804.000000;0.225110
9803.000000;0.225873
9802.000000;0.226659
9801.000000;0.227489
9800.000000;0.228245
9799.000000;0.228869
9798.000000;0.229474
9797.000000;0.230173
9796.000000;0.230910
9795.000000;0.231566
9794.000000;0.232150
9793.000000;0.232772
9792.000000;0.233487
9791.000000;0.234267
9790.000000;0.235063
9789.000000;0.235817
9788.000000;0.236460
9787.000000;0.236984
9786.000000;0.237500
9785.000000;0.238173
9784.000000;0.239106
9783.000000;0.240311
9782.000000;0.241656
9781.000000;0.242799
9780.000000;0.243367
9779.000000;0.243355
9778.000000;0.243277
9777.000000;0.243723
9776.000000;0.244803
9775.000000;0.246115
9774.000000;0.247190
9773.000000;0.247866
9772.000000;0.248288
9771.000000;0.248725
9770.000000;0.249376
9769.000000;0.250226
9768.000000;0.251078
9767.000000;0.251806
9766.000000;0.252514
9765.000000;0.253323
9764.000000;0.254082
9763.000000;0.254510
9762.000000;0.254623
9761.000000;0.254829
9760.000000;0.255539
9759.000000;0.256799
9758.000000;0.258314
9757.000000;0.259680
9756.000000;0.260612
9755.000000;0.261100
9754.000000;0.261424
9753.000000;0.261921
9752.000000;0.262679
9751.000000;0.263560
9750.000000;0.264468
9749.000000;0.265432
9748.000000;0.266418
9747.000000;0.267276
9746.000000;0.267989
9745.000000;0.268777
9744.000000;0.269785
9743.000000;0.270793
9742.000000;0.271444
9741.000000;0.271705
9740.000000;0.271945
9739.000000;0.272550
9738.000000;0.273602
9737.000000;0.274884
9736.000000;0.276094
9735.000000;0.277032
9734.000000;0.277685
9733.000000;0.278188
9732.000000;0.278667
9731.000000;0.279115
9730.000000;0.279470
9729.000000;0.279768
9728.000000;0.280161
9727.000000;0.280783
9726.000000;0.281665
9725.000000;0.282765
9724.000000;0.284009
9723.000000;0.285268
9722.000000;0.286336
9721.000000;0.286997
9720.000000;0.287162
9719.000000;0.286989
9718.000000;0.286863
9717.000000;0.287203
9716.000000;0.288173
9715.000000;0.289554
9714.000000;0.290916
9713.000000;0.291959
9712.000000;0.292686
9711.000000;0.293280
9710.000000;0.293883
9709.000000;0.294513
9708.000000;0.295162
9707.000000;0.295899
9706.000000;0.296824
9705.000000;0.297933
9704.000000;0.299078
9703.000000;0.300084
9702.000000;0.300860
9701.000000;0.301404
9700.000000;0.301768
9699.000000;0.302096
9698.000000;0.302623
9697.000000;0.303494
9696.000000;0.304577
9695.000000;0.305561
9694.000000;0.306263
9693.000000;0.306781
9692.000000;0.307322
9691.000000;0.307982
9690.000000;0.308729
9689.000000;0.309495
9688.000000;0.310218
9687.000000;0.310865
9686.000000;0.311516
9685.000000;0.312330
9684.000000;0.313328
9683.000000;0.314279
9682.000000;0.314956
9681.000000;0.315476
9680.000000;0.316213
9679.000000;0.317325
9678.000000;0.318533
9677.000000;0.319452
9676.000000;0.320019
9675.000000;0.320461
9674.000000;0.320916
9673.000000;0.321357
9672.000000;0.321879
9671.000000;0.322819
9670.000000;0.324346
9669.000000;0.326054
9668.000000;0.327202
9667.000000;0.327457
9666.000000;0.327248
9665.000000;0.327318
9664.000000;0.328056
9663.000000;0.329320
9662.000000;0.330708
9661.000000;0.331851
9660.000000;0.332543
9659.000000;0.332835
9658.000000;0.333018
9657.000000;0.333382
9656.000000;0.333964
9655.000000;0.334612
9654.000000;0.335236
9653.000000;0.335832
9652.000000;0.336336
9651.000000;0.336663
9650.000000;0.336959
9649.000000;0.337577
9648.000000;0.338687
9647.000000;0.340056
9646.000000;0.341301
9645.000000;0.342192
9644.000000;0.342653
9643.000000;0.342706
9642.000000;0.342610
9641.000000;0.342870
9640.000000;0.343792
9639.000000;0.345090
9638.000000;0.346148
9637.000000;0.346674
9636.000000;0.346934
9635.000000;0.347370
9634.000000;0.348196
9633.000000;0.349330
9632.000000;0.350494
9631.000000;0.351340
9630.000000;0.351706
9629.000000;0.351806
9628.000000;0.352031
9627.000000;0.352509
9626.000000;0.353038
9625.000000;0.353465
9624.000000;0.353931
9623.000000;0.354627
9622.000000;0.355518
9621.000000;0.356433
9620.000000;0.357280
9619.000000;0.358014
9618.000000;0.358516
9617.000000;0.358695
9616.000000;0.358688
9615.000000;0.358839
9614.000000;0.359444
9613.000000;0.360557
9612.000000;0.361958
9611.000000;0.363276
9610.000000;0.364245
9609.000000;0.364913
9608.000000;0.365506
9607.000000;0.366054
9606.000000;0.366364
9605.000000;0.366452
9604.000000;0.366758
9603.000000;0.367659
9602.000000;0.368908
9601.000000;0.369881
9600.000000;0.370347
9599.000000;0.370687
9598.000000;0.371285
9597.000000;0.372042
9596.000000;0.372634
9595.000000;0.373022
9594.000000;0.373453
9593.000000;0.374073
9592.000000;0.374783
9591.000000;0.375448
9590.000000;0.376071
9589.000000;0.376734
9588.000000;0.377463
9587.000000;0.378179
9586.000000;0.378711
9585.000000;0.378873
9584.000000;0.378639
9583.000000;0.378260
9582.000000;0.378132
9581.000000;0.378490
9580.000000;0.379253
9579.000000;0.380149
9578.000000;0.380956
9577.000000;0.381604
9576.000000;0.382134
9575.000000;0.382626
9574.000000;0.383179
9573.000000;0.383866
9572.000000;0.384675
9571.000000;0.385517
9570.000000;0.386292
9569.000000;0.386957
9568.000000;0.387483
9567.000000;0.387803
9566.000000;0.387884
9565.000000;0.387853
9564.000000;0.387961
9563.000000;0.388361
9562.000000;0.388975
9561.000000;0.389631
9560.000000;0.390259
9559.000000;0.390892
9558.000000;0.391497
9557.000000;0.391970
9556.000000;0.392284
9555.000000;0.392536
9554.000000;0.392825
9553.000000;0.393182
9552.000000;0.393628
9551.000000;0.394199
9550.000000;0.394812
9549.000000;0.395244
9548.000000;0.395368
9547.000000;0.395390
9546.000000;0.395694
9545.000000;0.396423
9544.000000;0.397300
9543.000000;0.397914
9542.000000;0.398122
9541.000000;0.398149
9540.000000;0.398321
9539.000000;0.398799
9538.000000;0.399527
9537.000000;0.400308
9536.000000;0.400903
9535.000000;0.401136
9534.000000;0.401030
9533.000000;0.400857
9532.000000;0.400928
9531.000000;0.401279
9530.000000;0.401660
9529.000000;0.401898
9528.000000;0.402179
9527.000000;0.402809
9526.000000;0.403731
9525.000000;0.404458
9524.000000;0.404599
9523.000000;0.404338
9522.000000;0.404242
9521.000000;0.404660
9520.000000;0.405444
9519.000000;0.406234
9518.000000;0.406851
9517.000000;0.407316
9516.000000;0.407613
9515.000000;0.407617
9514.000000;0.407326
9513.000000;0.407032
9512.000000;0.407130
9511.000000;0.407737
9510.000000;0.408570
9509.000000;0.409242
9508.000000;0.409596
9507.000000;0.409707
9506.000000;0.409650
9505.000000;0.409433
9504.000000;0.409160
9503.000000;0.409063
9502.000000;0.409311
9501.000000;0.409833
9500.000000;0.410447
9499.000000;0.411073
9498.000000;0.411734
9497.000000;0.412369
9496.000000;0.412786
9495.000000;0.412817
9494.000000;0.412471
9493.000000;0.411944
9492.000000;0.411515
9491.000000;0.411429
9490.000000;0.411782
9489.000000;0.412441
9488.000000;0.413091
9487.000000;0.413413
9486.000000;0.413284
9485.000000;0.412864
9484.000000;0.412520
9483.000000;0.412587
9482.000000;0.413082
9481.000000;0.413649
9480.000000;0.413849
9479.000000;0.413577
9478.000000;0.413175
9477.000000;0.413084
9476.000000;0.413411
9475.000000;0.413860
9474.000000;0.414081
9473.000000;0.414061
9472.000000;0.414140
9471.000000;0.414626
9470.000000;0.415443
9469.000000;0.416178
9468.000000;0.416464
9467.000000;0.416258
9466.000000;0.415769
9465.000000;0.415274
9464.000000;0.415029
9463.000000;0.415236
9462.000000;0.415861
9461.000000;0.416529
9460.000000;0.416778
9459.000000;0.416511
9458.000000;0.416100
9457.000000;0.415948
9456.000000;0.416063
9455.000000;0.416146
9454.000000;0.416027
9453.000000;0.415868
9452.000000;0.415936
9451.000000;0.416287
9450.000000;0.416715
9449.000000;0.416936
9448.000000;0.416767
9447.000000;0.416219
9446.000000;0.415492
9445.000000;0.414879
9444.000000;0.414553
9443.000000;0.414404
9442.000000;0.414123
9441.000000;0.413547
9440.000000;0.412889
9439.000000;0.412547
9438.000000;0.412679
9437.000000;0.413072
9436.000000;0.413453
9435.000000;0.413797
9434.000000;0.414197
9433.000000;0.414570
9432.000000;0.414705
9431.000000;0.414622
9430.000000;0.414617
9429.000000;0.414848
9428.000000;0.415071
9427.000000;0.414981
9426.000000;0.414667
9425.000000;0.414499
9424.000000;0.414581
9423.000000;0.414587
9422.000000;0.414200
9421.000000;0.413540
9420.000000;0.413020
9419.000000;0.412907
9418.000000;0.413121
9417.000000;0.413374
9416.000000;0.413358
9415.000000;0.412886
9414.000000;0.412037
9413.000000;0.411195
9412.000000;0.410771
9411.000000;0.410825
9410.000000;0.411028
9409.000000;0.411053
9408.000000;0.410928
9407.000000;0.410948
9406.000000;0.411301
9405.000000;0.411871
9404.000000;0.412363
9403.000000;0.412505
9402.000000;0.412174
9401.000000;0.411481
9400.000000;0.410759
9399.000000;0.410334
9398.000000;0.410194
9397.000000;0.409964
9396.000000;0.409316
9395.000000;0.408385
9394.000000;0.407674
9393.000000;0.407576
9392.000000;0.408047
9391.000000;0.408705
9390.000000;0.409104
9389.000000;0.408967
9388.000000;0.408306
9387.000000;0.407416
9386.000000;0.406645
9385.000000;0.406112
9384.000000;0.405711
9383.000000;0.405377
9382.000000;0.405192
9381.000000;0.405161
9380.000000;0.405075
9379.000000;0.404767
9378.000000;0.404399
9377.000000;0.404237
9376.000000;0.404199
9375.000000;0.403874
9374.000000;0.403079
9373.000000;0.402175
9372.000000;0.401686
9371.000000;0.401728
9370.000000;0.401972
9369.000000;0.402052
9368.000000;0.401868
9367.000000;0.401503
9366.000000;0.401047
9365.000000;0.400588
9364.000000;0.400269
9363.000000;0.400238
9362.000000;0.400511
9361.000000;0.400879
9360.000000;0.400997
9359.000000;0.400629
9358.000000;0.399864
9357.000000;0.399072
9356.000000;0.398574
9355.000000;0.398349
9354.000000;0.398083
9353.000000;0.397503
9352.000000;0.396640
9351.000000;0.395781
9350.000000;0.395209
9349.000000;0.394982
9348.000000;0.394945
9347.000000;0.394927
9346.000000;0.394885
9345.000000;0.394834
9344.000000;0.394683
9343.000000;0.394265
9342.000000;0.393586
9341.000000;0.392911
9340.000000;0.392474
9339.000000;0.392189
9338.000000;0.391785
9337.000000;0.391192
9336.000000;0.390604
9335.000000;0.390165
9334.000000;0.389809
9333.000000;0.389486
9332.000000;0.389298
9331.000000;0.389263
9330.000000;0.389103
9329.000000;0.388528
9328.000000;0.387680
9327.000000;0.387048
9326.000000;0.386909
9325.000000;0.387032
9324.000000;0.387011
9323.000000;0.386672
9322.000000;0.386068
9321.000000;0.385285
9320.000000;0.384478
9319.000000;0.383937
9318.000000;0.383855
9317.000000;0.384007
9316.000000;0.383901
9315.000000;0.383288
9314.000000;0.382381
9313.000000;0.381529
9312.000000;0.380891
9311.000000;0.380498
9310.000000;0.380409
9309.000000;0.380566
9308.000000;0.380651
9307.000000;0.380328
9306.000000;0.379664
9305.000000;0.379064
9304.000000;0.378781
9303.000000;0.378661
9302.000000;0.378438
9301.000000;0.378068
9300.000000;0.377670
9299.000000;0.377286
9298.000000;0.376881
9297.000000;0.376479
9296.000000;0.376140
9295.000000;0.375830
9294.000000;0.375433
9293.000000;0.374902
9292.000000;0.374288
9291.000000;0.373632
9290.000000;0.372961
9289.000000;0.372354
9288.000000;0.371906
9287.000000;0.371589
9286.000000;0.371272
9285.000000;0.370867
9284.000000;0.370395
9283.000000;0.369853
9282.000000;0.369138
9281.000000;0.368176
9280.000000;0.367045
9279.000000;0.365951
9278.000000;0.365095
9277.000000;0.364574
9276.000000;0.364326
9275.000000;0.364149
9274.000000;0.363862
9273.000000;0.363480
9272.000000;0.363154
9271.000000;0.362902
9270.000000;0.362534
9269.000000;0.361910
9268.000000;0.361165
9267.000000;0.360558
9266.000000;0.360177
9265.000000;0.359928
9264.000000;0.359724
9263.000000;0.359540
9262.000000;0.359311
9261.000000;0.358928
9260.000000;0.358377
9259.000000;0.357751
9258.000000;0.357116
9257.000000;0.356453
9256.000000;0.355760
9255.000000;0.355094
9254.000000;0.354514
9253.000000;0.354042
9252.000000;0.353699
9251.000000;0.353483
9250.000000;0.353318
9249.000000;0.353112
9248.000000;0.352850
9247.000000;0.352514
9246.000000;0.351963
9245.000000;0.351077
9244.000000;0.350053
9243.000000;0.349346
9242.000000;0.349188
9241.000000;0.349306
9240.000000;0.349252
9239.000000;0.348899
9238.000000;0.348455
9237.000000;0.348080
9236.000000;0.347686
9235.000000;0.347110
9234.000000;0.346322
9233.000000;0.345419
9232.000000;0.344540
9231.000000;0.343810
9230.000000;0.343308
9229.000000;0.343025
9228.000000;0.342865
9227.000000;0.342682
9226.000000;0.342332
9225.000000;0.341767
9224.000000;0.341097
9223.000000;0.340493
9222.000000;0.339935
9221.000000;0.339190
9220.000000;0.338147
9219.000000;0.337113
9218.000000;0.336603
9217.000000;0.336826
9216.000000;0.337477
9215.000000;0.338003
9214.000000;0.338015
9213.000000;0.337467
9212.000000;0.336608
9211.000000;0.335747
9210.000000;0.334992
9209.000000;0.334214
9208.000000;0.333368
9207.000000;0.332733
9206.000000;0.332624
9205.000000;0.332892
9204.000000;0.332994
9203.000000;0.332631
9202.000000;0.332049
9201.000000;0.331563
9200.000000;0.331027
9199.000000;0.330072
9198.000000;0.328716
9197.000000;0.327446
9196.000000;0.326674
9195.000000;0.326355
9194.000000;0.326179
9193.000000;0.325923
9192.000000;0.325546
9191.000000;0.325100
9190.000000;0.324688
9189.000000;0.324414
9188.000000;0.324240
9187.000000;0.323931
9186.000000;0.323249
9185.000000;0.322230
9184.000000;0.321223
9183.000000;0.320612
9182.000000;0.320468
9181.000000;0.320480
9180.000000;0.320219
9179.000000;0.319522
9178.000000;0.318636
9177.000000;0.317961
9176.000000;0.317661
9175.000000;0.317522
9174.000000;0.317200
9173.000000;0.316573
9172.000000;0.315829
9171.000000;0.315247
9170.000000;0.314928
9169.000000;0.314771
9168.000000;0.314620
9167.000000;0.314371
9166.000000;0.313936
9165.000000;0.313231
9164.000000;0.312277
9163.000000;0.311282
9162.000000;0.310494
9161.000000;0.309978
9160.000000;0.309623
9159.000000;0.309334
9158.000000;0.309105
9157.000000;0.308880
9156.000000;0.308508
9155.000000;0.307924
9154.000000;0.307278
9153.000000;0.306782
9152.000000;0.306484
9151.000000;0.306283
9150.000000;0.306105
9149.000000;0.305940
9148.000000;0.305762
9147.000000;0.305511
9146.000000;0.305174
9145.000000;0.304796
9144.000000;0.304399
9143.000000;0.303953
9142.000000;0.303383
9141.000000;0.302586
9140.000000;0.301517
9139.000000;0.300377
9138.000000;0.299621
9137.000000;0.299579
9136.000000;0.300039
9135.000000;0.300348
9134.000000;0.300040
9133.000000;0.299229
9132.000000;0.298341
9131.000000;0.297602
9130.000000;0.296941
9129.000000;0.296293
9128.000000;0.295767
9127.000000;0.295468
9126.000000;0.295284
9125.000000;0.294955
9124.000000;0.294381
9123.000000;0.293761
9122.000000;0.293385
9121.000000;0.293254
9120.000000;0.293013
9119.000000;0.292323
9118.000000;0.291261
9117.000000;0.290253
9116.000000;0.289633
9115.000000;0.289385
9114.000000;0.289299
9113.000000;0.289198
9112.000000;0.288946
9111.000000;0.288438
9110.000000;0.287760
9109.000000;0.287266
9108.000000;0.287280
9107.000000;0.287704
9106.000000;0.288057
9105.000000;0.287919
9104.000000;0.287237
9103.000000;0.286231
9102.000000;0.285198
9101.000000;0.284423
9100.000000;0.284067
9099.000000;0.283966
9098.000000;0.283699
9097.000000;0.283019
9096.000000;0.282181
9095.000000;0.281684
9094.000000;0.281719
9093.000000;0.281993
9092.000000;0.282088
9091.000000;0.281846
9090.000000;0.281380
9089.000000;0.280856
9088.000000;0.280357
9087.000000;0.279880
9086.000000;0.279384
9085.000000;0.278849
9084.000000;0.278320
9083.000000;0.277829
9082.000000;0.277292
9081.000000;0.276560
9080.000000;0.275663
9079.000000;0.274880
9078.000000;0.274475
9077.000000;0.274391
9076.000000;0.274310
9075.000000;0.273991
9074.000000;0.273448
9073.000000;0.272831
9072.000000;0.272265
9071.000000;0.271861
9070.000000;0.271720
9069.000000;0.271808
9068.000000;0.271867
9067.000000;0.271593
9066.000000;0.270944
9065.000000;0.270204
9064.000000;0.269681
9063.000000;0.269386
9062.000000;0.269061
9061.000000;0.268516
9060.000000;0.267868
9059.000000;0.267378
9058.000000;0.267116
9057.000000;0.266900
9056.000000;0.266549
9055.000000;0.266093
9054.000000;0.265656
9053.000000;0.265253
9052.000000;0.264819
9051.000000;0.264381
9050.000000;0.264050
9049.000000;0.263838
9048.000000;0.263630
9047.000000;0.263349
9046.000000;0.263028
9045.000000;0.262694
9044.000000;0.262299
9043.000000;0.261847
9042.000000;0.261454
9041.000000;0.261188
9040.000000;0.260928
9039.000000;0.260511
9038.000000;0.259963
9037.000000;0.259479
9036.000000;0.259175
9035.000000;0.258969
9034.000000;0.258725
9033.000000;0.258436
9032.000000;0.258220
9031.000000;0.258158
9030.000000;0.258143
9029.000000;0.257932
9028.000000;0.257366
9027.000000;0.256563
9026.000000;0.255829
9025.000000;0.255353
9024.000000;0.255060
9023.000000;0.254786
9022.000000;0.254484
9021.000000;0.254178
9020.000000;0.253814
9019.000000;0.253306
9018.000000;0.252714
9017.000000;0.252213
9016.000000;0.251873
9015.000000;0.251585
9014.000000;0.251248
9013.000000;0.250916
9012.000000;0.250696
9011.000000;0.250591
9010.000000;0.250494
9009.000000;0.250324
9008.000000;0.250079
9007.000000;0.249786
9006.000000;0.249431
9005.000000;0.248960
9004.000000;0.248345
9003.000000;0.247656
9002.000000;0.247034
9001.000000;0.246572
9000.000000;0.246244
8999.000000;0.245980
8998.000000;0.245766
8997.000000;0.245606
8996.000000;0.245431
8995.000000;0.245148
8994.000000;0.244773
8993.000000;0.244408
8992.000000;0.244074
8991.000000;0.243694
8990.000000;0.243243
8989.000000;0.242814
8988.000000;0.242481
8987.000000;0.242208
8986.000000;0.241953
8985.000000;0.241764
8984.000000;0.241662
8983.000000;0.241513
8982.000000;0.241142
8981.000000;0.240572
8980.000000;0.240057
8979.000000;0.239840
8978.000000;0.239909
8977.000000;0.239984
8976.000000;0.239742
8975.000000;0.239087
8974.000000;0.238226
8973.000000;0.237451
8972.000000;0.236876
8971.000000;0.236432
8970.000000;0.236080
8969.000000;0.235879
8968.000000;0.235821
8967.000000;0.235735
8966.000000;0.235468
8965.000000;0.235059
8964.000000;0.234638
8963.000000;0.234261
8962.000000;0.233936
8961.000000;0.233718
8960.000000;0.233628
8959.000000;0.233570
8958.000000;0.233461
8957.000000;0.233397
8956.000000;0.233509
8955.000000;0.233730
8954.000000;0.233882
8953.000000;0.233941
8952.000000;0.233987
8951.000000;0.233904
8950.000000;0.233404
8949.000000;0.232465
8948.000000;0.231486
8947.000000;0.230850
8946.000000;0.230507
8945.000000;0.230166
8944.000000;0.229742
8943.000000;0.229420
8942.000000;0.229355
8941.000000;0.229486
8940.000000;0.229617
8939.000000;0.229550
8938.000000;0.229178
8937.000000;0.228595
8936.000000;0.228077
8935.000000;0.227836
8934.000000;0.227794
8933.000000;0.227711
8932.000000;0.227480
8931.000000;0.227175
8930.000000;0.226841
8929.000000;0.226424
8928.000000;0.225904
8927.000000;0.225366
8926.000000;0.224883
8925.000000;0.224437
8924.000000;0.223992
8923.000000;0.223548
8922.000000;0.223120
8921.000000;0.222749
8920.000000;0.222549
8919.000000;0.222621
8918.000000;0.222874
8917.000000;0.223069
8916.000000;0.223071
8915.000000;0.222947
8914.000000;0.222773
8913.000000;0.222492
8912.000000;0.222049
8911.000000;0.221567
8910.000000;0.221273
8909.000000;0.221268
8908.000000;0.221437
8907.000000;0.221512
8906.000000;0.221198
8905.000000;0.220369
8904.000000;0.219244
8903.000000;0.218298
8902.000000;0.217885
8901.000000;0.217948
8900.000000;0.218145
8899.000000;0.218172
8898.000000;0.217920
8897.000000;0.217453
8896.000000;0.216952
8895.000000;0.216629
8894.000000;0.216539
8893.000000;0.216513
8892.000000;0.216364
8891.000000;0.216113
8890.000000;0.215890
8889.000000;0.215709
8888.000000;0.215494
8887.000000;0.215269
8886.000000;0.215112
8885.000000;0.214934
8884.000000;0.214518
8883.000000;0.213876
8882.000000;0.213354
8881.000000;0.213241
8880.000000;0.213390
8879.000000;0.213375
8878.000000;0.212959
8877.000000;0.212310
8876.000000;0.211772
8875.000000;0.211533
8874.000000;0.211522
8873.000000;0.211522
8872.000000;0.211372
8871.000000;0.211064
8870.000000;0.210703
8869.000000;0.210402
8868.000000;0.210244
8867.000000;0.210243
8866.000000;0.210286
8865.000000;0.210143
8864.000000;0.209706
8863.000000;0.209195
8862.000000;0.208971
8861.000000;0.209096
8860.000000;0.209243
8859.000000;0.209124
8858.000000;0.208838
8857.000000;0.208661
8856.000000;0.208630
8855.000000;0.208548
8854.000000;0.208332
8853.000000;0.208130
8852.000000;0.208057
8851.000000;0.208009
8850.000000;0.207814
8849.000000;0.207450
8848.000000;0.207013
8847.000000;0.206569
8846.000000;0.206142
8845.000000;0.205775
8844.000000;0.205514
8843.000000;0.205322
8842.000000;0.205088
8841.000000;0.204736
8840.000000;0.204310
8839.000000;0.203929
8838.000000;0.203664
8837.000000;0.203456
8836.000000;0.203176
8835.000000;0.202788
8834.000000;0.202446
8833.000000;0.202374
8832.000000;0.202622
8831.000000;0.202982
8830.000000;0.203140
8829.000000;0.202922
8828.000000;0.202389
8827.000000;0.201763
8826.000000;0.201289
8825.000000;0.201106
8824.000000;0.201162
8823.000000;0.201254
8822.000000;0.201207
8821.000000;0.201017
8820.000000;0.200808
8819.000000;0.200655
8818.000000;0.200511
8817.000000;0.200331
8816.000000;0.200219
8815.000000;0.200368
8814.000000;0.200818
8813.000000;0.201322
8812.000000;0.201474
8811.000000;0.201012
8810.000000;0.200014
8809.000000;0.198836
8808.000000;0.197877
8807.000000;0.197350
8806.000000;0.197212
8805.000000;0.197289
8804.000000;0.197451
8803.000000;0.197673
8802.000000;0.197904
8801.000000;0.197949
8800.000000;0.197561
8799.000000;0.196715
8798.000000;0.195726
8797.000000;0.195035
8796.000000;0.194872
8795.000000;0.195123
8794.000000;0.195485
8793.000000;0.195706
8792.000000;0.195714
8791.000000;0.195588
8790.000000;0.195454
8789.000000;0.195387
8788.000000;0.195353
8787.000000;0.195236
8786.000000;0.194923
8785.000000;0.194390
8784.000000;0.193735
8783.000000;0.193143
8782.000000;0.192791
8781.000000;0.192744
8780.000000;0.192916
8779.000000;0.193135
8778.000000;0.193240
8777.000000;0.193142
8776.000000;0.192829
8775.000000;0.192382
8774.000000;0.191953
8773.000000;0.191686
8772.000000;0.191628
8771.000000;0.191704
8770.000000;0.191780
8769.000000;0.191739
8768.000000;0.191524
8767.000000;0.191194
8766.000000;0.190926
8765.000000;0.190866
8764.000000;0.190945
8763.000000;0.190901
8762.000000;0.190562
8761.000000;0.190045
8760.000000;0.189604
8759.000000;0.189324
8758.000000;0.189090
8757.000000;0.188830
8756.000000;0.188660
8755.000000;0.188707
8754.000000;0.188899
8753.000000;0.189013
8752.000000;0.188897
8751.000000;0.188547
8750.000000;0.188037
8749.000000;0.187473
8748.000000;0.187012
8747.000000;0.186814
8746.000000;0.186912
8745.000000;0.187172
8744.000000;0.187399
8743.000000;0.187485
8742.000000;0.187469
8741.000000;0.187496
8740.000000;0.187676
8739.000000;0.187923
8738.000000;0.187957
8737.000000;0.187553
8736.000000;0.186794
8735.000000;0.186030
8734.000000;0.185596
8733.000000;0.185604
8732.000000;0.185947
8731.000000;0.186359
8730.000000;0.186502
8729.000000;0.186193
8728.000000;0.185605
8727.000000;0.185136
8726.000000;0.184980
8725.000000;0.184957
8724.000000;0.184837
8723.000000;0.184668
8722.000000;0.184651
8721.000000;0.184796
8720.000000;0.184903
8719.000000;0.184829
8718.000000;0.184612
8717.000000;0.184322
8716.000000;0.183993
8715.000000;0.183684
8714.000000;0.183472
8713.000000;0.183337
8712.000000;0.183183
8711.000000;0.183012
8710.000000;0.182933
8709.000000;0.182957
8708.000000;0.182919
8707.000000;0.182670
8706.000000;0.182262
8705.000000;0.181843
8704.000000;0.181483
8703.000000;0.181169
8702.000000;0.180903
8701.000000;0.180722
8700.000000;0.180666
8699.000000;0.180770
8698.000000;0.181037
8697.000000;0.181345
8696.000000;0.181472
8695.000000;0.181300
8694.000000;0.180956
8693.000000;0.180671
8692.000000;0.180535
8691.000000;0.180466
8690.000000;0.180381
8689.000000;0.180289
8688.000000;0.180214
8687.000000;0.180130
8686.000000;0.180001
8685.000000;0.179846
8684.000000;0.179725
8683.000000;0.179673
8682.000000;0.179650
8681.000000;0.179548
8680.000000;0.179290
8679.000000;0.178954
8678.000000;0.178770
8677.000000;0.178902
8676.000000;0.179243
8675.000000;0.179451
8674.000000;0.179246
8673.000000;0.178649
8672.000000;0.177947
8671.000000;0.177441
8670.000000;0.177230
8669.000000;0.177217
8668.000000;0.177264
8667.000000;0.177325
8666.000000;0.177422
8665.000000;0.177545
8664.000000;0.177620
8663.000000;0.177590
8662.000000;0.177456
8661.000000;0.177233
8660.000000;0.176887
8659.000000;0.176377
8658.000000;0.175735
8657.000000;0.175094
8656.000000;0.174629
8655.000000;0.174459
8654.000000;0.174567
8653.000000;0.174787
8652.000000;0.174915
8651.000000;0.174865
8650.000000;0.174732
8649.000000;0.174674
8648.000000;0.174763
8647.000000;0.174937
8646.000000;0.175056
8645.000000;0.175007
8644.000000;0.174778
8643.000000;0.174474
8642.000000;0.174241
8641.000000;0.174161
8640.000000;0.174226
8639.000000;0.174387
8638.000000;0.174587
8637.000000;0.174724
8636.000000;0.174665
8635.000000;0.174350
8634.000000;0.173865
8633.000000;0.173383
8632.000000;0.173048
8631.000000;0.172928
8630.000000;0.173005
8629.000000;0.173169
8628.000000;0.173263
8627.000000;0.173192
8626.000000;0.172990
8625.000000;0.172758
8624.000000;0.172551
8623.000000;0.172362
8622.000000;0.172164
8621.000000;0.171951
8620.000000;0.171747
8619.000000;0.171607
8618.000000;0.171552
8617.000000;0.171495
8616.000000;0.171290
8615.000000;0.170933
8614.000000;0.170622
8613.000000;0.170563
8612.000000;0.170718
8611.000000;0.170853
8610.000000;0.170805
8609.000000;0.170618
8608.000000;0.170415
8607.000000;0.170251
8606.000000;0.170133
8605.000000;0.170082
8604.000000;0.170093
8603.000000;0.170081
8602.000000;0.169942
8601.000000;0.169682
8600.000000;0.169437
8599.000000;0.169341
8598.000000;0.169380
8597.000000;0.169395
8596.000000;0.169239
8595.000000;0.168945
8594.000000;0.168728
8593.000000;0.168783
8592.000000;0.169082
8591.000000;0.169372
8590.000000;0.169408
8589.000000;0.169158
8588.000000;0.168791
8587.000000;0.168484
8586.000000;0.168278
8585.000000;0.168113
8584.000000;0.167937
8583.000000;0.167740
8582.000000;0.167510
8581.000000;0.167229
8580.000000;0.166954
8579.000000;0.166816
8578.000000;0.166879
8577.000000;0.167016
8576.000000;0.167031
8575.000000;0.166918
8574.000000;0.166889
8573.000000;0.167107
8572.000000;0.167433
8571.000000;0.167547
8570.000000;0.167287
8569.000000;0.166804
8568.000000;0.166387
8567.000000;0.166175
8566.000000;0.166079
8565.000000;0.165916
8564.000000;0.165606
8563.000000;0.165263
8562.000000;0.165088
8561.000000;0.165174
8560.000000;0.165391
8559.000000;0.165495
8558.000000;0.165355
8557.000000;0.165070
8556.000000;0.164837
8555.000000;0.164747
8554.000000;0.164735
8553.000000;0.164697
8552.000000;0.164608
8551.000000;0.164495
8550.000000;0.164341
8549.000000;0.164099
8548.000000;0.163785
8547.000000;0.163504
8546.000000;0.163352
8545.000000;0.163345
8544.000000;0.163455
8543.000000;0.163675
8542.000000;0.163965
8541.000000;0.164188
8540.000000;0.164191
8539.000000;0.163961
8538.000000;0.163656
8537.000000;0.163466
8536.000000;0.163470
8535.000000;0.163612
8534.000000;0.163735
8533.000000;0.163663
8532.000000;0.163307
8531.000000;0.162748
8530.000000;0.162177
8529.000000;0.161748
8528.000000;0.161508
8527.000000;0.161440
8526.000000;0.161487
8525.000000;0.161539
8524.000000;0.161485
8523.000000;0.161318
8522.000000;0.161145
8521.000000;0.161066
8520.000000;0.161110
8519.000000;0.161264
8518.000000;0.161480
8517.000000;0.161613
8516.000000;0.161482
8515.000000;0.161068
8514.000000;0.160585
8513.000000;0.160237
8512.000000;0.159993
8511.000000;0.159698
8510.000000;0.159342
8509.000000;0.159087
8508.000000;0.159036
8507.000000;0.159117
8506.000000;0.159213
8505.000000;0.159291
8504.000000;0.159362
8503.000000;0.159402
8502.000000;0.159386
8501.000000;0.159352
8500.000000;0.159362
8499.000000;0.159392
8498.000000;0.159331
8497.000000;0.159076
8496.000000;0.158649
8495.000000;0.158217
8494.000000;0.157980
8493.000000;0.158022
8492.000000;0.158240
8491.000000;0.158437
8490.000000;0.158475
8489.000000;0.158362
8488.000000;0.158208
8487.000000;0.158119
8486.000000;0.158117
8485.000000;0.158123
8484.000000;0.158017
8483.000000;0.157731
8482.000000;0.157309
8481.000000;0.156862
8480.000000;0.156480
8479.000000;0.156203
8478.000000;0.156037
8477.000000;0.155983
8476.000000;0.156028
8475.000000;0.156130
8474.000000;0.156230
8473.000000;0.156291
8472.000000;0.156333
8471.000000;0.156405
8470.000000;0.156505
8469.000000;0.156558
8468.000000;0.156513
8467.000000;0.156433
8466.000000;0.156408
8465.000000;0.156378
8464.000000;0.156155
8463.000000;0.155676
8462.000000;0.155150
8461.000000;0.154870
8460.000000;0.154909
8459.000000;0.155068
8458.000000;0.155100
8457.000000;0.154922
8456.000000;0.154625
8455.000000;0.154351
8454.000000;0.154193
8453.000000;0.154164
8452.000000;0.154207
8451.000000;0.154261
8450.000000;0.154295
8449.000000;0.154282
8448.000000;0.154184
8447.000000;0.153985
8446.000000;0.153742
8445.000000;0.153549
8444.000000;0.153454
8443.000000;0.153427
8442.000000;0.153382
8441.000000;0.153222
8440.000000;0.152898
8439.000000;0.152481
8438.000000;0.152144
8437.000000;0.152016
8436.000000;0.152066
8435.000000;0.152159
8434.000000;0.152211
8433.000000;0.152242
8432.000000;0.152271
8431.000000;0.152253
8430.000000;0.152136
8429.000000;0.151934
8428.000000;0.151716
8427.000000;0.151523
8426.000000;0.151330
8425.000000;0.151093
8424.000000;0.150834
8423.000000;0.150645
8422.000000;0.150578
8421.000000;0.150549
8420.000000;0.150426
8419.000000;0.150210
8418.000000;0.150062
8417.000000;0.150092
8416.000000;0.150210
8415.000000;0.150260
8414.000000;0.150237
8413.000000;0.150279
8412.000000;0.150455
8411.000000;0.150678
8410.000000;0.150815
8409.000000;0.150791
8408.000000;0.150579
8407.000000;0.150176
8406.000000;0.149658
8405.000000;0.149198
8404.000000;0.148948
8403.000000;0.148923
8402.000000;0.148981
8401.000000;0.148940
8400.000000;0.148709
8399.000000;0.148376
8398.000000;0.148133
8397.000000;0.148102
8396.000000;0.148205
8395.000000;0.148257
8394.000000;0.148158
8393.000000;0.147963
8392.000000;0.147789
8391.000000;0.147711
8390.000000;0.147748
8389.000000;0.147852
8388.000000;0.147897
8387.000000;0.147752
8386.000000;0.147399
8385.000000;0.146953
8384.000000;0.146567
8383.000000;0.146337
8382.000000;0.146298
8381.000000;0.146403
8380.000000;0.146509
8379.000000;0.146465
8378.000000;0.146261
8377.000000;0.146041
8376.000000;0.145937
8375.000000;0.145938
8374.000000;0.145939
8373.000000;0.145861
8372.000000;0.145689
8371.000000;0.145463
8370.000000;0.145288
8369.000000;0.145270
8368.000000;0.145391
8367.000000;0.145475
8366.000000;0.145356
8365.000000;0.145062
8364.000000;0.144759
8363.000000;0.144552
8362.000000;0.144396
8361.000000;0.144197
8360.000000;0.143953
8359.000000;0.143769
8358.000000;0.143738
8357.000000;0.143823
8356.000000;0.143877
8355.000000;0.143786
8354.000000;0.143591
8353.000000;0.143407
8352.000000;0.143255
8351.000000;0.143053
8350.000000;0.142792
8349.000000;0.142599
8348.000000;0.142572
8347.000000;0.142631
8346.000000;0.142607
8345.000000;0.142430
8344.000000;0.142143
8343.000000;0.141808
8342.000000;0.141502
8341.000000;0.141341
8340.000000;0.141405
8339.000000;0.141622
8338.000000;0.141820
8337.000000;0.141905
8336.000000;0.141910
8335.000000;0.141873
8334.000000;0.141757
8333.000000;0.141505
8332.000000;0.141103
8331.000000;0.140583
8330.000000;0.140033
8329.000000;0.139607
8328.000000;0.139439
8327.000000;0.139518
8326.000000;0.139705
8325.000000;0.139896
8324.000000;0.140083
8323.000000;0.140241
8322.000000;0.140258
8321.000000;0.140063
8320.000000;0.139728
8319.000000;0.139388
8318.000000;0.139083
8317.000000;0.138787
8316.000000;0.138522
8315.000000;0.138353
8314.000000;0.138273
8313.000000;0.138162
8312.000000;0.137916
8311.000000;0.137567
8310.000000;0.137257
8309.000000;0.137099
8308.000000;0.137070
8307.000000;0.137055
8306.000000;0.136990
8305.000000;0.136938
8304.000000;0.136970
8303.000000;0.137013
8302.000000;0.136888
8301.000000;0.136542
8300.000000;0.136153
8299.000000;0.135942
8298.000000;0.135947
8297.000000;0.136031
8296.000000;0.136068
8295.000000;0.136031
8294.000000;0.135946
8293.000000;0.135829
8292.000000;0.135679
8291.000000;0.135463
8290.000000;0.135121
8289.000000;0.134663
8288.000000;0.134227
8287.000000;0.133967
8286.000000;0.133889
8285.000000;0.133862
8284.000000;0.133813
8283.000000;0.133802
8282.000000;0.133878
8281.000000;0.133936
8280.000000;0.133827
8279.000000;0.133542
8278.000000;0.133215
8277.000000;0.132963
8276.000000;0.132788
8275.000000;0.132651
8274.000000;0.132565
8273.000000;0.132560
8272.000000;0.132606
8271.000000;0.132617
8270.000000;0.132539
8269.000000;0.132380
8268.000000;0.132150
8267.000000;0.131832
8266.000000;0.131442
8265.000000;0.131080
8264.000000;0.130848
8263.000000;0.130725
8262.000000;0.130607
8261.000000;0.130461
8260.000000;0.130357
8259.000000;0.130327
8258.000000;0.130284
8257.000000;0.130139
8256.000000;0.129928
8255.000000;0.129748
8254.000000;0.129637
8253.000000;0.129580
8252.000000;0.129582
8251.000000;0.129620
8250.000000;0.129603
8249.000000;0.129485
8248.000000;0.129362
8247.000000;0.129330
8246.000000;0.129289
8245.000000;0.129042
8244.000000;0.128594
8243.000000;0.128183
8242.000000;0.127971
8241.000000;0.127869
8240.000000;0.127725
8239.000000;0.127548
8238.000000;0.127436
8237.000000;0.127394
8236.000000;0.127342
8235.000000;0.127245
8234.000000;0.127121
8233.000000;0.126969
8232.000000;0.126774
8231.000000;0.126558
8230.000000;0.126356
8229.000000;0.126172
8228.000000;0.126001
8227.000000;0.125838
8226.000000;0.125630
8225.000000;0.125286
8224.000000;0.124817
8223.000000;0.124400
8222.000000;0.124202
8221.000000;0.124199
8220.000000;0.124225
8219.000000;0.124169
8218.000000;0.124018
8217.000000;0.123798
8216.000000;0.123573
8215.000000;0.123472
8214.000000;0.123579
8213.000000;0.123789
8212.000000;0.123865
8211.000000;0.123674
8210.000000;0.123280
8209.000000;0.122830
8208.000000;0.122429
8207.000000;0.122139
8206.000000;0.121966
8205.000000;0.121827
8204.000000;0.121598
8203.000000;0.121261
8202.000000;0.120935
8201.000000;0.120735
8200.000000;0.120668
8199.000000;0.120669
8198.000000;0.120692
8197.000000;0.120727
8196.000000;0.120775
8195.000000;0.120832
8194.000000;0.120859
8193.000000;0.120764
8192.000000;0.120485
8191.000000;0.120088
8190.000000;0.119730
8189.000000;0.119493
8188.000000;0.119320
8187.000000;0.119140
8186.000000;0.118966
8185.000000;0.118825
8184.000000;0.118657
8183.000000;0.118394
8182.000000;0.118080
8181.000000;0.117842
8180.000000;0.117721
8179.000000;0.117618
8178.000000;0.117429
8177.000000;0.117170
8176.000000;0.116929
8175.000000;0.116727
8174.000000;0.116502
8173.000000;0.116232
8172.000000;0.116004
8171.000000;0.115922
8170.000000;0.115947
8169.000000;0.115924
8168.000000;0.115767
8167.000000;0.115562
8166.000000;0.115436
8165.000000;0.115386
8164.000000;0.115290
8163.000000;0.115083
8162.000000;0.114834
8161.000000;0.114646
8160.000000;0.114536
8159.000000;0.114430
8158.000000;0.114245
8157.000000;0.113955
8156.000000;0.113613
8155.000000;0.113315
8154.000000;0.113114
8153.000000;0.112965
8152.000000;0.112779
8151.000000;0.112542
8150.000000;0.112337
8149.000000;0.112252
8148.000000;0.112276
8147.000000;0.112312
8146.000000;0.112259
8145.000000;0.112083
8144.000000;0.111811
8143.000000;0.111494
8142.000000;0.111166
8141.000000;0.110846
8140.000000;0.110572
8139.000000;0.110377
8138.000000;0.110242
8137.000000;0.110089
8136.000000;0.109865
8135.000000;0.109608
8134.000000;0.109378
8133.000000;0.109165
8132.000000;0.108908
8131.000000;0.108592
8130.000000;0.108268
8129.000000;0.107995
8128.000000;0.107807
8127.000000;0.107729
8126.000000;0.107760
8125.000000;0.107820
8124.000000;0.107800
8123.000000;0.107663
8122.000000;0.107462
8121.000000;0.107218
8120.000000;0.106866
8119.000000;0.106356
8118.000000;0.105794
8117.000000;0.105401
8116.000000;0.105339
8115.000000;0.105576
8114.000000;0.105906
8113.000000;0.106090
8112.000000;0.106005
8111.000000;0.105703
8110.000000;0.105337
8109.000000;0.105039
8108.000000;0.104849
8107.000000;0.104722
8106.000000;0.104593
8105.000000;0.104419
8104.000000;0.104197
8103.000000;0.103936
8102.000000;0.103615
8101.000000;0.103190
8100.000000;0.102670
8099.000000;0.102152
8098.000000;0.101764
8097.000000;0.101564
8096.000000;0.101504
8095.000000;0.101494
8094.000000;0.101456
8093.000000;0.101334
8092.000000;0.101107
8091.000000;0.100826
8090.000000;0.100613
8089.000000;0.100581
8088.000000;0.100718
8087.000000;0.100855
8086.000000;0.100786
8085.000000;0.100446
8084.000000;0.099972
8083.000000;0.099547
8082.000000;0.099221
8081.000000;0.098920
8080.000000;0.098595
8079.000000;0.098285
8078.000000;0.098019
8077.000000;0.097755
8076.000000;0.097451
8075.000000;0.097150
8074.000000;0.096918
8073.000000;0.096764
8072.000000;0.096658
8071.000000;0.096586
8070.000000;0.096526
8069.000000;0.096424
8068.000000;0.096274
8067.000000;0.096162
8066.000000;0.096157
8065.000000;0.096177
8064.000000;0.096060
8063.000000;0.095754
8062.000000;0.095366
8061.000000;0.095010
8060.000000;0.094709
8059.000000;0.094431
8058.000000;0.094155
8057.000000;0.093878
8056.000000;0.093611
8055.000000;0.093384
8054.000000;0.093213
8053.000000;0.093067
8052.000000;0.092902
8051.000000;0.092706
8050.000000;0.092481
8049.000000;0.092193
8048.000000;0.091836
8047.000000;0.091498
8046.000000;0.091290
8045.000000;0.091202
8044.000000;0.091112
8043.000000;0.090935
8042.000000;0.090697
8041.000000;0.090451
8040.000000;0.090208
8039.000000;0.089952
8038.000000;0.089668
8037.000000;0.089334
8036.000000;0.088960
8035.000000;0.088644
8034.000000;0.088490
8033.000000;0.088468
8032.000000;0.088411
8031.000000;0.088216
8030.000000;0.087946
8029.000000;0.087712
8028.000000;0.087513
8027.000000;0.087249
8026.000000;0.086856
8025.000000;0.086388
8024.000000;0.085977
8023.000000;0.085733
8022.000000;0.085634
8021.000000;0.085529
8020.000000;0.085275
8019.000000;0.084888
8018.000000;0.084495
8017.000000;0.084186
8016.000000;0.083956
8015.000000;0.083806
8014.000000;0.083762
8013.000000;0.083784
8012.000000;0.083739
8011.000000;0.083533
8010.000000;0.083202
8009.000000;0.082832
8008.000000;0.082472
8007.000000;0.082165
8006.000000;0.081990
8005.000000;0.081980
8004.000000;0.082037
8003.000000;0.082011
8002.000000;0.081830
8001.000000;0.081513
8000.000000;0.081089
7999.000000;0.080587
7998.000000;0.080076
7997.000000;0.079654
7996.000000;0.079377
7995.000000;0.079227
7994.000000;0.079134
7993.000000;0.079023
7992.000000;0.078840
7991.000000;0.078589
7990.000000;0.078325
7989.000000;0.078099
7988.000000;0.077902
7987.000000;0.077686
7986.000000;0.077428
7985.000000;0.077146
7984.000000;0.076861
7983.000000;0.076571
7982.000000;0.076263
7981.000000;0.075955
7980.000000;0.075691
7979.000000;0.075487
7978.000000;0.075300
7977.000000;0.075062
7976.000000;0.074775
7975.000000;0.074513
7974.000000;0.074306
7973.000000;0.074085
7972.000000;0.073798
7971.000000;0.073519
7970.000000;0.073353
7969.000000;0.073263
7968.000000;0.073085
7967.000000;0.072738
7966.000000;0.072314
7965.000000;0.071951
7964.000000;0.071691
7963.000000;0.071501
7962.000000;0.071335
7961.000000;0.071140
7960.000000;0.070873
7959.000000;0.070555
7958.000000;0.070269
7957.000000;0.070058
7956.000000;0.069882
7955.000000;0.069693
7954.000000;0.069504
7953.000000;0.069327
7952.000000;0.069116
7951.000000;0.068827
7950.000000;0.068490
7949.000000;0.068163
7948.000000;0.067864
7947.000000;0.067577
7946.000000;0.067311
7945.000000;0.067080
7944.000000;0.066858
7943.000000;0.066595
7942.000000;0.066275
7941.000000;0.065941
7940.000000;0.065670
7939.000000;0.065533
7938.000000;0.065531
7937.000000;0.065549
7936.000000;0.065420
7935.000000;0.065061
7934.000000;0.064546
7933.000000;0.064011
7932.000000;0.063538
7931.000000;0.063146
7930.000000;0.062847
7929.000000;0.062652
7928.000000;0.062545
7927.000000;0.062465
7926.000000;0.062319
7925.000000;0.062015
7924.000000;0.061537
7923.000000;0.060996
7922.000000;0.060565
7921.000000;0.060323
7920.000000;0.060211
7919.000000;0.060147
7918.000000;0.060122
7917.000000;0.060136
7916.000000;0.060104
7915.000000;0.059916
7914.000000;0.059551
7913.000000;0.059097
7912.000000;0.058674
7911.000000;0.058369
7910.000000;0.058205
7909.000000;0.058112
7908.000000;0.057937
7907.000000;0.057581
7906.000000;0.057094
7905.000000;0.056629
7904.000000;0.056290
7903.000000;0.056074
7902.000000;0.055925
7901.000000;0.055790
7900.000000;0.055623
7899.000000;0.055384
7898.000000;0.055067
7897.000000;0.054718
7896.000000;0.054406
7895.000000;0.054194
7894.000000;0.054088
7893.000000;0.054008
7892.000000;0.053826
7891.000000;0.053471
7890.000000;0.052996
7889.000000;0.052519
7888.000000;0.052110
7887.000000;0.051782
7886.000000;0.051539
7885.000000;0.051385
7884.000000;0.051266
7883.000000;0.051069
7882.000000;0.050715
7881.000000;0.050240
7880.000000;0.049759
7879.000000;0.049373
7878.000000;0.049100
7877.000000;0.048888
7876.000000;0.048675
7875.000000;0.048445
7874.000000;0.048229
7873.000000;0.048054
7872.000000;0.047897
7871.000000;0.047690
7870.000000;0.047381
7869.000000;0.047008
7868.000000;0.046676
7867.000000;0.046453
7866.000000;0.046282
7865.000000;0.046043
7864.000000;0.045704
7863.000000;0.045367
7862.000000;0.045146
7861.000000;0.045043
7860.000000;0.044977
7859.000000;0.044877
7858.000000;0.044692
7857.000000;0.044360
7856.000000;0.043863
7855.000000;0.043315
7854.000000;0.042900
7853.000000;0.042677
7852.000000;0.042523
7851.000000;0.042283
7850.000000;0.041941
7849.000000;0.041600
7848.000000;0.041337
7847.000000;0.041128
7846.000000;0.040889
7845.000000;0.040567
7844.000000;0.040199
7843.000000;0.039886
7842.000000;0.039684
7841.000000;0.039526
7840.000000;0.039301
7839.000000;0.038985
7838.000000;0.038654
7837.000000;0.038363
7836.000000;0.038097
7835.000000;0.037826
7834.000000;0.037562
7833.000000;0.037308
7832.000000;0.037036
7831.000000;0.036744
7830.000000;0.036486
7829.000000;0.036303
7828.000000;0.036166
7827.000000;0.036010
7826.000000;0.035795
7825.000000;0.035499
7824.000000;0.035113
7823.000000;0.034696
7822.000000;0.034368
7821.000000;0.034203
7820.000000;0.034138
7819.000000;0.034058
7818.000000;0.033919
7817.000000;0.033740
7816.000000;0.033509
7815.000000;0.033176
7814.000000;0.032749
7813.000000;0.032323
7812.000000;0.031997
7811.000000;0.031780
7810.000000;0.031595
7809.000000;0.031376
7808.000000;0.031126
7807.000000;0.030889
7806.000000;0.030655
7805.000000;0.030344
7804.000000;0.029918
7803.000000;0.029482
7802.000000;0.029190
7801.000000;0.029048
7800.000000;0.028889
7799.000000;0.028575
7798.000000;0.028142
7797.000000;0.027721
7796.000000;0.027375
7795.000000;0.027083
7794.000000;0.026830
7793.000000;0.026628
7792.000000;0.026486
7791.000000;0.026404
7790.000000;0.026372
7789.000000;0.026330
7788.000000;0.026156
7787.000000;0.025787
7786.000000;0.025313
7785.000000;0.024885
7784.000000;0.024547
7783.000000;0.024218
7782.000000;0.023852
7781.000000;0.023524
7780.000000;0.023322
7779.000000;0.023224
7778.000000;0.023119
7777.000000;0.022925
7776.000000;0.022647
7775.000000;0.022338
7774.000000;0.022037
7773.000000;0.021755
7772.000000;0.021490
7771.000000;0.021247
7770.000000;0.021027
7769.000000;0.020803
7768.000000;0.020535
7767.000000;0.020223
7766.000000;0.019922
7765.000000;0.019681
7764.000000;0.019469
7763.000000;0.019207
7762.000000;0.018858
7761.000000;0.018485
7760.000000;0.018188
7759.000000;0.018013
7758.000000;0.017920
7757.000000;0.017822
7756.000000;0.017652
7755.000000;0.017398
7754.000000;0.017101
7753.000000;0.016816
7752.000000;0.016578
7751.000000;0.016384
7750.000000;0.016192
7749.000000;0.015946
7748.000000;0.015628
7747.000000;0.015283
7746.000000;0.014990
7745.000000;0.014787
7744.000000;0.014640
7743.000000;0.014475
7742.000000;0.014237
7741.000000;0.013921
7740.000000;0.013560
7739.000000;0.013202
7738.000000;0.012881
7737.000000;0.012611
7736.000000;0.012392
7735.000000;0.012205
7734.000000;0.012002
7733.000000;0.011725
7732.000000;0.011366
7731.000000;0.010992
7730.000000;0.010677
7729.000000;0.010433
7728.000000;0.010221
7727.000000;0.010017
7726.000000;0.009813
7725.000000;0.009587
7724.000000;0.009322
7723.000000;0.009053
7722.000000;0.008834
7721.000000;0.008659
7720.000000;0.008453
7719.000000;0.008172
7718.000000;0.007853
7717.000000;0.007562
7716.000000;0.007328
7715.000000;0.007138
7714.000000;0.006973
7713.000000;0.006802
7712.000000;0.006600
7711.000000;0.006364
7710.000000;0.006106
7709.000000;0.005821
7708.000000;0.005511
7707.000000;0.005221
7706.000000;0.005007
7705.000000;0.004851
7704.000000;0.004671
7703.000000;0.004434
7702.000000;0.004191
7701.000000;0.003981
7700.000000;0.003746
7699.000000;0.003407
7698.000000;0.002969
7697.000000;0.002519
7696.000000;0.002140
7695.000000;0.001865
7694.000000;0.001681
7693.000000;0.001549
7692.000000;0.001421
7691.000000;0.001279
7690.000000;0.001133
7689.000000;0.000979
7688.000000;0.000775
7687.000000;0.000498
7686.000000;0.000184
7685.000000;-0.000123
7684.000000;-0.000438
7683.000000;-0.000787
7682.000000;-0.001140
7681.000000;-0.001425
7680.000000;-0.001609
7679.000000;-0.001727
7678.000000;-0.001831
7677.000000;-0.001959
7676.000000;-0.002131
7675.000000;-0.002351
7674.000000;-0.002583
7673.000000;-0.002774
7672.000000;-0.002918
7671.000000;-0.003092
7670.000000;-0.003386
7669.000000;-0.003805
7668.000000;-0.004250
7667.000000;-0.004606
7666.000000;-0.004844
7665.000000;-0.005023
7664.000000;-0.005217
7663.000000;-0.005451
7662.000000;-0.005723
7661.000000;-0.006019
7660.000000;-0.006303
7659.000000;-0.006510
7658.000000;-0.006611
7657.000000;-0.006658
7656.000000;-0.006755
7655.000000;-0.006961
7654.000000;-0.007244
7653.000000;-0.007524
7652.000000;-0.007728
7651.000000;-0.007848
7650.000000;-0.007942
7649.000000;-0.008091
7648.000000;-0.008314
7647.000000;-0.008570
7646.000000;-0.008839
7645.000000;-0.009164
7644.000000;-0.009566
7643.000000;-0.009969
7642.000000;-0.010276
7641.000000;-0.010492
7640.000000;-0.010706
7639.000000;-0.010969
7638.000000;-0.011244
7637.000000;-0.011485
7636.000000;-0.011684
7635.000000;-0.011867
7634.000000;-0.012062
7633.000000;-0.012290
7632.000000;-0.012526
7631.000000;-0.012711
7630.000000;-0.012837
7629.000000;-0.012995
7628.000000;-0.013256
7627.000000;-0.013556
7626.000000;-0.013768
7625.000000;-0.013885
7624.000000;-0.014009
7623.000000;-0.014188
7622.000000;-0.014358
7621.000000;-0.014485
7620.000000;-0.014633
7619.000000;-0.014862
7618.000000;-0.015152
7617.000000;-0.015459
7616.000000;-0.015789
7615.000000;-0.016138
7614.000000;-0.016455
7613.000000;-0.016692
7612.000000;-0.016867
7611.000000;-0.017038
7610.000000;-0.017241
7609.000000;-0.017494
7608.000000;-0.017796
7607.000000;-0.018103
7606.000000;-0.018362
7605.000000;-0.018557
7604.000000;-0.018707
7603.000000;-0.018803
7602.000000;-0.018836
7601.000000;-0.018874
7600.000000;-0.019017
7599.000000;-0.019273
7598.000000;-0.019561
7597.000000;-0.019855
7596.000000;-0.020213
7595.000000;-0.020631
7594.000000;-0.020983
7593.000000;-0.021177
7592.000000;-0.021277
7591.000000;-0.021393
7590.000000;-0.021543
7589.000000;-0.021691
7588.000000;-0.021865
7587.000000;-0.022116
7586.000000;-0.022415
7585.000000;-0.022679
7584.000000;-0.022871
7583.000000;-0.023024
7582.000000;-0.023165
7581.000000;-0.023303
7580.000000;-0.023452
7579.000000;-0.023625
7578.000000;-0.023825
7577.000000;-0.024067
7576.000000;-0.024379
7575.000000;-0.024741
7574.000000;-0.025060
7573.000000;-0.025258
7572.000000;-0.025349
7571.000000;-0.025408
7570.000000;-0.025498
7569.000000;-0.025677
7568.000000;-0.025998
7567.000000;-0.026448
7566.000000;-0.026912
7565.000000;-0.027260
7564.000000;-0.027472
7563.000000;-0.027621
7562.000000;-0.027766
7561.000000;-0.027897
7560.000000;-0.027986
7559.000000;-0.028054
7558.000000;-0.028171
7557.000000;-0.028403
7556.000000;-0.028755
7555.000000;-0.029155
7554.000000;-0.029507
7553.000000;-0.029762
7552.000000;-0.029930
7551.000000;-0.030042
7550.000000;-0.030130
7549.000000;-0.030222
7548.000000;-0.030324
7547.000000;-0.030414
7546.000000;-0.030482
7545.000000;-0.030581
7544.000000;-0.030760
7543.000000;-0.030978
7542.000000;-0.031148
7541.000000;-0.031269
7540.000000;-0.031446
7539.000000;-0.031753
7538.000000;-0.032155
7537.000000;-0.032563
7536.000000;-0.032906
7535.000000;-0.033150
7534.000000;-0.033316
7533.000000;-0.033496
7532.000000;-0.033778
7531.000000;-0.034124
7530.000000;-0.034392
7529.000000;-0.034506
7528.000000;-0.034525
7527.000000;-0.034549
7526.000000;-0.034634
7525.000000;-0.034808
7524.000000;-0.035076
7523.000000;-0.035384
7522.000000;-0.035644
7521.000000;-0.035854
7520.000000;-0.036087
7519.000000;-0.036374
7518.000000;-0.036658
7517.000000;-0.036904
7516.000000;-0.037129
7515.000000;-0.037310
7514.000000;-0.037383
7513.000000;-0.037377
7512.000000;-0.037446
7511.000000;-0.037679
7510.000000;-0.037986
7509.000000;-0.038226
7508.000000;-0.038383
7507.000000;-0.038516
7506.000000;-0.038648
7505.000000;-0.038778
7504.000000;-0.038944
7503.000000;-0.039187
7502.000000;-0.039483
7501.000000;-0.039781
7500.000000;-0.040059
7499.000000;-0.040297
7498.000000;-0.040492
7497.000000;-0.040654
7496.000000;-0.040892
7495.000000;-0.041224
7494.000000;-0.041467
7493.000000;-0.041659
7492.000000;-0.041809
7491.000000;-0.041971
7490.000000;-0.042142
7489.000000;-0.042343
7488.000000;-0.042599
7487.000000;-0.042857
7486.000000;-0.043006
7485.000000;-0.043042
7484.000000;-0.043109
7483.000000;-0.043316
7482.000000;-0.043615
7481.000000;-0.043908
7480.000000;-0.044184
7479.000000;-0.044462
7478.000000;-0.044713
7477.000000;-0.044918
7476.000000;-0.045125
7475.000000;-0.045357
7474.000000;-0.045559
7473.000000;-0.045704
7472.000000;-0.045857
7471.000000;-0.046054
7470.000000;-0.046224
7469.000000;-0.046312
7468.000000;-0.046397
7467.000000;-0.046589
7466.000000;-0.046887
7465.000000;-0.047223
7464.000000;-0.047566
7463.000000;-0.047897
7462.000000;-0.048149
7461.000000;-0.048284
7460.000000;-0.048370
7459.000000;-0.048508
7458.000000;-0.048707
7457.000000;-0.048903
7456.000000;-0.049059
7455.000000;-0.049180
7454.000000;-0.049276
7453.000000;-0.049380
7452.000000;-0.049563
7451.000000;-0.049861
7450.000000;-0.050236
7449.000000;-0.050624
7448.000000;-0.050960
7447.000000;-0.051160
7446.000000;-0.051183
7445.000000;-0.051145
7444.000000;-0.051235
7443.000000;-0.051488
7442.000000;-0.051754
7441.000000;-0.051949
7440.000000;-0.052164
7439.000000;-0.052462
7438.000000;-0.052729
7437.000000;-0.052857
7436.000000;-0.052923
7435.000000;-0.053066
7434.000000;-0.053278
7433.000000;-0.053459
7432.000000;-0.053589
7431.000000;-0.053731
7430.000000;-0.053920
7429.000000;-0.054145
7428.000000;-0.054400
7427.000000;-0.054657
7426.000000;-0.054870
7425.000000;-0.055067
7424.000000;-0.055332
7423.000000;-0.055613
7422.000000;-0.055694
7421.000000;-0.055484
7420.000000;-0.055225
7419.000000;-0.055244
7418.000000;-0.055592
7417.000000;-0.056055
7416.000000;-0.056418
7415.000000;-0.056618
7414.000000;-0.056716
7413.000000;-0.056831
7412.000000;-0.057048
7411.000000;-0.057320
7410.000000;-0.057544
7409.000000;-0.057718
7408.000000;-0.057917
7407.000000;-0.058107
7406.000000;-0.058178
7405.000000;-0.058190
7404.000000;-0.058352
7403.000000;-0.058690
7402.000000;-0.058949
7401.000000;-0.058912
7400.000000;-0.058655
7399.000000;-0.058462
7398.000000;-0.058585
7397.000000;-0.059050
7396.000000;-0.059597
7395.000000;-0.059923
7394.000000;-0.060085
7393.000000;-0.060488
7392.000000;-0.061300
7391.000000;-0.062103
7390.000000;-0.062367
7389.000000;-0.062130
7388.000000;-0.061843
7387.000000;-0.061694
7386.000000;-0.061556
7385.000000;-0.061491
7384.000000;-0.061695
7383.000000;-0.061890
7382.000000;-0.061513
7381.000000;-0.060778
7380.000000;-0.060768
7379.000000;-0.061890
7378.000000;-0.062961
7377.000000;-0.062657
7376.000000;-0.061315
7375.000000;-0.060529
7374.000000;-0.061188
7373.000000;-0.062681
7372.000000;-0.063905
7371.000000;-0.064306
7370.000000;-0.063995
7369.000000;-0.063541
7368.000000;-0.063617
7367.000000;-0.064355
7366.000000;-0.065131
7365.000000;-0.065398
7364.000000;-0.065389
7363.000000;-0.065549
7362.000000;-0.065738
7361.000000;-0.065683
7360.000000;-0.065787
7359.000000;-0.066467
7358.000000;-0.067045
7357.000000;-0.066507
7356.000000;-0.065152
7355.000000;-0.064423
7354.000000;-0.065025
7353.000000;-0.066253
7352.000000;-0.067197
7351.000000;-0.067503
7350.000000;-0.067039
7349.000000;-0.066031
7348.000000;-0.065503
7347.000000;-0.066264
7346.000000;-0.067538
7345.000000;-0.067878
7344.000000;-0.067237
7343.000000;-0.066623
7342.000000;-0.065964
7341.000000;-0.064271
7340.000000;-0.062165
7339.000000;-0.062101
7338.000000;-0.064934
7337.000000;-0.068399
7336.000000;-0.070132
7335.000000;-0.070282
7334.000000;-0.070228
7333.000000;-0.070475
7332.000000;-0.070866
7331.000000;-0.071318
7330.000000;-0.071228
7329.000000;-0.069687
7328.000000;-0.067374
7327.000000;-0.066684
7326.000000;-0.068568
7325.000000;-0.070903
7324.000000;-0.071507
7323.000000;-0.071038
7322.000000;-0.071437
7321.000000;-0.072873
7320.000000;-0.073861
7319.000000;-0.073728
7318.000000;-0.073134
7317.000000;-0.072639
7316.000000;-0.072372
7315.000000;-0.072650
7314.000000;-0.073409
7313.000000;-0.073500
7312.000000;-0.072188
7311.000000;-0.070814
7310.000000;-0.071127
7309.000000;-0.072503
7308.000000;-0.072869
7307.000000;-0.072005
7306.000000;-0.071876
7305.000000;-0.073502
7304.000000;-0.075514
7303.000000;-0.076472
7302.000000;-0.076563
7301.000000;-0.076422
7300.000000;-0.076068
7299.000000;-0.075784
7298.000000;-0.076434
7297.000000;-0.077760
7296.000000;-0.077981
7295.000000;-0.076252
7294.000000;-0.074316
7293.000000;-0.074395
7292.000000;-0.076155
7291.000000;-0.077352
7290.000000;-0.076845
7289.000000;-0.075483
7288.000000;-0.074602
7287.000000;-0.074750
7286.000000;-0.075741
7285.000000;-0.077070
7284.000000;-0.078073
7283.000000;-0.078344
7282.000000;-0.078143
7281.000000;-0.078072
7280.000000;-0.078347
7279.000000;-0.078691
7278.000000;-0.078891
7277.000000;-0.078962
7276.000000;-0.078869
7275.000000;-0.078514
7274.000000;-0.078003
7273.000000;-0.077701
7272.000000;-0.077883
7271.000000;-0.078438
7270.000000;-0.078947
7269.000000;-0.079045
7268.000000;-0.078774
7267.000000;-0.078580
7266.000000;-0.078778
7265.000000;-0.079024
7264.000000;-0.078639
7263.000000;-0.077578
7262.000000;-0.076712
7261.000000;-0.076875
7260.000000;-0.077868
7259.000000;-0.078813
7258.000000;-0.079223
7257.000000;-0.079263
7256.000000;-0.079071
7255.000000;-0.078450
7254.000000;-0.077432
7253.000000;-0.076608
7252.000000;-0.076639
7251.000000;-0.077517
7250.000000;-0.078477
7249.000000;-0.078749
7248.000000;-0.078393
7247.000000;-0.078175
7246.000000;-0.078303
7245.000000;-0.077746
7244.000000;-0.075534
7243.000000;-0.072570
7242.000000;-0.071238
7241.000000;-0.072680
7240.000000;-0.075340
7239.000000;-0.076967
7238.000000;-0.077147
7237.000000;-0.077133
7236.000000;-0.077670
7235.000000;-0.077847
7234.000000;-0.076354
7233.000000;-0.073436
7232.000000;-0.071255
7231.000000;-0.071935
7230.000000;-0.075129
7229.000000;-0.078230
7228.000000;-0.079121
7227.000000;-0.078156
7226.000000;-0.077301
7225.000000;-0.077912
7224.000000;-0.079659
7223.000000;-0.081249
7222.000000;-0.081717
7221.000000;-0.081084
7220.000000;-0.080234
7219.000000;-0.080188
7218.000000;-0.081156
7217.000000;-0.082372
7216.000000;-0.083002
7215.000000;-0.083058
7214.000000;-0.083202
7213.000000;-0.083760
7212.000000;-0.084340
7211.000000;-0.084531
7210.000000;-0.084502
7209.000000;-0.084560
7208.000000;-0.084522
7207.000000;-0.083923
7206.000000;-0.082704
7205.000000;-0.081443
7204.000000;-0.080959
7203.000000;-0.081662
7202.000000;-0.083210
7201.000000;-0.084777
7200.000000;-0.085771
7199.000000;-0.086301
7198.000000;-0.086826
7197.000000;-0.087421
7196.000000;-0.087722
7195.000000;-0.087650
7194.000000;-0.087733
7193.000000;-0.088340
7192.000000;-0.089058
7191.000000;-0.089290
7190.000000;-0.089144
7189.000000;-0.089122
7188.000000;-0.089229
7187.000000;-0.089179
7186.000000;-0.089212
7185.000000;-0.089826
7184.000000;-0.090635
7183.000000;-0.090554
7182.000000;-0.089404
7181.000000;-0.088466
7180.000000;-0.088863
7179.000000;-0.090089
7178.000000;-0.090886
7177.000000;-0.090929
7176.000000;-0.090834
7175.000000;-0.091081
7174.000000;-0.091628
7173.000000;-0.092273
7172.000000;-0.092737
7171.000000;-0.092514
7170.000000;-0.091414
7169.000000;-0.090081
7168.000000;-0.089382
7167.000000;-0.089519
7166.000000;-0.090221
7165.000000;-0.091404
7164.000000;-0.092842
7163.000000;-0.093717
7162.000000;-0.093461
7161.000000;-0.092815
7160.000000;-0.093125
7159.000000;-0.094471
7158.000000;-0.095548
7157.000000;-0.095597
7156.000000;-0.095354
7155.000000;-0.095760
7154.000000;-0.096669
7153.000000;-0.097332
7152.000000;-0.097514
7151.000000;-0.097570
7150.000000;-0.097813
7149.000000;-0.098212
7148.000000;-0.098525
7147.000000;-0.098473
7146.000000;-0.097903
7145.000000;-0.097075
7144.000000;-0.096634
7143.000000;-0.096920
7142.000000;-0.097358
7141.000000;-0.097077
7140.000000;-0.096198
7139.000000;-0.095933
7138.000000;-0.097042
7137.000000;-0.098736
7136.000000;-0.099702
7135.000000;-0.099746
7134.000000;-0.099767
7133.000000;-0.100362
7132.000000;-0.101165
7131.000000;-0.101651
7130.000000;-0.101874
7129.000000;-0.102117
7128.000000;-0.102332
7127.000000;-0.102411
7126.000000;-0.102563
7125.000000;-0.102894
7124.000000;-0.103019
7123.000000;-0.102686
7122.000000;-0.102430
7121.000000;-0.102884
7120.000000;-0.103625
7119.000000;-0.103578
7118.000000;-0.102667
7117.000000;-0.102201
7116.000000;-0.103132
7115.000000;-0.104674
7114.000000;-0.105442
7113.000000;-0.105250
7112.000000;-0.104999
7111.000000;-0.105239
7110.000000;-0.105626
7109.000000;-0.105710
7108.000000;-0.105519
7107.000000;-0.105289
7106.000000;-0.105212
7105.000000;-0.105536
7104.000000;-0.106397
7103.000000;-0.107454
7102.000000;-0.108092
7101.000000;-0.108093
7100.000000;-0.107892
7099.000000;-0.108053
7098.000000;-0.108575
7097.000000;-0.108955
7096.000000;-0.108887
7095.000000;-0.108661
7094.000000;-0.108750
7093.000000;-0.109215
7092.000000;-0.109695
7091.000000;-0.109930
7090.000000;-0.110075
7089.000000;-0.110434
7088.000000;-0.111029
7087.000000;-0.111562
7086.000000;-0.111822
7085.000000;-0.111950
7084.000000;-0.112209
7083.000000;-0.112622
7082.000000;-0.112988
7081.000000;-0.113215
7080.000000;-0.113465
7079.000000;-0.113869
7078.000000;-0.114242
7077.000000;-0.114325
7076.000000;-0.114228
7075.000000;-0.114320
7074.000000;-0.114671
7073.000000;-0.114954
7072.000000;-0.114953
7071.000000;-0.114882
7070.000000;-0.115042
7069.000000;-0.115392
7068.000000;-0.115685
7067.000000;-0.115855
7066.000000;-0.116057
7065.000000;-0.116380
7064.000000;-0.116745
7063.000000;-0.117079
7062.000000;-0.117405
7061.000000;-0.117706
7060.000000;-0.117916
7059.000000;-0.118073
7058.000000;-0.118317
7057.000000;-0.118681
7056.000000;-0.119030
7055.000000;-0.119239
7054.000000;-0.119316
7053.000000;-0.119389
7052.000000;-0.119592
7051.000000;-0.119963
7050.000000;-0.120395
7049.000000;-0.120720
7048.000000;-0.120882
7047.000000;-0.121010
7046.000000;-0.121251
7045.000000;-0.121563
7044.000000;-0.121787
7043.000000;-0.121909
7042.000000;-0.122095
7041.000000;-0.122434
7040.000000;-0.122817
7039.000000;-0.123121
7038.000000;-0.123380
7037.000000;-0.123672
7036.000000;-0.123976
7035.000000;-0.124228
7034.000000;-0.124426
7033.000000;-0.124630
7032.000000;-0.124881
7031.000000;-0.125182
7030.000000;-0.125516
7029.000000;-0.125836
7028.000000;-0.126081
7027.000000;-0.126245
7026.000000;-0.126376
7025.000000;-0.126484
7024.000000;-0.126549
7023.000000;-0.126630
7022.000000;-0.126864
7021.000000;-0.127293
7020.000000;-0.127783
7019.000000;-0.128171
7018.000000;-0.128435
7017.000000;-0.128655
7016.000000;-0.128874
7015.000000;-0.129081
7014.000000;-0.129282
7013.000000;-0.129512
7012.000000;-0.129787
7011.000000;-0.130112
7010.000000;-0.130491
7009.000000;-0.130862
7008.000000;-0.131104
7007.000000;-0.131183
7006.000000;-0.131214
7005.000000;-0.131325
7004.000000;-0.131511
7003.000000;-0.131698
7002.000000;-0.131893
7001.000000;-0.132160
7000.000000;-0.132491
6999.000000;-0.132818
6998.000000;-0.133142
6997.000000;-0.133508
6996.000000;-0.133886
6995.000000;-0.134176
6994.000000;-0.134371
6993.000000;-0.134600
6992.000000;-0.134980
6991.000000;-0.135457
6990.000000;-0.135872
6989.000000;-0.136114
6988.000000;-0.136181
6987.000000;-0.136146
6986.000000;-0.136137
6985.000000;-0.136278
6984.000000;-0.136573
6983.000000;-0.136891
6982.000000;-0.137112
6981.000000;-0.137278
6980.000000;-0.137542
6979.000000;-0.137968
6978.000000;-0.138444
6977.000000;-0.138823
6976.000000;-0.139102
6975.000000;-0.139378
6974.000000;-0.139660
6973.000000;-0.139858
6972.000000;-0.139966
6971.000000;-0.140120
6970.000000;-0.140400
6969.000000;-0.140712
6968.000000;-0.140930
6967.000000;-0.141099
6966.000000;-0.141364
6965.000000;-0.141751
6964.000000;-0.142150
6963.000000;-0.142494
6962.000000;-0.142823
6961.000000;-0.143138
6960.000000;-0.143373
6959.000000;-0.143512
6958.000000;-0.143625
6957.000000;-0.143744
6956.000000;-0.143849
6955.000000;-0.143976
6954.000000;-0.144217
6953.000000;-0.144575
6952.000000;-0.144951
6951.000000;-0.145296
6950.000000;-0.145655
6949.000000;-0.146005
6948.000000;-0.146223
6947.000000;-0.146291
6946.000000;-0.146398
6945.000000;-0.146707
6944.000000;-0.147130
6943.000000;-0.147470
6942.000000;-0.147684
6941.000000;-0.147861
6940.000000;-0.148017
6939.000000;-0.148107
6938.000000;-0.148195
6937.000000;-0.148430
6936.000000;-0.148838
6935.000000;-0.149270
6934.000000;-0.149589
6933.000000;-0.149793
6932.000000;-0.149952
6931.000000;-0.150132
6930.000000;-0.150389
6929.000000;-0.150745
6928.000000;-0.151139
6927.000000;-0.151467
6926.000000;-0.151701
6925.000000;-0.151921
6924.000000;-0.152192
6923.000000;-0.152487
6922.000000;-0.152763
6921.000000;-0.153012
6920.000000;-0.153177
6919.000000;-0.153175
6918.000000;-0.153056
6917.000000;-0.153041
6916.000000;-0.153315
6915.000000;-0.153822
6914.000000;-0.154350
6913.000000;-0.154752
6912.000000;-0.155044
6911.000000;-0.155295
6910.000000;-0.155538
6909.000000;-0.155776
6908.000000;-0.156017
6907.000000;-0.156271
6906.000000;-0.156543
6905.000000;-0.156848
6904.000000;-0.157196
6903.000000;-0.157552
6902.000000;-0.157843
6901.000000;-0.158028
6900.000000;-0.158141
6899.000000;-0.158276
6898.000000;-0.158506
6897.000000;-0.158791
6896.000000;-0.159007
6895.000000;-0.159088
6894.000000;-0.159125
6893.000000;-0.159269
6892.000000;-0.159574
6891.000000;-0.159977
6890.000000;-0.160410
6889.000000;-0.160848
6888.000000;-0.161251
6887.000000;-0.161560
6886.000000;-0.161772
6885.000000;-0.161973
6884.000000;-0.162244
6883.000000;-0.162582
6882.000000;-0.162929
6881.000000;-0.163245
6880.000000;-0.163531
6879.000000;-0.163804
6878.000000;-0.164067
6877.000000;-0.164314
6876.000000;-0.164548
6875.000000;-0.164781
6874.000000;-0.165021
6873.000000;-0.165252
6872.000000;-0.165467
6871.000000;-0.165698
6870.000000;-0.165979
6869.000000;-0.166284
6868.000000;-0.166534
6867.000000;-0.166698
6866.000000;-0.166834
6865.000000;-0.167027
6864.000000;-0.167298
6863.000000;-0.167606
6862.000000;-0.167891
6861.000000;-0.168115
6860.000000;-0.168282
6859.000000;-0.168455
6858.000000;-0.168710
6857.000000;-0.169051
6856.000000;-0.169409
6855.000000;-0.169730
6854.000000;-0.170024
6853.000000;-0.170317
6852.000000;-0.170587
6851.000000;-0.170787
6850.000000;-0.170923
6849.000000;-0.171060
6848.000000;-0.171265
6847.000000;-0.171551
6846.000000;-0.171868
6845.000000;-0.172149
6844.000000;-0.172380
6843.000000;-0.172624
6842.000000;-0.172952
6841.000000;-0.173330
6840.000000;-0.173642
6839.000000;-0.173836
6838.000000;-0.173990
6837.000000;-0.174186
6836.000000;-0.174396
6835.000000;-0.174572
6834.000000;-0.174776
6833.000000;-0.175122
6832.000000;-0.175591
6831.000000;-0.176017
6830.000000;-0.176283
6829.000000;-0.176432
6828.000000;-0.176552
6827.000000;-0.176659
6826.000000;-0.176759
6825.000000;-0.176923
6824.000000;-0.177223
6823.000000;-0.177609
6822.000000;-0.177955
6821.000000;-0.178219
6820.000000;-0.178463
6819.000000;-0.178738
6818.000000;-0.179002
6817.000000;-0.179201
6816.000000;-0.179364
6815.000000;-0.179576
6814.000000;-0.179884
6813.000000;-0.180263
6812.000000;-0.180645
6811.000000;-0.180957
6810.000000;-0.181167
6809.000000;-0.181314
6808.000000;-0.181484
6807.000000;-0.181717
6806.000000;-0.181967
6805.000000;-0.182178
6804.000000;-0.182371
6803.000000;-0.182610
6802.000000;-0.182893
6801.000000;-0.183151
6800.000000;-0.183368
6799.000000;-0.183617
6798.000000;-0.183945
6797.000000;-0.184275
6796.000000;-0.184503
6795.000000;-0.184624
6794.000000;-0.184732
6793.000000;-0.184903
6792.000000;-0.185145
6791.000000;-0.185435
6790.000000;-0.185758
6789.000000;-0.186088
6788.000000;-0.186392
6787.000000;-0.186664
6786.000000;-0.186931
6785.000000;-0.187217
6784.000000;-0.187514
6783.000000;-0.187813
6782.000000;-0.188104
6781.000000;-0.188370
6780.000000;-0.188590
6779.000000;-0.188770
6778.000000;-0.188939
6777.000000;-0.189124
6776.000000;-0.189351
6775.000000;-0.189651
6774.000000;-0.190016
6773.000000;-0.190361
6772.000000;-0.190596
6771.000000;-0.190738
6770.000000;-0.190890
6769.000000;-0.191091
6768.000000;-0.191281
6767.000000;-0.191435
6766.000000;-0.191647
6765.000000;-0.191994
6764.000000;-0.192414
6763.000000;-0.192772
6762.000000;-0.193027
6761.000000;-0.193243
6760.000000;-0.193493
6759.000000;-0.193794
6758.000000;-0.194112
6757.000000;-0.194390
6756.000000;-0.194577
6755.000000;-0.194700
6754.000000;-0.194868
6753.000000;-0.195159
6752.000000;-0.195524
6751.000000;-0.195865
6750.000000;-0.196157
6749.000000;-0.196442
6748.000000;-0.196729
6747.000000;-0.196979
6746.000000;-0.197184
6745.000000;-0.197390
6744.000000;-0.197634
6743.000000;-0.197909
6742.000000;-0.198188
6741.000000;-0.198450
6740.000000;-0.198676
6739.000000;-0.198852
6738.000000;-0.199003
6737.000000;-0.199183
6736.000000;-0.199431
6735.000000;-0.199738
6734.000000;-0.200061
6733.000000;-0.200358
6732.000000;-0.200613
6731.000000;-0.200860
6730.000000;-0.201142
6729.000000;-0.201434
6728.000000;-0.201644
6727.000000;-0.201718
6726.000000;-0.201725
6725.000000;-0.201788
6724.000000;-0.201960
6723.000000;-0.202209
6722.000000;-0.202487
6721.000000;-0.202775
6720.000000;-0.203055
6719.000000;-0.203306
6718.000000;-0.203535
6717.000000;-0.203776
6716.000000;-0.204031
6715.000000;-0.204267
6714.000000;-0.204475
6713.000000;-0.204686
6712.000000;-0.204951
6711.000000;-0.205257
6710.000000;-0.205540
6709.000000;-0.205773
6708.000000;-0.205969
6707.000000;-0.206160
6706.000000;-0.206397
6705.000000;-0.206754
6704.000000;-0.207151
6703.000000;-0.207546
6702.000000;-0.207748
6701.000000;-0.207851
6700.000000;-0.208033
6699.000000;-0.208195
6698.000000;-0.208423
6697.000000;-0.208675
6696.000000;-0.208932
6695.000000;-0.209178
6694.000000;-0.209439
6693.000000;-0.209726
6692.000000;-0.209995
6691.000000;-0.210191
6690.000000;-0.210306
6689.000000;-0.210402
6688.000000;-0.210563
6687.000000;-0.210826
6686.000000;-0.211155
6685.000000;-0.211467
6684.000000;-0.211699
6683.000000;-0.211873
6682.000000;-0.212062
6681.000000;-0.212309
6680.000000;-0.212600
6679.000000;-0.212916
6678.000000;-0.213266
6677.000000;-0.213643
6676.000000;-0.213987
6675.000000;-0.214241
6674.000000;-0.214421
6673.000000;-0.214584
6672.000000;-0.214760
6671.000000;-0.214951
6670.000000;-0.215166
6669.000000;-0.215426
6668.000000;-0.215713
6667.000000;-0.215985
6666.000000;-0.216210
6665.000000;-0.216386
6664.000000;-0.216524
6663.000000;-0.216651
6662.000000;-0.216802
6661.000000;-0.216995
6660.000000;-0.217215
6659.000000;-0.217449
6658.000000;-0.217711
6657.000000;-0.218011
6656.000000;-0.218318
6655.000000;-0.218596
6654.000000;-0.218854
6653.000000;-0.219116
6652.000000;-0.219374
6651.000000;-0.219603
6650.000000;-0.219817
6649.000000;-0.220059
6648.000000;-0.220344
6647.000000;-0.220631
6646.000000;-0.220883
6645.000000;-0.221101
6644.000000;-0.221311
6643.000000;-0.221536
6642.000000;-0.221785
6641.000000;-0.222046
6640.000000;-0.222296
6639.000000;-0.222537
6638.000000;-0.222794
6637.000000;-0.223073
6636.000000;-0.223327
6635.000000;-0.223508
6634.000000;-0.223621
6633.000000;-0.223716
6632.000000;-0.223840
6631.000000;-0.224027
6630.000000;-0.224302
6629.000000;-0.224646
6628.000000;-0.224993
6627.000000;-0.225288
6626.000000;-0.225546
6625.000000;-0.225800
6624.000000;-0.226030
6623.000000;-0.226194
6622.000000;-0.226311
6621.000000;-0.226458
6620.000000;-0.226675
6619.000000;-0.226937
6618.000000;-0.227208
6617.000000;-0.227481
6616.000000;-0.227744
6615.000000;-0.227976
6614.000000;-0.228184
6613.000000;-0.228402
6612.000000;-0.228651
6611.000000;-0.228924
6610.000000;-0.229212
6609.000000;-0.229514
6608.000000;-0.229808
6607.000000;-0.230058
6606.000000;-0.230255
6605.000000;-0.230432
6604.000000;-0.230615
6603.000000;-0.230812
6602.000000;-0.231033
6601.000000;-0.231292
6600.000000;-0.231570
6599.000000;-0.231818
6598.000000;-0.232004
6597.000000;-0.232142
6596.000000;-0.232268
6595.000000;-0.232420
6594.000000;-0.232642
6593.000000;-0.232958
6592.000000;-0.233320
6591.000000;-0.233635
6590.000000;-0.233861
6589.000000;-0.234056
6588.000000;-0.234311
6587.000000;-0.234648
6586.000000;-0.235005
6585.000000;-0.235310
6584.000000;-0.235548
6583.000000;-0.235761
6582.000000;-0.235996
6581.000000;-0.236258
6580.000000;-0.236512
6579.000000;-0.236739
6578.000000;-0.236958
6577.000000;-0.237193
6576.000000;-0.237427
6575.000000;-0.237611
6574.000000;-0.237736
6573.000000;-0.237851
6572.000000;-0.238012
6571.000000;-0.238232
6570.000000;-0.238491
6569.000000;-0.238776
6568.000000;-0.239086
6567.000000;-0.239406
6566.000000;-0.239702
6565.000000;-0.239933
6564.000000;-0.240094
6563.000000;-0.240225
6562.000000;-0.240387
6561.000000;-0.240606
6560.000000;-0.240862
6559.000000;-0.241127
6558.000000;-0.241406
6557.000000;-0.241714
6556.000000;-0.242034
6555.000000;-0.242328
6554.000000;-0.242574
6553.000000;-0.242787
6552.000000;-0.242988
6551.000000;-0.243189
6550.000000;-0.243398
6549.000000;-0.243628
6548.000000;-0.243879
6547.000000;-0.244131
6546.000000;-0.244353
6545.000000;-0.244522
6544.000000;-0.244659
6543.000000;-0.244822
6542.000000;-0.245064
6541.000000;-0.245372
6540.000000;-0.245681
6539.000000;-0.245942
6538.000000;-0.246169
6537.000000;-0.246401
6536.000000;-0.246641
6535.000000;-0.246873
6534.000000;-0.247094
6533.000000;-0.247321
6532.000000;-0.247563
6531.000000;-0.247819
6530.000000;-0.248074
6529.000000;-0.248307
6528.000000;-0.248505
6527.000000;-0.248693
6526.000000;-0.248922
6525.000000;-0.249201
6524.000000;-0.249488
6523.000000;-0.249747
6522.000000;-0.250000
6521.000000;-0.250277
6520.000000;-0.250551
6519.000000;-0.250784
6518.000000;-0.250993
6517.000000;-0.251224
6516.000000;-0.251475
6515.000000;-0.251693
6514.000000;-0.251862
6513.000000;-0.252022
6512.000000;-0.252196
6511.000000;-0.252363
6510.000000;-0.252505
6509.000000;-0.252661
6508.000000;-0.252882
6507.000000;-0.253176
6506.000000;-0.253501
6505.000000;-0.253802
6504.000000;-0.254040
6503.000000;-0.254215
6502.000000;-0.254365
6501.000000;-0.254532
6500.000000;-0.254723
6499.000000;-0.254920
6498.000000;-0.255127
6497.000000;-0.255382
6496.000000;-0.255706
6495.000000;-0.256052
6494.000000;-0.256337
6493.000000;-0.256526
6492.000000;-0.256672
6491.000000;-0.256871
6490.000000;-0.257164
6489.000000;-0.257500
6488.000000;-0.257795
6487.000000;-0.258012
6486.000000;-0.258186
6485.000000;-0.258364
6484.000000;-0.258550
6483.000000;-0.258729
6482.000000;-0.258903
6481.000000;-0.259092
6480.000000;-0.259308
6479.000000;-0.259544
6478.000000;-0.259782
6477.000000;-0.260004
6476.000000;-0.260208
6475.000000;-0.260417
6474.000000;-0.260662
6473.000000;-0.260949
6472.000000;-0.261252
6471.000000;-0.261538
6470.000000;-0.261783
6469.000000;-0.261968
6468.000000;-0.262098
6467.000000;-0.262234
6466.000000;-0.262450
6465.000000;-0.262746
6464.000000;-0.263041
6463.000000;-0.263274
6462.000000;-0.263475
6461.000000;-0.263692
6460.000000;-0.263917
6459.000000;-0.264108
6458.000000;-0.264269
6457.000000;-0.264438
6456.000000;-0.264625
6455.000000;-0.264811
6454.000000;-0.265007
6453.000000;-0.265245
6452.000000;-0.265524
6451.000000;-0.265802
6450.000000;-0.266050
6449.000000;-0.266282
6448.000000;-0.266526
6447.000000;-0.266803
6446.000000;-0.267122
6445.000000;-0.267468
6444.000000;-0.267787
6443.000000;-0.268028
6442.000000;-0.268192
6441.000000;-0.268327
6440.000000;-0.268472
6439.000000;-0.268637
6438.000000;-0.268819
6437.000000;-0.269016
6436.000000;-0.269225
6435.000000;-0.269448
6434.000000;-0.269697
6433.000000;-0.269965
6432.000000;-0.270208
6431.000000;-0.270380
6430.000000;-0.270493
6429.000000;-0.270603
6428.000000;-0.270755
6427.000000;-0.270957
6426.000000;-0.271193
6425.000000;-0.271440
6424.000000;-0.271670
6423.000000;-0.271873
6422.000000;-0.272072
6421.000000;-0.272296
6420.000000;-0.272544
6419.000000;-0.272797
6418.000000;-0.273050
6417.000000;-0.273313
6416.000000;-0.273578
6415.000000;-0.273825
6414.000000;-0.274043
6413.000000;-0.274236
6412.000000;-0.274413
6411.000000;-0.274596
6410.000000;-0.274824
6409.000000;-0.275115
6408.000000;-0.275438
6407.000000;-0.275739
6406.000000;-0.275998
6405.000000;-0.276223
6404.000000;-0.276422
6403.000000;-0.276602
6402.000000;-0.276787
6401.000000;-0.276990
6400.000000;-0.277199
6399.000000;-0.277406
6398.000000;-0.277627
6397.000000;-0.277877
6396.000000;-0.278119
6395.000000;-0.278305
6394.000000;-0.278436
6393.000000;-0.278559
6392.000000;-0.278709
6391.000000;-0.278881
6390.000000;-0.279064
6389.000000;-0.279256
6388.000000;-0.279451
6387.000000;-0.279649
6386.000000;-0.279876
6385.000000;-0.280145
6384.000000;-0.280428
6383.000000;-0.280683
6382.000000;-0.280916
6381.000000;-0.281164
6380.000000;-0.281430
6379.000000;-0.281667
6378.000000;-0.281847
6377.000000;-0.281994
6376.000000;-0.282146
6375.000000;-0.282323
6374.000000;-0.282532
6373.000000;-0.282781
6372.000000;-0.283053
6371.000000;-0.283312
6370.000000;-0.283538
6369.000000;-0.283745
6368.000000;-0.283955
6367.000000;-0.284178
6366.000000;-0.284410
6365.000000;-0.284642
6364.000000;-0.284877
6363.000000;-0.285131
6362.000000;-0.285416
6361.000000;-0.285711
6360.000000;-0.285958
6359.000000;-0.286134
6358.000000;-0.286288
6357.000000;-0.286488
6356.000000;-0.286737
6355.000000;-0.286991
6354.000000;-0.287235
6353.000000;-0.287484
6352.000000;-0.287730
6351.000000;-0.287930
6350.000000;-0.288075
6349.000000;-0.288210
6348.000000;-0.288377
6347.000000;-0.288573
6346.000000;-0.288769
6345.000000;-0.288956
6344.000000;-0.289137
6343.000000;-0.289312
6342.000000;-0.289480
6341.000000;-0.289646
6340.000000;-0.289820
6339.000000;-0.290002
6338.000000;-0.290193
6337.000000;-0.290405
6336.000000;-0.290646
6335.000000;-0.290904
6334.000000;-0.291157
6333.000000;-0.291386
6332.000000;-0.291592
6331.000000;-0.291800
6330.000000;-0.292037
6329.000000;-0.292304
6328.000000;-0.292565
6327.000000;-0.292787
6326.000000;-0.292967
6325.000000;-0.293118
6324.000000;-0.293254
6323.000000;-0.293392
6322.000000;-0.293563
6321.000000;-0.293780
6320.000000;-0.294026
6319.000000;-0.294282
6318.000000;-0.294550
6317.000000;-0.294823
6316.000000;-0.295062
6315.000000;-0.295247
6314.000000;-0.295415
6313.000000;-0.295622
6312.000000;-0.295864
6311.000000;-0.296086
6310.000000;-0.296259
6309.000000;-0.296407
6308.000000;-0.296576
6307.000000;-0.296788
6306.000000;-0.297046
6305.000000;-0.297330
6304.000000;-0.297606
6303.000000;-0.297853
6302.000000;-0.298083
6301.000000;-0.298311
6300.000000;-0.298517
6299.000000;-0.298674
6298.000000;-0.298801
6297.000000;-0.298947
6296.000000;-0.299136
6295.000000;-0.299363
6294.000000;-0.299619
6293.000000;-0.299902
6292.000000;-0.300192
6291.000000;-0.300458
6290.000000;-0.300692
6289.000000;-0.300914
6288.000000;-0.301139
6287.000000;-0.301366
6286.000000;-0.301600
6285.000000;-0.301852
6284.000000;-0.302107
6283.000000;-0.302337
6282.000000;-0.302521
6281.000000;-0.302661
6280.000000;-0.302767
6279.000000;-0.302868
6278.000000;-0.302998
6277.000000;-0.303179
6276.000000;-0.303395
6275.000000;-0.303630
6274.000000;-0.303894
6273.000000;-0.304194
6272.000000;-0.304490
6271.000000;-0.304717
6270.000000;-0.304850
6269.000000;-0.304924
6268.000000;-0.305003
6267.000000;-0.305139
6266.000000;-0.305356
6265.000000;-0.305627
6264.000000;-0.305882
6263.000000;-0.306070
6262.000000;-0.306212
6261.000000;-0.306369
6260.000000;-0.306562
6259.000000;-0.306770
6258.000000;-0.306981
6257.000000;-0.307214
6256.000000;-0.307480
6255.000000;-0.307762
6254.000000;-0.308040
6253.000000;-0.308300
6252.000000;-0.308535
6251.000000;-0.308749
6250.000000;-0.308968
6249.000000;-0.309211
6248.000000;-0.309462
6247.000000;-0.309690
6246.000000;-0.309894
6245.000000;-0.310104
6244.000000;-0.310329
6243.000000;-0.310550
6242.000000;-0.310745
6241.000000;-0.310916
6240.000000;-0.311077
6239.000000;-0.311251
6238.000000;-0.311461
6237.000000;-0.311703
6236.000000;-0.311939
6235.000000;-0.312138
6234.000000;-0.312307
6233.000000;-0.312474
6232.000000;-0.312643
6231.000000;-0.312808
6230.000000;-0.312988
6229.000000;-0.313212
6228.000000;-0.313469
6227.000000;-0.313721
6226.000000;-0.313957
6225.000000;-0.314201
6224.000000;-0.314466
6223.000000;-0.314739
6222.000000;-0.315000
6221.000000;-0.315235
6220.000000;-0.315427
6219.000000;-0.315580
6218.000000;-0.315739
6217.000000;-0.315943
6216.000000;-0.316169
6215.000000;-0.316364
6214.000000;-0.316523
6213.000000;-0.316702
6212.000000;-0.316944
6211.000000;-0.317230
6210.000000;-0.317507
6209.000000;-0.317736
6208.000000;-0.317911
6207.000000;-0.318067
6206.000000;-0.318251
6205.000000;-0.318467
6204.000000;-0.318665
6203.000000;-0.318810
6202.000000;-0.318961
6201.000000;-0.319215
6200.000000;-0.319569
6199.000000;-0.319906
6198.000000;-0.320120
6197.000000;-0.320226
6196.000000;-0.320313
6195.000000;-0.320446
6194.000000;-0.320625
6193.000000;-0.320825
6192.000000;-0.321033
6191.000000;-0.321261
6190.000000;-0.321523
6189.000000;-0.321803
6188.000000;-0.322045
6187.000000;-0.322209
6186.000000;-0.322326
6185.000000;-0.322477
6184.000000;-0.322711
6183.000000;-0.322999
6182.000000;-0.323279
6181.000000;-0.323525
6180.000000;-0.323753
6179.000000;-0.323982
6178.000000;-0.324214
6177.000000;-0.324429
6176.000000;-0.324608
6175.000000;-0.324764
6174.000000;-0.324927
6173.000000;-0.325110
6172.000000;-0.325300
6171.000000;-0.325492
6170.000000;-0.325714
6169.000000;-0.325986
6168.000000;-0.326278
6167.000000;-0.326539
6166.000000;-0.326754
6165.000000;-0.326946
6164.000000;-0.327143
6163.000000;-0.327351
6162.000000;-0.327570
6161.000000;-0.327796
6160.000000;-0.328020
6159.000000;-0.328248
6158.000000;-0.328497
6157.000000;-0.328765
6156.000000;-0.329019
6155.000000;-0.329238
6154.000000;-0.329446
6153.000000;-0.329663
6152.000000;-0.329872
6151.000000;-0.330054
6150.000000;-0.330241
6149.000000;-0.330474
6148.000000;-0.330736
6147.000000;-0.330966
6146.000000;-0.331148
6145.000000;-0.331314
6144.000000;-0.331487
6143.000000;-0.331663
6142.000000;-0.331844
6141.000000;-0.332051
6140.000000;-0.332284
6139.000000;-0.332515
6138.000000;-0.332740
6137.000000;-0.332986
6136.000000;-0.333262
6135.000000;-0.333536
6134.000000;-0.333773
6133.000000;-0.333967
6132.000000;-0.334130
6131.000000;-0.334288
6130.000000;-0.334470
6129.000000;-0.334686
6128.000000;-0.334911
6127.000000;-0.335112
6126.000000;-0.335295
6125.000000;-0.335492
6124.000000;-0.335709
6123.000000;-0.335919
6122.000000;-0.336108
6121.000000;-0.336291
6120.000000;-0.336485
6119.000000;-0.336689
6118.000000;-0.336903
6117.000000;-0.337134
6116.000000;-0.337381
6115.000000;-0.337641
6114.000000;-0.337910
6113.000000;-0.338171
6112.000000;-0.338381
6111.000000;-0.338524
6110.000000;-0.338640
6109.000000;-0.338782
6108.000000;-0.338949
6107.000000;-0.339104
6106.000000;-0.339241
6105.000000;-0.339399
6104.000000;-0.339599
6103.000000;-0.339833
6102.000000;-0.340099
6101.000000;-0.340412
6100.000000;-0.340761
6099.000000;-0.341095
6098.000000;-0.341370
6097.000000;-0.341580
6096.000000;-0.341749
6095.000000;-0.341917
6094.000000;-0.342126
6093.000000;-0.342390
6092.000000;-0.342678
6091.000000;-0.342942
6090.000000;-0.343170
6089.000000;-0.343382
6088.000000;-0.343582
6087.000000;-0.343760
6086.000000;-0.343930
6085.000000;-0.344115
6084.000000;-0.344309
6083.000000;-0.344484
6082.000000;-0.344641
6081.000000;-0.344813
6080.000000;-0.345009
6079.000000;-0.345202
6078.000000;-0.345378
6077.000000;-0.345560
6076.000000;-0.345760
6075.000000;-0.345963
6074.000000;-0.346152
6073.000000;-0.346341
6072.000000;-0.346548
6071.000000;-0.346784
6070.000000;-0.347051
6069.000000;-0.347344
6068.000000;-0.347627
6067.000000;-0.347859
6066.000000;-0.348043
6065.000000;-0.348226
6064.000000;-0.348442
6063.000000;-0.348677
6062.000000;-0.348906
6061.000000;-0.349122
6060.000000;-0.349328
6059.000000;-0.349525
6058.000000;-0.349719
6057.000000;-0.349914
6056.000000;-0.350109
6055.000000;-0.350309
6054.000000;-0.350537
6053.000000;-0.350804
6052.000000;-0.351073
6051.000000;-0.351290
6050.000000;-0.351455
6049.000000;-0.351628
6048.000000;-0.351857
6047.000000;-0.352128
6046.000000;-0.352394
6045.000000;-0.352626
6044.000000;-0.352834
6043.000000;-0.353054
6042.000000;-0.353318
6041.000000;-0.353613
6040.000000;-0.353884
6039.000000;-0.354087
6038.000000;-0.354240
6037.000000;-0.354395
6036.000000;-0.354566
6035.000000;-0.354725
6034.000000;-0.354861
6033.000000;-0.355011
6032.000000;-0.355217
6031.000000;-0.355479
6030.000000;-0.355763
6029.000000;-0.356019
6028.000000;-0.356209
6027.000000;-0.356338
6026.000000;-0.356462
6025.000000;-0.356641
6024.000000;-0.356887
6023.000000;-0.357165
6022.000000;-0.357438
6021.000000;-0.357682
6020.000000;-0.357879
6019.000000;-0.358032
6018.000000;-0.358184
6017.000000;-0.358386
6016.000000;-0.358644
6015.000000;-0.358918
6014.000000;-0.359161
6013.000000;-0.359353
6012.000000;-0.359492
6011.000000;-0.359601
6010.000000;-0.359733
6009.000000;-0.359935
6008.000000;-0.360198
6007.000000;-0.360477
6006.000000;-0.360736
6005.000000;-0.360964
6004.000000;-0.361155
6003.000000;-0.361323
6002.000000;-0.361519
6001.000000;-0.361787
6000.000000;-0.362102
5999.000000;-0.362393
5998.000000;-0.362624
5997.000000;-0.362824
5996.000000;-0.363027
5995.000000;-0.363230
5994.000000;-0.363423
5993.000000;-0.363622
5992.000000;-0.363842
5991.000000;-0.364083
5990.000000;-0.364333
5989.000000;-0.364579
5988.000000;-0.364802
5987.000000;-0.364993
5986.000000;-0.365177
5985.000000;-0.365390
5984.000000;-0.365632
5983.000000;-0.365869
5982.000000;-0.366075
5981.000000;-0.366260
5980.000000;-0.366447
5979.000000;-0.366650
5978.000000;-0.366874
5977.000000;-0.367115
5976.000000;-0.367350
5975.000000;-0.367551
5974.000000;-0.367716
5973.000000;-0.367871
5972.000000;-0.368049
5971.000000;-0.368265
5970.000000;-0.368510
5969.000000;-0.368752
5968.000000;-0.368955
5967.000000;-0.369117
5966.000000;-0.369273
5965.000000;-0.369464
5964.000000;-0.369702
5963.000000;-0.369990
5962.000000;-0.370321
5961.000000;-0.370654
5960.000000;-0.370923
5959.000000;-0.371108
5958.000000;-0.371263
5957.000000;-0.371444
5956.000000;-0.371638
5955.000000;-0.371811
5954.000000;-0.371978
5953.000000;-0.372180
5952.000000;-0.372400
5951.000000;-0.372593
5950.000000;-0.372763
5949.000000;-0.372963
5948.000000;-0.373208
5947.000000;-0.373456
5946.000000;-0.373670
5945.000000;-0.373859
5944.000000;-0.374047
5943.000000;-0.374250
5942.000000;-0.374480
5941.000000;-0.374740
5940.000000;-0.375004
5939.000000;-0.375237
5938.000000;-0.375443
5937.000000;-0.375654
5936.000000;-0.375878
5935.000000;-0.376092
5934.000000;-0.376286
5933.000000;-0.376468
5932.000000;-0.376639
5931.000000;-0.376801
5930.000000;-0.376984
5929.000000;-0.377226
5928.000000;-0.377514
5927.000000;-0.377794
5926.000000;-0.378035
5925.000000;-0.378253
5924.000000;-0.378465
5923.000000;-0.378675
5922.000000;-0.378887
5921.000000;-0.379109
5920.000000;-0.379327
5919.000000;-0.379516
5918.000000;-0.379689
5917.000000;-0.379883
5916.000000;-0.380106
5915.000000;-0.380329
5914.000000;-0.380530
5913.000000;-0.380722
5912.000000;-0.380914
5911.000000;-0.381104
5910.000000;-0.381311
5909.000000;-0.381557
5908.000000;-0.381829
5907.000000;-0.382073
5906.000000;-0.382265
5905.000000;-0.382435
5904.000000;-0.382640
5903.000000;-0.382911
5902.000000;-0.383241
5901.000000;-0.383582
5900.000000;-0.383867
5899.000000;-0.384069
5898.000000;-0.384235
5897.000000;-0.384439
5896.000000;-0.384692
5895.000000;-0.384949
5894.000000;-0.385177
5893.000000;-0.385395
5892.000000;-0.385627
5891.000000;-0.385863
5890.000000;-0.386091
5889.000000;-0.386318
5888.000000;-0.386553
5887.000000;-0.386787
5886.000000;-0.387009
5885.000000;-0.387218
5884.000000;-0.387409
5883.000000;-0.387588
5882.000000;-0.387790
5881.000000;-0.388044
5880.000000;-0.388333
5879.000000;-0.388607
5878.000000;-0.388848
5877.000000;-0.389081
5876.000000;-0.389329
5875.000000;-0.389581
5874.000000;-0.389813
5873.000000;-0.390021
5872.000000;-0.390211
5871.000000;-0.390390
5870.000000;-0.390565
5869.000000;-0.390743
5868.000000;-0.390930
5867.000000;-0.391142
5866.000000;-0.391403
5865.000000;-0.391707
5864.000000;-0.392011
5863.000000;-0.392274
5862.000000;-0.392507
5861.000000;-0.392730
5860.000000;-0.392936
5859.000000;-0.393109
5858.000000;-0.393268
5857.000000;-0.393451
5856.000000;-0.393682
5855.000000;-0.393960
5854.000000;-0.394289
5853.000000;-0.394641
5852.000000;-0.394946
5851.000000;-0.395152
5850.000000;-0.395295
5849.000000;-0.395463
5848.000000;-0.395693
5847.000000;-0.395957
5846.000000;-0.396223
5845.000000;-0.396485
5844.000000;-0.396720
5843.000000;-0.396901
5842.000000;-0.397048
5841.000000;-0.397227
5840.000000;-0.397473
5839.000000;-0.397752
5838.000000;-0.398008
5837.000000;-0.398205
5836.000000;-0.398337
5835.000000;-0.398429
5834.000000;-0.398538
5833.000000;-0.398716
5832.000000;-0.398957
5831.000000;-0.399217
5830.000000;-0.399471
5829.000000;-0.399736
5828.000000;-0.400027
5827.000000;-0.400333
5826.000000;-0.400631
5825.000000;-0.400900
5824.000000;-0.401125
5823.000000;-0.401323
5822.000000;-0.401540
5821.000000;-0.401806
5820.000000;-0.402097
5819.000000;-0.402369
5818.000000;-0.402614
5817.000000;-0.402848
5816.000000;-0.403063
5815.000000;-0.403236
5814.000000;-0.403378
5813.000000;-0.403524
5812.000000;-0.403698
5811.000000;-0.403912
5810.000000;-0.404182
5809.000000;-0.404508
5808.000000;-0.404838
5807.000000;-0.405119
5806.000000;-0.405364
5805.000000;-0.405622
5804.000000;-0.405892
5803.000000;-0.406126
5802.000000;-0.406311
5801.000000;-0.406489
5800.000000;-0.406698
5799.000000;-0.406929
5798.000000;-0.407166
5797.000000;-0.407398
5796.000000;-0.407609
5795.000000;-0.407785
5794.000000;-0.407951
5793.000000;-0.408154
5792.000000;-0.408400
5791.000000;-0.408656
5790.000000;-0.408904
5789.000000;-0.409158
5788.000000;-0.409432
5787.000000;-0.409712
5786.000000;-0.409979
5785.000000;-0.410224
5784.000000;-0.410447
5783.000000;-0.410677
5782.000000;-0.410961
5781.000000;-0.411312
5780.000000;-0.411666
5779.000000;-0.411946
5778.000000;-0.412141
5777.000000;-0.412305
5776.000000;-0.412474
5775.000000;-0.412658
5774.000000;-0.412866
5773.000000;-0.413111
5772.000000;-0.413373
5771.000000;-0.413618
5770.000000;-0.413847
5769.000000;-0.414087
5768.000000;-0.414346
5767.000000;-0.414611
5766.000000;-0.414882
5765.000000;-0.415163
5764.000000;-0.415432
5763.000000;-0.415673
5762.000000;-0.415904
5761.000000;-0.416147
5760.000000;-0.416389
5759.000000;-0.416612
5758.000000;-0.416844
5757.000000;-0.417113
5756.000000;-0.417387
5755.000000;-0.417613
5754.000000;-0.417810
5753.000000;-0.418040
5752.000000;-0.418315
5751.000000;-0.418593
5750.000000;-0.418849
5749.000000;-0.419097
5748.000000;-0.419334
5747.000000;-0.419544
5746.000000;-0.419756
5745.000000;-0.420023
5744.000000;-0.420343
5743.000000;-0.420650
5742.000000;-0.420898
5741.000000;-0.421102
5740.000000;-0.421297
5739.000000;-0.421507
5738.000000;-0.421748
5737.000000;-0.422024
5736.000000;-0.422300
5735.000000;-0.422543
5734.000000;-0.422767
5733.000000;-0.423016
5732.000000;-0.423290
5731.000000;-0.423565
5730.000000;-0.423848
5729.000000;-0.424169
5728.000000;-0.424505
5727.000000;-0.424795
5726.000000;-0.425016
5725.000000;-0.425200
5724.000000;-0.425369
5723.000000;-0.425527
5722.000000;-0.425709
5721.000000;-0.425959
5720.000000;-0.426268
5719.000000;-0.426578
5718.000000;-0.426867
5717.000000;-0.427166
5716.000000;-0.427477
5715.000000;-0.427760
5714.000000;-0.428004
5713.000000;-0.428247
5712.000000;-0.428507
5711.000000;-0.428757
5710.000000;-0.428978
5709.000000;-0.429197
5708.000000;-0.429446
5707.000000;-0.429719
5706.000000;-0.430002
5705.000000;-0.430290
5704.000000;-0.430575
5703.000000;-0.430842
5702.000000;-0.431087
5701.000000;-0.431319
5700.000000;-0.431513
5699.000000;-0.431668
5698.000000;-0.431805
5697.000000;-0.432051
5696.000000;-0.432339
5695.000000;-0.432607
5694.000000;-0.432872
5693.000000;-0.433129
5692.000000;-0.433390
5691.000000;-0.433628
5690.000000;-0.433847
5689.000000;-0.434079
5688.000000;-0.434342
5687.000000;-0.434625
5686.000000;-0.434933
5685.000000;-0.435272
5684.000000;-0.435615
5683.000000;-0.435913
5682.000000;-0.436152
5681.000000;-0.436360
5680.000000;-0.436548
5679.000000;-0.436712
5678.000000;-0.436879
5677.000000;-0.437097
5676.000000;-0.437372
5675.000000;-0.437665
5674.000000;-0.437953
5673.000000;-0.438247
5672.000000;-0.438541
5671.000000;-0.438800
5670.000000;-0.439002
5669.000000;-0.439166
5668.000000;-0.439328
5667.000000;-0.439523
5666.000000;-0.439777
5665.000000;-0.440077
5664.000000;-0.440364
5663.000000;-0.440595
5662.000000;-0.440808
5661.000000;-0.441074
5660.000000;-0.441395
5659.000000;-0.441720
5658.000000;-0.442030
5657.000000;-0.442350
5656.000000;-0.442679
5655.000000;-0.442977
5654.000000;-0.443224
5653.000000;-0.443444
5652.000000;-0.443659
5651.000000;-0.443873
5650.000000;-0.444088
5649.000000;-0.444308
5648.000000;-0.444517
5647.000000;-0.444707
5646.000000;-0.444904
5645.000000;-0.445150
5644.000000;-0.445443
5643.000000;-0.445752
5642.000000;-0.446066
5641.000000;-0.446382
5640.000000;-0.446670
5639.000000;-0.446905
5638.000000;-0.447115
5637.000000;-0.447340
5636.000000;-0.447567
5635.000000;-0.447754
5634.000000;-0.447905
5633.000000;-0.448058
5632.000000;-0.448228
5631.000000;-0.448420
5630.000000;-0.448676
5629.000000;-0.449033
5628.000000;-0.449439
5627.000000;-0.449794
5626.000000;-0.450063
5625.000000;-0.450286
5624.000000;-0.450500
5623.000000;-0.450711
5622.000000;-0.450941
5621.000000;-0.451220
5620.000000;-0.451530
5619.000000;-0.451824
5618.000000;-0.452098
5617.000000;-0.452380
5616.000000;-0.452669
5615.000000;-0.452934
5614.000000;-0.453178
5613.000000;-0.453413
5612.000000;-0.453621
5611.000000;-0.453776
5610.000000;-0.453914
5609.000000;-0.454100
5608.000000;-0.454348
5607.000000;-0.454633
5606.000000;-0.454942
5605.000000;-0.455258
5604.000000;-0.455529
5603.000000;-0.455720
5602.000000;-0.455887
5601.000000;-0.456113
5600.000000;-0.456389
5599.000000;-0.456644
5598.000000;-0.456859
5597.000000;-0.457066
5596.000000;-0.457272
5595.000000;-0.457471
5594.000000;-0.457706
5593.000000;-0.458019
5592.000000;-0.458360
5591.000000;-0.458641
5590.000000;-0.458864
5589.000000;-0.459092
5588.000000;-0.459336
5587.000000;-0.459554
5586.000000;-0.459763
5585.000000;-0.460016
5584.000000;-0.460295
5583.000000;-0.460525
5582.000000;-0.460700
5581.000000;-0.460883
5580.000000;-0.461094
5579.000000;-0.461298
5578.000000;-0.461503
5577.000000;-0.461754
5576.000000;-0.462033
5575.000000;-0.462279
5574.000000;-0.462493
5573.000000;-0.462733
5572.000000;-0.462990
5571.000000;-0.463200
5570.000000;-0.463380
5569.000000;-0.463614
5568.000000;-0.463909
5567.000000;-0.464177
5566.000000;-0.464397
5565.000000;-0.464643
5564.000000;-0.464929
5563.000000;-0.465173
5562.000000;-0.465345
5561.000000;-0.465519
5560.000000;-0.465749
5559.000000;-0.465985
5558.000000;-0.466186
5557.000000;-0.466396
5556.000000;-0.466661
5555.000000;-0.466949
5554.000000;-0.467221
5553.000000;-0.467497
5552.000000;-0.467785
5551.000000;-0.468032
5550.000000;-0.468192
5549.000000;-0.468303
5548.000000;-0.468429
5547.000000;-0.468603
5546.000000;-0.468838
5545.000000;-0.469126
5544.000000;-0.469414
5543.000000;-0.469653
5542.000000;-0.469876
5541.000000;-0.470170
5540.000000;-0.470531
5539.000000;-0.470851
5538.000000;-0.471080
5537.000000;-0.471299
5536.000000;-0.471579
5535.000000;-0.471867
5534.000000;-0.472080
5533.000000;-0.472227
5532.000000;-0.472390
5531.000000;-0.472621
5530.000000;-0.472922
5529.000000;-0.473272
5528.000000;-0.473613
5527.000000;-0.473893
5526.000000;-0.474129
5525.000000;-0.474351
5524.000000;-0.474532
5523.000000;-0.474630
5522.000000;-0.474702
5521.000000;-0.474895
5520.000000;-0.475234
5519.000000;-0.475578
5518.000000;-0.475834
5517.000000;-0.476069
5516.000000;-0.476375
5515.000000;-0.476706
5514.000000;-0.476942
5513.000000;-0.477074
5512.000000;-0.477229
5511.000000;-0.477482
5510.000000;-0.477767
5509.000000;-0.477985
5508.000000;-0.478135
5507.000000;-0.478328
5506.000000;-0.478624
5505.000000;-0.478919
5504.000000;-0.479110
5503.000000;-0.479296
5502.000000;-0.479644
5501.000000;-0.480143
5500.000000;-0.480530
5499.000000;-0.480621
5498.000000;-0.480620
5497.000000;-0.480816
5496.000000;-0.481111
5495.000000;-0.481173
5494.000000;-0.480975
5493.000000;-0.480929
5492.000000;-0.481333
5491.000000;-0.481908
5490.000000;-0.482211
5489.000000;-0.482258
5488.000000;-0.482420
5487.000000;-0.482874
5486.000000;-0.483441
5485.000000;-0.483882
5484.000000;-0.484202
5483.000000;-0.484538
5482.000000;-0.484812
5481.000000;-0.484904
5480.000000;-0.484964
5479.000000;-0.485210
5478.000000;-0.485555
5477.000000;-0.485656
5476.000000;-0.485417
5475.000000;-0.485307
5474.000000;-0.485743
5473.000000;-0.486400
5472.000000;-0.486706
5471.000000;-0.486687
5470.000000;-0.486844
5469.000000;-0.487396
5468.000000;-0.487983
5467.000000;-0.488202
5466.000000;-0.488195
5465.000000;-0.488304
5464.000000;-0.488523
5463.000000;-0.488672
5462.000000;-0.488745
5461.000000;-0.488892
5460.000000;-0.489209
5459.000000;-0.489630
5458.000000;-0.490041
5457.000000;-0.490375
5456.000000;-0.490599
5455.000000;-0.490813
5454.000000;-0.491230
5453.000000;-0.491749
5452.000000;-0.491939
5451.000000;-0.491664
5450.000000;-0.491391
5449.000000;-0.491584
5448.000000;-0.491965
5447.000000;-0.491889
5446.000000;-0.491488
5445.000000;-0.491548
5444.000000;-0.492255
5443.000000;-0.492934
5442.000000;-0.493060
5441.000000;-0.492915
5440.000000;-0.493164
5439.000000;-0.493914
5438.000000;-0.494589
5437.000000;-0.494762
5436.000000;-0.494547
5435.000000;-0.494363
5434.000000;-0.494612
5433.000000;-0.495209
5432.000000;-0.495637
5431.000000;-0.495602
5430.000000;-0.495344
5429.000000;-0.495370
5428.000000;-0.495951
5427.000000;-0.496831
5426.000000;-0.497595
5425.000000;-0.498117
5424.000000;-0.498533
5423.000000;-0.499023
5422.000000;-0.499652
5421.000000;-0.500151
5420.000000;-0.500186
5419.000000;-0.499928
5418.000000;-0.499879
5417.000000;-0.500105
5416.000000;-0.500085
5415.000000;-0.499517
5414.000000;-0.498949
5413.000000;-0.499052
5412.000000;-0.499566
5411.000000;-0.499790
5410.000000;-0.499763
5409.000000;-0.500146
5408.000000;-0.501079
5407.000000;-0.502001
5406.000000;-0.502523
5405.000000;-0.502907
5404.000000;-0.503445
5403.000000;-0.503897
5402.000000;-0.504088
5401.000000;-0.504246
5400.000000;-0.504386
5399.000000;-0.504304
5398.000000;-0.504086
5397.000000;-0.504077
5396.000000;-0.504308
5395.000000;-0.504356
5394.000000;-0.504144
5393.000000;-0.504182
5392.000000;-0.504664
5391.000000;-0.505116
5390.000000;-0.505243
5389.000000;-0.505391
5388.000000;-0.505866
5387.000000;-0.506369
5386.000000;-0.506543
5385.000000;-0.506703
5384.000000;-0.507176
5383.000000;-0.507505
5382.000000;-0.507332
5381.000000;-0.507183
5380.000000;-0.507563
5379.000000;-0.508100
5378.000000;-0.508161
5377.000000;-0.507964
5376.000000;-0.508228
5375.000000;-0.508874
5374.000000;-0.509212
5373.000000;-0.509219
5372.000000;-0.509524
5371.000000;-0.510288
5370.000000;-0.510969
5369.000000;-0.511253
5368.000000;-0.511493
5367.000000;-0.511919
5366.000000;-0.512201
5365.000000;-0.512174
5364.000000;-0.512167
5363.000000;-0.512359
5362.000000;-0.512527
5361.000000;-0.512487
5360.000000;-0.512360
5359.000000;-0.512326
5358.000000;-0.512428
5357.000000;-0.512700
5356.000000;-0.513121
5355.000000;-0.513376
5354.000000;-0.513167
5353.000000;-0.512830
5352.000000;-0.512920
5351.000000;-0.513155
5350.000000;-0.512925
5349.000000;-0.512521
5348.000000;-0.512743
5347.000000;-0.513521
5346.000000;-0.513830
5345.000000;-0.513251
5344.000000;-0.512789
5343.000000;-0.513301
5342.000000;-0.514060
5341.000000;-0.514090
5340.000000;-0.513667
5339.000000;-0.513645
5338.000000;-0.514201
5337.000000;-0.514797
5336.000000;-0.515125
5335.000000;-0.515369
5334.000000;-0.515568
5333.000000;-0.515643
5332.000000;-0.515881
5331.000000;-0.516507
5330.000000;-0.517120
5329.000000;-0.517200
5328.000000;-0.516888
5327.000000;-0.516862
5326.000000;-0.517347
5325.000000;-0.517820
5324.000000;-0.517942
5323.000000;-0.518002
5322.000000;-0.518267
5321.000000;-0.518626
5320.000000;-0.518930
5319.000000;-0.519218
5318.000000;-0.519541
5317.000000;-0.519814
5316.000000;-0.519996
5315.000000;-0.520170
5314.000000;-0.520284
5313.000000;-0.520193
5312.000000;-0.520019
5311.000000;-0.520020
5310.000000;-0.520169
5309.000000;-0.520193
5308.000000;-0.520059
5307.000000;-0.520071
5306.000000;-0.520340
5305.000000;-0.520577
5304.000000;-0.520591
5303.000000;-0.520601
5302.000000;-0.520852
5301.000000;-0.521217
5300.000000;-0.521412
5299.000000;-0.521433
5298.000000;-0.521520
5297.000000;-0.521690
5296.000000;-0.521754
5295.000000;-0.521747
5294.000000;-0.521855
5293.000000;-0.522039
5292.000000;-0.522026
5291.000000;-0.521730
5290.000000;-0.521494
5289.000000;-0.521641
5288.000000;-0.521981
5287.000000;-0.522095
5286.000000;-0.521937
5285.000000;-0.521874
5284.000000;-0.522138
5283.000000;-0.522504
5282.000000;-0.522668
5281.000000;-0.522696
5280.000000;-0.522842
5279.000000;-0.523111
5278.000000;-0.523302
5277.000000;-0.523346
5276.000000;-0.523333
5275.000000;-0.523336
5274.000000;-0.523340
5273.000000;-0.523340
5272.000000;-0.523399
5271.000000;-0.523421
5270.000000;-0.523210
5269.000000;-0.522867
5268.000000;-0.522707
5267.000000;-0.522742
5266.000000;-0.522664
5265.000000;-0.522370
5264.000000;-0.522178
5263.000000;-0.522375
5262.000000;-0.522723
5261.000000;-0.522780
5260.000000;-0.522600
5259.000000;-0.522628
5258.000000;-0.522983
5257.000000;-0.523337
5256.000000;-0.523415
5255.000000;-0.523310
5254.000000;-0.523246
5253.000000;-0.523238
5252.000000;-0.523211
5251.000000;-0.523136
5250.000000;-0.522959
5249.000000;-0.522755
5248.000000;-0.522770
5247.000000;-0.523089
5246.000000;-0.523412
5245.000000;-0.523401
5244.000000;-0.523206
5243.000000;-0.523348
5242.000000;-0.523947
5241.000000;-0.524467
5240.000000;-0.524507
5239.000000;-0.524377
5238.000000;-0.524505
5237.000000;-0.524745
5236.000000;-0.524742
5235.000000;-0.524574
5234.000000;-0.524562
5233.000000;-0.524672
5232.000000;-0.524551
5231.000000;-0.524180
5230.000000;-0.523985
5229.000000;-0.524129
5228.000000;-0.524224
5227.000000;-0.523982
5226.000000;-0.523675
5225.000000;-0.523674
5224.000000;-0.523910
5223.000000;-0.524071
5222.000000;-0.524134
5221.000000;-0.524283
5220.000000;-0.524533
5219.000000;-0.524770
5218.000000;-0.524952
5217.000000;-0.525096
5216.000000;-0.525133
5215.000000;-0.524968
5214.000000;-0.524731
5213.000000;-0.524634
5212.000000;-0.524632
5211.000000;-0.524556
5210.000000;-0.524402
5209.000000;-0.524252
5208.000000;-0.524061
5207.000000;-0.523791
5206.000000;-0.523644
5205.000000;-0.523860
5204.000000;-0.524287
5203.000000;-0.524530
5202.000000;-0.524538
5201.000000;-0.524636
5200.000000;-0.524963
5199.000000;-0.525226
5198.000000;-0.525160
5197.000000;-0.524975
5196.000000;-0.524973
5195.000000;-0.525027
5194.000000;-0.524888
5193.000000;-0.524654
5192.000000;-0.524584
5191.000000;-0.524672
5190.000000;-0.524715
5189.000000;-0.524711
5188.000000;-0.524817
5187.000000;-0.524944
5186.000000;-0.524825
5185.000000;-0.524521
5184.000000;-0.524414
5183.000000;-0.524620
5182.000000;-0.524833
5181.000000;-0.524840
5180.000000;-0.524806
5179.000000;-0.524896
5178.000000;-0.524966
5177.000000;-0.524845
5176.000000;-0.524656
5175.000000;-0.524604
5174.000000;-0.524627
5173.000000;-0.524543
5172.000000;-0.524362
5171.000000;-0.524209
5170.000000;-0.524106
5169.000000;-0.524017
5168.000000;-0.523991
5167.000000;-0.524063
5166.000000;-0.524115
5165.000000;-0.524024
5164.000000;-0.523861
5163.000000;-0.523754
5162.000000;-0.523674
5161.000000;-0.523530
5160.000000;-0.523386
5159.000000;-0.523368
5158.000000;-0.523437
5157.000000;-0.523437
5156.000000;-0.523353
5155.000000;-0.523303
5154.000000;-0.523313
5153.000000;-0.523287
5152.000000;-0.523212
5151.000000;-0.523198
5150.000000;-0.523278
5149.000000;-0.523349
5148.000000;-0.523317
5147.000000;-0.523214
5146.000000;-0.523118
5145.000000;-0.523058
5144.000000;-0.523017
5143.000000;-0.522973
5142.000000;-0.522906
5141.000000;-0.522812
5140.000000;-0.522711
5139.000000;-0.522609
5138.000000;-0.522494
5137.000000;-0.522388
5136.000000;-0.522345
5135.000000;-0.522355
5134.000000;-0.522318
5133.000000;-0.522174
5132.000000;-0.521998
5131.000000;-0.521894
5130.000000;-0.521868
5129.000000;-0.521870
5128.000000;-0.521890
5127.000000;-0.521934
5126.000000;-0.521951
5125.000000;-0.521886
5124.000000;-0.521777
5123.000000;-0.521682
5122.000000;-0.521580
5121.000000;-0.521421
5120.000000;-0.521241
5119.000000;-0.521103
5118.000000;-0.520990
5117.000000;-0.520848
5116.000000;-0.520696
5115.000000;-0.520602
5114.000000;-0.520571
5113.000000;-0.520546
5112.000000;-0.520505
5111.000000;-0.520451
5110.000000;-0.520349
5109.000000;-0.520160
5108.000000;-0.519934
5107.000000;-0.519773
5106.000000;-0.519710
5105.000000;-0.519704
5104.000000;-0.519729
5103.000000;-0.519777
5102.000000;-0.519798
5101.000000;-0.519733
5100.000000;-0.519599
5099.000000;-0.519479
5098.000000;-0.519409
5097.000000;-0.519352
5096.000000;-0.519270
5095.000000;-0.519160
5094.000000;-0.519020
5093.000000;-0.518852
5092.000000;-0.518693
5091.000000;-0.518588
5090.000000;-0.518524
5089.000000;-0.518461
5088.000000;-0.518388
5087.000000;-0.518313
5086.000000;-0.518214
5085.000000;-0.518064
5084.000000;-0.517892
5083.000000;-0.517752
5082.000000;-0.517639
5081.000000;-0.517500
5080.000000;-0.517317
5079.000000;-0.517121
5078.000000;-0.516948
5077.000000;-0.516821
5076.000000;-0.516765
5075.000000;-0.516776
5074.000000;-0.516792
5073.000000;-0.516731
5072.000000;-0.516574
5071.000000;-0.516353
5070.000000;-0.516107
5069.000000;-0.515877
5068.000000;-0.515727
5067.000000;-0.515692
5066.000000;-0.515715
5065.000000;-0.515704
5064.000000;-0.515620
5063.000000;-0.515490
5062.000000;-0.515334
5061.000000;-0.515169
5060.000000;-0.515024
5059.000000;-0.514915
5058.000000;-0.514793
5057.000000;-0.514601
5056.000000;-0.514361
5055.000000;-0.514154
5054.000000;-0.514022
5053.000000;-0.513941
5052.000000;-0.513885
5051.000000;-0.513842
5050.000000;-0.513791
5049.000000;-0.513697
5048.000000;-0.513554
5047.000000;-0.513382
5046.000000;-0.513197
5045.000000;-0.513009
5044.000000;-0.512838
5043.000000;-0.512687
5042.000000;-0.512525
5041.000000;-0.512338
5040.000000;-0.512166
5039.000000;-0.512045
5038.000000;-0.511952
5037.000000;-0.511844
5036.000000;-0.511725
5035.000000;-0.511624
5034.000000;-0.511525
5033.000000;-0.511399
5032.000000;-0.511264
5031.000000;-0.511165
5030.000000;-0.511091
5029.000000;-0.510981
5028.000000;-0.510800
5027.000000;-0.510566
5026.000000;-0.510314
5025.000000;-0.510082
5024.000000;-0.509914
5023.000000;-0.509815
5022.000000;-0.509728
5021.000000;-0.509596
5020.000000;-0.509435
5019.000000;-0.509291
5018.000000;-0.509157
5017.000000;-0.508987
5016.000000;-0.508786
5015.000000;-0.508608
5014.000000;-0.508482
5013.000000;-0.508387
5012.000000;-0.508291
5011.000000;-0.508170
5010.000000;-0.507998
5009.000000;-0.507774
5008.000000;-0.507546
5007.000000;-0.507370
5006.000000;-0.507236
5005.000000;-0.507087
5004.000000;-0.506897
5003.000000;-0.506679
5002.000000;-0.506447
5001.000000;-0.506179
5000.000000;-0.505936
4999.000000;-0.505742
4998.000000;-0.505600
4997.000000;-0.505484
4996.000000;-0.505358
4995.000000;-0.505204
4994.000000;-0.505015
4993.000000;-0.504810
4992.000000;-0.504626
4991.000000;-0.504477
4990.000000;-0.504325
4989.000000;-0.504142
4988.000000;-0.503963
4987.000000;-0.503837
4986.000000;-0.503755
4985.000000;-0.503672
4984.000000;-0.503588
4983.000000;-0.503534
4982.000000;-0.503498
4981.000000;-0.503419
4980.000000;-0.503263
4979.000000;-0.503058
4978.000000;-0.502849
4977.000000;-0.502662
4976.000000;-0.502507
4975.000000;-0.502375
4974.000000;-0.502231
4973.000000;-0.502043
4972.000000;-0.501824
4971.000000;-0.501603
4970.000000;-0.501384
4969.000000;-0.501153
4968.000000;-0.500921
4967.000000;-0.500714
4966.000000;-0.500528
4965.000000;-0.500343
4964.000000;-0.500166
4963.000000;-0.500006
4962.000000;-0.499843
4961.000000;-0.499653
4960.000000;-0.499459
4959.000000;-0.499293
4958.000000;-0.499137
4957.000000;-0.498936
4956.000000;-0.498686
4955.000000;-0.498445
4954.000000;-0.498264
4953.000000;-0.498143
4952.000000;-0.498056
4951.000000;-0.497974
4950.000000;-0.497863
4949.000000;-0.497700
4948.000000;-0.497507
4947.000000;-0.497338
4946.000000;-0.497224
4945.000000;-0.497147
4944.000000;-0.497064
4943.000000;-0.496930
4942.000000;-0.496723
4941.000000;-0.496464
4940.000000;-0.496227
4939.000000;-0.496077
4938.000000;-0.496019
4937.000000;-0.496007
4936.000000;-0.495997
4935.000000;-0.495947
4934.000000;-0.495812
4933.000000;-0.495575
4932.000000;-0.495278
4931.000000;-0.494988
4930.000000;-0.494726
4929.000000;-0.494476
4928.000000;-0.494237
4927.000000;-0.494035
4926.000000;-0.493879
4925.000000;-0.493744
4924.000000;-0.493608
4923.000000;-0.493470
4922.000000;-0.493334
4921.000000;-0.493187
4920.000000;-0.493009
4919.000000;-0.492781
4918.000000;-0.492511
4917.000000;-0.492243
4916.000000;-0.492028
4915.000000;-0.491870
4914.000000;-0.491712
4913.000000;-0.491511
4912.000000;-0.491281
4911.000000;-0.491060
4910.000000;-0.490857
4909.000000;-0.490674
4908.000000;-0.490543
4907.000000;-0.490490
4906.000000;-0.490481
4905.000000;-0.490449
4904.000000;-0.490352
4903.000000;-0.490196
4902.000000;-0.489998
4901.000000;-0.489781
4900.000000;-0.489583
4899.000000;-0.489424
4898.000000;-0.489285
4897.000000;-0.489118
4896.000000;-0.488906
4895.000000;-0.488663
4894.000000;-0.488417
4893.000000;-0.488192
4892.000000;-0.488013
4891.000000;-0.487873
4890.000000;-0.487737
4889.000000;-0.487585
4888.000000;-0.487437
4887.000000;-0.487306
4886.000000;-0.487160
4885.000000;-0.486956
4884.000000;-0.486704
4883.000000;-0.486451
4882.000000;-0.486231
4881.000000;-0.486042
4880.000000;-0.485870
4879.000000;-0.485693
4878.000000;-0.485492
4877.000000;-0.485272
4876.000000;-0.485070
4875.000000;-0.484899
4874.000000;-0.484721
4873.000000;-0.484491
4872.000000;-0.484207
4871.000000;-0.483899
4870.000000;-0.483597
4869.000000;-0.483330
4868.000000;-0.483134
4867.000000;-0.483008
4866.000000;-0.482894
4865.000000;-0.482735
4864.000000;-0.482531
4863.000000;-0.482307
4862.000000;-0.482071
4861.000000;-0.481836
4860.000000;-0.481642
4859.000000;-0.481501
4858.000000;-0.481344
4857.000000;-0.481098
4856.000000;-0.480779
4855.000000;-0.480476
4854.000000;-0.480250
4853.000000;-0.480096
4852.000000;-0.479978
4851.000000;-0.479842
4850.000000;-0.479624
4849.000000;-0.479306
4848.000000;-0.478968
4847.000000;-0.478720
4846.000000;-0.478580
4845.000000;-0.478463
4844.000000;-0.478283
4843.000000;-0.478023
4842.000000;-0.477722
4841.000000;-0.477425
4840.000000;-0.477178
4839.000000;-0.476999
4838.000000;-0.476855
4837.000000;-0.476687
4836.000000;-0.476460
4835.000000;-0.476181
4834.000000;-0.475872
4833.000000;-0.475559
4832.000000;-0.475280
4831.000000;-0.475056
4830.000000;-0.474871
4829.000000;-0.474689
4828.000000;-0.474497
4827.000000;-0.474293
4826.000000;-0.474060
4825.000000;-0.473785
4824.000000;-0.473496
4823.000000;-0.473243
4822.000000;-0.473045
4821.000000;-0.472884
4820.000000;-0.472738
4819.000000;-0.472587
4818.000000;-0.472400
4817.000000;-0.472175
4816.000000;-0.471952
4815.000000;-0.471764
4814.000000;-0.471578
4813.000000;-0.471323
4812.000000;-0.470969
4811.000000;-0.470556
4810.000000;-0.470149
4809.000000;-0.469804
4808.000000;-0.469562
4807.000000;-0.469416
4806.000000;-0.469298
4805.000000;-0.469125
4804.000000;-0.468866
4803.000000;-0.468531
4802.000000;-0.468138
4801.000000;-0.467715
4800.000000;-0.467323
4799.000000;-0.467016
4798.000000;-0.466775
4797.000000;-0.466535
4796.000000;-0.466267
4795.000000;-0.465998
4794.000000;-0.465751
4793.000000;-0.465523
4792.000000;-0.465305
4791.000000;-0.465090
4790.000000;-0.464837
4789.000000;-0.464496
4788.000000;-0.464064
4787.000000;-0.463606
4786.000000;-0.463193
4785.000000;-0.462862
4784.000000;-0.462611
4783.000000;-0.462412
4782.000000;-0.462193
4781.000000;-0.461882
4780.000000;-0.461460
4779.000000;-0.460992
4778.000000;-0.460571
4777.000000;-0.460255
4776.000000;-0.460053
4775.000000;-0.459919
4774.000000;-0.459765
4773.000000;-0.459514
4772.000000;-0.459154
4771.000000;-0.458750
4770.000000;-0.458382
4769.000000;-0.458094
4768.000000;-0.457873
4767.000000;-0.457664
4766.000000;-0.457399
4765.000000;-0.457042
4764.000000;-0.456618
4763.000000;-0.456183
4762.000000;-0.455787
4761.000000;-0.455447
4760.000000;-0.455150
4759.000000;-0.454852
4758.000000;-0.454501
4757.000000;-0.454092
4756.000000;-0.453693
4755.000000;-0.453381
4754.000000;-0.453164
4753.000000;-0.452988
4752.000000;-0.452790
4751.000000;-0.452533
4750.000000;-0.452190
4749.000000;-0.451759
4748.000000;-0.451282
4747.000000;-0.450836
4746.000000;-0.450471
4745.000000;-0.450185
4744.000000;-0.449931
4743.000000;-0.449649
4742.000000;-0.449291
4741.000000;-0.448855
4740.000000;-0.448383
4739.000000;-0.447931
4738.000000;-0.447526
4737.000000;-0.447177
4736.000000;-0.446885
4735.000000;-0.446621
4734.000000;-0.446328
4733.000000;-0.445963
4732.000000;-0.445555
4731.000000;-0.445176
4730.000000;-0.444875
4729.000000;-0.444643
4728.000000;-0.444430
4727.000000;-0.444177
4726.000000;-0.443849
4725.000000;-0.443462
4724.000000;-0.443068
4723.000000;-0.442698
4722.000000;-0.442332
4721.000000;-0.441954
4720.000000;-0.441584
4719.000000;-0.441237
4718.000000;-0.440879
4717.000000;-0.440469
4716.000000;-0.440023
4715.000000;-0.439602
4714.000000;-0.439229
4713.000000;-0.438886
4712.000000;-0.438562
4711.000000;-0.438259
4710.000000;-0.437958
4709.000000;-0.437614
4708.000000;-0.437204
4707.000000;-0.436744
4706.000000;-0.436271
4705.000000;-0.435818
4704.000000;-0.435405
4703.000000;-0.435028
4702.000000;-0.434654
4701.000000;-0.434268
4700.000000;-0.433898
4699.000000;-0.433576
4698.000000;-0.433268
4697.000000;-0.432886
4696.000000;-0.432385
4695.000000;-0.431818
4694.000000;-0.431285
4693.000000;-0.430849
4692.000000;-0.430498
4691.000000;-0.430175
4690.000000;-0.429817
4689.000000;-0.429399
4688.000000;-0.428927
4687.000000;-0.428427
4686.000000;-0.427921
4685.000000;-0.427437
4684.000000;-0.427001
4683.000000;-0.426614
4682.000000;-0.426237
4681.000000;-0.425825
4680.000000;-0.425365
4679.000000;-0.424874
4678.000000;-0.424384
4677.000000;-0.423938
4676.000000;-0.423566
4675.000000;-0.423242
4674.000000;-0.422887
4673.000000;-0.422438
4672.000000;-0.421904
4671.000000;-0.421347
4670.000000;-0.420816
4669.000000;-0.420324
4668.000000;-0.419856
4667.000000;-0.419384
4666.000000;-0.418878
4665.000000;-0.418334
4664.000000;-0.417780
4663.000000;-0.417240
4662.000000;-0.416710
4661.000000;-0.416192
4660.000000;-0.415692
4659.000000;-0.415188
4658.000000;-0.414626
4657.000000;-0.413984
4656.000000;-0.413312
4655.000000;-0.412687
4654.000000;-0.412140
4653.000000;-0.411663
4652.000000;-0.411232
4651.000000;-0.410815
4650.000000;-0.410361
4649.000000;-0.409853
4648.000000;-0.409324
4647.000000;-0.408807
4646.000000;-0.408290
4645.000000;-0.407749
4644.000000;-0.407199
4643.000000;-0.406653
4642.000000;-0.406084
4641.000000;-0.405451
4640.000000;-0.404772
4639.000000;-0.404105
4638.000000;-0.403480
4637.000000;-0.402885
4636.000000;-0.402307
4635.000000;-0.401739
4634.000000;-0.401157
4633.000000;-0.400540
4632.000000;-0.399903
4631.000000;-0.399289
4630.000000;-0.398714
4629.000000;-0.398168
4628.000000;-0.397639
4627.000000;-0.397118
4626.000000;-0.396571
4625.000000;-0.395966
4624.000000;-0.395312
4623.000000;-0.394641
4622.000000;-0.393976
4621.000000;-0.393326
4620.000000;-0.392705
4619.000000;-0.392108
4618.000000;-0.391491
4617.000000;-0.390818
4616.000000;-0.390117
4615.000000;-0.389444
4614.000000;-0.388820
4613.000000;-0.388225
4612.000000;-0.387636
4611.000000;-0.387021
4610.000000;-0.386317
4609.000000;-0.385486
4608.000000;-0.384601
4607.000000;-0.383794
4606.000000;-0.383118
4605.000000;-0.382490
4604.000000;-0.381793
4603.000000;-0.380995
4602.000000;-0.380159
4601.000000;-0.379364
4600.000000;-0.378641
4599.000000;-0.377953
4598.000000;-0.377224
4597.000000;-0.376418
4596.000000;-0.375574
4595.000000;-0.374751
4594.000000;-0.373947
4593.000000;-0.373106
4592.000000;-0.372215
4591.000000;-0.371336
4590.000000;-0.370528
4589.000000;-0.369786
4588.000000;-0.369051
4587.000000;-0.368274
4586.000000;-0.367431
4585.000000;-0.366518
4584.000000;-0.365543
4583.000000;-0.364515
4582.000000;-0.363447
4581.000000;-0.362360
4580.000000;-0.361288
4579.000000;-0.360249
4578.000000;-0.359237
4577.000000;-0.358238
4576.000000;-0.357250
4575.000000;-0.356267
4574.000000;-0.355251
4573.000000;-0.354162
4572.000000;-0.353007
4571.000000;-0.351830
4570.000000;-0.350671
4569.000000;-0.349540
4568.000000;-0.348434
4567.000000;-0.347315
4566.000000;-0.346125
4565.000000;-0.344835
4564.000000;-0.343503
4563.000000;-0.342224
4562.000000;-0.341026
4561.000000;-0.339854
4560.000000;-0.338635
4559.000000;-0.337341
4558.000000;-0.335968
4557.000000;-0.334511
4556.000000;-0.332972
4555.000000;-0.331384
4554.000000;-0.329800
4553.000000;-0.328273
4552.000000;-0.326824
4551.000000;-0.325418
4550.000000;-0.323975
4549.000000;-0.322428
4548.000000;-0.320789
4547.000000;-0.319122
4546.000000;-0.317478
4545.000000;-0.315857
4544.000000;-0.314233
4543.000000;-0.312604
4542.000000;-0.310997
4541.000000;-0.309455
4540.000000;-0.307990
4539.000000;-0.306555
4538.000000;-0.305086
4537.000000;-0.303572
4536.000000;-0.302066
4535.000000;-0.300606
4534.000000;-0.299169
4533.000000;-0.297724
4532.000000;-0.296301
4531.000000;-0.294954
4530.000000;-0.293684
4529.000000;-0.292436
4528.000000;-0.291162
4527.000000;-0.289855
4526.000000;-0.288543
4525.000000;-0.287288
4524.000000;-0.286155
4523.000000;-0.285131
4522.000000;-0.284105
4521.000000;-0.282970
4520.000000;-0.281737
4519.000000;-0.280505
4518.000000;-0.279335
4517.000000;-0.278216
4516.000000;-0.277132
4515.000000;-0.276105
4514.000000;-0.275140
4513.000000;-0.274189
4512.000000;-0.273196
4511.000000;-0.272135
4510.000000;-0.271010
4509.000000;-0.269844
4508.000000;-0.268696
4507.000000;-0.267630
4506.000000;-0.266655
4505.000000;-0.265705
4504.000000;-0.264701
4503.000000;-0.263603
4502.000000;-0.262416
4501.000000;-0.261172
4500.000000;-0.259920
4499.000000;-0.258720
4498.000000;-0.257604
4497.000000;-0.256546
4496.000000;-0.255476
4495.000000;-0.254337
4494.000000;-0.253145
4493.000000;-0.251968
4492.000000;-0.250864
4491.000000;-0.249814
4490.000000;-0.248758
4489.000000;-0.247651
4488.000000;-0.246489
4487.000000;-0.245259
4486.000000;-0.243952
4485.000000;-0.242613
4484.000000;-0.241331
4483.000000;-0.240143
4482.000000;-0.238992
4481.000000;-0.237793
4480.000000;-0.236515
4479.000000;-0.235154
4478.000000;-0.233690
4477.000000;-0.232131
4476.000000;-0.230561
4475.000000;-0.229079
4474.000000;-0.227704
4473.000000;-0.226374
4472.000000;-0.225025
4471.000000;-0.223619
4470.000000;-0.222138
4469.000000;-0.220600
4468.000000;-0.219082
4467.000000;-0.217655
4466.000000;-0.216303
4465.000000;-0.214938
4464.000000;-0.213488
4463.000000;-0.211937
4462.000000;-0.210312
4461.000000;-0.208669
4460.000000;-0.207072
4459.000000;-0.205539
4458.000000;-0.204017
4457.000000;-0.202437
4456.000000;-0.200795
4455.000000;-0.199120
4454.000000;-0.197425
4453.000000;-0.195716
4452.000000;-0.194036
4451.000000;-0.192444
4450.000000;-0.190941
4449.000000;-0.189476
4448.000000;-0.188007
4447.000000;-0.186508
4446.000000;-0.184942
4445.000000;-0.183288
4444.000000;-0.181585
4443.000000;-0.179886
4442.000000;-0.178179
4441.000000;-0.176405
4440.000000;-0.174565
4439.000000;-0.172733
4438.000000;-0.170981
4437.000000;-0.169320
4436.000000;-0.167726
4435.000000;-0.166153
4434.000000;-0.164528
4433.000000;-0.162790
4432.000000;-0.160951
4431.000000;-0.159085
4430.000000;-0.157232
4429.000000;-0.155365
4428.000000;-0.153456
4427.000000;-0.151522
4426.000000;-0.149588
4425.000000;-0.147660
4424.000000;-0.145735
4423.000000;-0.143835
4422.000000;-0.141985
4421.000000;-0.140177
4420.000000;-0.138366
4419.000000;-0.136480
4418.000000;-0.134454
4417.000000;-0.132287
4416.000000;-0.130055
4415.000000;-0.127855
4414.000000;-0.125736
4413.000000;-0.123695
4412.000000;-0.121717
4411.000000;-0.119781
4410.000000;-0.117839
4409.000000;-0.115826
4408.000000;-0.113717
4407.000000;-0.111545
4406.000000;-0.109364
4405.000000;-0.107208
4404.000000;-0.105067
4403.000000;-0.102883
4402.000000;-0.100585
4401.000000;-0.098153
4400.000000;-0.095644
4399.000000;-0.093141
4398.000000;-0.090693
4397.000000;-0.088312
4396.000000;-0.085985
4395.000000;-0.083660
4394.000000;-0.081269
4393.000000;-0.078803
4392.000000;-0.076334
4391.000000;-0.073928
4390.000000;-0.071583
4389.000000;-0.069251
4388.000000;-0.066888
4387.000000;-0.064417
4386.000000;-0.061724
4385.000000;-0.058774
4384.000000;-0.055701
4383.000000;-0.052719
4382.000000;-0.049939
4381.000000;-0.047321
4380.000000;-0.044759
4379.000000;-0.042139
4378.000000;-0.039361
4377.000000;-0.036389
4376.000000;-0.033294
4375.000000;-0.030183
4374.000000;-0.027106
4373.000000;-0.024070
4372.000000;-0.021101
4371.000000;-0.018212
4370.000000;-0.015344
4369.000000;-0.012415
4368.000000;-0.009410
4367.000000;-0.006350
4366.000000;-0.003202
4365.000000;0.000097
4364.000000;0.003533
4363.000000;0.007015
4362.000000;0.010479
4361.000000;0.013924
4360.000000;0.017343
4359.000000;0.020721
4358.000000;0.024075
4357.000000;0.027449
4356.000000;0.030853
4355.000000;0.034297
4354.000000;0.037845
4353.000000;0.041567
4352.000000;0.045413
4351.000000;0.049254
4350.000000;0.053040
4349.000000;0.056844
4348.000000;0.060739
4347.000000;0.064730
4346.000000;0.068820
4345.000000;0.073042
4344.000000;0.077379
4343.000000;0.081710
4342.000000;0.085894
4341.000000;0.089881
4340.000000;0.093754
4339.000000;0.097690
4338.000000;0.101859
4337.000000;0.106292
4336.000000;0.110825
4335.000000;0.115259
4334.000000;0.119568
4333.000000;0.123898
4332.000000;0.128384
4331.000000;0.133048
4330.000000;0.137867
4329.000000;0.142811
4328.000000;0.147790
4327.000000;0.152675
4326.000000;0.157436
4325.000000;0.162193
4324.000000;0.167083
4323.000000;0.172130
4322.000000;0.177272
4321.000000;0.182453
4320.000000;0.187653
4319.000000;0.192871
4318.000000;0.198109
4317.000000;0.203378
4316.000000;0.208711
4315.000000;0.214187
4314.000000;0.219883
4313.000000;0.225752
4312.000000;0.231592
4311.000000;0.237229
4310.000000;0.242710
4309.000000;0.248239
4308.000000;0.253951
4307.000000;0.259854
4306.000000;0.265947
4305.000000;0.272232
4304.000000;0.278608
4303.000000;0.284904
4302.000000;0.291084
4301.000000;0.297333
4300.000000;0.303860
4299.000000;0.310711
4298.000000;0.317784
4297.000000;0.324938
4296.000000;0.332048
4295.000000;0.339064
4294.000000;0.346068
4293.000000;0.353204
4292.000000;0.360509
4291.000000;0.367891
4290.000000;0.375305
4289.000000;0.382840
4288.000000;0.390581
4287.000000;0.398478
4286.000000;0.406454
4285.000000;0.414595
4284.000000;0.423147
4283.000000;0.432264
4282.000000;0.441741
4281.000000;0.451030
4280.000000;0.459632
4279.000000;0.467596
4278.000000;0.475596
4277.000000;0.484386
4276.000000;0.494188
4275.000000;0.504650
4274.000000;0.515333
4273.000000;0.526077
4272.000000;0.536928
4271.000000;0.547921
4270.000000;0.559047
4269.000000;0.570331
4268.000000;0.581822
4267.000000;0.593522
4266.000000;0.605320
4265.000000;0.617026
4264.000000;0.628535
4263.000000;0.640051
4262.000000;0.652080
4261.000000;0.665101
4260.000000;0.679247
4259.000000;0.694319
4258.000000;0.709994
4257.000000;0.725939
4256.000000;0.741911
4255.000000;0.757991
4254.000000;0.774582
4253.000000;0.791960
4252.000000;0.809937
4251.000000;0.828217
4250.000000;0.846946
4249.000000;0.866577
4248.000000;0.887275
4247.000000;0.908846
4246.000000;0.931231
4245.000000;0.954728
4244.000000;0.979691
4243.000000;1.006350
4242.000000;1.034909
4241.000000;1.065481
4240.000000;1.097973
4239.000000;1.132471
4238.000000;1.169598
4237.000000;1.209941
4236.000000;1.253192
4235.000000;1.298474
4234.000000;1.345551
4233.000000;1.394737
4232.000000;1.445189
4231.000000;1.494140
4230.000000;1.537759
4229.000000;1.570054
4228.000000;1.581202
4227.000000;1.564361
4226.000000;1.525089
4225.000000;1.476248
4224.000000;1.426757
4223.000000;1.378768
4222.000000;1.331308
4221.000000;1.284135
4220.000000;1.238638
4219.000000;1.196499
4218.000000;1.158648
4217.000000;1.125390
4216.000000;1.096470
4215.000000;1.070562
4214.000000;1.045481
4213.000000;1.019736
4212.000000;0.993667
4211.000000;0.968635
4210.000000;0.945484
4209.000000;0.924092
4208.000000;0.903910
4207.000000;0.884420
4206.000000;0.865331
4205.000000;0.846825
4204.000000;0.829502
4203.000000;0.813698
4202.000000;0.798947
4201.000000;0.784394
4200.000000;0.769610
4199.000000;0.754741
4198.000000;0.740058
4197.000000;0.725755
4196.000000;0.712139
4195.000000;0.699611
4194.000000;0.688363
4193.000000;0.678194
4192.000000;0.668598
4191.000000;0.658949
4190.000000;0.648788
4189.000000;0.638184
4188.000000;0.627723
4187.000000;0.617930
4186.000000;0.608766
4185.000000;0.599863
4184.000000;0.591088
4183.000000;0.582574
4182.000000;0.574280
4181.000000;0.565897
4180.000000;0.557270
4179.000000;0.548671
4178.000000;0.540532
4177.000000;0.533082
4176.000000;0.526259
4175.000000;0.519790
4174.000000;0.513279
4173.000000;0.506380
4172.000000;0.499086
4171.000000;0.491780
4170.000000;0.484933
4169.000000;0.478740
4168.000000;0.473037
4167.000000;0.467488
4166.000000;0.461860
4165.000000;0.456188
4164.000000;0.450687
4163.000000;0.445479
4162.000000;0.440410
4161.000000;0.435212
4160.000000;0.429804
4159.000000;0.424364
4158.000000;0.419133
4157.000000;0.414231
4156.000000;0.409640
4155.000000;0.405262
4154.000000;0.400956
4153.000000;0.396614
4152.000000;0.392252
4151.000000;0.387989
4150.000000;0.383910
4149.000000;0.379992
4148.000000;0.376175
4147.000000;0.372448
4146.000000;0.368826
4145.000000;0.365256
4144.000000;0.361591
4143.000000;0.357718
4142.000000;0.353709
4141.000000;0.349812
4140.000000;0.346214
4139.000000;0.342845
4138.000000;0.339474
4137.000000;0.336009
4136.000000;0.332626
4135.000000;0.329562
4134.000000;0.326846
4133.000000;0.324287
4132.000000;0.321674
4131.000000;0.318933
4130.000000;0.316127
4129.000000;0.313355
4128.000000;0.310634
4127.000000;0.307893
4126.000000;0.305102
4125.000000;0.302379
4124.000000;0.299905
4123.000000;0.297708
4122.000000;0.295620
4121.000000;0.293469
4120.000000;0.291246
4119.000000;0.289047
4118.000000;0.286935
4117.000000;0.284910
4116.000000;0.282937
4115.000000;0.280954
4114.000000;0.278891
4113.000000;0.276751
4112.000000;0.274619
4111.000000;0.272579
4110.000000;0.270629
4109.000000;0.268723
4108.000000;0.266828
4107.000000;0.264951
4106.000000;0.263143
4105.000000;0.261486
4104.000000;0.259989
4103.000000;0.258531
4102.000000;0.256977
4101.000000;0.255358
4100.000000;0.253818
4099.000000;0.252391
4098.000000;0.250955
4097.000000;0.249431
4096.000000;0.247867
4095.000000;0.246297
4094.000000;0.244697
4093.000000;0.243117
4092.000000;0.241708
4091.000000;0.240492
4090.000000;0.239273
4089.000000;0.237887
4088.000000;0.236413
4087.000000;0.235037
4086.000000;0.233828
4085.000000;0.232760
4084.000000;0.231817
4083.000000;0.230907
4082.000000;0.229816
4081.000000;0.228414
4080.000000;0.226872
4079.000000;0.225493
4078.000000;0.224384
4077.000000;0.223435
4076.000000;0.222531
4075.000000;0.221637
4074.000000;0.220699
4073.000000;0.219652
4072.000000;0.218536
4071.000000;0.217491
4070.000000;0.216584
4069.000000;0.215758
4068.000000;0.214917
4067.000000;0.214009
4066.000000;0.213025
4065.000000;0.212015
4064.000000;0.211067
4063.000000;0.210203
4062.000000;0.209343
4061.000000;0.208444
4060.000000;0.207608
4059.000000;0.206928
4058.000000;0.206301
4057.000000;0.205528
4056.000000;0.204590
4055.000000;0.203667
4054.000000;0.202886
4053.000000;0.202208
4052.000000;0.201552
4051.000000;0.200922
4050.000000;0.200339
4049.000000;0.199776
4048.000000;0.199194
4047.000000;0.198610
4046.000000;0.198071
4045.000000;0.197584
4044.000000;0.197077
4043.000000;0.196411
4042.000000;0.195476
4041.000000;0.194343
4040.000000;0.193275
4039.000000;0.192533
4038.000000;0.192160
4037.000000;0.191996
4036.000000;0.191833
4035.000000;0.191524
4034.000000;0.191003
4033.000000;0.190319
4032.000000;0.189628
4031.000000;0.189053
4030.000000;0.188559
4029.000000;0.188016
4028.000000;0.187341
4027.000000;0.186546
4026.000000;0.185712
4025.000000;0.184992
4024.000000;0.184561
4023.000000;0.184423
4022.000000;0.184333
4021.000000;0.184006
4020.000000;0.183417
4019.000000;0.182790
4018.000000;0.182316
4017.000000;0.181993
4016.000000;0.181716
4015.000000;0.181404
4014.000000;0.181029
4013.000000;0.180620
4012.000000;0.180238
4011.000000;0.179884
4010.000000;0.179462
4009.000000;0.178916
4008.000000;0.178391
4007.000000;0.178100
4006.000000;0.178041
4005.000000;0.177955
4004.000000;0.177608
4003.000000;0.177016
4002.000000;0.176371
4001.000000;0.175851
4000.000000;0.175531
3999.000000;0.175389
3998.000000;0.175335
3997.000000;0.175262
3996.000000;0.175109
3995.000000;0.174854
3994.000000;0.174470
3993.000000;0.173962
3992.000000;0.173438
3991.000000;0.173069
3990.000000;0.172924
3989.000000;0.172892
3988.000000;0.172785
3987.000000;0.172520
3986.000000;0.172180
3985.000000;0.171931
3984.000000;0.171865
3983.000000;0.171916
3982.000000;0.171932
3981.000000;0.171852
3980.000000;0.171750
3979.000000;0.171694
3978.000000;0.171612
3977.000000;0.171379
3976.000000;0.170965
3975.000000;0.170433
3974.000000;0.169841
3973.000000;0.169256
3972.000000;0.168830
3971.000000;0.168711
3970.000000;0.168867
3969.000000;0.169074
3968.000000;0.169138
3967.000000;0.169053
3966.000000;0.168926
3965.000000;0.168823
3964.000000;0.168729
3963.000000;0.168626
3962.000000;0.168530
3961.000000;0.168453
3960.000000;0.168345
3959.000000;0.168133
3958.000000;0.167824
3957.000000;0.167557
3956.000000;0.167481
3955.000000;0.167569
3954.000000;0.167625
3953.000000;0.167478
3952.000000;0.167123
3951.000000;0.166638
3950.000000;0.166089
3949.000000;0.165576
3948.000000;0.165282
3947.000000;0.165308
3946.000000;0.165484
3945.000000;0.165469
3944.000000;0.165091
3943.000000;0.164536
3942.000000;0.164179
3941.000000;0.164254
3940.000000;0.164679
3939.000000;0.165184
3938.000000;0.165545
3937.000000;0.165684
3936.000000;0.165591
3935.000000;0.165222
3934.000000;0.164576
3933.000000;0.163836
3932.000000;0.163327
3931.000000;0.163247
3930.000000;0.163476
3929.000000;0.163685
3928.000000;0.163611
3927.000000;0.163201
3926.000000;0.162594
3925.000000;0.162050
3924.000000;0.161788
3923.000000;0.161802
3922.000000;0.161849
3921.000000;0.161719
3920.000000;0.161424
3919.000000;0.161084
3918.000000;0.160761
3917.000000;0.160510
3916.000000;0.160451
3915.000000;0.160640
3914.000000;0.160945
3913.000000;0.161178
3912.000000;0.161282
3911.000000;0.161287
3910.000000;0.161194
3909.000000;0.161003
3908.000000;0.160780
3907.000000;0.160543
3906.000000;0.160178
3905.000000;0.159624
3904.000000;0.159085
3903.000000;0.158851
3902.000000;0.158958
3901.000000;0.159202
3900.000000;0.159478
3899.000000;0.159868
3898.000000;0.160376
3897.000000;0.160824
3896.000000;0.161100
3895.000000;0.161292
3894.000000;0.161487
3893.000000;0.161608
3892.000000;0.161604
3891.000000;0.161639
3890.000000;0.161922
3889.000000;0.162387
3888.000000;0.162753
3887.000000;0.162868
3886.000000;0.162875
3885.000000;0.163058
3884.000000;0.163570
3883.000000;0.164249
3882.000000;0.164782
3881.000000;0.165054
3880.000000;0.165272
3879.000000;0.165686
3878.000000;0.166237
3877.000000;0.166649
3876.000000;0.166831
3875.000000;0.166965
3874.000000;0.167267
3873.000000;0.167778
3872.000000;0.168353
3871.000000;0.168811
3870.000000;0.169130
3869.000000;0.169469
3868.000000;0.169985
3867.000000;0.170632
3866.000000;0.171250
3865.000000;0.171760
3864.000000;0.172240
3863.000000;0.172813
3862.000000;0.173483
3861.000000;0.174115
3860.000000;0.174628
3859.000000;0.175080
3858.000000;0.175570
3857.000000;0.176104
3856.000000;0.176653
3855.000000;0.177260
3854.000000;0.177948
3853.000000;0.178613
3852.000000;0.179247
3851.000000;0.179892
3850.000000;0.180477
3849.000000;0.180990
3848.000000;0.181498
3847.000000;0.182062
3846.000000;0.182668
3845.000000;0.183255
3844.000000;0.183791
3843.000000;0.184311
3842.000000;0.184879
3841.000000;0.185522
3840.000000;0.186216
3839.000000;0.186933
3838.000000;0.187678
3837.000000;0.188486
3836.000000;0.189371
3835.000000;0.190300
3834.000000;0.191207
3833.000000;0.192036
3832.000000;0.192805
3831.000000;0.193542
3830.000000;0.194174
3829.000000;0.194577
3828.000000;0.194763
3827.000000;0.194936
3826.000000;0.195339
3825.000000;0.196060
3824.000000;0.196992
3823.000000;0.197974
3822.000000;0.198903
3821.000000;0.199739
3820.000000;0.200514
3819.000000;0.201214
3818.000000;0.201713
3817.000000;0.202033
3816.000000;0.202425
3815.000000;0.203098
3814.000000;0.203991
3813.000000;0.204878
3812.000000;0.205693
3811.000000;0.206562
3810.000000;0.207562
3809.000000;0.208599
3808.000000;0.209504
3807.000000;0.210192
3806.000000;0.210711
3805.000000;0.211161
3804.000000;0.211602
3803.000000;0.212071
3802.000000;0.212597
3801.000000;0.213212
3800.000000;0.213942
3799.000000;0.214714
3798.000000;0.215459
3797.000000;0.216241
3796.000000;0.217144
3795.000000;0.218126
3794.000000;0.219015
3793.000000;0.219680
3792.000000;0.220161
3791.000000;0.220615
3790.000000;0.221178
3789.000000;0.221890
3788.000000;0.222674
3787.000000;0.223380
3786.000000;0.223896
3785.000000;0.224280
3784.000000;0.224742
3783.000000;0.225471
3782.000000;0.226472
3781.000000;0.227598
3780.000000;0.228644
3779.000000;0.229467
3778.000000;0.230077
3777.000000;0.230618
3776.000000;0.231236
3775.000000;0.231978
3774.000000;0.232825
3773.000000;0.233785
3772.000000;0.234869
3771.000000;0.235972
3770.000000;0.236921
3769.000000;0.237676
3768.000000;0.238348
3767.000000;0.239015
3766.000000;0.239647
3765.000000;0.240268
3764.000000;0.241017
3763.000000;0.241939
3762.000000;0.242842
3761.000000;0.243516
3760.000000;0.244022
3759.000000;0.244609
3758.000000;0.245435
3757.000000;0.246438
3756.000000;0.247477
3755.000000;0.248471
3754.000000;0.249422
3753.000000;0.250381
3752.000000;0.251403
3751.000000;0.252465
3750.000000;0.253481
3749.000000;0.254401
3748.000000;0.255248
3747.000000;0.256077
3746.000000;0.256866
3745.000000;0.257567
3744.000000;0.258188
3743.000000;0.258773
3742.000000;0.259372
3741.000000;0.260076
3740.000000;0.260970
3739.000000;0.261985
3738.000000;0.262941
3737.000000;0.263714
3736.000000;0.264355
3735.000000;0.265034
3734.000000;0.265842
3733.000000;0.266674
3732.000000;0.267399
3731.000000;0.268067
3730.000000;0.268807
3729.000000;0.269667
3728.000000;0.270589
3727.000000;0.271493
3726.000000;0.272322
3725.000000;0.273073
3724.000000;0.273777
3723.000000;0.274461
3722.000000;0.275135
3721.000000;0.275825
3720.000000;0.276595
3719.000000;0.277490
3718.000000;0.278481
3717.000000;0.279517
3716.000000;0.280576
3715.000000;0.281602
3714.000000;0.282501
3713.000000;0.283255
3712.000000;0.283979
3711.000000;0.284808
3710.000000;0.285768
3709.000000;0.286738
3708.000000;0.287582
3707.000000;0.288306
3706.000000;0.289031
3705.000000;0.289876
3704.000000;0.290846
3703.000000;0.291796
3702.000000;0.292537
3701.000000;0.293099
3700.000000;0.293768
3699.000000;0.294745
3698.000000;0.295860
3697.000000;0.296774
3696.000000;0.297395
3695.000000;0.297966
3694.000000;0.298789
3693.000000;0.299956
3692.000000;0.301328
3691.000000;0.302646
3690.000000;0.303704
3689.000000;0.304512
3688.000000;0.305234
3687.000000;0.305910
3686.000000;0.306455
3685.000000;0.306908
3684.000000;0.307480
3683.000000;0.308340
3682.000000;0.309429
3681.000000;0.310565
3680.000000;0.311670
3679.000000;0.312776
3678.000000;0.313859
3677.000000;0.314857
3676.000000;0.315828
3675.000000;0.316949
3674.000000;0.318258
3673.000000;0.319421
3672.000000;0.320120
3671.000000;0.320465
3670.000000;0.320779
3669.000000;0.321306
3668.000000;0.322093
3667.000000;0.322985
3666.000000;0.323824
3665.000000;0.324581
3664.000000;0.325340
3663.000000;0.326192
3662.000000;0.327101
3661.000000;0.327950
3660.000000;0.328717
3659.000000;0.329548
3658.000000;0.330598
3657.000000;0.331857
3656.000000;0.333158
3655.000000;0.334327
3654.000000;0.335311
3653.000000;0.336211
3652.000000;0.337165
3651.000000;0.338125
3650.000000;0.338860
3649.000000;0.339323
3648.000000;0.339835
3647.000000;0.340618
3646.000000;0.341441
3645.000000;0.342005
3644.000000;0.342435
3643.000000;0.343145
3642.000000;0.344288
3641.000000;0.345552
3640.000000;0.346551
3639.000000;0.347275
3638.000000;0.348049
3637.000000;0.349137
3636.000000;0.350481
3635.000000;0.351787
3634.000000;0.352836
3633.000000;0.353680
3632.000000;0.354548
3631.000000;0.355581
3630.000000;0.356696
3629.000000;0.357710
3628.000000;0.358583
3627.000000;0.359395
3626.000000;0.360109
3625.000000;0.360754
3624.000000;0.361500
3623.000000;0.362398
3622.000000;0.363256
3621.000000;0.363896
3620.000000;0.364458
3619.000000;0.365263
3618.000000;0.366402
3617.000000;0.367620
3616.000000;0.368664
3615.000000;0.369575
3614.000000;0.370528
3613.000000;0.371583
3612.000000;0.372703
3611.000000;0.373823
3610.000000;0.374849
3609.000000;0.375710
3608.000000;0.376488
3607.000000;0.377377
3606.000000;0.378395
3605.000000;0.379304
3604.000000;0.379936
3603.000000;0.380454
3602.000000;0.381119
3601.000000;0.381949
3600.000000;0.382769
3599.000000;0.383509
3598.000000;0.384274
3597.000000;0.385163
3596.000000;0.386122
3595.000000;0.387060
3594.000000;0.388020
3593.000000;0.389178
3592.000000;0.390644
3591.000000;0.392299
3590.000000;0.393805
3589.000000;0.394833
3588.000000;0.395371
3587.000000;0.395828
3586.000000;0.396688
3585.000000;0.397983
3584.000000;0.399294
3583.000000;0.400246
3582.000000;0.400801
3581.000000;0.401186
3580.000000;0.401665
3579.000000;0.402402
3578.000000;0.403397
3577.000000;0.404486
3576.000000;0.405422
3575.000000;0.406078
3574.000000;0.406591
3573.000000;0.407260
3572.000000;0.408299
3571.000000;0.409719
3570.000000;0.411398
3569.000000;0.413149
3568.000000;0.414707
3567.000000;0.415843
3566.000000;0.416616
3565.000000;0.417327
3564.000000;0.418175
3563.000000;0.419074
3562.000000;0.419813
3561.000000;0.420377
3560.000000;0.421029
3559.000000;0.422039
3558.000000;0.423407
3557.000000;0.424906
3556.000000;0.426302
3555.000000;0.427453
3554.000000;0.428300
3553.000000;0.428873
3552.000000;0.429318
3551.000000;0.429811
3550.000000;0.430462
3549.000000;0.431306
3548.000000;0.432324
3547.000000;0.433417
3546.000000;0.434456
3545.000000;0.435413
3544.000000;0.436395
3543.000000;0.437511
3542.000000;0.438739
3541.000000;0.439943
3540.000000;0.440976
3539.000000;0.441772
3538.000000;0.442430
3537.000000;0.443175
3536.000000;0.444131
3535.000000;0.445160
3534.000000;0.446071
3533.000000;0.446983
3532.000000;0.448233
3531.000000;0.449855
3530.000000;0.451406
3529.000000;0.452478
3528.000000;0.453180
3527.000000;0.453903
3526.000000;0.454780
3525.000000;0.455662
3524.000000;0.456523
3523.000000;0.457567
3522.000000;0.458901
3521.000000;0.460334
3520.000000;0.461573
3519.000000;0.462460
3518.000000;0.462981
3517.000000;0.463220
3516.000000;0.463400
3515.000000;0.463836
3514.000000;0.464750
3513.000000;0.466138
3512.000000;0.467807
3511.000000;0.469473
3510.000000;0.470882
3509.000000;0.471967
3508.000000;0.472919
3507.000000;0.474020
3506.000000;0.475357
3505.000000;0.476747
3504.000000;0.477944
3503.000000;0.478853
3502.000000;0.479570
3501.000000;0.480284
3500.000000;0.481196
3499.000000;0.482442
3498.000000;0.483999
3497.000000;0.485657
3496.000000;0.487087
3495.000000;0.488009
3494.000000;0.488402
3493.000000;0.488587
3492.000000;0.489028
3491.000000;0.489923
3490.000000;0.491065
3489.000000;0.492139
3488.000000;0.493096
3487.000000;0.494120
3486.000000;0.495313
3485.000000;0.496584
3484.000000;0.497810
3483.000000;0.498955
3482.000000;0.499955
3481.000000;0.500680
3480.000000;0.501080
3479.000000;0.501349
3478.000000;0.501834
3477.000000;0.502779
3476.000000;0.504131
3475.000000;0.505557
3474.000000;0.506682
3473.000000;0.507381
3472.000000;0.507873
3471.000000;0.508512
3470.000000;0.509477
3469.000000;0.510681
3468.000000;0.511889
3467.000000;0.512890
3466.000000;0.513589
3465.000000;0.514061
3464.000000;0.514533
3463.000000;0.515253
3462.000000;0.516337
3461.000000;0.517746
3460.000000;0.519330
3459.000000;0.520854
3458.000000;0.522043
3457.000000;0.522767
3456.000000;0.523231
3455.000000;0.523898
3454.000000;0.525116
3453.000000;0.526845
3452.000000;0.528734
3451.000000;0.530439
3450.000000;0.531849
3449.000000;0.533060
3448.000000;0.534181
3447.000000;0.535193
3446.000000;0.536009
3445.000000;0.536653
3444.000000;0.537329
3443.000000;0.538238
3442.000000;0.539357
3441.000000;0.540460
3440.000000;0.541381
3439.000000;0.542219
3438.000000;0.543215
3437.000000;0.544421
3436.000000;0.545562
3435.000000;0.546286
3434.000000;0.546572
3433.000000;0.546833
3432.000000;0.547545
3431.000000;0.548791
3430.000000;0.550221
3429.000000;0.551439
3428.000000;0.552348
3427.000000;0.553110
3426.000000;0.553882
3425.000000;0.554644
3424.000000;0.555255
3423.000000;0.555647
3422.000000;0.555996
3421.000000;0.556667
3420.000000;0.557913
3419.000000;0.559589
3418.000000;0.561227
3417.000000;0.562453
3416.000000;0.563261
3415.000000;0.563887
3414.000000;0.564538
3413.000000;0.565301
3412.000000;0.566185
3411.000000;0.567142
3410.000000;0.568114
3409.000000;0.569140
3408.000000;0.570335
3407.000000;0.571646
3406.000000;0.572734
3405.000000;0.573295
3404.000000;0.573503
3403.000000;0.573932
3402.000000;0.574986
3401.000000;0.576498
3400.000000;0.577988
3399.000000;0.579204
3398.000000;0.580283
3397.000000;0.581403
3396.000000;0.582458
3395.000000;0.583207
3394.000000;0.583671
3393.000000;0.584212
3392.000000;0.585149
3391.000000;0.586387
3390.000000;0.587500
3389.000000;0.588132
3388.000000;0.588268
3387.000000;0.588215
3386.000000;0.588454
3385.000000;0.589412
3384.000000;0.591168
3383.000000;0.593291
3382.000000;0.595116
3381.000000;0.596284
3380.000000;0.596957
3379.000000;0.597497
3378.000000;0.598067
3377.000000;0.598604
3376.000000;0.599065
3375.000000;0.599576
3374.000000;0.600345
3373.000000;0.601482
3372.000000;0.602885
3371.000000;0.604242
3370.000000;0.605211
3369.000000;0.605696
3368.000000;0.605975
3367.000000;0.606482
3366.000000;0.607409
3365.000000;0.608488
3364.000000;0.609229
3363.000000;0.609442
3362.000000;0.609539
3361.000000;0.610189
3360.000000;0.611606
3359.000000;0.613291
3358.000000;0.614608
3357.000000;0.615498
3356.000000;0.616419
3355.000000;0.617609
3354.000000;0.618710
3353.000000;0.619211
3352.000000;0.619077
3351.000000;0.618832
3350.000000;0.619111
3349.000000;0.620215
3348.000000;0.621956
3347.000000;0.623819
3346.000000;0.625336
3345.000000;0.626411
3344.000000;0.627245
3343.000000;0.627943
3342.000000;0.628359
3341.000000;0.628409
3340.000000;0.628352
3339.000000;0.628590
3338.000000;0.629280
3337.000000;0.630300
3336.000000;0.631499
3335.000000;0.632803
3334.000000;0.634096
3333.000000;0.635202
3332.000000;0.636052
3331.000000;0.636744
3330.000000;0.637394
3329.000000;0.637981
3328.000000;0.638415
3327.000000;0.638661
3326.000000;0.638781
3325.000000;0.638925
3324.000000;0.639334
3323.000000;0.640258
3322.000000;0.641739
3321.000000;0.643460
3320.000000;0.644937
3319.000000;0.645934
3318.000000;0.646594
3317.000000;0.647156
3316.000000;0.647651
3315.000000;0.647996
3314.000000;0.648291
3313.000000;0.648788
3312.000000;0.649527
3311.000000;0.650237
3310.000000;0.650721
3309.000000;0.651168
3308.000000;0.651874
3307.000000;0.652778
3306.000000;0.653509
3305.000000;0.653883
3304.000000;0.654165
3303.000000;0.654780
3302.000000;0.655898
3301.000000;0.657299
3300.000000;0.658553
3299.000000;0.659326
3298.000000;0.659666
3297.000000;0.659991
3296.000000;0.660699
3295.000000;0.661792
3294.000000;0.662925
3293.000000;0.663757
3292.000000;0.664088
3291.000000;0.663783
3290.000000;0.662884
3289.000000;0.661873
3288.000000;0.661535
3287.000000;0.662317
3286.000000;0.663910
3285.000000;0.665565
3284.000000;0.666758
3283.000000;0.667440
3282.000000;0.667810
3281.000000;0.668107
3280.000000;0.668620
3279.000000;0.669593
3278.000000;0.670928
3277.000000;0.672097
3276.000000;0.672545
3275.000000;0.672271
3274.000000;0.671884
3273.000000;0.671983
3272.000000;0.672545
3271.000000;0.673025
3270.000000;0.673069
3269.000000;0.672956
3268.000000;0.673241
3267.000000;0.674101
3266.000000;0.675196
3265.000000;0.676092
3264.000000;0.676660
3263.000000;0.677081
3262.000000;0.677598
3261.000000;0.678276
3260.000000;0.678935
3259.000000;0.679351
3258.000000;0.679631
3257.000000;0.680224
3256.000000;0.681346
3255.000000;0.682488
3254.000000;0.682840
3253.000000;0.682261
3252.000000;0.681523
3251.000000;0.681467
3250.000000;0.682201
3249.000000;0.683254
3248.000000;0.684176
3247.000000;0.684731
3246.000000;0.684778
3245.000000;0.684437
3244.000000;0.684270
3243.000000;0.684866
3242.000000;0.686152
3241.000000;0.687381
3240.000000;0.687887
3239.000000;0.687637
3238.000000;0.686977
3237.000000;0.686152
3236.000000;0.685287
3235.000000;0.684629
3234.000000;0.684493
3233.000000;0.684998
3232.000000;0.686005
3231.000000;0.687283
3230.000000;0.688561
3229.000000;0.689509
3228.000000;0.689881
3227.000000;0.689757
3226.000000;0.689544
3225.000000;0.689654
3224.000000;0.690198
3223.000000;0.690952
3222.000000;0.691541
3221.000000;0.691711
3220.000000;0.691543
3219.000000;0.691418
3218.000000;0.691673
3217.000000;0.692261
3216.000000;0.692832
3215.000000;0.693137
3214.000000;0.693231
3213.000000;0.693289
3212.000000;0.693385
3211.000000;0.693520
3210.000000;0.693734
3209.000000;0.694088
3208.000000;0.694583
3207.000000;0.695163
3206.000000;0.695712
3205.000000;0.695971
3204.000000;0.695625
3203.000000;0.694671
3202.000000;0.693627
3201.000000;0.693178
3200.000000;0.693577
3199.000000;0.694437
3198.000000;0.695099
3197.000000;0.695193
3196.000000;0.694889
3195.000000;0.694662
3194.000000;0.694799
3193.000000;0.695126
3192.000000;0.695268
3191.000000;0.695160
3190.000000;0.695112
3189.000000;0.695353
3188.000000;0.695705
3187.000000;0.695851
3186.000000;0.695700
3185.000000;0.695346
3184.000000;0.694840
3183.000000;0.694258
3182.000000;0.693849
3181.000000;0.693877
3180.000000;0.694358
3179.000000;0.695120
3178.000000;0.696001
3177.000000;0.696767
3176.000000;0.697034
3175.000000;0.696635
3174.000000;0.695983
3173.000000;0.695700
3172.000000;0.695896
3171.000000;0.696143
3170.000000;0.696156
3169.000000;0.696080
3168.000000;0.696071
3167.000000;0.696049
3166.000000;0.696023
3165.000000;0.696222
3164.000000;0.696645
3163.000000;0.696760
3162.000000;0.696032
3161.000000;0.694617
3160.000000;0.693250
3159.000000;0.692553
3158.000000;0.692693
3157.000000;0.693547
3156.000000;0.694834
3155.000000;0.696104
3154.000000;0.696892
3153.000000;0.697045
3152.000000;0.696799
3151.000000;0.696479
3150.000000;0.696185
3149.000000;0.695768
3148.000000;0.695094
3147.000000;0.694321
3146.000000;0.693889
3145.000000;0.694114
3144.000000;0.694739
3143.000000;0.695026
3142.000000;0.694433
3141.000000;0.693156
3140.000000;0.691919
3139.000000;0.691298
3138.000000;0.691350
3137.000000;0.691753
3136.000000;0.692156
3135.000000;0.692391
3134.000000;0.692478
3133.000000;0.692513
3132.000000;0.692572
3131.000000;0.692692
3130.000000;0.692852
3129.000000;0.692852
3128.000000;0.692345
3127.000000;0.691206
3126.000000;0.689879
3125.000000;0.689097
3124.000000;0.689157
3123.000000;0.689653
3122.000000;0.689987
3121.000000;0.689948
3120.000000;0.689687
3119.000000;0.689373
3118.000000;0.689104
3117.000000;0.688951
3116.000000;0.688846
3115.000000;0.688558
3114.000000;0.688026
3113.000000;0.687584
3112.000000;0.687591
3111.000000;0.687914
3110.000000;0.688059
3109.000000;0.687772
3108.000000;0.687226
3107.000000;0.686637
3106.000000;0.686059
3105.000000;0.685597
3104.000000;0.685458
3103.000000;0.685587
3102.000000;0.685540
3101.000000;0.684973
3100.000000;0.684078
3099.000000;0.683289
3098.000000;0.682715
3097.000000;0.682154
3096.000000;0.681549
3095.000000;0.681108
3094.000000;0.680947
3093.000000;0.680919
3092.000000;0.680937
3091.000000;0.681191
3090.000000;0.681825
3089.000000;0.682548
3088.000000;0.682806
3087.000000;0.682359
3086.000000;0.681503
3085.000000;0.680740
3084.000000;0.680372
3083.000000;0.680408
3082.000000;0.680617
3081.000000;0.680572
3080.000000;0.679819
3079.000000;0.678292
3078.000000;0.676567
3077.000000;0.675502
3076.000000;0.675486
3075.000000;0.676028
3074.000000;0.676181
3073.000000;0.675383
3072.000000;0.673922
3071.000000;0.672604
3070.000000;0.672035
3069.000000;0.672186
3068.000000;0.672546
3067.000000;0.672587
3066.000000;0.672104
3065.000000;0.671282
3064.000000;0.670542
3063.000000;0.670235
3062.000000;0.670320
3061.000000;0.670387
3060.000000;0.670090
3059.000000;0.669518
3058.000000;0.668997
3057.000000;0.668608
3056.000000;0.668140
3055.000000;0.667522
3054.000000;0.666967
3053.000000;0.666562
3052.000000;0.666010
3051.000000;0.665039
3050.000000;0.663928
3049.000000;0.663310
3048.000000;0.663458
3047.000000;0.663992
3046.000000;0.664311
3045.000000;0.664115
3044.000000;0.663523
3043.000000;0.662862
3042.000000;0.662432
3041.000000;0.662285
3040.000000;0.662160
3039.000000;0.661747
3038.000000;0.661081
3037.000000;0.660514
3036.000000;0.660198
3035.000000;0.659789
3034.000000;0.658862
3033.000000;0.657530
3032.000000;0.656412
3031.000000;0.655961
3030.000000;0.655999
3029.000000;0.656030
3028.000000;0.655857
3027.000000;0.655667
3026.000000;0.655582
3025.000000;0.655409
3024.000000;0.654993
3023.000000;0.654565
3022.000000;0.654441
3021.000000;0.654462
3020.000000;0.654061
3019.000000;0.652984
3018.000000;0.651707
3017.000000;0.650933
3016.000000;0.650842
3015.000000;0.650996
3014.000000;0.650897
3013.000000;0.650416
3012.000000;0.649772
3011.000000;0.649285
3010.000000;0.649175
3009.000000;0.649419
3008.000000;0.649731
3007.000000;0.649774
3006.000000;0.649394
3005.000000;0.648604
3004.000000;0.647436
3003.000000;0.645978
3002.000000;0.644539
3001.000000;0.643560
3000.000000;0.643212
2999.000000;0.643195
2998.000000;0.643058
2997.000000;0.642649
2996.000000;0.642146
2995.000000;0.641750
2994.000000;0.641506
2993.000000;0.641382
2992.000000;0.641286
2991.000000;0.640965
2990.000000;0.640089
2989.000000;0.638651
2988.000000;0.637161
2987.000000;0.636189
2986.000000;0.635726
2985.000000;0.635304
2984.000000;0.634783
2983.000000;0.634673
2982.000000;0.635363
2981.000000;0.636314
2980.000000;0.636470
2979.000000;0.635458
2978.000000;0.633964
2977.000000;0.632831
2976.000000;0.632167
2975.000000;0.631531
2974.000000;0.630667
2973.000000;0.629780
2972.000000;0.629217
2971.000000;0.629146
2970.000000;0.629468
2969.000000;0.629842
2968.000000;0.629828
2967.000000;0.629150
2966.000000;0.627868
2965.000000;0.626302
2964.000000;0.624871
2963.000000;0.623985
2962.000000;0.623830
2961.000000;0.624094
2960.000000;0.624094
2959.000000;0.623388
2958.000000;0.622164
2957.000000;0.620920
2956.000000;0.619919
2955.000000;0.619173
2954.000000;0.618708
2953.000000;0.618524
2952.000000;0.618376
2951.000000;0.617979
2950.000000;0.617468
2949.000000;0.617348
2948.000000;0.617848
2947.000000;0.618523
2946.000000;0.618647
2945.000000;0.617904
2944.000000;0.616610
2943.000000;0.615357
2942.000000;0.614531
2941.000000;0.614112
2940.000000;0.613819
2939.000000;0.613407
2938.000000;0.612821
2937.000000;0.612120
2936.000000;0.611385
2935.000000;0.610767
2934.000000;0.610492
2933.000000;0.610608
2932.000000;0.610774
2931.000000;0.610490
2930.000000;0.609598
2929.000000;0.608456
2928.000000;0.607561
2927.000000;0.607101
2926.000000;0.606885
2925.000000;0.606589
2924.000000;0.606021
2923.000000;0.605221
2922.000000;0.604375
2921.000000;0.603660
2920.000000;0.603157
2919.000000;0.602881
2918.000000;0.602816
2917.000000;0.602855
2916.000000;0.602765
2915.000000;0.602316
2914.000000;0.601459
2913.000000;0.600392
2912.000000;0.599471
2911.000000;0.599030
2910.000000;0.599145
2909.000000;0.599497
2908.000000;0.599552
2907.000000;0.599000
2906.000000;0.597992
2905.000000;0.596923
2904.000000;0.596091
2903.000000;0.595580
2902.000000;0.595303
2901.000000;0.594993
2900.000000;0.594309
2899.000000;0.593169
2898.000000;0.591954
2897.000000;0.591194
2896.000000;0.591053
2895.000000;0.591224
2894.000000;0.591317
2893.000000;0.591178
2892.000000;0.590849
2891.000000;0.590370
2890.000000;0.589723
2889.000000;0.588841
2888.000000;0.587654
2887.000000;0.586199
2886.000000;0.584729
2885.000000;0.583653
2884.000000;0.583282
2883.000000;0.583570
2882.000000;0.584057
2881.000000;0.584107
2880.000000;0.583394
2879.000000;0.582224
2878.000000;0.581288
2877.000000;0.580993
2876.000000;0.581135
2875.000000;0.581267
2874.000000;0.581199
2873.000000;0.580973
2872.000000;0.580542
2871.000000;0.579792
2870.000000;0.578812
2869.000000;0.577823
2868.000000;0.576818
2867.000000;0.575566
2866.000000;0.574070
2865.000000;0.572748
2864.000000;0.571993
2863.000000;0.571751
2862.000000;0.571665
2861.000000;0.571500
2860.000000;0.571255
2859.000000;0.571007
2858.000000;0.570817
2857.000000;0.570735
2856.000000;0.570663
2855.000000;0.570283
2854.000000;0.569341
2853.000000;0.568062
2852.000000;0.567064
2851.000000;0.566771
2850.000000;0.567028
2849.000000;0.567387
2848.000000;0.567602
2847.000000;0.567678
2846.000000;0.567544
2845.000000;0.566973
2844.000000;0.565933
2843.000000;0.564782
2842.000000;0.563927
2841.000000;0.563368
2840.000000;0.562770
2839.000000;0.561967
2838.000000;0.561175
2837.000000;0.560670
2836.000000;0.560451
2835.000000;0.560353
2834.000000;0.560340
2833.000000;0.560496
2832.000000;0.560762
2831.000000;0.560839
2830.000000;0.560408
2829.000000;0.559376
2828.000000;0.557934
2827.000000;0.556479
2826.000000;0.555473
2825.000000;0.555207
2824.000000;0.555548
2823.000000;0.555929
2822.000000;0.555704
2821.000000;0.554628
2820.000000;0.553022
2819.000000;0.551486
2818.000000;0.550448
2817.000000;0.549941
2816.000000;0.549732
2815.000000;0.549615
2814.000000;0.549539
2813.000000;0.549453
2812.000000;0.549145
2811.000000;0.548376
2810.000000;0.547202
2809.000000;0.546067
2808.000000;0.545450
2807.000000;0.545387
2806.000000;0.545399
2805.000000;0.544936
2804.000000;0.543877
2803.000000;0.542587
2802.000000;0.541544
2801.000000;0.540976
2800.000000;0.540795
2799.000000;0.540725
2798.000000;0.540468
2797.000000;0.539893
2796.000000;0.539129
2795.000000;0.538428
2794.000000;0.537882
2793.000000;0.537371
2792.000000;0.536822
2791.000000;0.536377
2790.000000;0.536167
2789.000000;0.536024
2788.000000;0.535630
2787.000000;0.534936
2786.000000;0.534261
2785.000000;0.533916
2784.000000;0.533876
2783.000000;0.533860
2782.000000;0.533613
2781.000000;0.533051
2780.000000;0.532252
2779.000000;0.531394
2778.000000;0.530673
2777.000000;0.530191
2776.000000;0.529910
2775.000000;0.529700
2774.000000;0.529429
2773.000000;0.529038
2772.000000;0.528572
2771.000000;0.528122
2770.000000;0.527699
2769.000000;0.527220
2768.000000;0.526670
2767.000000;0.526189
2766.000000;0.525873
2765.000000;0.525538
2764.000000;0.524867
2763.000000;0.523812
2762.000000;0.522707
2761.000000;0.521932
2760.000000;0.521578
2759.000000;0.521446
2758.000000;0.521265
2757.000000;0.520854
2756.000000;0.520185
2755.000000;0.519398
2754.000000;0.518711
2753.000000;0.518253
2752.000000;0.517978
2751.000000;0.517746
2750.000000;0.517423
2749.000000;0.516920
2748.000000;0.516210
2747.000000;0.515353
2746.000000;0.514471
2745.000000;0.513734
2744.000000;0.513319
2743.000000;0.513283
2742.000000;0.513382
2741.000000;0.513178
2740.000000;0.512466
2739.000000;0.511525
2738.000000;0.510788
2737.000000;0.510334
2736.000000;0.509916
2735.000000;0.509379
2734.000000;0.508776
2733.000000;0.508121
2732.000000;0.507331
2731.000000;0.506478
2730.000000;0.505822
2729.000000;0.505443
2728.000000;0.505090
2727.000000;0.504555
2726.000000;0.503985
2725.000000;0.503641
2724.000000;0.503509
2723.000000;0.503372
2722.000000;0.503144
2721.000000;0.502906
2720.000000;0.502653
2719.000000;0.502219
2718.000000;0.501488
2717.000000;0.500554
2716.000000;0.499620
2715.000000;0.498830
2714.000000;0.498217
2713.000000;0.497793
2712.000000;0.497612
2711.000000;0.497698
2710.000000;0.497872
2709.000000;0.497789
2708.000000;0.497261
2707.000000;0.496492
2706.000000;0.495802
2705.000000;0.495210
2704.000000;0.494481
2703.000000;0.493581
2702.000000;0.492781
2701.000000;0.492239
2700.000000;0.491767
2699.000000;0.491180
2698.000000;0.490637
2697.000000;0.490399
2696.000000;0.490421
2695.000000;0.490398
2694.000000;0.490116
2693.000000;0.489575
2692.000000;0.488842
2691.000000;0.488007
2690.000000;0.487217
2689.000000;0.486572
2688.000000;0.485999
2687.000000;0.485383
2686.000000;0.484766
2685.000000;0.484257
2684.000000;0.483795
2683.000000;0.483220
2682.000000;0.482571
2681.000000;0.482115
2680.000000;0.482023
2679.000000;0.482148
2678.000000;0.482186
2677.000000;0.481972
2676.000000;0.481546
2675.000000;0.481040
2674.000000;0.480543
2673.000000;0.480028
2672.000000;0.479361
2671.000000;0.478404
2670.000000;0.477175
2669.000000;0.475908
2668.000000;0.474940
2667.000000;0.474472
2666.000000;0.474409
2665.000000;0.474402
2664.000000;0.474108
2663.000000;0.473453
2662.000000;0.472663
2661.000000;0.472037
2660.000000;0.471696
2659.000000;0.471552
2658.000000;0.471447
2657.000000;0.471294
2656.000000;0.471094
2655.000000;0.470824
2654.000000;0.470353
2653.000000;0.469521
2652.000000;0.468355
2651.000000;0.467148
2650.000000;0.466250
2649.000000;0.465775
2648.000000;0.465577
2647.000000;0.465456
2646.000000;0.465320
2645.000000;0.465175
2644.000000;0.465060
2643.000000;0.464978
2642.000000;0.464823
2641.000000;0.464421
2640.000000;0.463759
2639.000000;0.463099
2638.000000;0.462704
2637.000000;0.462479
2636.000000;0.462046
2635.000000;0.461183
2634.000000;0.460048
2633.000000;0.458972
2632.000000;0.458204
2631.000000;0.457846
2630.000000;0.457816
2629.000000;0.457829
2628.000000;0.457600
2627.000000;0.457166
2626.000000;0.456824
2625.000000;0.456694
2624.000000;0.456532
2623.000000;0.456067
2622.000000;0.455331
2621.000000;0.454525
2620.000000;0.453759
2619.000000;0.453044
2618.000000;0.452404
2617.000000;0.451841
2616.000000;0.451296
2615.000000;0.450771
2614.000000;0.450368
2613.000000;0.450092
2612.000000;0.449734
2611.000000;0.449109
2610.000000;0.448301
2609.000000;0.447536
2608.000000;0.446920
2607.000000;0.446413
2606.000000;0.445972
2605.000000;0.445584
2604.000000;0.445217
2603.000000;0.444886
2602.000000;0.444676
2601.000000;0.444579
2600.000000;0.444404
2599.000000;0.443995
2598.000000;0.443472
2597.000000;0.443093
2596.000000;0.442901
2595.000000;0.442668
2594.000000;0.442176
2593.000000;0.441460
2592.000000;0.440752
2591.000000;0.440234
2590.000000;0.439815
2589.000000;0.439156
2588.000000;0.438009
2587.000000;0.436560
2586.000000;0.435330
2585.000000;0.434671
2584.000000;0.434474
2583.000000;0.434423
2582.000000;0.434365
2581.000000;0.434290
2580.000000;0.434117
2579.000000;0.433722
2578.000000;0.433110
2577.000000;0.432389
2576.000000;0.431629
2575.000000;0.430861
2574.000000;0.430182
2573.000000;0.429711
2572.000000;0.429460
2571.000000;0.429360
2570.000000;0.429350
2569.000000;0.429327
2568.000000;0.429093
2567.000000;0.428497
2566.000000;0.427639
2565.000000;0.426798
2564.000000;0.426170
2563.000000;0.425735
2562.000000;0.425348
2561.000000;0.424894
2560.000000;0.424383
2559.000000;0.423947
2558.000000;0.423658
2557.000000;0.423354
2556.000000;0.422789
2555.000000;0.421997
2554.000000;0.421320
2553.000000;0.420936
2552.000000;0.420596
2551.000000;0.420003
2550.000000;0.419284
2549.000000;0.418774
2548.000000;0.418464
2547.000000;0.418016
2546.000000;0.417295
2545.000000;0.416580
2544.000000;0.416130
2543.000000;0.415832
2542.000000;0.415409
2541.000000;0.414798
2540.000000;0.414161
2539.000000;0.413634
2538.000000;0.413221
2537.000000;0.412852
2536.000000;0.412472
2535.000000;0.412071
2534.000000;0.411679
2533.000000;0.411300
2532.000000;0.410873
2531.000000;0.410363
2530.000000;0.409877
2529.000000;0.409567
2528.000000;0.409394
2527.000000;0.409089
2526.000000;0.408431
2525.000000;0.407501
2524.000000;0.406601
2523.000000;0.405958
2522.000000;0.405560
2521.000000;0.405233
2520.000000;0.404843
2519.000000;0.404400
2518.000000;0.403981
2517.000000;0.403582
2516.000000;0.403102
2515.000000;0.402471
2514.000000;0.401721
2513.000000;0.400916
2512.000000;0.400129
2511.000000;0.399518
2510.000000;0.399285
2509.000000;0.399414
2508.000000;0.399553
2507.000000;0.399309
2506.000000;0.398651
2505.000000;0.397867
2504.000000;0.397178
2503.000000;0.396557
2502.000000;0.395929
2501.000000;0.395346
2500.000000;0.394896
2499.000000;0.394553
2498.000000;0.394210
2497.000000;0.393784
2496.000000;0.393269
2495.000000;0.392733
2494.000000;0.392276
2493.000000;0.391929
2492.000000;0.391591
2491.000000;0.391131
2490.000000;0.390556
2489.000000;0.389965
2488.000000;0.389368
2487.000000;0.388685
2486.000000;0.387950
2485.000000;0.387365
2484.000000;0.387056
2483.000000;0.386903
2482.000000;0.386695
2481.000000;0.386384
2480.000000;0.386082
2479.000000;0.385849
2478.000000;0.385605
2477.000000;0.385236
2476.000000;0.384717
2475.000000;0.384112
2474.000000;0.383492
2473.000000;0.382879
2472.000000;0.382255
2471.000000;0.381634
2470.000000;0.381098
2469.000000;0.380747
2468.000000;0.380564
2467.000000;0.380386
2466.000000;0.380053
2465.000000;0.379578
2464.000000;0.379145
2463.000000;0.378878
2462.000000;0.378640
2461.000000;0.378127
2460.000000;0.377212
2459.000000;0.376151
2458.000000;0.375363
2457.000000;0.375008
2456.000000;0.374857
2455.000000;0.374610
2454.000000;0.374203
2453.000000;0.373729
2452.000000;0.373201
2451.000000;0.372540
2450.000000;0.371780
2449.000000;0.371081
2448.000000;0.370534
2447.000000;0.370070
2446.000000;0.369606
2445.000000;0.369158
2444.000000;0.368762
2443.000000;0.368386
2442.000000;0.367989
2441.000000;0.367553
2440.000000;0.367026
2439.000000;0.366343
2438.000000;0.365609
2437.000000;0.365134
2436.000000;0.365104
2435.000000;0.365276
2434.000000;0.365173
2433.000000;0.364598
2432.000000;0.363821
2431.000000;0.363184
2430.000000;0.362702
2429.000000;0.362189
2428.000000;0.361621
2427.000000;0.361175
2426.000000;0.360916
2425.000000;0.360662
2424.000000;0.360223
2423.000000;0.359628
2422.000000;0.358997
2421.000000;0.358315
2420.000000;0.357517
2419.000000;0.356721
2418.000000;0.356171
2417.000000;0.355913
2416.000000;0.355716
2415.000000;0.355378
2414.000000;0.354976
2413.000000;0.354691
2412.000000;0.354502
2411.000000;0.354207
2410.000000;0.353687
2409.000000;0.353017
2408.000000;0.352302
2407.000000;0.351569
2406.000000;0.350816
2405.000000;0.350088
2404.000000;0.349423
2403.000000;0.348811
2402.000000;0.348242
2401.000000;0.347753
2400.000000;0.347374
2399.000000;0.347093
2398.000000;0.346874
2397.000000;0.346686
2396.000000;0.346453
2395.000000;0.346081
2394.000000;0.345573
2393.000000;0.345062
2392.000000;0.344651
2391.000000;0.344270
2390.000000;0.343786
2389.000000;0.343233
2388.000000;0.342807
2387.000000;0.342589
2386.000000;0.342401
2385.000000;0.342007
2384.000000;0.341376
2383.000000;0.340673
2382.000000;0.340030
2381.000000;0.339435
2380.000000;0.338843
2379.000000;0.338271
2378.000000;0.337759
2377.000000;0.337304
2376.000000;0.336885
2375.000000;0.336505
2374.000000;0.336158
2373.000000;0.335793
2372.000000;0.335349
2371.000000;0.334821
2370.000000;0.334278
2369.000000;0.333810
2368.000000;0.333455
2367.000000;0.333132
2366.000000;0.332696
2365.000000;0.332088
2364.000000;0.331417
2363.000000;0.330869
2362.000000;0.330549
2361.000000;0.330364
2360.000000;0.330165
2359.000000;0.329910
2358.000000;0.329564
2357.000000;0.329070
2356.000000;0.328348
2355.000000;0.327461
2354.000000;0.326643
2353.000000;0.326067
2352.000000;0.325704
2351.000000;0.325328
2350.000000;0.324836
2349.000000;0.324287
2348.000000;0.323742
2347.000000;0.323255
2346.000000;0.322765
2345.000000;0.322222
2344.000000;0.321607
2343.000000;0.321003
2342.000000;0.320487
2341.000000;0.319950
2340.000000;0.319370
2339.000000;0.318820
2338.000000;0.318397
2337.000000;0.318053
2336.000000;0.317695
2335.000000;0.317300
2334.000000;0.316923
2333.000000;0.316523
2332.000000;0.316009
2331.000000;0.315355
2330.000000;0.314761
2329.000000;0.314454
2328.000000;0.314401
2327.000000;0.314402
2326.000000;0.314151
2325.000000;0.313572
2324.000000;0.312733
2323.000000;0.311841
2322.000000;0.311064
2321.000000;0.310404
2320.000000;0.309814
2319.000000;0.309242
2318.000000;0.308739
2317.000000;0.308313
2316.000000;0.307942
2315.000000;0.307596
2314.000000;0.307301
2313.000000;0.307108
2312.000000;0.307013
2311.000000;0.306944
2310.000000;0.306732
2309.000000;0.306234
2308.000000;0.305443
2307.000000;0.304568
2306.000000;0.303831
2305.000000;0.303281
2304.000000;0.302783
2303.000000;0.302245
2302.000000;0.301705
2301.000000;0.301237
2300.000000;0.300826
2299.000000;0.300413
2298.000000;0.299955
2297.000000;0.299441
2296.000000;0.298862
2295.000000;0.298262
2294.000000;0.297718
2293.000000;0.297302
2292.000000;0.297010
2291.000000;0.296813
2290.000000;0.296670
2289.000000;0.296530
2288.000000;0.296322
2287.000000;0.295976
2286.000000;0.295423
2285.000000;0.294591
2284.000000;0.293507
2283.000000;0.292382
2282.000000;0.291525
2281.000000;0.291085
2280.000000;0.290930
2279.000000;0.290776
2278.000000;0.290426
2277.000000;0.289857
2276.000000;0.289156
2275.000000;0.288424
2274.000000;0.287756
2273.000000;0.287236
2272.000000;0.286931
2271.000000;0.286827
2270.000000;0.286783
2269.000000;0.286582
2268.000000;0.286115
2267.000000;0.285473
2266.000000;0.284844
2265.000000;0.284318
2264.000000;0.283864
2263.000000;0.283454
2262.000000;0.283091
2261.000000;0.282732
2260.000000;0.282268
2259.000000;0.281650
2258.000000;0.280964
2257.000000;0.280347
2256.000000;0.279841
2255.000000;0.279369
2254.000000;0.278813
2253.000000;0.278127
2252.000000;0.277404
2251.000000;0.276826
2250.000000;0.276490
2249.000000;0.276305
2248.000000;0.276086
2247.000000;0.275754
2246.000000;0.275376
2245.000000;0.275028
2244.000000;0.274700
2243.000000;0.274343
2242.000000;0.273933
2241.000000;0.273459
2240.000000;0.272926
2239.000000;0.272381
2238.000000;0.271898
2237.000000;0.271509
2236.000000;0.271175
2235.000000;0.270828
2234.000000;0.270381
2233.000000;0.269762
2232.000000;0.269013
2231.000000;0.268329
2230.000000;0.267916
2229.000000;0.267771
2228.000000;0.267668
2227.000000;0.267380
2226.000000;0.266843
2225.000000;0.266149
2224.000000;0.265459
2223.000000;0.264925
2222.000000;0.264570
2221.000000;0.264234
2220.000000;0.263719
2219.000000;0.263002
2218.000000;0.262234
2217.000000;0.261540
2216.000000;0.260949
2215.000000;0.260512
2214.000000;0.260316
2213.000000;0.260301
2212.000000;0.260200
2211.000000;0.259771
2210.000000;0.259029
2209.000000;0.258196
2208.000000;0.257472
2207.000000;0.256936
2206.000000;0.256569
2205.000000;0.256280
2204.000000;0.255943
2203.000000;0.255501
2202.000000;0.255005
2201.000000;0.254550
2200.000000;0.254177
2199.000000;0.253868
2198.000000;0.253562
2197.000000;0.253154
2196.000000;0.252566
2195.000000;0.251857
2194.000000;0.251194
2193.000000;0.250676
2192.000000;0.250254
2191.000000;0.249858
2190.000000;0.249496
2189.000000;0.249177
2188.000000;0.248830
2187.000000;0.248387
2186.000000;0.247879
2185.000000;0.247353
2184.000000;0.246777
2183.000000;0.246113
2182.000000;0.245426
2181.000000;0.244819
2180.000000;0.244280
2179.000000;0.243712
2178.000000;0.243108
2177.000000;0.242605
2176.000000;0.242338
2175.000000;0.242292
2174.000000;0.242301
2173.000000;0.242159
2172.000000;0.241762
2171.000000;0.241176
2170.000000;0.240570
2169.000000;0.240057
2168.000000;0.239619
2167.000000;0.239208
2166.000000;0.238847
2165.000000;0.238562
2164.000000;0.238268
2163.000000;0.237826
2162.000000;0.237215
2161.000000;0.236579
2160.000000;0.236072
2159.000000;0.235680
2158.000000;0.235248
2157.000000;0.234663
2156.000000;0.234006
2155.000000;0.233493
2154.000000;0.233252
2153.000000;0.233173
2152.000000;0.233022
2151.000000;0.232672
2150.000000;0.232177
2149.000000;0.231630
2148.000000;0.231054
2147.000000;0.230467
2146.000000;0.229951
2145.000000;0.229549
2144.000000;0.229143
2143.000000;0.228536
2142.000000;0.227677
2141.000000;0.226748
2140.000000;0.226001
2139.000000;0.225555
2138.000000;0.225354
2137.000000;0.225252
2136.000000;0.225111
2135.000000;0.224827
2134.000000;0.224348
2133.000000;0.223715
2132.000000;0.223074
2131.000000;0.222587
2130.000000;0.222287
2129.000000;0.222052
2128.000000;0.221737
2127.000000;0.221304
2126.000000;0.220776
2125.000000;0.220132
2124.000000;0.219345
2123.000000;0.218507
2122.000000;0.217801
2121.000000;0.217319
2120.000000;0.216997
2119.000000;0.216754
2118.000000;0.216586
2117.000000;0.216463
2116.000000;0.216223
2115.000000;0.215701
2114.000000;0.214943
2113.000000;0.214193
2112.000000;0.213652
2111.000000;0.213297
2110.000000;0.212955
2109.000000;0.212500
2108.000000;0.211969
2107.000000;0.211491
2106.000000;0.211120
2105.000000;0.210771
2104.000000;0.210324
2103.000000;0.209774
2102.000000;0.209228
2101.000000;0.208770
2100.000000;0.208380
2099.000000;0.207994
2098.000000;0.207578
2097.000000;0.207129
2096.000000;0.206647
2095.000000;0.206160
2094.000000;0.205720
2093.000000;0.205341
2092.000000;0.204968
2091.000000;0.204550
2090.000000;0.204112
2089.000000;0.203725
2088.000000;0.203395
2087.000000;0.203031
2086.000000;0.202532
2085.000000;0.201908
2084.000000;0.201290
2083.000000;0.200817
2082.000000;0.200477
2081.000000;0.200115
2080.000000;0.199610
2079.000000;0.199025
2078.000000;0.198524
2077.000000;0.198161
2076.000000;0.197803
2075.000000;0.197299
2074.000000;0.196640
2073.000000;0.195964
2072.000000;0.195417
2071.000000;0.195056
2070.000000;0.194830
2069.000000;0.194632
2068.000000;0.194372
2067.000000;0.194031
2066.000000;0.193646
2065.000000;0.193258
2064.000000;0.192887
2063.000000;0.192515
2062.000000;0.192087
2061.000000;0.191546
2060.000000;0.190907
2059.000000;0.190250
2058.000000;0.189623
2057.000000;0.188999
2056.000000;0.188394
2055.000000;0.187933
2054.000000;0.187707
2053.000000;0.187587
2052.000000;0.187331
2051.000000;0.186861
2050.000000;0.186321
2049.000000;0.185860
2048.000000;0.185474
2047.000000;0.185088
2046.000000;0.184679
2045.000000;0.184257
2044.000000;0.183808
2043.000000;0.183331
2042.000000;0.182862
2041.000000;0.182413
2040.000000;0.181959
2039.000000;0.181518
2038.000000;0.181169
2037.000000;0.180922
2036.000000;0.180630
2035.000000;0.180119
2034.000000;0.179369
2033.000000;0.178554
2032.000000;0.177895
2031.000000;0.177508
2030.000000;0.177321
2029.000000;0.177129
2028.000000;0.176766
2027.000000;0.176254
2026.000000;0.175750
2025.000000;0.175360
2024.000000;0.175052
2023.000000;0.174742
2022.000000;0.174380
2021.000000;0.173928
2020.000000;0.173358
2019.000000;0.172718
2018.000000;0.172123
2017.000000;0.171624
2016.000000;0.171160
2015.000000;0.170670
2014.000000;0.170186
2013.000000;0.169752
2012.000000;0.169346
2011.000000;0.168929
2010.000000;0.168522
2009.000000;0.168141
2008.000000;0.167718
2007.000000;0.167180
2006.000000;0.166564
2005.000000;0.165981
2004.000000;0.165517
2003.000000;0.165185
2002.000000;0.164942
2001.000000;0.164672
2000.000000;0.164244
1999.000000;0.163678
1998.000000;0.163193
1997.000000;0.163002
1996.000000;0.163044
1995.000000;0.163019
1994.000000;0.162677
1993.000000;0.162017
1992.000000;0.161226
1991.000000;0.160517
1990.000000;0.160018
1989.000000;0.159721
1988.000000;0.159469
1987.000000;0.159057
1986.000000;0.158412
1985.000000;0.157663
1984.000000;0.157010
1983.000000;0.156526
1982.000000;0.156112
1981.000000;0.155641
1980.000000;0.155108
1979.000000;0.154628
1978.000000;0.154277
1977.000000;0.153995
1976.000000;0.153652
1975.000000;0.153205
1974.000000;0.152722
1973.000000;0.152275
1972.000000;0.151861
1971.000000;0.151444
1970.000000;0.151022
1969.000000;0.150613
1968.000000;0.150213
1967.000000;0.149805
1966.000000;0.149395
1965.000000;0.149010
1964.000000;0.148661
1963.000000;0.148305
1962.000000;0.147857
1961.000000;0.147255
1960.000000;0.146563
1959.000000;0.145966
1958.000000;0.145604
1957.000000;0.145408
1956.000000;0.145169
1955.000000;0.144772
1954.000000;0.144275
1953.000000;0.143756
1952.000000;0.143195
1951.000000;0.142564
1950.000000;0.141948
1949.000000;0.141478
1948.000000;0.141185
1947.000000;0.140976
1946.000000;0.140727
1945.000000;0.140360
1944.000000;0.139870
1943.000000;0.139350
1942.000000;0.138932
1941.000000;0.138654
1940.000000;0.138381
1939.000000;0.137954
1938.000000;0.137395
1937.000000;0.136886
1936.000000;0.136567
1935.000000;0.136381
1934.000000;0.136146
1933.000000;0.135733
1932.000000;0.135169
1931.000000;0.134599
1930.000000;0.134153
1929.000000;0.133830
1928.000000;0.133500
1927.000000;0.133030
1926.000000;0.132409
1925.000000;0.131752
1924.000000;0.131185
1923.000000;0.130738
1922.000000;0.130341
1921.000000;0.129913
1920.000000;0.129461
1919.000000;0.129073
1918.000000;0.128801
1917.000000;0.128587
1916.000000;0.128329
1915.000000;0.127993
1914.000000;0.127620
1913.000000;0.127227
1912.000000;0.126781
1911.000000;0.126264
1910.000000;0.125710
1909.000000;0.125151
1908.000000;0.124609
1907.000000;0.124132
1906.000000;0.123770
1905.000000;0.123489
1904.000000;0.123182
1903.000000;0.122792
1902.000000;0.122363
1901.000000;0.121944
1900.000000;0.121518
1899.000000;0.121067
1898.000000;0.120623
1897.000000;0.120203
1896.000000;0.119756
1895.000000;0.119241
1894.000000;0.118707
1893.000000;0.118229
1892.000000;0.117795
1891.000000;0.117336
1890.000000;0.116835
1889.000000;0.116358
1888.000000;0.115969
1887.000000;0.115671
1886.000000;0.115415
1885.000000;0.115159
1884.000000;0.114897
1883.000000;0.114655
1882.000000;0.114431
1881.000000;0.114137
1880.000000;0.113665
1879.000000;0.113009
1878.000000;0.112264
1877.000000;0.111509
1876.000000;0.110765
1875.000000;0.110094
1874.000000;0.109629
1873.000000;0.109414
1872.000000;0.109290
1871.000000;0.109032
1870.000000;0.108577
1869.000000;0.108049
1868.000000;0.107585
1867.000000;0.107201
1866.000000;0.106832
1865.000000;0.106432
1864.000000;0.106006
1863.000000;0.105581
1862.000000;0.105162
1861.000000;0.104717
1860.000000;0.104207
1859.000000;0.103658
1858.000000;0.103173
1857.000000;0.102824
1856.000000;0.102566
1855.000000;0.102298
1854.000000;0.101982
1853.000000;0.101649
1852.000000;0.101324
1851.000000;0.100979
1850.000000;0.100577
1849.000000;0.100128
1848.000000;0.099671
1847.000000;0.099229
1846.000000;0.098800
1845.000000;0.098375
1844.000000;0.097980
1843.000000;0.097656
1842.000000;0.097391
1841.000000;0.097088
1840.000000;0.096673
1839.000000;0.096188
1838.000000;0.095750
1837.000000;0.095410
1836.000000;0.095088
1835.000000;0.094661
1834.000000;0.094072
1833.000000;0.093357
1832.000000;0.092671
1831.000000;0.092283
1830.000000;0.092423
1829.000000;0.092998
1828.000000;0.093493
1827.000000;0.093334
1826.000000;0.092419
1825.000000;0.091187
1824.000000;0.090169
1823.000000;0.089562
1822.000000;0.089213
1821.000000;0.088883
1820.000000;0.088456
1819.000000;0.087974
1818.000000;0.087543
1817.000000;0.087196
1816.000000;0.086834
1815.000000;0.086341
1814.000000;0.085735
1813.000000;0.085168
1812.000000;0.084763
1811.000000;0.084502
1810.000000;0.084282
1809.000000;0.084019
1808.000000;0.083680
1807.000000;0.083268
1806.000000;0.082821
1805.000000;0.082394
1804.000000;0.082021
1803.000000;0.081666
1802.000000;0.081250
1801.000000;0.080738
1800.000000;0.080198
1799.000000;0.079732
1798.000000;0.079368
1797.000000;0.079042
1796.000000;0.078693
1795.000000;0.078335
1794.000000;0.077990
1793.000000;0.077592
1792.000000;0.077059
1791.000000;0.076450
1790.000000;0.075936
1789.000000;0.075601
1788.000000;0.075340
1787.000000;0.075002
1786.000000;0.074564
1785.000000;0.074123
1784.000000;0.073732
1783.000000;0.073361
1782.000000;0.072988
1781.000000;0.072638
1780.000000;0.072316
1779.000000;0.071953
1778.000000;0.071496
1777.000000;0.070973
1776.000000;0.070457
1775.000000;0.069988
1774.000000;0.069576
1773.000000;0.069229
1772.000000;0.068941
1771.000000;0.068668
1770.000000;0.068338
1769.000000;0.067927
1768.000000;0.067469
1767.000000;0.066983
1766.000000;0.066463
1765.000000;0.065935
1764.000000;0.065462
1763.000000;0.065073
1762.000000;0.064737
1761.000000;0.064419
1760.000000;0.064104
1759.000000;0.063773
1758.000000;0.063392
1757.000000;0.062943
1756.000000;0.062459
1755.000000;0.062000
1754.000000;0.061588
1753.000000;0.061212
1752.000000;0.060866
1751.000000;0.060555
1750.000000;0.060279
1749.000000;0.060007
1748.000000;0.059697
1747.000000;0.059339
1746.000000;0.058933
1745.000000;0.058465
1744.000000;0.057931
1743.000000;0.057382
1742.000000;0.056919
1741.000000;0.056602
1740.000000;0.056366
1739.000000;0.056091
1738.000000;0.055718
1737.000000;0.055284
1736.000000;0.054869
1735.000000;0.054514
1734.000000;0.054210
1733.000000;0.053963
1732.000000;0.053735
1731.000000;0.053416
1730.000000;0.052940
1729.000000;0.052345
1728.000000;0.051766
1727.000000;0.051318
1726.000000;0.050982
1725.000000;0.050637
1724.000000;0.050201
1723.000000;0.049719
1722.000000;0.049292
1721.000000;0.048947
1720.000000;0.048620
1719.000000;0.048251
1718.000000;0.047840
1717.000000;0.047431
1716.000000;0.047046
1715.000000;0.046669
1714.000000;0.046320
1713.000000;0.046015
1712.000000;0.045685
1711.000000;0.045253
1710.000000;0.044730
1709.000000;0.044206
1708.000000;0.043750
1707.000000;0.043348
1706.000000;0.042968
1705.000000;0.042635
1704.000000;0.042400
1703.000000;0.042239
1702.000000;0.042066
1701.000000;0.041807
1700.000000;0.041431
1699.000000;0.040971
1698.000000;0.040429
1697.000000;0.039800
1696.000000;0.039177
1695.000000;0.038703
1694.000000;0.038405
1693.000000;0.038169
1692.000000;0.037895
1691.000000;0.037566
1690.000000;0.037215
1689.000000;0.036872
1688.000000;0.036547
1687.000000;0.036214
1686.000000;0.035826
1685.000000;0.035339
1684.000000;0.034781
1683.000000;0.034295
1682.000000;0.033901
1681.000000;0.033522
1680.000000;0.033194
1679.000000;0.032980
1678.000000;0.032855
1677.000000;0.032690
1676.000000;0.032356
1675.000000;0.031846
1674.000000;0.031270
1673.000000;0.030750
1672.000000;0.030347
1671.000000;0.030044
1670.000000;0.029760
1669.000000;0.029406
1668.000000;0.028960
1667.000000;0.028473
1666.000000;0.028013
1665.000000;0.027592
1664.000000;0.027182
1663.000000;0.026799
1662.000000;0.026509
1661.000000;0.026305
1660.000000;0.026089
1659.000000;0.025793
1658.000000;0.025447
1657.000000;0.025099
1656.000000;0.024742
1655.000000;0.024346
1654.000000;0.023896
1653.000000;0.023429
1652.000000;0.023039
1651.000000;0.022632
1650.000000;0.022114
1649.000000;0.021593
1648.000000;0.021171
1647.000000;0.020865
1646.000000;0.020640
1645.000000;0.020398
1644.000000;0.020047
1643.000000;0.019619
1642.000000;0.019179
1641.000000;0.018739
1640.000000;0.018314
1639.000000;0.017947
1638.000000;0.017655
1637.000000;0.017356
1636.000000;0.016950
1635.000000;0.016469
1634.000000;0.016031
1633.000000;0.015685
1632.000000;0.015431
1631.000000;0.015247
1630.000000;0.015099
1629.000000;0.014930
1628.000000;0.014669
1627.000000;0.014281
1626.000000;0.013770
1625.000000;0.013153
1624.000000;0.012471
1623.000000;0.011827
1622.000000;0.011356
1621.000000;0.011085
1620.000000;0.010888
1619.000000;0.010614
1618.000000;0.010233
1617.000000;0.009819
1616.000000;0.009453
1615.000000;0.009129
1614.000000;0.008784
1613.000000;0.008423
1612.000000;0.008118
1611.000000;0.007900
1610.000000;0.007717
1609.000000;0.007491
1608.000000;0.007197
1607.000000;0.006868
1606.000000;0.006533
1605.000000;0.006153
1604.000000;0.005658
1603.000000;0.005036
1602.000000;0.004377
1601.000000;0.003814
1600.000000;0.003405
1599.000000;0.003107
1598.000000;0.002833
1597.000000;0.002530
1596.000000;0.002206
1595.000000;0.001912
1594.000000;0.001689
1593.000000;0.001505
1592.000000;0.001257
1591.000000;0.000869
1590.000000;0.000376
1589.000000;-0.000107
1588.000000;-0.000491
1587.000000;-0.000776
1586.000000;-0.001030
1585.000000;-0.001329
1584.000000;-0.001720
1583.000000;-0.002208
1582.000000;-0.002755
1581.000000;-0.003281
1580.000000;-0.003719
1579.000000;-0.004066
1578.000000;-0.004372
1577.000000;-0.004686
1576.000000;-0.005009
1575.000000;-0.005304
1574.000000;-0.005582
1573.000000;-0.005891
1572.000000;-0.006239
1571.000000;-0.006610
1570.000000;-0.006977
1569.000000;-0.007300
1568.000000;-0.007556
1567.000000;-0.007795
1566.000000;-0.008081
1565.000000;-0.008440
1564.000000;-0.008851
1563.000000;-0.009263
1562.000000;-0.009607
1561.000000;-0.009869
1560.000000;-0.010139
1559.000000;-0.010591
1558.000000;-0.011096
1557.000000;-0.011517
1556.000000;-0.011907
1555.000000;-0.012222
1554.000000;-0.012470
1553.000000;-0.012725
1552.000000;-0.013042
1551.000000;-0.013437
1550.000000;-0.013874
1549.000000;-0.014303
1548.000000;-0.014690
1547.000000;-0.015035
1546.000000;-0.015357
1545.000000;-0.015683
1544.000000;-0.016038
1543.000000;-0.016437
1542.000000;-0.016875
1541.000000;-0.017313
1540.000000;-0.017673
1539.000000;-0.017874
1538.000000;-0.018027
1537.000000;-0.018337
1536.000000;-0.018830
1535.000000;-0.019388
1534.000000;-0.019878
1533.000000;-0.020221
1532.000000;-0.020446
1531.000000;-0.020700
1530.000000;-0.021084
1529.000000;-0.021546
1528.000000;-0.021948
1527.000000;-0.022193
1526.000000;-0.022322
1525.000000;-0.022460
1524.000000;-0.022698
1523.000000;-0.023051
1522.000000;-0.023492
1521.000000;-0.023979
1520.000000;-0.024457
1519.000000;-0.024894
1518.000000;-0.025256
1517.000000;-0.025528
1516.000000;-0.025764
1515.000000;-0.026074
1514.000000;-0.026530
1513.000000;-0.027063
1512.000000;-0.027534
1511.000000;-0.027882
1510.000000;-0.028163
1509.000000;-0.028469
1508.000000;-0.028823
1507.000000;-0.029179
1506.000000;-0.029442
1505.000000;-0.029697
1504.000000;-0.030103
1503.000000;-0.030585
1502.000000;-0.031002
1501.000000;-0.031309
1500.000000;-0.031546
1499.000000;-0.031771
1498.000000;-0.032036
1497.000000;-0.032372
1496.000000;-0.032780
1495.000000;-0.033223
1494.000000;-0.033637
1493.000000;-0.033963
1492.000000;-0.034182
1491.000000;-0.034358
1490.000000;-0.034608
1489.000000;-0.034996
1488.000000;-0.035491
1487.000000;-0.035996
1486.000000;-0.036420
1485.000000;-0.036757
1484.000000;-0.037047
1483.000000;-0.037325
1482.000000;-0.037604
1481.000000;-0.037877
1480.000000;-0.038122
1479.000000;-0.038332
1478.000000;-0.038548
1477.000000;-0.038821
1476.000000;-0.039148
1475.000000;-0.039470
1474.000000;-0.039762
1473.000000;-0.040069
1472.000000;-0.040410
1471.000000;-0.040757
1470.000000;-0.041104
1469.000000;-0.041469
1468.000000;-0.041851
1467.000000;-0.042216
1466.000000;-0.042551
1465.000000;-0.042897
1464.000000;-0.043287
1463.000000;-0.043696
1462.000000;-0.044059
1461.000000;-0.044343
1460.000000;-0.044594
1459.000000;-0.044898
1458.000000;-0.045303
1457.000000;-0.045753
1456.000000;-0.046121
1455.000000;-0.046377
1454.000000;-0.046605
1453.000000;-0.046908
1452.000000;-0.047337
1451.000000;-0.047835
1450.000000;-0.048303
1449.000000;-0.048706
1448.000000;-0.049068
1447.000000;-0.049407
1446.000000;-0.049724
1445.000000;-0.050016
1444.000000;-0.050261
1443.000000;-0.050441
1442.000000;-0.050590
1441.000000;-0.050797
1440.000000;-0.051115
1439.000000;-0.051501
1438.000000;-0.051877
1437.000000;-0.052229
1436.000000;-0.052583
1435.000000;-0.052936
1434.000000;-0.053273
1433.000000;-0.053616
1432.000000;-0.054008
1431.000000;-0.054444
1430.000000;-0.054861
1429.000000;-0.055218
1428.000000;-0.055543
1427.000000;-0.055882
1426.000000;-0.056239
1425.000000;-0.056580
1424.000000;-0.056869
1423.000000;-0.057090
1422.000000;-0.057263
1421.000000;-0.057437
1420.000000;-0.057654
1419.000000;-0.057925
1418.000000;-0.058217
1417.000000;-0.058519
1416.000000;-0.058868
1415.000000;-0.059281
1414.000000;-0.059720
1413.000000;-0.060124
1412.000000;-0.060453
1411.000000;-0.060717
1410.000000;-0.060975
1409.000000;-0.061286
1408.000000;-0.061653
1407.000000;-0.062015
1406.000000;-0.062331
1405.000000;-0.062630
1404.000000;-0.062959
1403.000000;-0.063319
1402.000000;-0.063678
1401.000000;-0.064032
1400.000000;-0.064407
1399.000000;-0.064812
1398.000000;-0.065208
1397.000000;-0.065550
1396.000000;-0.065823
1395.000000;-0.066045
1394.000000;-0.066260
1393.000000;-0.066514
1392.000000;-0.066815
1391.000000;-0.067134
1390.000000;-0.067459
1389.000000;-0.067821
1388.000000;-0.068226
1387.000000;-0.068612
1386.000000;-0.068912
1385.000000;-0.069136
1384.000000;-0.069346
1383.000000;-0.069580
1382.000000;-0.069843
1381.000000;-0.070153
1380.000000;-0.070531
1379.000000;-0.070954
1378.000000;-0.071368
1377.000000;-0.071731
1376.000000;-0.072030
1375.000000;-0.072273
1374.000000;-0.072491
1373.000000;-0.072743
1372.000000;-0.073071
1371.000000;-0.073459
1370.000000;-0.073852
1369.000000;-0.074218
1368.000000;-0.074547
1367.000000;-0.074843
1366.000000;-0.075132
1365.000000;-0.075455
1364.000000;-0.075802
1363.000000;-0.076108
1362.000000;-0.076342
1361.000000;-0.076568
1360.000000;-0.076856
1359.000000;-0.077179
1358.000000;-0.077466
1357.000000;-0.077719
1356.000000;-0.077983
1355.000000;-0.078244
1354.000000;-0.078468
1353.000000;-0.078720
1352.000000;-0.079121
1351.000000;-0.079675
1350.000000;-0.080226
1349.000000;-0.080607
1348.000000;-0.080776
1347.000000;-0.080791
1346.000000;-0.080750
1345.000000;-0.080796
1344.000000;-0.081069
1343.000000;-0.081589
1342.000000;-0.082196
1341.000000;-0.082676
1340.000000;-0.082948
1339.000000;-0.083114
1338.000000;-0.083343
1337.000000;-0.083722
1336.000000;-0.084196
1335.000000;-0.084628
1334.000000;-0.084934
1333.000000;-0.085150
1332.000000;-0.085370
1331.000000;-0.085644
1330.000000;-0.085961
1329.000000;-0.086302
1328.000000;-0.086654
1327.000000;-0.086991
1326.000000;-0.087274
1325.000000;-0.087496
1324.000000;-0.087693
1323.000000;-0.087908
1322.000000;-0.088177
1321.000000;-0.088524
1320.000000;-0.088935
1319.000000;-0.089353
1318.000000;-0.089736
1317.000000;-0.090113
1316.000000;-0.090529
1315.000000;-0.090947
1314.000000;-0.091272
1313.000000;-0.091471
1312.000000;-0.091610
1311.000000;-0.091758
1310.000000;-0.091937
1309.000000;-0.092171
1308.000000;-0.092516
1307.000000;-0.092973
1306.000000;-0.093427
1305.000000;-0.093737
1304.000000;-0.093897
1303.000000;-0.094052
1302.000000;-0.094349
1301.000000;-0.094785
1300.000000;-0.095224
1299.000000;-0.095538
1298.000000;-0.095738
1297.000000;-0.095942
1296.000000;-0.096239
1295.000000;-0.096616
1294.000000;-0.097007
1293.000000;-0.097379
1292.000000;-0.097717
1291.000000;-0.097984
1290.000000;-0.098160
1289.000000;-0.098304
1288.000000;-0.098501
1287.000000;-0.098767
1286.000000;-0.099034
1285.000000;-0.099248
1284.000000;-0.099427
1283.000000;-0.099621
1282.000000;-0.099880
1281.000000;-0.100241
1280.000000;-0.100696
1279.000000;-0.101154
1278.000000;-0.101504
1277.000000;-0.101735
1276.000000;-0.101951
1275.000000;-0.102236
1274.000000;-0.102565
1273.000000;-0.102857
1272.000000;-0.103080
1271.000000;-0.103272
1270.000000;-0.103490
1269.000000;-0.103779
1268.000000;-0.104151
1267.000000;-0.104554
1266.000000;-0.104901
1265.000000;-0.105158
1264.000000;-0.105383
1263.000000;-0.105651
1262.000000;-0.105973
1261.000000;-0.106311
1260.000000;-0.106633
1259.000000;-0.106918
1258.000000;-0.107152
1257.000000;-0.107349
1256.000000;-0.107573
1255.000000;-0.107879
1254.000000;-0.108255
1253.000000;-0.108648
1252.000000;-0.109040
1251.000000;-0.109438
1250.000000;-0.109804
1249.000000;-0.110058
1248.000000;-0.110182
1247.000000;-0.110269
1246.000000;-0.110432
1245.000000;-0.110691
1244.000000;-0.110981
1243.000000;-0.111256
1242.000000;-0.111537
1241.000000;-0.111849
1240.000000;-0.112167
1239.000000;-0.112457
1238.000000;-0.112733
1237.000000;-0.113042
1236.000000;-0.113390
1235.000000;-0.113737
1234.000000;-0.114050
1233.000000;-0.114345
1232.000000;-0.114654
1231.000000;-0.114990
1230.000000;-0.115337
1229.000000;-0.115656
1228.000000;-0.115889
1227.000000;-0.116011
1226.000000;-0.116070
1225.000000;-0.116160
1224.000000;-0.116328
1223.000000;-0.116554
1222.000000;-0.116819
1221.000000;-0.117148
1220.000000;-0.117554
1219.000000;-0.117978
1218.000000;-0.118339
1217.000000;-0.118619
1216.000000;-0.118879
1215.000000;-0.119178
1214.000000;-0.119513
1213.000000;-0.119828
1212.000000;-0.120059
1211.000000;-0.120203
1210.000000;-0.120345
1209.000000;-0.120590
1208.000000;-0.120960
1207.000000;-0.121370
1206.000000;-0.121739
1205.000000;-0.122080
1204.000000;-0.122426
1203.000000;-0.122743
1202.000000;-0.122954
1201.000000;-0.123072
1200.000000;-0.123190
