Criado como novo conjunto de dados;"e2410_daniel_v2.spp","88026.6 Secs"
cm-1;Abs
10000.000000;0.079270
9999.000000;0.079180
9998.000000;0.079086
9997.000000;0.078927
9996.000000;0.078722
9995.000000;0.078616
9994.000000;0.078736
9993.000000;0.079025
9992.000000;0.079278
9991.000000;0.079342
9990.000000;0.079222
9989.000000;0.079011
9988.000000;0.078801
9987.000000;0.078663
9986.000000;0.078639
9985.000000;0.078715
9984.000000;0.078848
9983.000000;0.079027
9982.000000;0.079254
9981.000000;0.079462
9980.000000;0.079523
9979.000000;0.079375
9978.000000;0.079098
9977.000000;0.078824
9976.000000;0.078626
9975.000000;0.078541
9974.000000;0.078621
9973.000000;0.078866
9972.000000;0.079136
9971.000000;0.079229
9970.000000;0.079073
9969.000000;0.078800
9968.000000;0.078598
9967.000000;0.078539
9966.000000;0.078559
9965.000000;0.078591
9964.000000;0.078644
9963.000000;0.078761
9962.000000;0.078937
9961.000000;0.079112
9960.000000;0.079250
9959.000000;0.079367
9958.000000;0.079465
9957.000000;0.079506
9956.000000;0.079471
9955.000000;0.079408
9954.000000;0.079360
9953.000000;0.079278
9952.000000;0.079103
9951.000000;0.078912
9950.000000;0.078876
9949.000000;0.079048
9948.000000;0.079274
9947.000000;0.079367
9946.000000;0.079300
9945.000000;0.079170
9944.000000;0.079050
9943.000000;0.078953
9942.000000;0.078893
9941.000000;0.078895
9940.000000;0.078921
9939.000000;0.078890
9938.000000;0.078784
9937.000000;0.078699
9936.000000;0.078757
9935.000000;0.078979
9934.000000;0.079248
9933.000000;0.079392
9932.000000;0.079311
9931.000000;0.079042
9930.000000;0.078737
9929.000000;0.078567
9928.000000;0.078615
9927.000000;0.078812
9926.000000;0.078955
9925.000000;0.078858
9924.000000;0.078538
9923.000000;0.078248
9922.000000;0.078242
9921.000000;0.078498
9920.000000;0.078747
9919.000000;0.078772
9918.000000;0.078613
9917.000000;0.078463
9916.000000;0.078444
9915.000000;0.078536
9914.000000;0.078657
9913.000000;0.078719
9912.000000;0.078657
9911.000000;0.078477
9910.000000;0.078264
9909.000000;0.078102
9908.000000;0.078011
9907.000000;0.078005
9906.000000;0.078141
9905.000000;0.078452
9904.000000;0.078849
9903.000000;0.079177
9902.000000;0.079356
9901.000000;0.079415
9900.000000;0.079403
9899.000000;0.079339
9898.000000;0.079242
9897.000000;0.079127
9896.000000;0.078986
9895.000000;0.078818
9894.000000;0.078667
9893.000000;0.078560
9892.000000;0.078438
9891.000000;0.078222
9890.000000;0.077973
9889.000000;0.077866
9888.000000;0.077967
9887.000000;0.078132
9886.000000;0.078162
9885.000000;0.078022
9884.000000;0.077853
9883.000000;0.077799
9882.000000;0.077896
9881.000000;0.078077
9880.000000;0.078247
9879.000000;0.078359
9878.000000;0.078435
9877.000000;0.078530
9876.000000;0.078656
9875.000000;0.078778
9874.000000;0.078888
9873.000000;0.079023
9872.000000;0.079164
9871.000000;0.079187
9870.000000;0.078970
9869.000000;0.078560
9868.000000;0.078194
9867.000000;0.078136
9866.000000;0.078478
9865.000000;0.079060
9864.000000;0.079552
9863.000000;0.079675
9862.000000;0.079421
9861.000000;0.079038
9860.000000;0.078792
9859.000000;0.078736
9858.000000;0.078747
9857.000000;0.078726
9856.000000;0.078696
9855.000000;0.078700
9854.000000;0.078715
9853.000000;0.078693
9852.000000;0.078659
9851.000000;0.078688
9850.000000;0.078804
9849.000000;0.078917
9848.000000;0.078886
9847.000000;0.078643
9846.000000;0.078286
9845.000000;0.078037
9844.000000;0.078075
9843.000000;0.078385
9842.000000;0.078754
9841.000000;0.078956
9840.000000;0.078937
9839.000000;0.078840
9838.000000;0.078846
9837.000000;0.078997
9836.000000;0.079160
9835.000000;0.079166
9834.000000;0.078975
9833.000000;0.078710
9832.000000;0.078520
9831.000000;0.078455
9830.000000;0.078462
9829.000000;0.078491
9828.000000;0.078552
9827.000000;0.078660
9826.000000;0.078778
9825.000000;0.078808
9824.000000;0.078660
9823.000000;0.078330
9822.000000;0.077943
9821.000000;0.077692
9820.000000;0.077690
9819.000000;0.077858
9818.000000;0.078022
9817.000000;0.078106
9816.000000;0.078190
9815.000000;0.078367
9814.000000;0.078611
9813.000000;0.078812
9812.000000;0.078888
9811.000000;0.078802
9810.000000;0.078559
9809.000000;0.078243
9808.000000;0.078031
9807.000000;0.078045
9806.000000;0.078219
9805.000000;0.078355
9804.000000;0.078351
9803.000000;0.078284
9802.000000;0.078277
9801.000000;0.078371
9800.000000;0.078531
9799.000000;0.078723
9798.000000;0.078910
9797.000000;0.079045
9796.000000;0.079112
9795.000000;0.079134
9794.000000;0.079116
9793.000000;0.079049
9792.000000;0.078979
9791.000000;0.079023
9790.000000;0.079233
9789.000000;0.079506
9788.000000;0.079688
9787.000000;0.079730
9786.000000;0.079670
9785.000000;0.079510
9784.000000;0.079228
9783.000000;0.078905
9782.000000;0.078709
9781.000000;0.078728
9780.000000;0.078891
9779.000000;0.079082
9778.000000;0.079265
9777.000000;0.079457
9776.000000;0.079643
9775.000000;0.079775
9774.000000;0.079828
9773.000000;0.079804
9772.000000;0.079735
9771.000000;0.079696
9770.000000;0.079758
9769.000000;0.079876
9768.000000;0.079890
9767.000000;0.079709
9766.000000;0.079444
9765.000000;0.079290
9764.000000;0.079292
9763.000000;0.079332
9762.000000;0.079317
9761.000000;0.079267
9760.000000;0.079220
9759.000000;0.079146
9758.000000;0.079028
9757.000000;0.078930
9756.000000;0.078935
9755.000000;0.079046
9754.000000;0.079222
9753.000000;0.079445
9752.000000;0.079689
9751.000000;0.079867
9750.000000;0.079885
9749.000000;0.079735
9748.000000;0.079486
9747.000000;0.079200
9746.000000;0.078925
9745.000000;0.078736
9744.000000;0.078712
9743.000000;0.078850
9742.000000;0.079081
9741.000000;0.079360
9740.000000;0.079668
9739.000000;0.079922
9738.000000;0.079995
9737.000000;0.079866
9736.000000;0.079672
9735.000000;0.079559
9734.000000;0.079522
9733.000000;0.079460
9732.000000;0.079323
9731.000000;0.079159
9730.000000;0.079068
9729.000000;0.079157
9728.000000;0.079468
9727.000000;0.079896
9726.000000;0.080211
9725.000000;0.080277
9724.000000;0.080203
9723.000000;0.080191
9722.000000;0.080275
9721.000000;0.080307
9720.000000;0.080205
9719.000000;0.080079
9718.000000;0.080083
9717.000000;0.080241
9716.000000;0.080473
9715.000000;0.080704
9714.000000;0.080889
9713.000000;0.080963
9712.000000;0.080848
9711.000000;0.080514
9710.000000;0.080028
9709.000000;0.079544
9708.000000;0.079239
9707.000000;0.079182
9706.000000;0.079284
9705.000000;0.079403
9704.000000;0.079516
9703.000000;0.079694
9702.000000;0.079943
9701.000000;0.080144
9700.000000;0.080210
9699.000000;0.080207
9698.000000;0.080262
9697.000000;0.080407
9696.000000;0.080587
9695.000000;0.080732
9694.000000;0.080778
9693.000000;0.080662
9692.000000;0.080399
9691.000000;0.080124
9690.000000;0.079983
9689.000000;0.079994
9688.000000;0.080072
9687.000000;0.080163
9686.000000;0.080285
9685.000000;0.080447
9684.000000;0.080594
9683.000000;0.080651
9682.000000;0.080571
9681.000000;0.080351
9680.000000;0.080036
9679.000000;0.079710
9678.000000;0.079472
9677.000000;0.079391
9676.000000;0.079498
9675.000000;0.079752
9674.000000;0.080025
9673.000000;0.080181
9672.000000;0.080221
9671.000000;0.080289
9670.000000;0.080470
9669.000000;0.080642
9668.000000;0.080617
9667.000000;0.080385
9666.000000;0.080115
9665.000000;0.079932
9664.000000;0.079817
9663.000000;0.079748
9662.000000;0.079810
9661.000000;0.080100
9660.000000;0.080570
9659.000000;0.081033
9658.000000;0.081300
9657.000000;0.081301
9656.000000;0.081108
9655.000000;0.080895
9654.000000;0.080818
9653.000000;0.080901
9652.000000;0.081035
9651.000000;0.081114
9650.000000;0.081133
9649.000000;0.081163
9648.000000;0.081253
9647.000000;0.081369
9646.000000;0.081414
9645.000000;0.081294
9644.000000;0.081027
9643.000000;0.080788
9642.000000;0.080776
9641.000000;0.081007
9640.000000;0.081276
9639.000000;0.081350
9638.000000;0.081197
9637.000000;0.080964
9636.000000;0.080803
9635.000000;0.080766
9634.000000;0.080839
9633.000000;0.081004
9632.000000;0.081222
9631.000000;0.081397
9630.000000;0.081435
9629.000000;0.081335
9628.000000;0.081213
9627.000000;0.081201
9626.000000;0.081326
9625.000000;0.081508
9624.000000;0.081655
9623.000000;0.081744
9622.000000;0.081791
9621.000000;0.081796
9620.000000;0.081755
9619.000000;0.081708
9618.000000;0.081725
9617.000000;0.081833
9616.000000;0.081999
9615.000000;0.082186
9614.000000;0.082386
9613.000000;0.082579
9612.000000;0.082697
9611.000000;0.082680
9610.000000;0.082562
9609.000000;0.082462
9608.000000;0.082486
9607.000000;0.082640
9606.000000;0.082837
9605.000000;0.082987
9604.000000;0.083064
9603.000000;0.083102
9602.000000;0.083129
9601.000000;0.083148
9600.000000;0.083158
9599.000000;0.083171
9598.000000;0.083178
9597.000000;0.083131
9596.000000;0.082992
9595.000000;0.082783
9594.000000;0.082556
9593.000000;0.082349
9592.000000;0.082194
9591.000000;0.082141
9590.000000;0.082222
9589.000000;0.082385
9588.000000;0.082529
9587.000000;0.082612
9586.000000;0.082703
9585.000000;0.082880
9584.000000;0.083101
9583.000000;0.083208
9582.000000;0.083083
9581.000000;0.082780
9580.000000;0.082496
9579.000000;0.082417
9578.000000;0.082573
9577.000000;0.082850
9576.000000;0.083106
9575.000000;0.083260
9574.000000;0.083308
9573.000000;0.083288
9572.000000;0.083271
9571.000000;0.083320
9570.000000;0.083434
9569.000000;0.083555
9568.000000;0.083648
9567.000000;0.083740
9566.000000;0.083837
9565.000000;0.083871
9564.000000;0.083789
9563.000000;0.083657
9562.000000;0.083607
9561.000000;0.083693
9560.000000;0.083863
9559.000000;0.084063
9558.000000;0.084272
9557.000000;0.084437
9556.000000;0.084478
9555.000000;0.084384
9554.000000;0.084227
9553.000000;0.084052
9552.000000;0.083821
9551.000000;0.083533
9550.000000;0.083316
9549.000000;0.083321
9548.000000;0.083567
9547.000000;0.083938
9546.000000;0.084293
9545.000000;0.084534
9544.000000;0.084593
9543.000000;0.084471
9542.000000;0.084274
9541.000000;0.084156
9540.000000;0.084178
9539.000000;0.084276
9538.000000;0.084363
9537.000000;0.084417
9536.000000;0.084447
9535.000000;0.084444
9534.000000;0.084418
9533.000000;0.084439
9532.000000;0.084554
9531.000000;0.084685
9530.000000;0.084667
9529.000000;0.084425
9528.000000;0.084078
9527.000000;0.083851
9526.000000;0.083906
9525.000000;0.084271
9524.000000;0.084843
9523.000000;0.085411
9522.000000;0.085711
9521.000000;0.085611
9520.000000;0.085261
9519.000000;0.084983
9518.000000;0.084969
9517.000000;0.085138
9516.000000;0.085304
9515.000000;0.085411
9514.000000;0.085525
9513.000000;0.085666
9512.000000;0.085764
9511.000000;0.085762
9510.000000;0.085680
9509.000000;0.085571
9508.000000;0.085489
9507.000000;0.085495
9506.000000;0.085614
9505.000000;0.085763
9504.000000;0.085809
9503.000000;0.085723
9502.000000;0.085622
9501.000000;0.085630
9500.000000;0.085754
9499.000000;0.085929
9498.000000;0.086104
9497.000000;0.086235
9496.000000;0.086242
9495.000000;0.086065
9494.000000;0.085753
9493.000000;0.085483
9492.000000;0.085458
9491.000000;0.085774
9490.000000;0.086335
9489.000000;0.086880
9488.000000;0.087146
9487.000000;0.087067
9486.000000;0.086814
9485.000000;0.086612
9484.000000;0.086543
9483.000000;0.086529
9482.000000;0.086485
9481.000000;0.086427
9480.000000;0.086441
9479.000000;0.086578
9478.000000;0.086801
9477.000000;0.087039
9476.000000;0.087283
9475.000000;0.087579
9474.000000;0.087901
9473.000000;0.088074
9472.000000;0.087929
9471.000000;0.087523
9470.000000;0.087114
9469.000000;0.086886
9468.000000;0.086799
9467.000000;0.086731
9466.000000;0.086676
9465.000000;0.086714
9464.000000;0.086862
9463.000000;0.087065
9462.000000;0.087287
9461.000000;0.087498
9460.000000;0.087612
9459.000000;0.087544
9458.000000;0.087365
9457.000000;0.087271
9456.000000;0.087365
9455.000000;0.087529
9454.000000;0.087577
9453.000000;0.087488
9452.000000;0.087433
9451.000000;0.087592
9450.000000;0.087973
9449.000000;0.088413
9448.000000;0.088714
9447.000000;0.088788
9446.000000;0.088688
9445.000000;0.088537
9444.000000;0.088441
9443.000000;0.088450
9442.000000;0.088546
9441.000000;0.088637
9440.000000;0.088613
9439.000000;0.088472
9438.000000;0.088345
9437.000000;0.088356
9436.000000;0.088479
9435.000000;0.088604
9434.000000;0.088696
9433.000000;0.088808
9432.000000;0.088935
9431.000000;0.088978
9430.000000;0.088887
9429.000000;0.088751
9428.000000;0.088708
9427.000000;0.088811
9426.000000;0.089013
9425.000000;0.089236
9424.000000;0.089411
9423.000000;0.089503
9422.000000;0.089543
9421.000000;0.089606
9420.000000;0.089729
9419.000000;0.089882
9418.000000;0.090030
9417.000000;0.090160
9416.000000;0.090217
9415.000000;0.090109
9414.000000;0.089844
9413.000000;0.089605
9412.000000;0.089595
9411.000000;0.089820
9410.000000;0.090096
9409.000000;0.090236
9408.000000;0.090199
9407.000000;0.090088
9406.000000;0.090063
9405.000000;0.090222
9404.000000;0.090502
9403.000000;0.090698
9402.000000;0.090652
9401.000000;0.090414
9400.000000;0.090181
9399.000000;0.090114
9398.000000;0.090257
9397.000000;0.090585
9396.000000;0.091010
9395.000000;0.091352
9394.000000;0.091441
9393.000000;0.091298
9392.000000;0.091132
9391.000000;0.091108
9390.000000;0.091193
9389.000000;0.091287
9388.000000;0.091403
9387.000000;0.091646
9386.000000;0.092022
9385.000000;0.092360
9384.000000;0.092443
9383.000000;0.092197
9382.000000;0.091775
9381.000000;0.091454
9380.000000;0.091430
9379.000000;0.091658
9378.000000;0.091897
9377.000000;0.091942
9376.000000;0.091809
9375.000000;0.091693
9374.000000;0.091763
9373.000000;0.092025
9372.000000;0.092336
9371.000000;0.092543
9370.000000;0.092604
9369.000000;0.092599
9368.000000;0.092629
9367.000000;0.092711
9366.000000;0.092791
9365.000000;0.092821
9364.000000;0.092793
9363.000000;0.092710
9362.000000;0.092589
9361.000000;0.092501
9360.000000;0.092543
9359.000000;0.092731
9358.000000;0.092973
9357.000000;0.093176
9356.000000;0.093346
9355.000000;0.093525
9354.000000;0.093683
9353.000000;0.093727
9352.000000;0.093602
9351.000000;0.093382
9350.000000;0.093223
9349.000000;0.093242
9348.000000;0.093399
9347.000000;0.093513
9346.000000;0.093450
9345.000000;0.093283
9344.000000;0.093211
9343.000000;0.093321
9342.000000;0.093508
9341.000000;0.093648
9340.000000;0.093763
9339.000000;0.093940
9338.000000;0.094192
9337.000000;0.094447
9336.000000;0.094644
9335.000000;0.094739
9334.000000;0.094692
9333.000000;0.094525
9332.000000;0.094351
9331.000000;0.094281
9330.000000;0.094316
9329.000000;0.094392
9328.000000;0.094472
9327.000000;0.094518
9326.000000;0.094454
9325.000000;0.094248
9324.000000;0.094024
9323.000000;0.093970
9322.000000;0.094150
9321.000000;0.094491
9320.000000;0.094906
9319.000000;0.095315
9318.000000;0.095587
9317.000000;0.095602
9316.000000;0.095416
9315.000000;0.095246
9314.000000;0.095239
9313.000000;0.095363
9312.000000;0.095526
9311.000000;0.095693
9310.000000;0.095838
9309.000000;0.095910
9308.000000;0.095934
9307.000000;0.096045
9306.000000;0.096338
9305.000000;0.096719
9304.000000;0.096990
9303.000000;0.097057
9302.000000;0.096961
9301.000000;0.096772
9300.000000;0.096540
9299.000000;0.096361
9298.000000;0.096379
9297.000000;0.096635
9296.000000;0.096964
9295.000000;0.097112
9294.000000;0.097002
9293.000000;0.096830
9292.000000;0.096849
9291.000000;0.097077
9290.000000;0.097294
9289.000000;0.097311
9288.000000;0.097165
9287.000000;0.097005
9286.000000;0.096912
9285.000000;0.096906
9284.000000;0.097018
9283.000000;0.097213
9282.000000;0.097331
9281.000000;0.097267
9280.000000;0.097184
9279.000000;0.097337
9278.000000;0.097697
9277.000000;0.097943
9276.000000;0.097890
9275.000000;0.097730
9274.000000;0.097736
9273.000000;0.097918
9272.000000;0.098078
9271.000000;0.098098
9270.000000;0.098008
9269.000000;0.097863
9268.000000;0.097731
9267.000000;0.097760
9266.000000;0.098087
9265.000000;0.098646
9264.000000;0.099161
9263.000000;0.099366
9262.000000;0.099200
9261.000000;0.098812
9260.000000;0.098413
9259.000000;0.098125
9258.000000;0.097938
9257.000000;0.097813
9256.000000;0.097805
9255.000000;0.098005
9254.000000;0.098362
9253.000000;0.098681
9252.000000;0.098855
9251.000000;0.099002
9250.000000;0.099262
9249.000000;0.099573
9248.000000;0.099754
9247.000000;0.099746
9246.000000;0.099645
9245.000000;0.099546
9244.000000;0.099492
9243.000000;0.099538
9242.000000;0.099737
9241.000000;0.100039
9240.000000;0.100314
9239.000000;0.100491
9238.000000;0.100605
9237.000000;0.100686
9236.000000;0.100720
9235.000000;0.100704
9234.000000;0.100686
9233.000000;0.100699
9232.000000;0.100736
9231.000000;0.100804
9230.000000;0.100935
9229.000000;0.101135
9228.000000;0.101366
9227.000000;0.101573
9226.000000;0.101689
9225.000000;0.101636
9224.000000;0.101389
9223.000000;0.101045
9222.000000;0.100765
9221.000000;0.100662
9220.000000;0.100780
9219.000000;0.101118
9218.000000;0.101574
9217.000000;0.101895
9216.000000;0.101832
9215.000000;0.101394
9214.000000;0.100882
9213.000000;0.100622
9212.000000;0.100718
9211.000000;0.101068
9210.000000;0.101509
9209.000000;0.101894
9208.000000;0.102124
9207.000000;0.102189
9206.000000;0.102180
9205.000000;0.102202
9204.000000;0.102296
9203.000000;0.102453
9202.000000;0.102660
9201.000000;0.102894
9200.000000;0.103105
9199.000000;0.103235
9198.000000;0.103270
9197.000000;0.103251
9196.000000;0.103247
9195.000000;0.103312
9194.000000;0.103420
9193.000000;0.103475
9192.000000;0.103398
9191.000000;0.103219
9190.000000;0.103057
9189.000000;0.103019
9188.000000;0.103166
9187.000000;0.103514
9186.000000;0.104003
9185.000000;0.104465
9184.000000;0.104739
9183.000000;0.104833
9182.000000;0.104886
9181.000000;0.104969
9180.000000;0.105004
9179.000000;0.104920
9178.000000;0.104770
9177.000000;0.104637
9176.000000;0.104508
9175.000000;0.104345
9174.000000;0.104208
9173.000000;0.104194
9172.000000;0.104293
9171.000000;0.104413
9170.000000;0.104527
9169.000000;0.104686
9168.000000;0.104874
9167.000000;0.104978
9166.000000;0.104961
9165.000000;0.104961
9164.000000;0.105119
9163.000000;0.105347
9162.000000;0.105394
9161.000000;0.105167
9160.000000;0.104891
9159.000000;0.104882
9158.000000;0.105198
9157.000000;0.105595
9156.000000;0.105823
9155.000000;0.105875
9154.000000;0.105908
9153.000000;0.106004
9152.000000;0.106095
9151.000000;0.106111
9150.000000;0.106098
9149.000000;0.106155
9148.000000;0.106315
9147.000000;0.106528
9146.000000;0.106717
9145.000000;0.106824
9144.000000;0.106827
9143.000000;0.106769
9142.000000;0.106770
9141.000000;0.106946
9140.000000;0.107281
9139.000000;0.107616
9138.000000;0.107795
9137.000000;0.107818
9136.000000;0.107830
9135.000000;0.107939
9134.000000;0.108087
9133.000000;0.108127
9132.000000;0.108016
9131.000000;0.107860
9130.000000;0.107783
9129.000000;0.107796
9128.000000;0.107832
9127.000000;0.107866
9126.000000;0.107914
9125.000000;0.107963
9124.000000;0.107964
9123.000000;0.107923
9122.000000;0.107940
9121.000000;0.108119
9120.000000;0.108441
9119.000000;0.108740
9118.000000;0.108827
9117.000000;0.108663
9116.000000;0.108413
9115.000000;0.108294
9114.000000;0.108361
9113.000000;0.108473
9112.000000;0.108508
9111.000000;0.108531
9110.000000;0.108696
9109.000000;0.109036
9108.000000;0.109430
9107.000000;0.109754
9106.000000;0.109981
9105.000000;0.110128
9104.000000;0.110215
9103.000000;0.110254
9102.000000;0.110225
9101.000000;0.110055
9100.000000;0.109716
9099.000000;0.109356
9098.000000;0.109222
9097.000000;0.109416
9096.000000;0.109806
9095.000000;0.110198
9094.000000;0.110487
9093.000000;0.110620
9092.000000;0.110560
9091.000000;0.110408
9090.000000;0.110411
9089.000000;0.110703
9088.000000;0.111092
9087.000000;0.111281
9086.000000;0.111237
9085.000000;0.111193
9084.000000;0.111293
9083.000000;0.111419
9082.000000;0.111413
9081.000000;0.111303
9080.000000;0.111222
9079.000000;0.111211
9078.000000;0.111225
9077.000000;0.111244
9076.000000;0.111286
9075.000000;0.111355
9074.000000;0.111449
9073.000000;0.111609
9072.000000;0.111857
9071.000000;0.112130
9070.000000;0.112322
9069.000000;0.112398
9068.000000;0.112412
9067.000000;0.112403
9066.000000;0.112376
9065.000000;0.112366
9064.000000;0.112483
9063.000000;0.112825
9062.000000;0.113361
9061.000000;0.113909
9060.000000;0.114230
9059.000000;0.114197
9058.000000;0.113936
9057.000000;0.113767
9056.000000;0.113928
9055.000000;0.114314
9054.000000;0.114552
9053.000000;0.114374
9052.000000;0.113881
9051.000000;0.113449
9050.000000;0.113382
9049.000000;0.113705
9048.000000;0.114200
9047.000000;0.114604
9046.000000;0.114775
9045.000000;0.114734
9044.000000;0.114606
9043.000000;0.114514
9042.000000;0.114522
9041.000000;0.114646
9040.000000;0.114859
9039.000000;0.115078
9038.000000;0.115203
9037.000000;0.115193
9036.000000;0.115087
9035.000000;0.114940
9034.000000;0.114785
9033.000000;0.114678
9032.000000;0.114709
9031.000000;0.114900
9030.000000;0.115124
9029.000000;0.115187
9028.000000;0.115019
9027.000000;0.114752
9026.000000;0.114608
9025.000000;0.114739
9024.000000;0.115131
9023.000000;0.115612
9022.000000;0.115947
9021.000000;0.115996
9020.000000;0.115799
9019.000000;0.115502
9018.000000;0.115220
9017.000000;0.115006
9016.000000;0.114906
9015.000000;0.114962
9014.000000;0.115143
9013.000000;0.115367
9012.000000;0.115600
9011.000000;0.115870
9010.000000;0.116161
9009.000000;0.116347
9008.000000;0.116306
9007.000000;0.116050
9006.000000;0.115714
9005.000000;0.115457
9004.000000;0.115413
9003.000000;0.115659
9002.000000;0.116163
9001.000000;0.116763
9000.000000;0.117248
8999.000000;0.117466
8998.000000;0.117379
8997.000000;0.117066
8996.000000;0.116726
8995.000000;0.116574
8994.000000;0.116652
8993.000000;0.116766
8992.000000;0.116705
8991.000000;0.116512
8990.000000;0.116438
8989.000000;0.116642
8988.000000;0.117010
8987.000000;0.117326
8986.000000;0.117510
8985.000000;0.117645
8984.000000;0.117806
8983.000000;0.117968
8982.000000;0.118072
8981.000000;0.118104
8980.000000;0.118099
8979.000000;0.118095
8978.000000;0.118110
8977.000000;0.118162
8976.000000;0.118243
8975.000000;0.118303
8974.000000;0.118279
8973.000000;0.118169
8972.000000;0.118074
8971.000000;0.118121
8970.000000;0.118359
8969.000000;0.118736
8968.000000;0.119151
8967.000000;0.119478
8966.000000;0.119550
8965.000000;0.119245
8964.000000;0.118662
8963.000000;0.118155
8962.000000;0.118073
8961.000000;0.118437
8960.000000;0.118939
8959.000000;0.119265
8958.000000;0.119373
8957.000000;0.119433
8956.000000;0.119561
8955.000000;0.119704
8954.000000;0.119756
8953.000000;0.119730
8952.000000;0.119759
8951.000000;0.119941
8950.000000;0.120223
8949.000000;0.120449
8948.000000;0.120502
8947.000000;0.120394
8946.000000;0.120227
8945.000000;0.120101
8944.000000;0.120048
8943.000000;0.120015
8942.000000;0.119908
8941.000000;0.119696
8940.000000;0.119498
8939.000000;0.119509
8938.000000;0.119794
8937.000000;0.120201
8936.000000;0.120515
8935.000000;0.120659
8934.000000;0.120704
8933.000000;0.120720
8932.000000;0.120702
8931.000000;0.120646
8930.000000;0.120595
8929.000000;0.120593
8928.000000;0.120647
8927.000000;0.120743
8926.000000;0.120845
8925.000000;0.120873
8924.000000;0.120743
8923.000000;0.120488
8922.000000;0.120275
8921.000000;0.120245
8920.000000;0.120385
8919.000000;0.120596
8918.000000;0.120839
8917.000000;0.121133
8916.000000;0.121455
8915.000000;0.121720
8914.000000;0.121883
8913.000000;0.121984
8912.000000;0.122088
8911.000000;0.122223
8910.000000;0.122376
8909.000000;0.122497
8908.000000;0.122496
8907.000000;0.122327
8906.000000;0.122077
8905.000000;0.121931
8904.000000;0.121973
8903.000000;0.122099
8902.000000;0.122186
8901.000000;0.122290
8900.000000;0.122542
8899.000000;0.122885
8898.000000;0.123039
8897.000000;0.122817
8896.000000;0.122382
8895.000000;0.122080
8894.000000;0.122057
8893.000000;0.122151
8892.000000;0.122148
8891.000000;0.122063
8890.000000;0.122096
8889.000000;0.122384
8888.000000;0.122864
8887.000000;0.123355
8886.000000;0.123692
8885.000000;0.123782
8884.000000;0.123605
8883.000000;0.123234
8882.000000;0.122850
8881.000000;0.122642
8880.000000;0.122672
8879.000000;0.122832
8878.000000;0.122963
8877.000000;0.123010
8876.000000;0.123033
8875.000000;0.123107
8874.000000;0.123253
8873.000000;0.123449
8872.000000;0.123652
8871.000000;0.123794
8870.000000;0.123816
8869.000000;0.123758
8868.000000;0.123765
8867.000000;0.123940
8866.000000;0.124199
8865.000000;0.124355
8864.000000;0.124331
8863.000000;0.124219
8862.000000;0.124115
8861.000000;0.123986
8860.000000;0.123757
8859.000000;0.123480
8858.000000;0.123305
8857.000000;0.123305
8856.000000;0.123398
8855.000000;0.123465
8854.000000;0.123489
8853.000000;0.123533
8852.000000;0.123617
8851.000000;0.123666
8850.000000;0.123590
8849.000000;0.123399
8848.000000;0.123235
8847.000000;0.123261
8846.000000;0.123514
8845.000000;0.123860
8844.000000;0.124108
8843.000000;0.124167
8842.000000;0.124091
8841.000000;0.123978
8840.000000;0.123868
8839.000000;0.123752
8838.000000;0.123648
8837.000000;0.123607
8836.000000;0.123660
8835.000000;0.123779
8834.000000;0.123912
8833.000000;0.124031
8832.000000;0.124132
8831.000000;0.124215
8830.000000;0.124282
8829.000000;0.124336
8828.000000;0.124363
8827.000000;0.124330
8826.000000;0.124229
8825.000000;0.124148
8824.000000;0.124243
8823.000000;0.124599
8822.000000;0.125120
8821.000000;0.125570
8820.000000;0.125739
8819.000000;0.125573
8818.000000;0.125208
8817.000000;0.124902
8816.000000;0.124909
8815.000000;0.125339
8814.000000;0.126076
8813.000000;0.126843
8812.000000;0.127353
8811.000000;0.127420
8810.000000;0.127002
8809.000000;0.126212
8808.000000;0.125323
8807.000000;0.124686
8806.000000;0.124532
8805.000000;0.124841
8804.000000;0.125395
8803.000000;0.125945
8802.000000;0.126308
8801.000000;0.126380
8800.000000;0.126170
8799.000000;0.125844
8798.000000;0.125616
8797.000000;0.125540
8796.000000;0.125449
8795.000000;0.125194
8794.000000;0.124896
8793.000000;0.124827
8792.000000;0.125041
8791.000000;0.125260
8790.000000;0.125212
8789.000000;0.124978
8788.000000;0.124872
8787.000000;0.125058
8786.000000;0.125410
8785.000000;0.125726
8784.000000;0.125918
8783.000000;0.125948
8782.000000;0.125750
8781.000000;0.125353
8780.000000;0.124999
8779.000000;0.124979
8778.000000;0.125330
8777.000000;0.125797
8776.000000;0.126089
8775.000000;0.126129
8774.000000;0.126037
8773.000000;0.125964
8772.000000;0.125963
8771.000000;0.125977
8770.000000;0.125908
8769.000000;0.125734
8768.000000;0.125567
8767.000000;0.125548
8766.000000;0.125677
8765.000000;0.125773
8764.000000;0.125661
8763.000000;0.125398
8762.000000;0.125249
8761.000000;0.125420
8760.000000;0.125836
8759.000000;0.126205
8758.000000;0.126294
8757.000000;0.126129
8756.000000;0.125912
8755.000000;0.125796
8754.000000;0.125756
8753.000000;0.125680
8752.000000;0.125521
8751.000000;0.125342
8750.000000;0.125248
8749.000000;0.125286
8748.000000;0.125411
8747.000000;0.125529
8746.000000;0.125583
8745.000000;0.125596
8744.000000;0.125630
8743.000000;0.125738
8742.000000;0.125992
8741.000000;0.126496
8740.000000;0.127234
8739.000000;0.127923
8738.000000;0.128165
8737.000000;0.127831
8736.000000;0.127213
8735.000000;0.126712
8734.000000;0.126483
8733.000000;0.126459
8732.000000;0.126580
8731.000000;0.126824
8730.000000;0.127058
8729.000000;0.127065
8728.000000;0.126780
8727.000000;0.126372
8726.000000;0.126062
8725.000000;0.125950
8724.000000;0.126041
8723.000000;0.126294
8722.000000;0.126591
8721.000000;0.126772
8720.000000;0.126798
8719.000000;0.126822
8718.000000;0.126995
8717.000000;0.127265
8716.000000;0.127441
8715.000000;0.127421
8714.000000;0.127280
8713.000000;0.127132
8712.000000;0.127003
8711.000000;0.126839
8710.000000;0.126592
8709.000000;0.126271
8708.000000;0.125918
8707.000000;0.125573
8706.000000;0.125276
8705.000000;0.125090
8704.000000;0.125091
8703.000000;0.125291
8702.000000;0.125598
8701.000000;0.125901
8700.000000;0.126170
8699.000000;0.126423
8698.000000;0.126638
8697.000000;0.126744
8696.000000;0.126705
8695.000000;0.126554
8694.000000;0.126339
8693.000000;0.126110
8692.000000;0.125971
8691.000000;0.126022
8690.000000;0.126218
8689.000000;0.126365
8688.000000;0.126324
8687.000000;0.126158
8686.000000;0.126022
8685.000000;0.125951
8684.000000;0.125855
8683.000000;0.125692
8682.000000;0.125542
8681.000000;0.125513
8680.000000;0.125630
8679.000000;0.125865
8678.000000;0.126212
8677.000000;0.126666
8676.000000;0.127114
8675.000000;0.127335
8674.000000;0.127177
8673.000000;0.126752
8672.000000;0.126365
8671.000000;0.126214
8670.000000;0.126221
8669.000000;0.126211
8668.000000;0.126172
8667.000000;0.126252
8666.000000;0.126513
8665.000000;0.126810
8664.000000;0.126934
8663.000000;0.126790
8662.000000;0.126423
8661.000000;0.125960
8660.000000;0.125555
8659.000000;0.125307
8658.000000;0.125181
8657.000000;0.125064
8656.000000;0.124920
8655.000000;0.124839
8654.000000;0.124912
8653.000000;0.125135
8652.000000;0.125438
8651.000000;0.125735
8650.000000;0.125920
8649.000000;0.125911
8648.000000;0.125746
8647.000000;0.125569
8646.000000;0.125471
8645.000000;0.125412
8644.000000;0.125319
8643.000000;0.125200
8642.000000;0.125097
8641.000000;0.125029
8640.000000;0.125014
8639.000000;0.125077
8638.000000;0.125176
8637.000000;0.125196
8636.000000;0.125085
8635.000000;0.124936
8634.000000;0.124854
8633.000000;0.124835
8632.000000;0.124842
8631.000000;0.124912
8630.000000;0.125086
8629.000000;0.125283
8628.000000;0.125360
8627.000000;0.125272
8626.000000;0.125078
8625.000000;0.124855
8624.000000;0.124676
8623.000000;0.124633
8622.000000;0.124759
8621.000000;0.124946
8620.000000;0.125044
8619.000000;0.125028
8618.000000;0.124978
8617.000000;0.124923
8616.000000;0.124828
8615.000000;0.124721
8614.000000;0.124701
8613.000000;0.124783
8612.000000;0.124853
8611.000000;0.124811
8610.000000;0.124694
8609.000000;0.124604
8608.000000;0.124588
8607.000000;0.124646
8606.000000;0.124767
8605.000000;0.124900
8604.000000;0.124940
8603.000000;0.124828
8602.000000;0.124643
8601.000000;0.124554
8600.000000;0.124639
8599.000000;0.124803
8598.000000;0.124878
8597.000000;0.124780
8596.000000;0.124550
8595.000000;0.124251
8594.000000;0.123908
8593.000000;0.123562
8592.000000;0.123335
8591.000000;0.123339
8590.000000;0.123513
8589.000000;0.123658
8588.000000;0.123669
8587.000000;0.123648
8586.000000;0.123725
8585.000000;0.123865
8584.000000;0.123940
8583.000000;0.123922
8582.000000;0.123880
8581.000000;0.123806
8580.000000;0.123603
8579.000000;0.123255
8578.000000;0.122906
8577.000000;0.122711
8576.000000;0.122675
8575.000000;0.122708
8574.000000;0.122757
8573.000000;0.122834
8572.000000;0.122940
8571.000000;0.123015
8570.000000;0.122995
8569.000000;0.122879
8568.000000;0.122739
8567.000000;0.122663
8566.000000;0.122686
8565.000000;0.122780
8564.000000;0.122886
8563.000000;0.122948
8562.000000;0.122926
8561.000000;0.122829
8560.000000;0.122741
8559.000000;0.122747
8558.000000;0.122814
8557.000000;0.122815
8556.000000;0.122701
8555.000000;0.122587
8554.000000;0.122583
8553.000000;0.122611
8552.000000;0.122509
8551.000000;0.122255
8550.000000;0.121993
8549.000000;0.121827
8548.000000;0.121704
8547.000000;0.121534
8546.000000;0.121301
8545.000000;0.121057
8544.000000;0.120871
8543.000000;0.120823
8542.000000;0.120953
8541.000000;0.121198
8540.000000;0.121429
8539.000000;0.121573
8538.000000;0.121637
8537.000000;0.121595
8536.000000;0.121376
8535.000000;0.121010
8534.000000;0.120680
8533.000000;0.120537
8532.000000;0.120531
8531.000000;0.120494
8530.000000;0.120352
8529.000000;0.120186
8528.000000;0.120113
8527.000000;0.120178
8526.000000;0.120343
8525.000000;0.120494
8524.000000;0.120490
8523.000000;0.120286
8522.000000;0.120017
8521.000000;0.119898
8520.000000;0.120006
8519.000000;0.120205
8518.000000;0.120281
8517.000000;0.120129
8516.000000;0.119830
8515.000000;0.119566
8514.000000;0.119469
8513.000000;0.119519
8512.000000;0.119562
8511.000000;0.119473
8510.000000;0.119297
8509.000000;0.119201
8508.000000;0.119275
8507.000000;0.119424
8506.000000;0.119454
8505.000000;0.119263
8504.000000;0.118933
8503.000000;0.118649
8502.000000;0.118532
8501.000000;0.118529
8500.000000;0.118456
8499.000000;0.118188
8498.000000;0.117826
8497.000000;0.117623
8496.000000;0.117730
8495.000000;0.118054
8494.000000;0.118384
8493.000000;0.118608
8492.000000;0.118740
8491.000000;0.118782
8490.000000;0.118679
8489.000000;0.118429
8488.000000;0.118140
8487.000000;0.117922
8486.000000;0.117779
8485.000000;0.117668
8484.000000;0.117605
8483.000000;0.117620
8482.000000;0.117657
8481.000000;0.117590
8480.000000;0.117363
8479.000000;0.117041
8478.000000;0.116736
8477.000000;0.116522
8476.000000;0.116418
8475.000000;0.116369
8474.000000;0.116238
8473.000000;0.115923
8472.000000;0.115512
8471.000000;0.115245
8470.000000;0.115282
8469.000000;0.115539
8468.000000;0.115803
8467.000000;0.115944
8466.000000;0.115978
8465.000000;0.115971
8464.000000;0.115946
8463.000000;0.115866
8462.000000;0.115668
8461.000000;0.115332
8460.000000;0.114956
8459.000000;0.114711
8458.000000;0.114677
8457.000000;0.114770
8456.000000;0.114865
8455.000000;0.114942
8454.000000;0.115035
8453.000000;0.115119
8452.000000;0.115126
8451.000000;0.115055
8450.000000;0.114938
8449.000000;0.114749
8448.000000;0.114450
8447.000000;0.114133
8446.000000;0.113974
8445.000000;0.114006
8444.000000;0.114036
8443.000000;0.113881
8442.000000;0.113593
8441.000000;0.113385
8440.000000;0.113363
8439.000000;0.113442
8438.000000;0.113483
8437.000000;0.113429
8436.000000;0.113292
8435.000000;0.113079
8434.000000;0.112786
8433.000000;0.112443
8432.000000;0.112119
8431.000000;0.111886
8430.000000;0.111774
8429.000000;0.111782
8428.000000;0.111901
8427.000000;0.112099
8426.000000;0.112286
8425.000000;0.112322
8424.000000;0.112123
8423.000000;0.111756
8422.000000;0.111405
8421.000000;0.111213
8420.000000;0.111191
8419.000000;0.111262
8418.000000;0.111344
8417.000000;0.111374
8416.000000;0.111310
8415.000000;0.111151
8414.000000;0.110959
8413.000000;0.110791
8412.000000;0.110623
8411.000000;0.110390
8410.000000;0.110123
8409.000000;0.109982
8408.000000;0.110102
8407.000000;0.110415
8406.000000;0.110680
8405.000000;0.110707
8404.000000;0.110528
8403.000000;0.110301
8402.000000;0.110114
8401.000000;0.109930
8400.000000;0.109705
8399.000000;0.109480
8398.000000;0.109315
8397.000000;0.109193
8396.000000;0.109049
8395.000000;0.108877
8394.000000;0.108732
8393.000000;0.108635
8392.000000;0.108512
8391.000000;0.108266
8390.000000;0.107903
8389.000000;0.107542
8388.000000;0.107316
8387.000000;0.107244
8386.000000;0.107212
8385.000000;0.107083
8384.000000;0.106832
8383.000000;0.106558
8382.000000;0.106377
8381.000000;0.106302
8380.000000;0.106253
8379.000000;0.106157
8378.000000;0.106021
8377.000000;0.105897
8376.000000;0.105817
8375.000000;0.105769
8374.000000;0.105716
8373.000000;0.105631
8372.000000;0.105515
8371.000000;0.105389
8370.000000;0.105274
8369.000000;0.105177
8368.000000;0.105080
8367.000000;0.104954
8366.000000;0.104790
8365.000000;0.104626
8364.000000;0.104537
8363.000000;0.104544
8362.000000;0.104562
8361.000000;0.104454
8360.000000;0.104188
8359.000000;0.103885
8358.000000;0.103704
8357.000000;0.103660
8356.000000;0.103619
8355.000000;0.103459
8354.000000;0.103218
8353.000000;0.103058
8352.000000;0.103086
8351.000000;0.103219
8350.000000;0.103244
8349.000000;0.103038
8348.000000;0.102702
8347.000000;0.102474
8346.000000;0.102505
8345.000000;0.102733
8344.000000;0.102957
8343.000000;0.102989
8342.000000;0.102755
8341.000000;0.102316
8340.000000;0.101831
8339.000000;0.101453
8338.000000;0.101224
8337.000000;0.101075
8336.000000;0.100943
8335.000000;0.100846
8334.000000;0.100812
8333.000000;0.100791
8332.000000;0.100696
8331.000000;0.100530
8330.000000;0.100394
8329.000000;0.100341
8328.000000;0.100279
8327.000000;0.100074
8326.000000;0.099728
8325.000000;0.099393
8324.000000;0.099205
8323.000000;0.099142
8322.000000;0.099070
8321.000000;0.098911
8320.000000;0.098711
8319.000000;0.098558
8318.000000;0.098466
8317.000000;0.098373
8316.000000;0.098221
8315.000000;0.098006
8314.000000;0.097765
8313.000000;0.097562
8312.000000;0.097458
8311.000000;0.097460
8310.000000;0.097478
8309.000000;0.097376
8308.000000;0.097105
8307.000000;0.096762
8306.000000;0.096512
8305.000000;0.096468
8304.000000;0.096616
8303.000000;0.096827
8302.000000;0.096914
8301.000000;0.096758
8300.000000;0.096392
8299.000000;0.095983
8298.000000;0.095698
8297.000000;0.095595
8296.000000;0.095627
8295.000000;0.095684
8294.000000;0.095646
8293.000000;0.095448
8292.000000;0.095142
8291.000000;0.094853
8290.000000;0.094647
8289.000000;0.094463
8288.000000;0.094202
8287.000000;0.093840
8286.000000;0.093454
8285.000000;0.093157
8284.000000;0.093027
8283.000000;0.093044
8282.000000;0.093080
8281.000000;0.092978
8280.000000;0.092696
8279.000000;0.092347
8278.000000;0.092082
8277.000000;0.091966
8276.000000;0.091973
8275.000000;0.092034
8274.000000;0.092055
8273.000000;0.091936
8272.000000;0.091650
8271.000000;0.091288
8270.000000;0.090981
8269.000000;0.090790
8268.000000;0.090714
8267.000000;0.090729
8266.000000;0.090758
8265.000000;0.090660
8264.000000;0.090340
8263.000000;0.089899
8262.000000;0.089583
8261.000000;0.089531
8260.000000;0.089616
8259.000000;0.089581
8258.000000;0.089300
8257.000000;0.088896
8256.000000;0.088604
8255.000000;0.088535
8254.000000;0.088573
8253.000000;0.088504
8252.000000;0.088233
8251.000000;0.087868
8250.000000;0.087585
8249.000000;0.087454
8248.000000;0.087429
8247.000000;0.087445
8246.000000;0.087462
8245.000000;0.087429
8244.000000;0.087266
8243.000000;0.086931
8242.000000;0.086488
8241.000000;0.086063
8240.000000;0.085756
8239.000000;0.085595
8238.000000;0.085564
8237.000000;0.085631
8236.000000;0.085719
8235.000000;0.085692
8234.000000;0.085446
8233.000000;0.085038
8232.000000;0.084683
8231.000000;0.084548
8230.000000;0.084578
8229.000000;0.084584
8228.000000;0.084456
8227.000000;0.084239
8226.000000;0.083994
8225.000000;0.083713
8224.000000;0.083401
8223.000000;0.083131
8222.000000;0.082963
8221.000000;0.082845
8220.000000;0.082677
8219.000000;0.082429
8218.000000;0.082148
8217.000000;0.081890
8216.000000;0.081689
8215.000000;0.081581
8214.000000;0.081563
8213.000000;0.081570
8212.000000;0.081518
8211.000000;0.081380
8210.000000;0.081172
8209.000000;0.080902
8208.000000;0.080576
8207.000000;0.080239
8206.000000;0.079953
8205.000000;0.079737
8204.000000;0.079552
8203.000000;0.079356
8202.000000;0.079150
8201.000000;0.078995
8200.000000;0.078955
8199.000000;0.079001
8198.000000;0.078960
8197.000000;0.078653
8196.000000;0.078112
8195.000000;0.077590
8194.000000;0.077331
8193.000000;0.077363
8192.000000;0.077561
8191.000000;0.077783
8190.000000;0.077887
8189.000000;0.077726
8188.000000;0.077267
8187.000000;0.076683
8186.000000;0.076205
8185.000000;0.075896
8184.000000;0.075685
8183.000000;0.075567
8182.000000;0.075619
8181.000000;0.075810
8180.000000;0.075931
8179.000000;0.075803
8178.000000;0.075478
8177.000000;0.075161
8176.000000;0.074986
8175.000000;0.074906
8174.000000;0.074767
8173.000000;0.074455
8172.000000;0.074006
8171.000000;0.073570
8170.000000;0.073253
8169.000000;0.072998
8168.000000;0.072681
8167.000000;0.072300
8166.000000;0.072000
8165.000000;0.071891
8164.000000;0.071930
8163.000000;0.071987
8162.000000;0.071961
8161.000000;0.071818
8160.000000;0.071573
8159.000000;0.071282
8158.000000;0.071004
8157.000000;0.070746
8156.000000;0.070479
8155.000000;0.070212
8154.000000;0.069991
8153.000000;0.069821
8152.000000;0.069655
8151.000000;0.069471
8150.000000;0.069313
8149.000000;0.069210
8148.000000;0.069121
8147.000000;0.068985
8146.000000;0.068779
8145.000000;0.068502
8144.000000;0.068160
8143.000000;0.067802
8142.000000;0.067526
8141.000000;0.067395
8140.000000;0.067374
8139.000000;0.067381
8138.000000;0.067348
8137.000000;0.067220
8136.000000;0.066944
8135.000000;0.066528
8134.000000;0.066073
8133.000000;0.065706
8132.000000;0.065490
8131.000000;0.065407
8130.000000;0.065393
8129.000000;0.065363
8128.000000;0.065239
8127.000000;0.065019
8126.000000;0.064774
8125.000000;0.064555
8124.000000;0.064336
8123.000000;0.064081
8122.000000;0.063818
8121.000000;0.063597
8120.000000;0.063406
8119.000000;0.063203
8118.000000;0.063003
8117.000000;0.062866
8116.000000;0.062771
8115.000000;0.062602
8114.000000;0.062283
8113.000000;0.061885
8112.000000;0.061555
8111.000000;0.061357
8110.000000;0.061231
8109.000000;0.061085
8108.000000;0.060898
8107.000000;0.060707
8106.000000;0.060517
8105.000000;0.060271
8104.000000;0.059917
8103.000000;0.059500
8102.000000;0.059145
8101.000000;0.058925
8100.000000;0.058788
8099.000000;0.058627
8098.000000;0.058420
8097.000000;0.058247
8096.000000;0.058175
8095.000000;0.058138
8094.000000;0.057978
8093.000000;0.057614
8092.000000;0.057160
8091.000000;0.056843
8090.000000;0.056798
8089.000000;0.056942
8088.000000;0.057052
8087.000000;0.056948
8086.000000;0.056605
8085.000000;0.056123
8084.000000;0.055647
8083.000000;0.055308
8082.000000;0.055166
8081.000000;0.055156
8080.000000;0.055108
8079.000000;0.054873
8078.000000;0.054444
8077.000000;0.053955
8076.000000;0.053560
8075.000000;0.053330
8074.000000;0.053235
8073.000000;0.053198
8072.000000;0.053146
8071.000000;0.053041
8070.000000;0.052880
8069.000000;0.052682
8068.000000;0.052452
8067.000000;0.052172
8066.000000;0.051825
8065.000000;0.051426
8064.000000;0.051020
8063.000000;0.050656
8062.000000;0.050364
8061.000000;0.050148
8060.000000;0.049992
8059.000000;0.049871
8058.000000;0.049781
8057.000000;0.049754
8056.000000;0.049810
8055.000000;0.049875
8054.000000;0.049787
8053.000000;0.049458
8052.000000;0.048996
8051.000000;0.048602
8050.000000;0.048339
8049.000000;0.048071
8048.000000;0.047653
8047.000000;0.047120
8046.000000;0.046631
8045.000000;0.046292
8044.000000;0.046099
8043.000000;0.046005
8042.000000;0.045962
8041.000000;0.045904
8040.000000;0.045766
8039.000000;0.045546
8038.000000;0.045307
8037.000000;0.045094
8036.000000;0.044887
8035.000000;0.044639
8034.000000;0.044351
8033.000000;0.044067
8032.000000;0.043834
8031.000000;0.043645
8030.000000;0.043441
8029.000000;0.043164
8028.000000;0.042805
8027.000000;0.042425
8026.000000;0.042110
8025.000000;0.041915
8024.000000;0.041820
8023.000000;0.041725
8022.000000;0.041501
8021.000000;0.041100
8020.000000;0.040637
8019.000000;0.040300
8018.000000;0.040172
8017.000000;0.040154
8016.000000;0.040100
8015.000000;0.039963
8014.000000;0.039779
8013.000000;0.039569
8012.000000;0.039327
8011.000000;0.039067
8010.000000;0.038812
8009.000000;0.038532
8008.000000;0.038168
8007.000000;0.037722
8006.000000;0.037286
8005.000000;0.036961
8004.000000;0.036775
8003.000000;0.036672
8002.000000;0.036552
8001.000000;0.036330
8000.000000;0.036011
7999.000000;0.035698
7998.000000;0.035481
7997.000000;0.035320
7996.000000;0.035094
7995.000000;0.034756
7994.000000;0.034396
7993.000000;0.034129
7992.000000;0.033976
7991.000000;0.033864
7990.000000;0.033709
7989.000000;0.033473
7988.000000;0.033171
7987.000000;0.032861
7986.000000;0.032582
7985.000000;0.032319
7984.000000;0.032033
7983.000000;0.031726
7982.000000;0.031442
7981.000000;0.031201
7980.000000;0.030965
7979.000000;0.030686
7978.000000;0.030354
7977.000000;0.029992
7976.000000;0.029626
7975.000000;0.029287
7974.000000;0.029003
7973.000000;0.028782
7972.000000;0.028604
7971.000000;0.028444
7970.000000;0.028291
7969.000000;0.028138
7968.000000;0.027967
7967.000000;0.027757
7966.000000;0.027499
7965.000000;0.027206
7964.000000;0.026911
7963.000000;0.026627
7962.000000;0.026309
7961.000000;0.025894
7960.000000;0.025399
7959.000000;0.024942
7958.000000;0.024629
7957.000000;0.024454
7956.000000;0.024340
7955.000000;0.024242
7954.000000;0.024141
7953.000000;0.023969
7952.000000;0.023653
7951.000000;0.023243
7950.000000;0.022924
7949.000000;0.022835
7948.000000;0.022918
7947.000000;0.022963
7946.000000;0.022797
7945.000000;0.022400
7944.000000;0.021892
7943.000000;0.021421
7942.000000;0.021064
7941.000000;0.020803
7940.000000;0.020575
7939.000000;0.020348
7938.000000;0.020116
7937.000000;0.019867
7936.000000;0.019592
7935.000000;0.019317
7934.000000;0.019074
7933.000000;0.018840
7932.000000;0.018554
7931.000000;0.018190
7930.000000;0.017793
7929.000000;0.017423
7928.000000;0.017113
7927.000000;0.016881
7926.000000;0.016723
7925.000000;0.016572
7924.000000;0.016331
7923.000000;0.015968
7922.000000;0.015569
7921.000000;0.015250
7920.000000;0.015047
7919.000000;0.014900
7918.000000;0.014727
7917.000000;0.014480
7916.000000;0.014166
7915.000000;0.013838
7914.000000;0.013550
7913.000000;0.013310
7912.000000;0.013066
7911.000000;0.012767
7910.000000;0.012408
7909.000000;0.012023
7908.000000;0.011657
7907.000000;0.011350
7906.000000;0.011115
7905.000000;0.010917
7904.000000;0.010697
7903.000000;0.010434
7902.000000;0.010162
7901.000000;0.009912
7900.000000;0.009664
7899.000000;0.009380
7898.000000;0.009073
7897.000000;0.008799
7896.000000;0.008592
7895.000000;0.008424
7894.000000;0.008245
7893.000000;0.008033
7892.000000;0.007799
7891.000000;0.007554
7890.000000;0.007282
7889.000000;0.006948
7888.000000;0.006525
7887.000000;0.006040
7886.000000;0.005574
7885.000000;0.005237
7884.000000;0.005089
7883.000000;0.005079
7882.000000;0.005058
7881.000000;0.004909
7880.000000;0.004651
7879.000000;0.004395
7878.000000;0.004184
7877.000000;0.003946
7876.000000;0.003614
7875.000000;0.003227
7874.000000;0.002871
7873.000000;0.002558
7872.000000;0.002243
7871.000000;0.001921
7870.000000;0.001615
7869.000000;0.001295
7868.000000;0.000890
7867.000000;0.000411
7866.000000;-0.000011
7865.000000;-0.000244
7864.000000;-0.000301
7863.000000;-0.000325
7862.000000;-0.000463
7861.000000;-0.000745
7860.000000;-0.001083
7859.000000;-0.001360
7858.000000;-0.001562
7857.000000;-0.001785
7856.000000;-0.002112
7855.000000;-0.002499
7854.000000;-0.002828
7853.000000;-0.003071
7852.000000;-0.003324
7851.000000;-0.003680
7850.000000;-0.004121
7849.000000;-0.004541
7848.000000;-0.004859
7847.000000;-0.005078
7846.000000;-0.005276
7845.000000;-0.005537
7844.000000;-0.005859
7843.000000;-0.006159
7842.000000;-0.006384
7841.000000;-0.006599
7840.000000;-0.006895
7839.000000;-0.007231
7838.000000;-0.007456
7837.000000;-0.007513
7836.000000;-0.007522
7835.000000;-0.007651
7834.000000;-0.007946
7833.000000;-0.008346
7832.000000;-0.008773
7831.000000;-0.009163
7830.000000;-0.009458
7829.000000;-0.009653
7828.000000;-0.009820
7827.000000;-0.010049
7826.000000;-0.010355
7825.000000;-0.010687
7824.000000;-0.010993
7823.000000;-0.011266
7822.000000;-0.011531
7821.000000;-0.011821
7820.000000;-0.012154
7819.000000;-0.012508
7818.000000;-0.012840
7817.000000;-0.013123
7816.000000;-0.013351
7815.000000;-0.013504
7814.000000;-0.013574
7813.000000;-0.013621
7812.000000;-0.013766
7811.000000;-0.014072
7810.000000;-0.014474
7809.000000;-0.014865
7808.000000;-0.015218
7807.000000;-0.015570
7806.000000;-0.015933
7805.000000;-0.016261
7804.000000;-0.016512
7803.000000;-0.016700
7802.000000;-0.016885
7801.000000;-0.017136
7800.000000;-0.017497
7799.000000;-0.017939
7798.000000;-0.018358
7797.000000;-0.018648
7796.000000;-0.018791
7795.000000;-0.018872
7794.000000;-0.018995
7793.000000;-0.019210
7792.000000;-0.019487
7791.000000;-0.019763
7790.000000;-0.020004
7789.000000;-0.020247
7788.000000;-0.020561
7787.000000;-0.020968
7786.000000;-0.021407
7785.000000;-0.021808
7784.000000;-0.022166
7783.000000;-0.022539
7782.000000;-0.022955
7781.000000;-0.023348
7780.000000;-0.023608
7779.000000;-0.023681
7778.000000;-0.023646
7777.000000;-0.023674
7776.000000;-0.023901
7775.000000;-0.024324
7774.000000;-0.024811
7773.000000;-0.025224
7772.000000;-0.025515
7771.000000;-0.025728
7770.000000;-0.025927
7769.000000;-0.026138
7768.000000;-0.026350
7767.000000;-0.026542
7766.000000;-0.026726
7765.000000;-0.026940
7764.000000;-0.027212
7763.000000;-0.027530
7762.000000;-0.027863
7761.000000;-0.028197
7760.000000;-0.028528
7759.000000;-0.028843
7758.000000;-0.029134
7757.000000;-0.029420
7756.000000;-0.029741
7755.000000;-0.030102
7754.000000;-0.030453
7753.000000;-0.030742
7752.000000;-0.030954
7751.000000;-0.031116
7750.000000;-0.031264
7749.000000;-0.031430
7748.000000;-0.031633
7747.000000;-0.031884
7746.000000;-0.032186
7745.000000;-0.032534
7744.000000;-0.032887
7743.000000;-0.033189
7742.000000;-0.033426
7741.000000;-0.033661
7740.000000;-0.033947
7739.000000;-0.034258
7738.000000;-0.034529
7737.000000;-0.034770
7736.000000;-0.035061
7735.000000;-0.035423
7734.000000;-0.035771
7733.000000;-0.036016
7732.000000;-0.036171
7731.000000;-0.036327
7730.000000;-0.036553
7729.000000;-0.036858
7728.000000;-0.037205
7727.000000;-0.037537
7726.000000;-0.037807
7725.000000;-0.038020
7724.000000;-0.038235
7723.000000;-0.038501
7722.000000;-0.038819
7721.000000;-0.039165
7720.000000;-0.039522
7719.000000;-0.039868
7718.000000;-0.040166
7717.000000;-0.040399
7716.000000;-0.040599
7715.000000;-0.040818
7714.000000;-0.041070
7713.000000;-0.041326
7712.000000;-0.041546
7711.000000;-0.041721
7710.000000;-0.041900
7709.000000;-0.042168
7708.000000;-0.042576
7707.000000;-0.043065
7706.000000;-0.043504
7705.000000;-0.043805
7704.000000;-0.044002
7703.000000;-0.044183
7702.000000;-0.044401
7701.000000;-0.044651
7700.000000;-0.044907
7699.000000;-0.045136
7698.000000;-0.045320
7697.000000;-0.045482
7696.000000;-0.045699
7695.000000;-0.046028
7694.000000;-0.046429
7693.000000;-0.046801
7692.000000;-0.047093
7691.000000;-0.047349
7690.000000;-0.047632
7689.000000;-0.047933
7688.000000;-0.048187
7687.000000;-0.048363
7686.000000;-0.048515
7685.000000;-0.048723
7684.000000;-0.049006
7683.000000;-0.049310
7682.000000;-0.049582
7681.000000;-0.049814
7680.000000;-0.050019
7679.000000;-0.050202
7678.000000;-0.050383
7677.000000;-0.050614
7676.000000;-0.050923
7675.000000;-0.051279
7674.000000;-0.051631
7673.000000;-0.051981
7672.000000;-0.052358
7671.000000;-0.052735
7670.000000;-0.053046
7669.000000;-0.053279
7668.000000;-0.053498
7667.000000;-0.053760
7666.000000;-0.054053
7665.000000;-0.054343
7664.000000;-0.054627
7663.000000;-0.054907
7662.000000;-0.055174
7661.000000;-0.055426
7660.000000;-0.055681
7659.000000;-0.055942
7658.000000;-0.056180
7657.000000;-0.056384
7656.000000;-0.056583
7655.000000;-0.056807
7654.000000;-0.057043
7653.000000;-0.057266
7652.000000;-0.057478
7651.000000;-0.057698
7650.000000;-0.057933
7649.000000;-0.058201
7648.000000;-0.058528
7647.000000;-0.058898
7646.000000;-0.059235
7645.000000;-0.059488
7644.000000;-0.059694
7643.000000;-0.059933
7642.000000;-0.060221
7641.000000;-0.060494
7640.000000;-0.060680
7639.000000;-0.060778
7638.000000;-0.060862
7637.000000;-0.061032
7636.000000;-0.061350
7635.000000;-0.061789
7634.000000;-0.062251
7633.000000;-0.062643
7632.000000;-0.062959
7631.000000;-0.063261
7630.000000;-0.063602
7629.000000;-0.063963
7628.000000;-0.064269
7627.000000;-0.064462
7626.000000;-0.064554
7625.000000;-0.064603
7624.000000;-0.064662
7623.000000;-0.064748
7622.000000;-0.064869
7621.000000;-0.065057
7620.000000;-0.065343
7619.000000;-0.065722
7618.000000;-0.066161
7617.000000;-0.066625
7616.000000;-0.067061
7615.000000;-0.067397
7614.000000;-0.067595
7613.000000;-0.067720
7612.000000;-0.067894
7611.000000;-0.068170
7610.000000;-0.068484
7609.000000;-0.068746
7608.000000;-0.068931
7607.000000;-0.069071
7606.000000;-0.069209
7605.000000;-0.069372
7604.000000;-0.069567
7603.000000;-0.069778
7602.000000;-0.069973
7601.000000;-0.070156
7600.000000;-0.070368
7599.000000;-0.070644
7598.000000;-0.070977
7597.000000;-0.071333
7596.000000;-0.071676
7595.000000;-0.071973
7594.000000;-0.072205
7593.000000;-0.072384
7592.000000;-0.072556
7591.000000;-0.072768
7590.000000;-0.073042
7589.000000;-0.073375
7588.000000;-0.073728
7587.000000;-0.074038
7586.000000;-0.074265
7585.000000;-0.074440
7584.000000;-0.074626
7583.000000;-0.074855
7582.000000;-0.075130
7581.000000;-0.075468
7580.000000;-0.075887
7579.000000;-0.076327
7578.000000;-0.076679
7577.000000;-0.076894
7576.000000;-0.077039
7575.000000;-0.077208
7574.000000;-0.077427
7573.000000;-0.077669
7572.000000;-0.077912
7571.000000;-0.078153
7570.000000;-0.078397
7569.000000;-0.078669
7568.000000;-0.078985
7567.000000;-0.079313
7566.000000;-0.079577
7565.000000;-0.079739
7564.000000;-0.079853
7563.000000;-0.080009
7562.000000;-0.080257
7561.000000;-0.080591
7560.000000;-0.080962
7559.000000;-0.081307
7558.000000;-0.081580
7557.000000;-0.081799
7556.000000;-0.082024
7555.000000;-0.082278
7554.000000;-0.082530
7553.000000;-0.082754
7552.000000;-0.082979
7551.000000;-0.083237
7550.000000;-0.083518
7549.000000;-0.083785
7548.000000;-0.084032
7547.000000;-0.084282
7546.000000;-0.084547
7545.000000;-0.084814
7544.000000;-0.085056
7543.000000;-0.085262
7542.000000;-0.085456
7541.000000;-0.085700
7540.000000;-0.086037
7539.000000;-0.086423
7538.000000;-0.086755
7537.000000;-0.086973
7536.000000;-0.087107
7535.000000;-0.087221
7534.000000;-0.087349
7533.000000;-0.087500
7532.000000;-0.087695
7531.000000;-0.087975
7530.000000;-0.088370
7529.000000;-0.088847
7528.000000;-0.089297
7527.000000;-0.089591
7526.000000;-0.089700
7525.000000;-0.089737
7524.000000;-0.089854
7523.000000;-0.090107
7522.000000;-0.090456
7521.000000;-0.090844
7520.000000;-0.091225
7519.000000;-0.091530
7518.000000;-0.091724
7517.000000;-0.091871
7516.000000;-0.092081
7515.000000;-0.092365
7514.000000;-0.092630
7513.000000;-0.092813
7512.000000;-0.092958
7511.000000;-0.093142
7510.000000;-0.093388
7509.000000;-0.093682
7508.000000;-0.093990
7507.000000;-0.094255
7506.000000;-0.094433
7505.000000;-0.094574
7504.000000;-0.094777
7503.000000;-0.095073
7502.000000;-0.095407
7501.000000;-0.095740
7500.000000;-0.096091
7499.000000;-0.096447
7498.000000;-0.096744
7497.000000;-0.097008
7496.000000;-0.097200
7495.000000;-0.097417
7494.000000;-0.097650
7493.000000;-0.097893
7492.000000;-0.098176
7491.000000;-0.098486
7490.000000;-0.098741
7489.000000;-0.098901
7488.000000;-0.099035
7487.000000;-0.099220
7486.000000;-0.099445
7485.000000;-0.099676
7484.000000;-0.099926
7483.000000;-0.100207
7482.000000;-0.100483
7481.000000;-0.100725
7480.000000;-0.100970
7479.000000;-0.101263
7478.000000;-0.101597
7477.000000;-0.101948
7476.000000;-0.102313
7475.000000;-0.102658
7474.000000;-0.102896
7473.000000;-0.102988
7472.000000;-0.103010
7471.000000;-0.103080
7470.000000;-0.103248
7469.000000;-0.103513
7468.000000;-0.103877
7467.000000;-0.104317
7466.000000;-0.104755
7465.000000;-0.105119
7464.000000;-0.105411
7463.000000;-0.105658
7462.000000;-0.105853
7461.000000;-0.105998
7460.000000;-0.106148
7459.000000;-0.106359
7458.000000;-0.106626
7457.000000;-0.106901
7456.000000;-0.107151
7455.000000;-0.107364
7454.000000;-0.107545
7453.000000;-0.107735
7452.000000;-0.107981
7451.000000;-0.108264
7450.000000;-0.108510
7449.000000;-0.108692
7448.000000;-0.108863
7447.000000;-0.109057
7446.000000;-0.109249
7445.000000;-0.109436
7444.000000;-0.109677
7443.000000;-0.109997
7442.000000;-0.110331
7441.000000;-0.110627
7440.000000;-0.110910
7439.000000;-0.111199
7438.000000;-0.111450
7437.000000;-0.111645
7436.000000;-0.111864
7435.000000;-0.112168
7434.000000;-0.112495
7433.000000;-0.112747
7432.000000;-0.112937
7431.000000;-0.113154
7430.000000;-0.113415
7429.000000;-0.113644
7428.000000;-0.113781
7427.000000;-0.113858
7426.000000;-0.113974
7425.000000;-0.114230
7424.000000;-0.114642
7423.000000;-0.115070
7422.000000;-0.115309
7421.000000;-0.115311
7420.000000;-0.115255
7419.000000;-0.115350
7418.000000;-0.115634
7417.000000;-0.116019
7416.000000;-0.116425
7415.000000;-0.116812
7414.000000;-0.117149
7413.000000;-0.117424
7412.000000;-0.117653
7411.000000;-0.117854
7410.000000;-0.118057
7409.000000;-0.118323
7408.000000;-0.118668
7407.000000;-0.118992
7406.000000;-0.119192
7405.000000;-0.119340
7404.000000;-0.119602
7403.000000;-0.119992
7402.000000;-0.120347
7401.000000;-0.120533
7400.000000;-0.120561
7399.000000;-0.120544
7398.000000;-0.120618
7397.000000;-0.120857
7396.000000;-0.121182
7395.000000;-0.121443
7394.000000;-0.121683
7393.000000;-0.122149
7392.000000;-0.122909
7391.000000;-0.123644
7390.000000;-0.124005
7389.000000;-0.124052
7388.000000;-0.124066
7387.000000;-0.124097
7386.000000;-0.124025
7385.000000;-0.123983
7384.000000;-0.124207
7383.000000;-0.124482
7382.000000;-0.124307
7381.000000;-0.123804
7380.000000;-0.123830
7379.000000;-0.124775
7378.000000;-0.125796
7377.000000;-0.125855
7376.000000;-0.125075
7375.000000;-0.124540
7374.000000;-0.124959
7373.000000;-0.126053
7372.000000;-0.127118
7371.000000;-0.127670
7370.000000;-0.127634
7369.000000;-0.127352
7368.000000;-0.127367
7367.000000;-0.127870
7366.000000;-0.128483
7365.000000;-0.128839
7364.000000;-0.129064
7363.000000;-0.129354
7362.000000;-0.129505
7361.000000;-0.129387
7360.000000;-0.129497
7359.000000;-0.130232
7358.000000;-0.130982
7357.000000;-0.130836
7356.000000;-0.129970
7355.000000;-0.129503
7354.000000;-0.130008
7353.000000;-0.131010
7352.000000;-0.131875
7351.000000;-0.132326
7350.000000;-0.132177
7349.000000;-0.131520
7348.000000;-0.131121
7347.000000;-0.131660
7346.000000;-0.132636
7345.000000;-0.132981
7344.000000;-0.132622
7343.000000;-0.132283
7342.000000;-0.131939
7341.000000;-0.130886
7340.000000;-0.129556
7339.000000;-0.129680
7338.000000;-0.131849
7337.000000;-0.134444
7336.000000;-0.135771
7335.000000;-0.135909
7334.000000;-0.135833
7333.000000;-0.135972
7332.000000;-0.136345
7331.000000;-0.136941
7330.000000;-0.137209
7329.000000;-0.136346
7328.000000;-0.134837
7327.000000;-0.134507
7326.000000;-0.136098
7325.000000;-0.138016
7324.000000;-0.138577
7323.000000;-0.138227
7322.000000;-0.138464
7321.000000;-0.139499
7320.000000;-0.140266
7319.000000;-0.140234
7318.000000;-0.139860
7317.000000;-0.139565
7316.000000;-0.139477
7315.000000;-0.139840
7314.000000;-0.140569
7313.000000;-0.140771
7312.000000;-0.139896
7311.000000;-0.138974
7310.000000;-0.139359
7309.000000;-0.140621
7308.000000;-0.141162
7307.000000;-0.140668
7306.000000;-0.140512
7305.000000;-0.141570
7304.000000;-0.143058
7303.000000;-0.143996
7302.000000;-0.144373
7301.000000;-0.144442
7300.000000;-0.144125
7299.000000;-0.143726
7298.000000;-0.144088
7297.000000;-0.145183
7296.000000;-0.145698
7295.000000;-0.144835
7294.000000;-0.143653
7293.000000;-0.143707
7292.000000;-0.144904
7291.000000;-0.145821
7290.000000;-0.145663
7289.000000;-0.144918
7288.000000;-0.144439
7287.000000;-0.144610
7286.000000;-0.145366
7285.000000;-0.146402
7284.000000;-0.147245
7283.000000;-0.147580
7282.000000;-0.147574
7281.000000;-0.147635
7280.000000;-0.147897
7279.000000;-0.148183
7278.000000;-0.148394
7277.000000;-0.148577
7276.000000;-0.148691
7275.000000;-0.148611
7274.000000;-0.148371
7273.000000;-0.148213
7272.000000;-0.148349
7271.000000;-0.148750
7270.000000;-0.149192
7269.000000;-0.149448
7268.000000;-0.149489
7267.000000;-0.149551
7266.000000;-0.149845
7265.000000;-0.150176
7264.000000;-0.150081
7263.000000;-0.149474
7262.000000;-0.148927
7261.000000;-0.149055
7260.000000;-0.149787
7259.000000;-0.150544
7258.000000;-0.150984
7257.000000;-0.151202
7256.000000;-0.151252
7255.000000;-0.150960
7254.000000;-0.150336
7253.000000;-0.149817
7252.000000;-0.149902
7251.000000;-0.150623
7250.000000;-0.151445
7249.000000;-0.151790
7248.000000;-0.151656
7247.000000;-0.151586
7246.000000;-0.151780
7245.000000;-0.151566
7244.000000;-0.150238
7243.000000;-0.148335
7242.000000;-0.147463
7241.000000;-0.148483
7240.000000;-0.150431
7239.000000;-0.151743
7238.000000;-0.152043
7237.000000;-0.152175
7236.000000;-0.152712
7235.000000;-0.153056
7234.000000;-0.152261
7233.000000;-0.150426
7232.000000;-0.149015
7231.000000;-0.149518
7230.000000;-0.151770
7229.000000;-0.154028
7228.000000;-0.154808
7227.000000;-0.154280
7226.000000;-0.153741
7225.000000;-0.154140
7224.000000;-0.155335
7223.000000;-0.156514
7222.000000;-0.157007
7221.000000;-0.156756
7220.000000;-0.156312
7219.000000;-0.156379
7218.000000;-0.157162
7217.000000;-0.158182
7216.000000;-0.158826
7215.000000;-0.159013
7214.000000;-0.159166
7213.000000;-0.159560
7212.000000;-0.159993
7211.000000;-0.160211
7210.000000;-0.160329
7209.000000;-0.160574
7208.000000;-0.160832
7207.000000;-0.160735
7206.000000;-0.160133
7205.000000;-0.159342
7204.000000;-0.158940
7203.000000;-0.159314
7202.000000;-0.160340
7201.000000;-0.161496
7200.000000;-0.162345
7199.000000;-0.162906
7198.000000;-0.163449
7197.000000;-0.163987
7196.000000;-0.164230
7195.000000;-0.164129
7194.000000;-0.164136
7193.000000;-0.164619
7192.000000;-0.165322
7191.000000;-0.165763
7190.000000;-0.165932
7189.000000;-0.166142
7188.000000;-0.166388
7187.000000;-0.166467
7186.000000;-0.166570
7185.000000;-0.167101
7184.000000;-0.167844
7183.000000;-0.168033
7182.000000;-0.167482
7181.000000;-0.167021
7180.000000;-0.167425
7179.000000;-0.168389
7178.000000;-0.169095
7177.000000;-0.169318
7176.000000;-0.169424
7175.000000;-0.169666
7174.000000;-0.170003
7173.000000;-0.170387
7172.000000;-0.170742
7171.000000;-0.170746
7170.000000;-0.170201
7169.000000;-0.169457
7168.000000;-0.169065
7167.000000;-0.169195
7166.000000;-0.169766
7165.000000;-0.170815
7164.000000;-0.172166
7163.000000;-0.173119
7162.000000;-0.173156
7161.000000;-0.172774
7160.000000;-0.172994
7159.000000;-0.173975
7158.000000;-0.174834
7157.000000;-0.174986
7156.000000;-0.174869
7155.000000;-0.175129
7154.000000;-0.175735
7153.000000;-0.176226
7152.000000;-0.176417
7151.000000;-0.176500
7150.000000;-0.176716
7149.000000;-0.177130
7148.000000;-0.177615
7147.000000;-0.177904
7146.000000;-0.177764
7145.000000;-0.177321
7144.000000;-0.177093
7143.000000;-0.177423
7142.000000;-0.177934
7141.000000;-0.177938
7140.000000;-0.177430
7139.000000;-0.177254
7138.000000;-0.178018
7137.000000;-0.179238
7136.000000;-0.179986
7135.000000;-0.180089
7134.000000;-0.180201
7133.000000;-0.180795
7132.000000;-0.181604
7131.000000;-0.182176
7130.000000;-0.182504
7129.000000;-0.182816
7128.000000;-0.183101
7127.000000;-0.183238
7126.000000;-0.183337
7125.000000;-0.183531
7124.000000;-0.183649
7123.000000;-0.183550
7122.000000;-0.183573
7121.000000;-0.184138
7120.000000;-0.184948
7119.000000;-0.185207
7118.000000;-0.184764
7117.000000;-0.184483
7116.000000;-0.185088
7115.000000;-0.186139
7114.000000;-0.186713
7113.000000;-0.186647
7112.000000;-0.186554
7111.000000;-0.186844
7110.000000;-0.187297
7109.000000;-0.187583
7108.000000;-0.187668
7107.000000;-0.187657
7106.000000;-0.187663
7105.000000;-0.187886
7104.000000;-0.188483
7103.000000;-0.189273
7102.000000;-0.189841
7101.000000;-0.190011
7100.000000;-0.190069
7099.000000;-0.190407
7098.000000;-0.191020
7097.000000;-0.191532
7096.000000;-0.191704
7095.000000;-0.191722
7094.000000;-0.191919
7093.000000;-0.192349
7092.000000;-0.192774
7091.000000;-0.193013
7090.000000;-0.193161
7089.000000;-0.193430
7088.000000;-0.193850
7087.000000;-0.194230
7086.000000;-0.194427
7085.000000;-0.194543
7084.000000;-0.194778
7083.000000;-0.195162
7082.000000;-0.195541
7081.000000;-0.195818
7080.000000;-0.196097
7079.000000;-0.196492
7078.000000;-0.196881
7077.000000;-0.197050
7076.000000;-0.197050
7075.000000;-0.197170
7074.000000;-0.197534
7073.000000;-0.197941
7072.000000;-0.198171
7071.000000;-0.198278
7070.000000;-0.198454
7069.000000;-0.198758
7068.000000;-0.199099
7067.000000;-0.199419
7066.000000;-0.199738
7065.000000;-0.200066
7064.000000;-0.200379
7063.000000;-0.200702
7062.000000;-0.201093
7061.000000;-0.201522
7060.000000;-0.201883
7059.000000;-0.202153
7058.000000;-0.202411
7057.000000;-0.202705
7056.000000;-0.202992
7055.000000;-0.203228
7054.000000;-0.203439
7053.000000;-0.203714
7052.000000;-0.204123
7051.000000;-0.204621
7050.000000;-0.205040
7049.000000;-0.205211
7048.000000;-0.205156
7047.000000;-0.205107
7046.000000;-0.205280
7045.000000;-0.205647
7044.000000;-0.206033
7043.000000;-0.206366
7042.000000;-0.206715
7041.000000;-0.207101
7040.000000;-0.207435
7039.000000;-0.207695
7038.000000;-0.207989
7037.000000;-0.208390
7036.000000;-0.208813
7035.000000;-0.209140
7034.000000;-0.209375
7033.000000;-0.209601
7032.000000;-0.209860
7031.000000;-0.210145
7030.000000;-0.210449
7029.000000;-0.210756
7028.000000;-0.211029
7027.000000;-0.211270
7026.000000;-0.211530
7025.000000;-0.211822
7024.000000;-0.212077
7023.000000;-0.212267
7022.000000;-0.212496
7021.000000;-0.212879
7020.000000;-0.213368
7019.000000;-0.213802
7018.000000;-0.214099
7017.000000;-0.214312
7016.000000;-0.214523
7015.000000;-0.214764
7014.000000;-0.215050
7013.000000;-0.215395
7012.000000;-0.215778
7011.000000;-0.216151
7010.000000;-0.216485
7009.000000;-0.216772
7008.000000;-0.216995
7007.000000;-0.217167
7006.000000;-0.217355
7005.000000;-0.217614
7004.000000;-0.217923
7003.000000;-0.218228
7002.000000;-0.218534
7001.000000;-0.218881
7000.000000;-0.219249
6999.000000;-0.219574
6998.000000;-0.219852
6997.000000;-0.220139
6996.000000;-0.220448
6995.000000;-0.220735
6994.000000;-0.220993
6993.000000;-0.221284
6992.000000;-0.221643
6991.000000;-0.222013
6990.000000;-0.222316
6989.000000;-0.222541
6988.000000;-0.222725
6987.000000;-0.222913
6986.000000;-0.223167
6985.000000;-0.223544
6984.000000;-0.223997
6983.000000;-0.224378
6982.000000;-0.224598
6981.000000;-0.224752
6980.000000;-0.225014
6979.000000;-0.225431
6978.000000;-0.225878
6977.000000;-0.226229
6976.000000;-0.226497
6975.000000;-0.226765
6974.000000;-0.227041
6973.000000;-0.227275
6972.000000;-0.227491
6971.000000;-0.227797
6970.000000;-0.228230
6969.000000;-0.228679
6968.000000;-0.229003
6967.000000;-0.229209
6966.000000;-0.229417
6965.000000;-0.229704
6964.000000;-0.230027
6963.000000;-0.230319
6962.000000;-0.230577
6961.000000;-0.230821
6960.000000;-0.231063
6959.000000;-0.231324
6958.000000;-0.231626
6957.000000;-0.231941
6956.000000;-0.232218
6955.000000;-0.232475
6954.000000;-0.232792
6953.000000;-0.233199
6952.000000;-0.233620
6951.000000;-0.233988
6950.000000;-0.234319
6949.000000;-0.234649
6948.000000;-0.234960
6947.000000;-0.235231
6946.000000;-0.235510
6945.000000;-0.235841
6944.000000;-0.236162
6943.000000;-0.236385
6942.000000;-0.236527
6941.000000;-0.236688
6940.000000;-0.236896
6939.000000;-0.237096
6938.000000;-0.237284
6937.000000;-0.237550
6936.000000;-0.237955
6935.000000;-0.238438
6934.000000;-0.238894
6933.000000;-0.239265
6932.000000;-0.239547
6931.000000;-0.239768
6930.000000;-0.239990
6929.000000;-0.240277
6928.000000;-0.240638
6927.000000;-0.241001
6926.000000;-0.241302
6925.000000;-0.241551
6924.000000;-0.241788
6923.000000;-0.242023
6922.000000;-0.242262
6921.000000;-0.242530
6920.000000;-0.242818
6919.000000;-0.243053
6918.000000;-0.243208
6917.000000;-0.243380
6916.000000;-0.243704
6915.000000;-0.244187
6914.000000;-0.244693
6913.000000;-0.245084
6912.000000;-0.245357
6911.000000;-0.245605
6910.000000;-0.245894
6909.000000;-0.246206
6908.000000;-0.246488
6907.000000;-0.246733
6906.000000;-0.246986
6905.000000;-0.247296
6904.000000;-0.247653
6903.000000;-0.248005
6902.000000;-0.248320
6901.000000;-0.248609
6900.000000;-0.248889
6899.000000;-0.249164
6898.000000;-0.249441
6897.000000;-0.249715
6896.000000;-0.249955
6895.000000;-0.250143
6894.000000;-0.250325
6893.000000;-0.250584
6892.000000;-0.250942
6891.000000;-0.251332
6890.000000;-0.251688
6889.000000;-0.252004
6888.000000;-0.252310
6887.000000;-0.252631
6886.000000;-0.252980
6885.000000;-0.253360
6884.000000;-0.253736
6883.000000;-0.254052
6882.000000;-0.254296
6881.000000;-0.254521
6880.000000;-0.254779
6879.000000;-0.255072
6878.000000;-0.255367
6877.000000;-0.255658
6876.000000;-0.255962
6875.000000;-0.256275
6874.000000;-0.256563
6873.000000;-0.256802
6872.000000;-0.257026
6871.000000;-0.257298
6870.000000;-0.257645
6869.000000;-0.258021
6868.000000;-0.258353
6867.000000;-0.258623
6866.000000;-0.258881
6865.000000;-0.259180
6864.000000;-0.259508
6863.000000;-0.259813
6862.000000;-0.260065
6861.000000;-0.260290
6860.000000;-0.260541
6859.000000;-0.260854
6858.000000;-0.261221
6857.000000;-0.261599
6856.000000;-0.261949
6855.000000;-0.262265
6854.000000;-0.262566
6853.000000;-0.262868
6852.000000;-0.263166
6851.000000;-0.263439
6850.000000;-0.263672
6849.000000;-0.263871
6848.000000;-0.264069
6847.000000;-0.264318
6846.000000;-0.264644
6845.000000;-0.265021
6844.000000;-0.265396
6843.000000;-0.265734
6842.000000;-0.266047
6841.000000;-0.266348
6840.000000;-0.266625
6839.000000;-0.266874
6838.000000;-0.267123
6837.000000;-0.267391
6836.000000;-0.267659
6835.000000;-0.267912
6834.000000;-0.268195
6833.000000;-0.268552
6832.000000;-0.268941
6831.000000;-0.269257
6830.000000;-0.269465
6829.000000;-0.269644
6828.000000;-0.269881
6827.000000;-0.270177
6826.000000;-0.270491
6825.000000;-0.270821
6824.000000;-0.271183
6823.000000;-0.271538
6822.000000;-0.271820
6821.000000;-0.272023
6820.000000;-0.272213
6819.000000;-0.272451
6818.000000;-0.272742
6817.000000;-0.273070
6816.000000;-0.273435
6815.000000;-0.273835
6814.000000;-0.274238
6813.000000;-0.274605
6812.000000;-0.274915
6811.000000;-0.275171
6810.000000;-0.275380
6809.000000;-0.275575
6808.000000;-0.275796
6807.000000;-0.276060
6806.000000;-0.276341
6805.000000;-0.276620
6804.000000;-0.276913
6803.000000;-0.277244
6802.000000;-0.277584
6801.000000;-0.277879
6800.000000;-0.278122
6799.000000;-0.278367
6798.000000;-0.278651
6797.000000;-0.278954
6796.000000;-0.279244
6795.000000;-0.279521
6794.000000;-0.279795
6793.000000;-0.280055
6792.000000;-0.280287
6791.000000;-0.280524
6790.000000;-0.280813
6789.000000;-0.281153
6788.000000;-0.281492
6787.000000;-0.281803
6786.000000;-0.282115
6785.000000;-0.282458
6784.000000;-0.282812
6783.000000;-0.283125
6782.000000;-0.283372
6781.000000;-0.283571
6780.000000;-0.283763
6779.000000;-0.283979
6778.000000;-0.284232
6777.000000;-0.284519
6776.000000;-0.284838
6775.000000;-0.285196
6774.000000;-0.285581
6773.000000;-0.285934
6772.000000;-0.286202
6771.000000;-0.286411
6770.000000;-0.286655
6769.000000;-0.286972
6768.000000;-0.287298
6767.000000;-0.287567
6766.000000;-0.287810
6765.000000;-0.288102
6764.000000;-0.288448
6763.000000;-0.288776
6762.000000;-0.289042
6761.000000;-0.289277
6760.000000;-0.289527
6759.000000;-0.289803
6758.000000;-0.290090
6757.000000;-0.290379
6756.000000;-0.290660
6755.000000;-0.290933
6754.000000;-0.291224
6753.000000;-0.291570
6752.000000;-0.291965
6751.000000;-0.292354
6750.000000;-0.292685
6749.000000;-0.292953
6748.000000;-0.293185
6747.000000;-0.293411
6746.000000;-0.293647
6745.000000;-0.293899
6744.000000;-0.294169
6743.000000;-0.294464
6742.000000;-0.294780
6741.000000;-0.295097
6740.000000;-0.295378
6739.000000;-0.295603
6738.000000;-0.295796
6737.000000;-0.296013
6736.000000;-0.296302
6735.000000;-0.296670
6734.000000;-0.297084
6733.000000;-0.297494
6732.000000;-0.297847
6731.000000;-0.298120
6730.000000;-0.298318
6729.000000;-0.298459
6728.000000;-0.298561
6727.000000;-0.298663
6726.000000;-0.298824
6725.000000;-0.299082
6724.000000;-0.299417
6723.000000;-0.299780
6722.000000;-0.300137
6721.000000;-0.300480
6720.000000;-0.300806
6719.000000;-0.301115
6718.000000;-0.301423
6717.000000;-0.301739
6716.000000;-0.302041
6715.000000;-0.302299
6714.000000;-0.302532
6713.000000;-0.302786
6712.000000;-0.303107
6711.000000;-0.303457
6710.000000;-0.303764
6709.000000;-0.303998
6708.000000;-0.304170
6707.000000;-0.304318
6706.000000;-0.304513
6705.000000;-0.304810
6704.000000;-0.305175
6703.000000;-0.305439
6702.000000;-0.305791
6701.000000;-0.306133
6700.000000;-0.306474
6699.000000;-0.306800
6698.000000;-0.307096
6697.000000;-0.307358
6696.000000;-0.307593
6695.000000;-0.307817
6694.000000;-0.308052
6693.000000;-0.308307
6692.000000;-0.308561
6691.000000;-0.308781
6690.000000;-0.308965
6689.000000;-0.309151
6688.000000;-0.309380
6687.000000;-0.309669
6686.000000;-0.310009
6685.000000;-0.310366
6684.000000;-0.310691
6683.000000;-0.310957
6682.000000;-0.311193
6681.000000;-0.311449
6680.000000;-0.311743
6679.000000;-0.312055
6678.000000;-0.312377
6677.000000;-0.312723
6676.000000;-0.313078
6675.000000;-0.313393
6674.000000;-0.313635
6673.000000;-0.313829
6672.000000;-0.314028
6671.000000;-0.314266
6670.000000;-0.314543
6669.000000;-0.314840
6668.000000;-0.315131
6667.000000;-0.315398
6666.000000;-0.315638
6665.000000;-0.315864
6664.000000;-0.316080
6663.000000;-0.316292
6662.000000;-0.316520
6661.000000;-0.316780
6660.000000;-0.317060
6659.000000;-0.317327
6658.000000;-0.317574
6657.000000;-0.317834
6656.000000;-0.318134
6655.000000;-0.318474
6654.000000;-0.318836
6653.000000;-0.319197
6652.000000;-0.319521
6651.000000;-0.319775
6650.000000;-0.319972
6649.000000;-0.320178
6648.000000;-0.320447
6647.000000;-0.320765
6646.000000;-0.321078
6645.000000;-0.321355
6644.000000;-0.321604
6643.000000;-0.321846
6642.000000;-0.322092
6641.000000;-0.322354
6640.000000;-0.322645
6639.000000;-0.322960
6638.000000;-0.323275
6637.000000;-0.323561
6636.000000;-0.323798
6635.000000;-0.323990
6634.000000;-0.324169
6633.000000;-0.324376
6632.000000;-0.324637
6631.000000;-0.324951
6630.000000;-0.325299
6629.000000;-0.325659
6628.000000;-0.326006
6627.000000;-0.326318
6626.000000;-0.326584
6625.000000;-0.326810
6624.000000;-0.327007
6623.000000;-0.327194
6622.000000;-0.327397
6621.000000;-0.327646
6620.000000;-0.327940
6619.000000;-0.328252
6618.000000;-0.328551
6617.000000;-0.328827
6616.000000;-0.329076
6615.000000;-0.329295
6614.000000;-0.329494
6613.000000;-0.329700
6612.000000;-0.329944
6611.000000;-0.330234
6610.000000;-0.330555
6609.000000;-0.330885
6608.000000;-0.331196
6607.000000;-0.331460
6606.000000;-0.331675
6605.000000;-0.331873
6604.000000;-0.332091
6603.000000;-0.332339
6602.000000;-0.332605
6601.000000;-0.332883
6600.000000;-0.333172
6599.000000;-0.333466
6598.000000;-0.333745
6597.000000;-0.333997
6596.000000;-0.334231
6595.000000;-0.334470
6594.000000;-0.334735
6593.000000;-0.335028
6592.000000;-0.335331
6591.000000;-0.335616
6590.000000;-0.335868
6589.000000;-0.336098
6588.000000;-0.336348
6587.000000;-0.336655
6586.000000;-0.337015
6585.000000;-0.337380
6584.000000;-0.337708
6583.000000;-0.337996
6582.000000;-0.338275
6581.000000;-0.338562
6580.000000;-0.338839
6579.000000;-0.339086
6578.000000;-0.339306
6577.000000;-0.339525
6576.000000;-0.339750
6575.000000;-0.339968
6574.000000;-0.340174
6573.000000;-0.340389
6572.000000;-0.340644
6571.000000;-0.340946
6570.000000;-0.341275
6569.000000;-0.341602
6568.000000;-0.341904
6567.000000;-0.342166
6566.000000;-0.342387
6565.000000;-0.342591
6564.000000;-0.342806
6563.000000;-0.343047
6562.000000;-0.343304
6561.000000;-0.343553
6560.000000;-0.343787
6559.000000;-0.344021
6558.000000;-0.344275
6557.000000;-0.344549
6556.000000;-0.344835
6555.000000;-0.345126
6554.000000;-0.345418
6553.000000;-0.345698
6552.000000;-0.345955
6551.000000;-0.346196
6550.000000;-0.346434
6549.000000;-0.346676
6548.000000;-0.346927
6547.000000;-0.347199
6546.000000;-0.347499
6545.000000;-0.347800
6544.000000;-0.348062
6543.000000;-0.348280
6542.000000;-0.348500
6541.000000;-0.348760
6540.000000;-0.349053
6539.000000;-0.349343
6538.000000;-0.349612
6537.000000;-0.349866
6536.000000;-0.350117
6535.000000;-0.350375
6534.000000;-0.350646
6533.000000;-0.350924
6532.000000;-0.351189
6531.000000;-0.351435
6530.000000;-0.351678
6529.000000;-0.351936
6528.000000;-0.352211
6527.000000;-0.352491
6526.000000;-0.352771
6525.000000;-0.353047
6524.000000;-0.353313
6523.000000;-0.353568
6522.000000;-0.353821
6521.000000;-0.354079
6520.000000;-0.354328
6519.000000;-0.354558
6518.000000;-0.354774
6517.000000;-0.354991
6516.000000;-0.355212
6515.000000;-0.355442
6514.000000;-0.355688
6513.000000;-0.355953
6512.000000;-0.356217
6511.000000;-0.356460
6510.000000;-0.356680
6509.000000;-0.356894
6508.000000;-0.357111
6507.000000;-0.357343
6506.000000;-0.357602
6505.000000;-0.357889
6504.000000;-0.358180
6503.000000;-0.358450
6502.000000;-0.358697
6501.000000;-0.358926
6500.000000;-0.359143
6499.000000;-0.359365
6498.000000;-0.359628
6497.000000;-0.359960
6496.000000;-0.360329
6495.000000;-0.360662
6494.000000;-0.360910
6493.000000;-0.361082
6492.000000;-0.361234
6491.000000;-0.361423
6490.000000;-0.361674
6489.000000;-0.361967
6488.000000;-0.362266
6487.000000;-0.362546
6486.000000;-0.362808
6485.000000;-0.363050
6484.000000;-0.363269
6483.000000;-0.363479
6482.000000;-0.363718
6481.000000;-0.363992
6480.000000;-0.364262
6479.000000;-0.364486
6478.000000;-0.364681
6477.000000;-0.364901
6476.000000;-0.365172
6475.000000;-0.365476
6474.000000;-0.365784
6473.000000;-0.366082
6472.000000;-0.366361
6471.000000;-0.366618
6470.000000;-0.366855
6469.000000;-0.367078
6468.000000;-0.367286
6467.000000;-0.367492
6466.000000;-0.367726
6465.000000;-0.368013
6464.000000;-0.368332
6463.000000;-0.368642
6462.000000;-0.368912
6461.000000;-0.369136
6460.000000;-0.369309
6459.000000;-0.369445
6458.000000;-0.369581
6457.000000;-0.369759
6456.000000;-0.369985
6455.000000;-0.370238
6454.000000;-0.370508
6453.000000;-0.370805
6452.000000;-0.371124
6451.000000;-0.371441
6450.000000;-0.371739
6449.000000;-0.372018
6448.000000;-0.372285
6447.000000;-0.372547
6446.000000;-0.372811
6445.000000;-0.373074
6444.000000;-0.373315
6443.000000;-0.373516
6442.000000;-0.373688
6441.000000;-0.373855
6440.000000;-0.374036
6439.000000;-0.374244
6438.000000;-0.374502
6437.000000;-0.374817
6436.000000;-0.375156
6435.000000;-0.375469
6434.000000;-0.375736
6433.000000;-0.375968
6432.000000;-0.376163
6431.000000;-0.376316
6430.000000;-0.376450
6429.000000;-0.376610
6428.000000;-0.376810
6427.000000;-0.377030
6426.000000;-0.377250
6425.000000;-0.377471
6424.000000;-0.377706
6423.000000;-0.377961
6422.000000;-0.378245
6421.000000;-0.378557
6420.000000;-0.378870
6419.000000;-0.379146
6418.000000;-0.379378
6417.000000;-0.379596
6416.000000;-0.379831
6415.000000;-0.380084
6414.000000;-0.380346
6413.000000;-0.380609
6412.000000;-0.380862
6411.000000;-0.381096
6410.000000;-0.381325
6409.000000;-0.381572
6408.000000;-0.381841
6407.000000;-0.382113
6406.000000;-0.382368
6405.000000;-0.382601
6404.000000;-0.382816
6403.000000;-0.383019
6402.000000;-0.383216
6401.000000;-0.383412
6400.000000;-0.383606
6399.000000;-0.383807
6398.000000;-0.384035
6397.000000;-0.384300
6396.000000;-0.384568
6395.000000;-0.384800
6394.000000;-0.384996
6393.000000;-0.385196
6392.000000;-0.385424
6391.000000;-0.385664
6390.000000;-0.385891
6389.000000;-0.386108
6388.000000;-0.386334
6387.000000;-0.386590
6386.000000;-0.386879
6385.000000;-0.387183
6384.000000;-0.387468
6383.000000;-0.387718
6382.000000;-0.387956
6381.000000;-0.388211
6380.000000;-0.388479
6379.000000;-0.388734
6378.000000;-0.388966
6377.000000;-0.389188
6376.000000;-0.389400
6375.000000;-0.389595
6374.000000;-0.389784
6373.000000;-0.390000
6372.000000;-0.390246
6371.000000;-0.390499
6370.000000;-0.390741
6369.000000;-0.390986
6368.000000;-0.391245
6367.000000;-0.391500
6366.000000;-0.391735
6365.000000;-0.391954
6364.000000;-0.392169
6363.000000;-0.392375
6362.000000;-0.392571
6361.000000;-0.392776
6360.000000;-0.393015
6359.000000;-0.393282
6358.000000;-0.393544
6357.000000;-0.393771
6356.000000;-0.393965
6355.000000;-0.394157
6354.000000;-0.394377
6353.000000;-0.394627
6352.000000;-0.394886
6351.000000;-0.395138
6350.000000;-0.395387
6349.000000;-0.395634
6348.000000;-0.395870
6347.000000;-0.396086
6346.000000;-0.396288
6345.000000;-0.396486
6344.000000;-0.396675
6343.000000;-0.396855
6342.000000;-0.397051
6341.000000;-0.397284
6340.000000;-0.397537
6339.000000;-0.397775
6338.000000;-0.397995
6337.000000;-0.398226
6336.000000;-0.398478
6335.000000;-0.398727
6334.000000;-0.398958
6333.000000;-0.399180
6332.000000;-0.399410
6331.000000;-0.399648
6330.000000;-0.399886
6329.000000;-0.400122
6328.000000;-0.400353
6327.000000;-0.400570
6326.000000;-0.400776
6325.000000;-0.400984
6324.000000;-0.401205
6323.000000;-0.401438
6322.000000;-0.401678
6321.000000;-0.401915
6320.000000;-0.402134
6319.000000;-0.402335
6318.000000;-0.402546
6317.000000;-0.402790
6316.000000;-0.403048
6315.000000;-0.403281
6314.000000;-0.403481
6313.000000;-0.403679
6312.000000;-0.403895
6311.000000;-0.404117
6310.000000;-0.404330
6309.000000;-0.404541
6308.000000;-0.404770
6307.000000;-0.405016
6306.000000;-0.405268
6305.000000;-0.405506
6304.000000;-0.405722
6303.000000;-0.405923
6302.000000;-0.406139
6301.000000;-0.406382
6300.000000;-0.406633
6299.000000;-0.406858
6298.000000;-0.407053
6297.000000;-0.407240
6296.000000;-0.407434
6295.000000;-0.407632
6294.000000;-0.407841
6293.000000;-0.408084
6292.000000;-0.408365
6291.000000;-0.408664
6290.000000;-0.408955
6289.000000;-0.409224
6288.000000;-0.409463
6287.000000;-0.409672
6286.000000;-0.409867
6285.000000;-0.410065
6284.000000;-0.410265
6283.000000;-0.410459
6282.000000;-0.410658
6281.000000;-0.410885
6280.000000;-0.411132
6279.000000;-0.411366
6278.000000;-0.411568
6277.000000;-0.411759
6276.000000;-0.411971
6275.000000;-0.412212
6274.000000;-0.412477
6273.000000;-0.412753
6272.000000;-0.413018
6271.000000;-0.413242
6270.000000;-0.413421
6269.000000;-0.413580
6268.000000;-0.413749
6267.000000;-0.413935
6266.000000;-0.414132
6265.000000;-0.414335
6264.000000;-0.414537
6263.000000;-0.414723
6262.000000;-0.414899
6261.000000;-0.415092
6260.000000;-0.415332
6259.000000;-0.415614
6258.000000;-0.415907
6257.000000;-0.416177
6256.000000;-0.416403
6255.000000;-0.416590
6254.000000;-0.416763
6253.000000;-0.416950
6252.000000;-0.417159
6251.000000;-0.417381
6250.000000;-0.417612
6249.000000;-0.417860
6248.000000;-0.418125
6247.000000;-0.418394
6246.000000;-0.418648
6245.000000;-0.418872
6244.000000;-0.419063
6243.000000;-0.419236
6242.000000;-0.419422
6241.000000;-0.419644
6240.000000;-0.419889
6239.000000;-0.420122
6238.000000;-0.420328
6237.000000;-0.420531
6236.000000;-0.420757
6235.000000;-0.421007
6234.000000;-0.421255
6233.000000;-0.421476
6232.000000;-0.421656
6231.000000;-0.421808
6230.000000;-0.421967
6229.000000;-0.422163
6228.000000;-0.422393
6227.000000;-0.422637
6226.000000;-0.422886
6225.000000;-0.423146
6224.000000;-0.423415
6223.000000;-0.423674
6222.000000;-0.423908
6221.000000;-0.424115
6220.000000;-0.424299
6219.000000;-0.424470
6218.000000;-0.424651
6217.000000;-0.424857
6216.000000;-0.425075
6215.000000;-0.425273
6214.000000;-0.425443
6213.000000;-0.425613
6212.000000;-0.425821
6211.000000;-0.426085
6210.000000;-0.426391
6209.000000;-0.426698
6208.000000;-0.426959
6207.000000;-0.427156
6206.000000;-0.427315
6205.000000;-0.427471
6204.000000;-0.427635
6203.000000;-0.427806
6202.000000;-0.427997
6201.000000;-0.428224
6200.000000;-0.428473
6199.000000;-0.428706
6198.000000;-0.428906
6197.000000;-0.429094
6196.000000;-0.429296
6195.000000;-0.429517
6194.000000;-0.429752
6193.000000;-0.429990
6192.000000;-0.430218
6191.000000;-0.430423
6190.000000;-0.430620
6189.000000;-0.430842
6188.000000;-0.431100
6187.000000;-0.431365
6186.000000;-0.431602
6185.000000;-0.431801
6184.000000;-0.431987
6183.000000;-0.432185
6182.000000;-0.432409
6181.000000;-0.432647
6180.000000;-0.432876
6179.000000;-0.433080
6178.000000;-0.433271
6177.000000;-0.433466
6176.000000;-0.433663
6175.000000;-0.433839
6174.000000;-0.433990
6173.000000;-0.434141
6172.000000;-0.434321
6171.000000;-0.434532
6170.000000;-0.434748
6169.000000;-0.434951
6168.000000;-0.435148
6167.000000;-0.435366
6166.000000;-0.435628
6165.000000;-0.435924
6164.000000;-0.436224
6163.000000;-0.436507
6162.000000;-0.436774
6161.000000;-0.437027
6160.000000;-0.437260
6159.000000;-0.437476
6158.000000;-0.437694
6157.000000;-0.437924
6156.000000;-0.438152
6155.000000;-0.438363
6154.000000;-0.438562
6153.000000;-0.438764
6152.000000;-0.438965
6151.000000;-0.439160
6150.000000;-0.439364
6149.000000;-0.439585
6148.000000;-0.439804
6147.000000;-0.439995
6146.000000;-0.440167
6145.000000;-0.440347
6144.000000;-0.440545
6143.000000;-0.440753
6142.000000;-0.440968
6141.000000;-0.441192
6140.000000;-0.441414
6139.000000;-0.441613
6138.000000;-0.441794
6137.000000;-0.441982
6136.000000;-0.442191
6135.000000;-0.442414
6134.000000;-0.442644
6133.000000;-0.442879
6132.000000;-0.443112
6131.000000;-0.443336
6130.000000;-0.443555
6129.000000;-0.443769
6128.000000;-0.443957
6127.000000;-0.444114
6126.000000;-0.444275
6125.000000;-0.444484
6124.000000;-0.444739
6123.000000;-0.444992
6122.000000;-0.445209
6121.000000;-0.445393
6120.000000;-0.445564
6119.000000;-0.445741
6118.000000;-0.445944
6117.000000;-0.446185
6116.000000;-0.446437
6115.000000;-0.446661
6114.000000;-0.446845
6113.000000;-0.447010
6112.000000;-0.447173
6111.000000;-0.447343
6110.000000;-0.447530
6109.000000;-0.447742
6108.000000;-0.447956
6107.000000;-0.448134
6106.000000;-0.448269
6105.000000;-0.448398
6104.000000;-0.448566
6103.000000;-0.448788
6102.000000;-0.449065
6101.000000;-0.449378
6100.000000;-0.449686
6099.000000;-0.449942
6098.000000;-0.450144
6097.000000;-0.450331
6096.000000;-0.450540
6095.000000;-0.450780
6094.000000;-0.451043
6093.000000;-0.451314
6092.000000;-0.451570
6091.000000;-0.451794
6090.000000;-0.451997
6089.000000;-0.452203
6088.000000;-0.452406
6087.000000;-0.452583
6086.000000;-0.452741
6085.000000;-0.452916
6084.000000;-0.453117
6083.000000;-0.453313
6082.000000;-0.453479
6081.000000;-0.453628
6080.000000;-0.453786
6079.000000;-0.453960
6078.000000;-0.454151
6077.000000;-0.454364
6076.000000;-0.454595
6075.000000;-0.454816
6074.000000;-0.455005
6073.000000;-0.455170
6072.000000;-0.455343
6071.000000;-0.455550
6070.000000;-0.455799
6069.000000;-0.456063
6068.000000;-0.456298
6067.000000;-0.456479
6066.000000;-0.456627
6065.000000;-0.456788
6064.000000;-0.456979
6063.000000;-0.457188
6062.000000;-0.457407
6061.000000;-0.457643
6060.000000;-0.457883
6059.000000;-0.458098
6058.000000;-0.458283
6057.000000;-0.458466
6056.000000;-0.458674
6055.000000;-0.458903
6054.000000;-0.459139
6053.000000;-0.459379
6052.000000;-0.459612
6051.000000;-0.459818
6050.000000;-0.459992
6049.000000;-0.460159
6048.000000;-0.460354
6047.000000;-0.460586
6046.000000;-0.460837
6045.000000;-0.461076
6044.000000;-0.461279
6043.000000;-0.461453
6042.000000;-0.461642
6041.000000;-0.461886
6040.000000;-0.462174
6039.000000;-0.462445
6038.000000;-0.462649
6037.000000;-0.462798
6036.000000;-0.462935
6035.000000;-0.463093
6034.000000;-0.463284
6033.000000;-0.463500
6032.000000;-0.463726
6031.000000;-0.463937
6030.000000;-0.464124
6029.000000;-0.464293
6028.000000;-0.464452
6027.000000;-0.464614
6026.000000;-0.464796
6025.000000;-0.465014
6024.000000;-0.465258
6023.000000;-0.465494
6022.000000;-0.465693
6021.000000;-0.465853
6020.000000;-0.465995
6019.000000;-0.466150
6018.000000;-0.466337
6017.000000;-0.466550
6016.000000;-0.466766
6015.000000;-0.466963
6014.000000;-0.467143
6013.000000;-0.467316
6012.000000;-0.467480
6011.000000;-0.467631
6010.000000;-0.467790
6009.000000;-0.467989
6008.000000;-0.468238
6007.000000;-0.468515
6006.000000;-0.468791
6005.000000;-0.469041
6004.000000;-0.469253
6003.000000;-0.469436
6002.000000;-0.469624
6001.000000;-0.469835
6000.000000;-0.470055
5999.000000;-0.470255
5998.000000;-0.470436
5997.000000;-0.470621
5996.000000;-0.470817
5995.000000;-0.471008
5994.000000;-0.471192
5993.000000;-0.471391
5992.000000;-0.471621
5991.000000;-0.471870
5990.000000;-0.472119
5989.000000;-0.472345
5988.000000;-0.472530
5987.000000;-0.472682
5986.000000;-0.472837
5985.000000;-0.473032
5984.000000;-0.473258
5983.000000;-0.473474
5982.000000;-0.473662
5981.000000;-0.473839
5980.000000;-0.474023
5979.000000;-0.474213
5978.000000;-0.474413
5977.000000;-0.474631
5976.000000;-0.474860
5975.000000;-0.475079
5974.000000;-0.475277
5973.000000;-0.475464
5972.000000;-0.475658
5971.000000;-0.475869
5970.000000;-0.476100
5969.000000;-0.476333
5968.000000;-0.476532
5967.000000;-0.476680
5966.000000;-0.476809
5965.000000;-0.476973
5964.000000;-0.477183
5963.000000;-0.477410
5962.000000;-0.477635
5961.000000;-0.477859
5960.000000;-0.478076
5959.000000;-0.478271
5958.000000;-0.478451
5957.000000;-0.478641
5956.000000;-0.478845
5955.000000;-0.479038
5954.000000;-0.479208
5953.000000;-0.479367
5952.000000;-0.479524
5951.000000;-0.479676
5950.000000;-0.479841
5949.000000;-0.480044
5948.000000;-0.480283
5947.000000;-0.480513
5946.000000;-0.480703
5945.000000;-0.480863
5944.000000;-0.481023
5943.000000;-0.481193
5942.000000;-0.481376
5941.000000;-0.481574
5940.000000;-0.481786
5939.000000;-0.482001
5938.000000;-0.482212
5937.000000;-0.482422
5936.000000;-0.482628
5935.000000;-0.482818
5934.000000;-0.483001
5933.000000;-0.483197
5932.000000;-0.483414
5931.000000;-0.483639
5930.000000;-0.483859
5929.000000;-0.484072
5928.000000;-0.484277
5927.000000;-0.484466
5926.000000;-0.484644
5925.000000;-0.484828
5924.000000;-0.485021
5923.000000;-0.485210
5922.000000;-0.485393
5921.000000;-0.485577
5920.000000;-0.485761
5919.000000;-0.485944
5918.000000;-0.486138
5917.000000;-0.486360
5916.000000;-0.486596
5915.000000;-0.486807
5914.000000;-0.486975
5913.000000;-0.487117
5912.000000;-0.487256
5911.000000;-0.487403
5910.000000;-0.487567
5909.000000;-0.487760
5908.000000;-0.487972
5907.000000;-0.488177
5906.000000;-0.488365
5905.000000;-0.488562
5904.000000;-0.488788
5903.000000;-0.489038
5902.000000;-0.489294
5901.000000;-0.489543
5900.000000;-0.489768
5899.000000;-0.489957
5898.000000;-0.490129
5897.000000;-0.490325
5896.000000;-0.490558
5895.000000;-0.490794
5894.000000;-0.490998
5893.000000;-0.491173
5892.000000;-0.491353
5891.000000;-0.491549
5890.000000;-0.491751
5889.000000;-0.491946
5888.000000;-0.492142
5887.000000;-0.492353
5886.000000;-0.492581
5885.000000;-0.492807
5884.000000;-0.493008
5883.000000;-0.493180
5882.000000;-0.493341
5881.000000;-0.493514
5880.000000;-0.493706
5879.000000;-0.493912
5878.000000;-0.494130
5877.000000;-0.494361
5876.000000;-0.494596
5875.000000;-0.494822
5874.000000;-0.495036
5873.000000;-0.495232
5872.000000;-0.495399
5871.000000;-0.495533
5870.000000;-0.495657
5869.000000;-0.495801
5868.000000;-0.495979
5867.000000;-0.496190
5866.000000;-0.496432
5865.000000;-0.496695
5864.000000;-0.496949
5863.000000;-0.497176
5862.000000;-0.497391
5861.000000;-0.497607
5860.000000;-0.497810
5859.000000;-0.497977
5858.000000;-0.498111
5857.000000;-0.498238
5856.000000;-0.498375
5855.000000;-0.498535
5854.000000;-0.498738
5853.000000;-0.498983
5852.000000;-0.499224
5851.000000;-0.499422
5850.000000;-0.499596
5849.000000;-0.499803
5848.000000;-0.500058
5847.000000;-0.500318
5846.000000;-0.500549
5845.000000;-0.500749
5844.000000;-0.500926
5843.000000;-0.501085
5842.000000;-0.501242
5841.000000;-0.501418
5840.000000;-0.501606
5839.000000;-0.501774
5838.000000;-0.501910
5837.000000;-0.502037
5836.000000;-0.502178
5835.000000;-0.502332
5834.000000;-0.502498
5833.000000;-0.502686
5832.000000;-0.502900
5831.000000;-0.503119
5830.000000;-0.503325
5829.000000;-0.503517
5828.000000;-0.503702
5827.000000;-0.503896
5826.000000;-0.504116
5825.000000;-0.504367
5824.000000;-0.504624
5823.000000;-0.504862
5822.000000;-0.505084
5821.000000;-0.505309
5820.000000;-0.505540
5819.000000;-0.505772
5818.000000;-0.506007
5817.000000;-0.506242
5816.000000;-0.506450
5815.000000;-0.506604
5814.000000;-0.506723
5813.000000;-0.506857
5812.000000;-0.507022
5811.000000;-0.507206
5810.000000;-0.507403
5809.000000;-0.507625
5808.000000;-0.507858
5807.000000;-0.508069
5806.000000;-0.508245
5805.000000;-0.508407
5804.000000;-0.508575
5803.000000;-0.508749
5802.000000;-0.508933
5801.000000;-0.509134
5800.000000;-0.509341
5799.000000;-0.509534
5798.000000;-0.509708
5797.000000;-0.509871
5796.000000;-0.510026
5795.000000;-0.510170
5794.000000;-0.510322
5793.000000;-0.510510
5792.000000;-0.510728
5791.000000;-0.510950
5790.000000;-0.511166
5789.000000;-0.511391
5788.000000;-0.511634
5787.000000;-0.511881
5786.000000;-0.512117
5785.000000;-0.512333
5784.000000;-0.512517
5783.000000;-0.512669
5782.000000;-0.512820
5781.000000;-0.513001
5780.000000;-0.513207
5779.000000;-0.513412
5778.000000;-0.513613
5777.000000;-0.513825
5776.000000;-0.514036
5775.000000;-0.514224
5774.000000;-0.514400
5773.000000;-0.514600
5772.000000;-0.514829
5771.000000;-0.515056
5770.000000;-0.515264
5769.000000;-0.515469
5768.000000;-0.515689
5767.000000;-0.515921
5766.000000;-0.516161
5765.000000;-0.516399
5764.000000;-0.516615
5763.000000;-0.516789
5762.000000;-0.516938
5761.000000;-0.517091
5760.000000;-0.517257
5759.000000;-0.517431
5758.000000;-0.517629
5757.000000;-0.517871
5756.000000;-0.518129
5755.000000;-0.518348
5754.000000;-0.518521
5753.000000;-0.518692
5752.000000;-0.518889
5751.000000;-0.519100
5750.000000;-0.519310
5749.000000;-0.519520
5748.000000;-0.519724
5747.000000;-0.519904
5746.000000;-0.520072
5745.000000;-0.520267
5744.000000;-0.520497
5743.000000;-0.520724
5742.000000;-0.520912
5741.000000;-0.521060
5740.000000;-0.521194
5739.000000;-0.521336
5738.000000;-0.521507
5737.000000;-0.521718
5736.000000;-0.521954
5735.000000;-0.522181
5734.000000;-0.522398
5733.000000;-0.522625
5732.000000;-0.522868
5731.000000;-0.523110
5730.000000;-0.523346
5729.000000;-0.523581
5728.000000;-0.523804
5727.000000;-0.523998
5726.000000;-0.524166
5725.000000;-0.524325
5724.000000;-0.524471
5723.000000;-0.524595
5722.000000;-0.524725
5721.000000;-0.524908
5720.000000;-0.525154
5719.000000;-0.525418
5718.000000;-0.525664
5717.000000;-0.525890
5716.000000;-0.526107
5715.000000;-0.526320
5714.000000;-0.526541
5713.000000;-0.526778
5712.000000;-0.527006
5711.000000;-0.527189
5710.000000;-0.527332
5709.000000;-0.527483
5708.000000;-0.527669
5707.000000;-0.527871
5706.000000;-0.528069
5705.000000;-0.528266
5704.000000;-0.528479
5703.000000;-0.528707
5702.000000;-0.528940
5701.000000;-0.529160
5700.000000;-0.529340
5699.000000;-0.529471
5698.000000;-0.529617
5697.000000;-0.529771
5696.000000;-0.529961
5695.000000;-0.530172
5694.000000;-0.530403
5693.000000;-0.530656
5692.000000;-0.530907
5691.000000;-0.531119
5690.000000;-0.531298
5689.000000;-0.531477
5688.000000;-0.531659
5687.000000;-0.531821
5686.000000;-0.531979
5685.000000;-0.532187
5684.000000;-0.532458
5683.000000;-0.532736
5682.000000;-0.532958
5681.000000;-0.533116
5680.000000;-0.533235
5679.000000;-0.533346
5678.000000;-0.533483
5677.000000;-0.533676
5676.000000;-0.533916
5675.000000;-0.534160
5674.000000;-0.534384
5673.000000;-0.534592
5672.000000;-0.534790
5671.000000;-0.534967
5670.000000;-0.535121
5669.000000;-0.535268
5668.000000;-0.535424
5667.000000;-0.535593
5666.000000;-0.535789
5665.000000;-0.536019
5664.000000;-0.536266
5663.000000;-0.536509
5662.000000;-0.536748
5661.000000;-0.536994
5660.000000;-0.537224
5659.000000;-0.537410
5658.000000;-0.537566
5657.000000;-0.537743
5656.000000;-0.537959
5655.000000;-0.538190
5654.000000;-0.538411
5653.000000;-0.538619
5652.000000;-0.538807
5651.000000;-0.538966
5650.000000;-0.539112
5649.000000;-0.539275
5648.000000;-0.539460
5647.000000;-0.539653
5646.000000;-0.539848
5645.000000;-0.540054
5644.000000;-0.540268
5643.000000;-0.540481
5642.000000;-0.540693
5641.000000;-0.540901
5640.000000;-0.541082
5639.000000;-0.541233
5638.000000;-0.541402
5637.000000;-0.541633
5636.000000;-0.541898
5635.000000;-0.542121
5634.000000;-0.542276
5633.000000;-0.542397
5632.000000;-0.542519
5631.000000;-0.542662
5630.000000;-0.542849
5629.000000;-0.543094
5628.000000;-0.543358
5627.000000;-0.543580
5626.000000;-0.543758
5625.000000;-0.543938
5624.000000;-0.544147
5623.000000;-0.544367
5622.000000;-0.544593
5621.000000;-0.544831
5620.000000;-0.545067
5619.000000;-0.545269
5618.000000;-0.545448
5617.000000;-0.545640
5616.000000;-0.545847
5615.000000;-0.546036
5614.000000;-0.546209
5613.000000;-0.546393
5612.000000;-0.546588
5611.000000;-0.546751
5610.000000;-0.546871
5609.000000;-0.546985
5608.000000;-0.547126
5607.000000;-0.547303
5606.000000;-0.547517
5605.000000;-0.547756
5604.000000;-0.547975
5603.000000;-0.548130
5602.000000;-0.548246
5601.000000;-0.548384
5600.000000;-0.548562
5599.000000;-0.548747
5598.000000;-0.548924
5597.000000;-0.549111
5596.000000;-0.549303
5595.000000;-0.549484
5594.000000;-0.549668
5593.000000;-0.549882
5592.000000;-0.550108
5591.000000;-0.550298
5590.000000;-0.550457
5589.000000;-0.550630
5588.000000;-0.550821
5587.000000;-0.550997
5586.000000;-0.551165
5585.000000;-0.551368
5584.000000;-0.551608
5583.000000;-0.551837
5582.000000;-0.552038
5581.000000;-0.552240
5580.000000;-0.552442
5579.000000;-0.552610
5578.000000;-0.552747
5577.000000;-0.552889
5576.000000;-0.553039
5575.000000;-0.553165
5574.000000;-0.553276
5573.000000;-0.553422
5572.000000;-0.553605
5571.000000;-0.553778
5570.000000;-0.553933
5569.000000;-0.554115
5568.000000;-0.554330
5567.000000;-0.554524
5566.000000;-0.554683
5565.000000;-0.554856
5564.000000;-0.555063
5563.000000;-0.555265
5562.000000;-0.555447
5561.000000;-0.555646
5560.000000;-0.555871
5559.000000;-0.556070
5558.000000;-0.556218
5557.000000;-0.556364
5556.000000;-0.556545
5555.000000;-0.556732
5554.000000;-0.556895
5553.000000;-0.557069
5552.000000;-0.557283
5551.000000;-0.557497
5550.000000;-0.557647
5549.000000;-0.557733
5548.000000;-0.557809
5547.000000;-0.557927
5546.000000;-0.558120
5545.000000;-0.558377
5544.000000;-0.558639
5543.000000;-0.558843
5542.000000;-0.559001
5541.000000;-0.559194
5540.000000;-0.559452
5539.000000;-0.559715
5538.000000;-0.559916
5537.000000;-0.560073
5536.000000;-0.560226
5535.000000;-0.560368
5534.000000;-0.560482
5533.000000;-0.560597
5532.000000;-0.560761
5531.000000;-0.560979
5530.000000;-0.561214
5529.000000;-0.561432
5528.000000;-0.561608
5527.000000;-0.561744
5526.000000;-0.561890
5525.000000;-0.562081
5524.000000;-0.562282
5523.000000;-0.562430
5522.000000;-0.562532
5521.000000;-0.562691
5520.000000;-0.562946
5519.000000;-0.563212
5518.000000;-0.563405
5517.000000;-0.563551
5516.000000;-0.563725
5515.000000;-0.563935
5514.000000;-0.564119
5513.000000;-0.564254
5512.000000;-0.564399
5511.000000;-0.564594
5510.000000;-0.564803
5509.000000;-0.564962
5508.000000;-0.565071
5507.000000;-0.565216
5506.000000;-0.565456
5505.000000;-0.565711
5504.000000;-0.565877
5503.000000;-0.565998
5502.000000;-0.566204
5501.000000;-0.566521
5500.000000;-0.566769
5499.000000;-0.566785
5498.000000;-0.566712
5497.000000;-0.566814
5496.000000;-0.567086
5495.000000;-0.567279
5494.000000;-0.567282
5493.000000;-0.567322
5492.000000;-0.567632
5491.000000;-0.568073
5490.000000;-0.568344
5489.000000;-0.568415
5488.000000;-0.568531
5487.000000;-0.568842
5486.000000;-0.569235
5485.000000;-0.569507
5484.000000;-0.569642
5483.000000;-0.569767
5482.000000;-0.569869
5481.000000;-0.569871
5480.000000;-0.569877
5479.000000;-0.570074
5478.000000;-0.570431
5477.000000;-0.570660
5476.000000;-0.570600
5475.000000;-0.570534
5474.000000;-0.570808
5473.000000;-0.571280
5472.000000;-0.571554
5471.000000;-0.571585
5470.000000;-0.571687
5469.000000;-0.572041
5468.000000;-0.572423
5467.000000;-0.572561
5466.000000;-0.572561
5465.000000;-0.572663
5464.000000;-0.572860
5463.000000;-0.573012
5462.000000;-0.573086
5461.000000;-0.573170
5460.000000;-0.573350
5459.000000;-0.573627
5458.000000;-0.573946
5457.000000;-0.574221
5456.000000;-0.574372
5455.000000;-0.574461
5454.000000;-0.574700
5453.000000;-0.575075
5452.000000;-0.575267
5451.000000;-0.575107
5450.000000;-0.574877
5449.000000;-0.574954
5448.000000;-0.575213
5447.000000;-0.575186
5446.000000;-0.574899
5445.000000;-0.574911
5444.000000;-0.575451
5443.000000;-0.576091
5442.000000;-0.576351
5441.000000;-0.576281
5440.000000;-0.576358
5439.000000;-0.576814
5438.000000;-0.577342
5437.000000;-0.577567
5436.000000;-0.577428
5435.000000;-0.577174
5434.000000;-0.577185
5433.000000;-0.577569
5432.000000;-0.578014
5431.000000;-0.578177
5430.000000;-0.578061
5429.000000;-0.578008
5428.000000;-0.578321
5427.000000;-0.578936
5426.000000;-0.579549
5425.000000;-0.579965
5424.000000;-0.580209
5423.000000;-0.580452
5422.000000;-0.580817
5421.000000;-0.581129
5420.000000;-0.581108
5419.000000;-0.580858
5418.000000;-0.580779
5417.000000;-0.580966
5416.000000;-0.581017
5415.000000;-0.580650
5414.000000;-0.580246
5413.000000;-0.580359
5412.000000;-0.580873
5411.000000;-0.581225
5410.000000;-0.581300
5409.000000;-0.581522
5408.000000;-0.582088
5407.000000;-0.582698
5406.000000;-0.583059
5405.000000;-0.583303
5404.000000;-0.583625
5403.000000;-0.583874
5402.000000;-0.583954
5401.000000;-0.584050
5400.000000;-0.584171
5399.000000;-0.584139
5398.000000;-0.583981
5397.000000;-0.583954
5396.000000;-0.584119
5395.000000;-0.584175
5394.000000;-0.584031
5393.000000;-0.584038
5392.000000;-0.584366
5391.000000;-0.584706
5390.000000;-0.584835
5389.000000;-0.584975
5388.000000;-0.585352
5387.000000;-0.585743
5386.000000;-0.585860
5385.000000;-0.585929
5384.000000;-0.586237
5383.000000;-0.586465
5382.000000;-0.586309
5381.000000;-0.586123
5380.000000;-0.586331
5379.000000;-0.586712
5378.000000;-0.586786
5377.000000;-0.586664
5376.000000;-0.586866
5375.000000;-0.587368
5374.000000;-0.587667
5373.000000;-0.587694
5372.000000;-0.587883
5371.000000;-0.588379
5370.000000;-0.588812
5369.000000;-0.588957
5368.000000;-0.589098
5367.000000;-0.589437
5366.000000;-0.589728
5365.000000;-0.589799
5364.000000;-0.589844
5363.000000;-0.589985
5362.000000;-0.590083
5361.000000;-0.590011
5360.000000;-0.589845
5359.000000;-0.589706
5358.000000;-0.589647
5357.000000;-0.589754
5356.000000;-0.590056
5355.000000;-0.590302
5354.000000;-0.590195
5353.000000;-0.589957
5352.000000;-0.590056
5351.000000;-0.590320
5350.000000;-0.590206
5349.000000;-0.589832
5348.000000;-0.589856
5347.000000;-0.590391
5346.000000;-0.590709
5345.000000;-0.590355
5344.000000;-0.589943
5343.000000;-0.590193
5342.000000;-0.590757
5341.000000;-0.590899
5340.000000;-0.590649
5339.000000;-0.590566
5338.000000;-0.590856
5337.000000;-0.591232
5336.000000;-0.591536
5335.000000;-0.591859
5334.000000;-0.592083
5333.000000;-0.592048
5332.000000;-0.592014
5331.000000;-0.592304
5330.000000;-0.592726
5329.000000;-0.592841
5328.000000;-0.592623
5327.000000;-0.592541
5326.000000;-0.592839
5325.000000;-0.593206
5324.000000;-0.593351
5323.000000;-0.593400
5322.000000;-0.593536
5321.000000;-0.593725
5320.000000;-0.593884
5319.000000;-0.594035
5318.000000;-0.594205
5317.000000;-0.594337
5316.000000;-0.594408
5315.000000;-0.594489
5314.000000;-0.594533
5313.000000;-0.594425
5312.000000;-0.594261
5311.000000;-0.594269
5310.000000;-0.594443
5309.000000;-0.594530
5308.000000;-0.594445
5307.000000;-0.594422
5306.000000;-0.594611
5305.000000;-0.594824
5304.000000;-0.594847
5303.000000;-0.594773
5302.000000;-0.594809
5301.000000;-0.594943
5300.000000;-0.595014
5299.000000;-0.595012
5298.000000;-0.595090
5297.000000;-0.595224
5296.000000;-0.595238
5295.000000;-0.595156
5294.000000;-0.595171
5293.000000;-0.595300
5292.000000;-0.595308
5291.000000;-0.595056
5290.000000;-0.594791
5289.000000;-0.594832
5288.000000;-0.595108
5287.000000;-0.595256
5286.000000;-0.595130
5285.000000;-0.594977
5284.000000;-0.595053
5283.000000;-0.595272
5282.000000;-0.595395
5281.000000;-0.595400
5280.000000;-0.595437
5279.000000;-0.595539
5278.000000;-0.595602
5277.000000;-0.595594
5276.000000;-0.595559
5275.000000;-0.595524
5274.000000;-0.595468
5273.000000;-0.595407
5272.000000;-0.595410
5271.000000;-0.595400
5270.000000;-0.595201
5269.000000;-0.594874
5268.000000;-0.594680
5267.000000;-0.594663
5266.000000;-0.594585
5265.000000;-0.594328
5264.000000;-0.594122
5263.000000;-0.594212
5262.000000;-0.594457
5261.000000;-0.594503
5260.000000;-0.594338
5259.000000;-0.594281
5258.000000;-0.594455
5257.000000;-0.594636
5256.000000;-0.594599
5255.000000;-0.594406
5254.000000;-0.594258
5253.000000;-0.594224
5252.000000;-0.594269
5251.000000;-0.594294
5250.000000;-0.594154
5249.000000;-0.593878
5248.000000;-0.593727
5247.000000;-0.593888
5246.000000;-0.594188
5245.000000;-0.594283
5244.000000;-0.594155
5243.000000;-0.594174
5242.000000;-0.594529
5241.000000;-0.594889
5240.000000;-0.594915
5239.000000;-0.594780
5238.000000;-0.594805
5237.000000;-0.594915
5236.000000;-0.594855
5235.000000;-0.594670
5234.000000;-0.594618
5233.000000;-0.594692
5232.000000;-0.594607
5231.000000;-0.594302
5230.000000;-0.594087
5229.000000;-0.594126
5228.000000;-0.594145
5227.000000;-0.593897
5226.000000;-0.593562
5225.000000;-0.593466
5224.000000;-0.593624
5223.000000;-0.593803
5222.000000;-0.593909
5221.000000;-0.594014
5220.000000;-0.594145
5219.000000;-0.594264
5218.000000;-0.594355
5217.000000;-0.594424
5216.000000;-0.594419
5215.000000;-0.594265
5214.000000;-0.594052
5213.000000;-0.593936
5212.000000;-0.593886
5211.000000;-0.593772
5210.000000;-0.593585
5209.000000;-0.593398
5208.000000;-0.593194
5207.000000;-0.592935
5206.000000;-0.592771
5205.000000;-0.592928
5204.000000;-0.593332
5203.000000;-0.593628
5202.000000;-0.593665
5201.000000;-0.593650
5200.000000;-0.593759
5199.000000;-0.593847
5198.000000;-0.593714
5197.000000;-0.593494
5196.000000;-0.593431
5195.000000;-0.593465
5194.000000;-0.593388
5193.000000;-0.593219
5192.000000;-0.593141
5191.000000;-0.593188
5190.000000;-0.593236
5189.000000;-0.593269
5188.000000;-0.593369
5187.000000;-0.593440
5186.000000;-0.593274
5185.000000;-0.592940
5184.000000;-0.592774
5183.000000;-0.592902
5182.000000;-0.593078
5181.000000;-0.593098
5180.000000;-0.593061
5179.000000;-0.593103
5178.000000;-0.593131
5177.000000;-0.593010
5176.000000;-0.592834
5175.000000;-0.592763
5174.000000;-0.592753
5173.000000;-0.592660
5172.000000;-0.592494
5171.000000;-0.592363
5170.000000;-0.592291
5169.000000;-0.592232
5168.000000;-0.592200
5167.000000;-0.592213
5166.000000;-0.592184
5165.000000;-0.592032
5164.000000;-0.591834
5163.000000;-0.591715
5162.000000;-0.591660
5161.000000;-0.591585
5160.000000;-0.591507
5159.000000;-0.591508
5158.000000;-0.591557
5157.000000;-0.591532
5156.000000;-0.591416
5155.000000;-0.591314
5154.000000;-0.591270
5153.000000;-0.591217
5152.000000;-0.591134
5151.000000;-0.591090
5150.000000;-0.591125
5149.000000;-0.591168
5148.000000;-0.591135
5147.000000;-0.591020
5146.000000;-0.590874
5145.000000;-0.590739
5144.000000;-0.590631
5143.000000;-0.590545
5142.000000;-0.590469
5141.000000;-0.590400
5140.000000;-0.590354
5139.000000;-0.590321
5138.000000;-0.590268
5137.000000;-0.590194
5136.000000;-0.590146
5135.000000;-0.590140
5134.000000;-0.590113
5133.000000;-0.590010
5132.000000;-0.589866
5131.000000;-0.589735
5130.000000;-0.589623
5129.000000;-0.589522
5128.000000;-0.589466
5127.000000;-0.589477
5126.000000;-0.589489
5125.000000;-0.589423
5124.000000;-0.589296
5123.000000;-0.589172
5122.000000;-0.589060
5121.000000;-0.588930
5120.000000;-0.588802
5119.000000;-0.588716
5118.000000;-0.588648
5117.000000;-0.588533
5116.000000;-0.588373
5115.000000;-0.588235
5114.000000;-0.588153
5113.000000;-0.588107
5112.000000;-0.588078
5111.000000;-0.588057
5110.000000;-0.588003
5109.000000;-0.587878
5108.000000;-0.587704
5107.000000;-0.587552
5106.000000;-0.587450
5105.000000;-0.587379
5104.000000;-0.587331
5103.000000;-0.587307
5102.000000;-0.587272
5101.000000;-0.587184
5100.000000;-0.587060
5099.000000;-0.586963
5098.000000;-0.586912
5097.000000;-0.586863
5096.000000;-0.586776
5095.000000;-0.586652
5094.000000;-0.586504
5093.000000;-0.586347
5092.000000;-0.586208
5091.000000;-0.586106
5090.000000;-0.586029
5089.000000;-0.585947
5088.000000;-0.585861
5087.000000;-0.585781
5086.000000;-0.585689
5085.000000;-0.585559
5084.000000;-0.585407
5083.000000;-0.585275
5082.000000;-0.585165
5081.000000;-0.585045
5080.000000;-0.584902
5079.000000;-0.584744
5078.000000;-0.584588
5077.000000;-0.584456
5076.000000;-0.584380
5075.000000;-0.584362
5074.000000;-0.584343
5073.000000;-0.584260
5072.000000;-0.584118
5071.000000;-0.583965
5070.000000;-0.583823
5069.000000;-0.583693
5068.000000;-0.583591
5067.000000;-0.583536
5066.000000;-0.583502
5065.000000;-0.583432
5064.000000;-0.583307
5063.000000;-0.583145
5062.000000;-0.582968
5061.000000;-0.582797
5060.000000;-0.582663
5059.000000;-0.582577
5058.000000;-0.582492
5057.000000;-0.582351
5056.000000;-0.582163
5055.000000;-0.581978
5054.000000;-0.581821
5053.000000;-0.581676
5052.000000;-0.581537
5051.000000;-0.581414
5050.000000;-0.581296
5049.000000;-0.581161
5048.000000;-0.581015
5047.000000;-0.580885
5046.000000;-0.580772
5045.000000;-0.580654
5044.000000;-0.580521
5043.000000;-0.580381
5042.000000;-0.580232
5041.000000;-0.580070
5040.000000;-0.579912
5039.000000;-0.579781
5038.000000;-0.579664
5037.000000;-0.579536
5036.000000;-0.579400
5035.000000;-0.579289
5034.000000;-0.579208
5033.000000;-0.579133
5032.000000;-0.579050
5031.000000;-0.578956
5030.000000;-0.578843
5029.000000;-0.578702
5028.000000;-0.578545
5027.000000;-0.578377
5026.000000;-0.578179
5025.000000;-0.577951
5024.000000;-0.577743
5023.000000;-0.577608
5022.000000;-0.577527
5021.000000;-0.577430
5020.000000;-0.577280
5019.000000;-0.577099
5018.000000;-0.576909
5017.000000;-0.576715
5016.000000;-0.576533
5015.000000;-0.576392
5014.000000;-0.576301
5013.000000;-0.576232
5012.000000;-0.576150
5011.000000;-0.576024
5010.000000;-0.575823
5009.000000;-0.575550
5008.000000;-0.575264
5007.000000;-0.575039
5006.000000;-0.574898
5005.000000;-0.574802
5004.000000;-0.574697
5003.000000;-0.574552
5002.000000;-0.574335
5001.000000;-0.574112
5000.000000;-0.573893
4999.000000;-0.573715
4998.000000;-0.573578
4997.000000;-0.573451
4996.000000;-0.573312
4995.000000;-0.573154
4994.000000;-0.572981
4993.000000;-0.572804
4992.000000;-0.572643
4991.000000;-0.572503
4990.000000;-0.572361
4989.000000;-0.572194
4988.000000;-0.572018
4987.000000;-0.571862
4986.000000;-0.571721
4985.000000;-0.571575
4984.000000;-0.571433
4983.000000;-0.571325
4982.000000;-0.571254
4981.000000;-0.571187
4980.000000;-0.571094
4979.000000;-0.570959
4978.000000;-0.570786
4977.000000;-0.570590
4976.000000;-0.570409
4975.000000;-0.570260
4974.000000;-0.570122
4973.000000;-0.569965
4972.000000;-0.569782
4971.000000;-0.569582
4970.000000;-0.569354
4969.000000;-0.569088
4968.000000;-0.568814
4967.000000;-0.568573
4966.000000;-0.568382
4965.000000;-0.568229
4964.000000;-0.568100
4963.000000;-0.567980
4962.000000;-0.567840
4961.000000;-0.567663
4960.000000;-0.567482
4959.000000;-0.567332
4958.000000;-0.567197
4957.000000;-0.567019
4956.000000;-0.566786
4955.000000;-0.566543
4954.000000;-0.566340
4953.000000;-0.566181
4952.000000;-0.566048
4951.000000;-0.565926
4950.000000;-0.565808
4949.000000;-0.565687
4948.000000;-0.565565
4947.000000;-0.565448
4946.000000;-0.565337
4945.000000;-0.565222
4944.000000;-0.565088
4943.000000;-0.564910
4942.000000;-0.564677
4941.000000;-0.564418
4940.000000;-0.564199
4939.000000;-0.564062
4938.000000;-0.563988
4937.000000;-0.563927
4936.000000;-0.563853
4935.000000;-0.563754
4934.000000;-0.563607
4933.000000;-0.563393
4932.000000;-0.563135
4931.000000;-0.562874
4930.000000;-0.562629
4929.000000;-0.562395
4928.000000;-0.562179
4927.000000;-0.561998
4926.000000;-0.561852
4925.000000;-0.561722
4924.000000;-0.561598
4923.000000;-0.561475
4922.000000;-0.561338
4921.000000;-0.561175
4920.000000;-0.560989
4919.000000;-0.560792
4918.000000;-0.560581
4917.000000;-0.560354
4916.000000;-0.560133
4915.000000;-0.559942
4914.000000;-0.559768
4913.000000;-0.559577
4912.000000;-0.559357
4911.000000;-0.559126
4910.000000;-0.558899
4909.000000;-0.558691
4908.000000;-0.558529
4907.000000;-0.558427
4906.000000;-0.558357
4905.000000;-0.558266
4904.000000;-0.558121
4903.000000;-0.557931
4902.000000;-0.557724
4901.000000;-0.557527
4900.000000;-0.557356
4899.000000;-0.557200
4898.000000;-0.557029
4897.000000;-0.556824
4896.000000;-0.556593
4895.000000;-0.556356
4894.000000;-0.556117
4893.000000;-0.555884
4892.000000;-0.555690
4891.000000;-0.555563
4890.000000;-0.555484
4889.000000;-0.555393
4888.000000;-0.555252
4887.000000;-0.555061
4886.000000;-0.554835
4885.000000;-0.554581
4884.000000;-0.554314
4883.000000;-0.554063
4882.000000;-0.553856
4881.000000;-0.553695
4880.000000;-0.553551
4879.000000;-0.553381
4878.000000;-0.553162
4877.000000;-0.552924
4876.000000;-0.552722
4875.000000;-0.552575
4874.000000;-0.552428
4873.000000;-0.552217
4872.000000;-0.551929
4871.000000;-0.551609
4870.000000;-0.551316
4869.000000;-0.551083
4868.000000;-0.550905
4867.000000;-0.550749
4866.000000;-0.550574
4865.000000;-0.550374
4864.000000;-0.550165
4863.000000;-0.549956
4862.000000;-0.549733
4861.000000;-0.549499
4860.000000;-0.549278
4859.000000;-0.549079
4858.000000;-0.548869
4857.000000;-0.548621
4856.000000;-0.548343
4855.000000;-0.548073
4854.000000;-0.547841
4853.000000;-0.547666
4852.000000;-0.547554
4851.000000;-0.547460
4850.000000;-0.547302
4849.000000;-0.547033
4848.000000;-0.546703
4847.000000;-0.546400
4846.000000;-0.546167
4845.000000;-0.545985
4844.000000;-0.545814
4843.000000;-0.545627
4842.000000;-0.545406
4841.000000;-0.545151
4840.000000;-0.544889
4839.000000;-0.544646
4838.000000;-0.544411
4837.000000;-0.544157
4836.000000;-0.543873
4835.000000;-0.543576
4834.000000;-0.543293
4833.000000;-0.543049
4832.000000;-0.542855
4831.000000;-0.542680
4830.000000;-0.542470
4829.000000;-0.542199
4828.000000;-0.541897
4827.000000;-0.541603
4826.000000;-0.541321
4825.000000;-0.541050
4824.000000;-0.540818
4823.000000;-0.540648
4822.000000;-0.540512
4821.000000;-0.540352
4820.000000;-0.540139
4819.000000;-0.539892
4818.000000;-0.539631
4817.000000;-0.539377
4816.000000;-0.539156
4815.000000;-0.538985
4814.000000;-0.538847
4813.000000;-0.538693
4812.000000;-0.538474
4811.000000;-0.538174
4810.000000;-0.537816
4809.000000;-0.537458
4808.000000;-0.537154
4807.000000;-0.536909
4806.000000;-0.536684
4805.000000;-0.536450
4804.000000;-0.536208
4803.000000;-0.535946
4802.000000;-0.535622
4801.000000;-0.535229
4800.000000;-0.534835
4799.000000;-0.534519
4798.000000;-0.534281
4797.000000;-0.534062
4796.000000;-0.533831
4795.000000;-0.533601
4794.000000;-0.533372
4793.000000;-0.533120
4792.000000;-0.532830
4791.000000;-0.532516
4790.000000;-0.532197
4789.000000;-0.531874
4788.000000;-0.531547
4787.000000;-0.531221
4786.000000;-0.530909
4785.000000;-0.530623
4784.000000;-0.530370
4783.000000;-0.530119
4782.000000;-0.529810
4781.000000;-0.529403
4780.000000;-0.528933
4779.000000;-0.528490
4778.000000;-0.528143
4777.000000;-0.527898
4776.000000;-0.527720
4775.000000;-0.527559
4774.000000;-0.527371
4773.000000;-0.527134
4772.000000;-0.526854
4771.000000;-0.526547
4770.000000;-0.526227
4769.000000;-0.525919
4768.000000;-0.525653
4767.000000;-0.525418
4766.000000;-0.525155
4765.000000;-0.524810
4764.000000;-0.524389
4763.000000;-0.523947
4762.000000;-0.523533
4761.000000;-0.523171
4760.000000;-0.522864
4759.000000;-0.522581
4758.000000;-0.522283
4757.000000;-0.521958
4756.000000;-0.521647
4755.000000;-0.521389
4754.000000;-0.521169
4753.000000;-0.520943
4752.000000;-0.520681
4751.000000;-0.520374
4750.000000;-0.520009
4749.000000;-0.519590
4748.000000;-0.519161
4747.000000;-0.518773
4746.000000;-0.518443
4745.000000;-0.518152
4744.000000;-0.517872
4743.000000;-0.517568
4742.000000;-0.517207
4741.000000;-0.516786
4740.000000;-0.516356
4739.000000;-0.515971
4738.000000;-0.515643
4737.000000;-0.515353
4736.000000;-0.515089
4735.000000;-0.514834
4734.000000;-0.514547
4733.000000;-0.514196
4732.000000;-0.513803
4731.000000;-0.513426
4730.000000;-0.513104
4729.000000;-0.512838
4728.000000;-0.512602
4727.000000;-0.512358
4726.000000;-0.512052
4725.000000;-0.511658
4724.000000;-0.511211
4723.000000;-0.510770
4722.000000;-0.510373
4721.000000;-0.510030
4720.000000;-0.509737
4719.000000;-0.509462
4718.000000;-0.509141
4717.000000;-0.508735
4716.000000;-0.508281
4715.000000;-0.507859
4714.000000;-0.507504
4713.000000;-0.507195
4712.000000;-0.506893
4711.000000;-0.506574
4710.000000;-0.506217
4709.000000;-0.505828
4708.000000;-0.505437
4707.000000;-0.505076
4706.000000;-0.504731
4705.000000;-0.504379
4704.000000;-0.504019
4703.000000;-0.503662
4702.000000;-0.503287
4701.000000;-0.502871
4700.000000;-0.502449
4699.000000;-0.502080
4698.000000;-0.501760
4697.000000;-0.501412
4696.000000;-0.500979
4695.000000;-0.500492
4694.000000;-0.500025
4693.000000;-0.499622
4692.000000;-0.499272
4691.000000;-0.498928
4690.000000;-0.498542
4689.000000;-0.498096
4688.000000;-0.497610
4687.000000;-0.497122
4686.000000;-0.496650
4685.000000;-0.496205
4684.000000;-0.495801
4683.000000;-0.495440
4682.000000;-0.495091
4681.000000;-0.494707
4680.000000;-0.494274
4679.000000;-0.493823
4678.000000;-0.493398
4677.000000;-0.493033
4676.000000;-0.492737
4675.000000;-0.492479
4674.000000;-0.492187
4673.000000;-0.491795
4672.000000;-0.491287
4671.000000;-0.490701
4670.000000;-0.490090
4669.000000;-0.489503
4668.000000;-0.488983
4667.000000;-0.488541
4666.000000;-0.488145
4665.000000;-0.487735
4664.000000;-0.487279
4663.000000;-0.486787
4662.000000;-0.486288
4661.000000;-0.485805
4660.000000;-0.485345
4659.000000;-0.484890
4658.000000;-0.484406
4657.000000;-0.483871
4656.000000;-0.483297
4655.000000;-0.482719
4654.000000;-0.482165
4653.000000;-0.481656
4652.000000;-0.481205
4651.000000;-0.480788
4650.000000;-0.480349
4649.000000;-0.479852
4648.000000;-0.479317
4647.000000;-0.478786
4646.000000;-0.478273
4645.000000;-0.477772
4644.000000;-0.477289
4643.000000;-0.476829
4642.000000;-0.476369
4641.000000;-0.475875
4640.000000;-0.475345
4639.000000;-0.474795
4638.000000;-0.474224
4637.000000;-0.473623
4636.000000;-0.473009
4635.000000;-0.472421
4634.000000;-0.471868
4633.000000;-0.471326
4632.000000;-0.470785
4631.000000;-0.470263
4630.000000;-0.469773
4629.000000;-0.469299
4628.000000;-0.468809
4627.000000;-0.468278
4626.000000;-0.467703
4625.000000;-0.467104
4624.000000;-0.466513
4623.000000;-0.465940
4622.000000;-0.465372
4621.000000;-0.464802
4620.000000;-0.464250
4619.000000;-0.463720
4618.000000;-0.463176
4617.000000;-0.462576
4616.000000;-0.461922
4615.000000;-0.461258
4614.000000;-0.460626
4613.000000;-0.460049
4612.000000;-0.459528
4611.000000;-0.459027
4610.000000;-0.458468
4609.000000;-0.457803
4608.000000;-0.457069
4607.000000;-0.456362
4606.000000;-0.455739
4605.000000;-0.455173
4604.000000;-0.454598
4603.000000;-0.453961
4602.000000;-0.453245
4601.000000;-0.452479
4600.000000;-0.451725
4599.000000;-0.451017
4598.000000;-0.450324
4597.000000;-0.449593
4596.000000;-0.448832
4595.000000;-0.448100
4594.000000;-0.447427
4593.000000;-0.446774
4592.000000;-0.446087
4591.000000;-0.445357
4590.000000;-0.444618
4589.000000;-0.443903
4588.000000;-0.443217
4587.000000;-0.442531
4586.000000;-0.441806
4585.000000;-0.441026
4584.000000;-0.440215
4583.000000;-0.439401
4582.000000;-0.438575
4581.000000;-0.437705
4580.000000;-0.436782
4579.000000;-0.435833
4578.000000;-0.434891
4577.000000;-0.433983
4576.000000;-0.433116
4575.000000;-0.432272
4574.000000;-0.431404
4573.000000;-0.430479
4572.000000;-0.429512
4571.000000;-0.428543
4570.000000;-0.427582
4569.000000;-0.426625
4568.000000;-0.425673
4567.000000;-0.424728
4566.000000;-0.423757
4565.000000;-0.422733
4564.000000;-0.421681
4563.000000;-0.420661
4562.000000;-0.419679
4561.000000;-0.418674
4560.000000;-0.417600
4559.000000;-0.416474
4558.000000;-0.415326
4557.000000;-0.414138
4556.000000;-0.412876
4555.000000;-0.411548
4554.000000;-0.410211
4553.000000;-0.408912
4552.000000;-0.407660
4551.000000;-0.406434
4550.000000;-0.405210
4549.000000;-0.403962
4548.000000;-0.402671
4547.000000;-0.401334
4546.000000;-0.399977
4545.000000;-0.398639
4544.000000;-0.397337
4543.000000;-0.396054
4542.000000;-0.394770
4541.000000;-0.393497
4540.000000;-0.392275
4539.000000;-0.391116
4538.000000;-0.389980
4537.000000;-0.388818
4536.000000;-0.387627
4535.000000;-0.386434
4534.000000;-0.385250
4533.000000;-0.384069
4532.000000;-0.382902
4531.000000;-0.381788
4530.000000;-0.380748
4529.000000;-0.379756
4528.000000;-0.378758
4527.000000;-0.377714
4526.000000;-0.376627
4525.000000;-0.375544
4524.000000;-0.374510
4523.000000;-0.373530
4522.000000;-0.372566
4521.000000;-0.371583
4520.000000;-0.370597
4519.000000;-0.369650
4518.000000;-0.368754
4517.000000;-0.367873
4516.000000;-0.366958
4515.000000;-0.366005
4514.000000;-0.365059
4513.000000;-0.364178
4512.000000;-0.363357
4511.000000;-0.362518
4510.000000;-0.361580
4509.000000;-0.360557
4508.000000;-0.359553
4507.000000;-0.358654
4506.000000;-0.357838
4505.000000;-0.357011
4504.000000;-0.356103
4503.000000;-0.355103
4502.000000;-0.354039
4501.000000;-0.352961
4500.000000;-0.351928
4499.000000;-0.350984
4498.000000;-0.350123
4497.000000;-0.349298
4496.000000;-0.348443
4495.000000;-0.347511
4494.000000;-0.346501
4493.000000;-0.345482
4492.000000;-0.344538
4491.000000;-0.343684
4490.000000;-0.342851
4489.000000;-0.341957
4488.000000;-0.340982
4487.000000;-0.339946
4486.000000;-0.338860
4485.000000;-0.337734
4484.000000;-0.336609
4483.000000;-0.335534
4482.000000;-0.334511
4481.000000;-0.333497
4480.000000;-0.332449
4479.000000;-0.331350
4478.000000;-0.330193
4477.000000;-0.328988
4476.000000;-0.327764
4475.000000;-0.326555
4474.000000;-0.325365
4473.000000;-0.324173
4472.000000;-0.322964
4471.000000;-0.321734
4470.000000;-0.320493
4469.000000;-0.319272
4468.000000;-0.318110
4467.000000;-0.317015
4466.000000;-0.315934
4465.000000;-0.314791
4464.000000;-0.313553
4463.000000;-0.312252
4462.000000;-0.310949
4461.000000;-0.309691
4460.000000;-0.308487
4459.000000;-0.307294
4458.000000;-0.306049
4457.000000;-0.304733
4456.000000;-0.303384
4455.000000;-0.302047
4454.000000;-0.300727
4453.000000;-0.299409
4452.000000;-0.298087
4451.000000;-0.296754
4450.000000;-0.295393
4449.000000;-0.294004
4448.000000;-0.292617
4447.000000;-0.291271
4446.000000;-0.289966
4445.000000;-0.288690
4444.000000;-0.287435
4443.000000;-0.286181
4442.000000;-0.284884
4441.000000;-0.283528
4440.000000;-0.282150
4439.000000;-0.280784
4438.000000;-0.279406
4437.000000;-0.277985
4436.000000;-0.276557
4435.000000;-0.275182
4434.000000;-0.273838
4433.000000;-0.272438
4432.000000;-0.270949
4431.000000;-0.269443
4430.000000;-0.267998
4429.000000;-0.266604
4428.000000;-0.265197
4427.000000;-0.263738
4426.000000;-0.262228
4425.000000;-0.260682
4424.000000;-0.259123
4423.000000;-0.257602
4422.000000;-0.256165
4421.000000;-0.254796
4420.000000;-0.253407
4419.000000;-0.251902
4418.000000;-0.250263
4417.000000;-0.248563
4416.000000;-0.246892
4415.000000;-0.245279
4414.000000;-0.243691
4413.000000;-0.242104
4412.000000;-0.240524
4411.000000;-0.238953
4410.000000;-0.237359
4409.000000;-0.235718
4408.000000;-0.234051
4407.000000;-0.232394
4406.000000;-0.230747
4405.000000;-0.229087
4404.000000;-0.227412
4403.000000;-0.225732
4402.000000;-0.224038
4401.000000;-0.222290
4400.000000;-0.220461
4399.000000;-0.218563
4398.000000;-0.216649
4397.000000;-0.214787
4396.000000;-0.213015
4395.000000;-0.211306
4394.000000;-0.209579
4393.000000;-0.207775
4392.000000;-0.205900
4391.000000;-0.203988
4390.000000;-0.202068
4389.000000;-0.200156
4388.000000;-0.198266
4387.000000;-0.196378
4386.000000;-0.194437
4385.000000;-0.192413
4384.000000;-0.190335
4383.000000;-0.188255
4382.000000;-0.186193
4381.000000;-0.184146
4380.000000;-0.182118
4379.000000;-0.180099
4378.000000;-0.178053
4377.000000;-0.175963
4376.000000;-0.173857
4375.000000;-0.171765
4374.000000;-0.169664
4373.000000;-0.167504
4372.000000;-0.165272
4371.000000;-0.162990
4370.000000;-0.160661
4369.000000;-0.158285
4368.000000;-0.155905
4367.000000;-0.153601
4366.000000;-0.151405
4365.000000;-0.149261
4364.000000;-0.147078
4363.000000;-0.144804
4362.000000;-0.142456
4361.000000;-0.140087
4360.000000;-0.137721
4359.000000;-0.135326
4358.000000;-0.132848
4357.000000;-0.130291
4356.000000;-0.127717
4355.000000;-0.125174
4354.000000;-0.122642
4353.000000;-0.120085
4352.000000;-0.117499
4351.000000;-0.114892
4350.000000;-0.112254
4349.000000;-0.109584
4348.000000;-0.106910
4347.000000;-0.104246
4346.000000;-0.101549
4345.000000;-0.098769
4344.000000;-0.095932
4343.000000;-0.093129
4342.000000;-0.090446
4341.000000;-0.087890
4340.000000;-0.085370
4339.000000;-0.082737
4338.000000;-0.079893
4337.000000;-0.076904
4336.000000;-0.073961
4335.000000;-0.071177
4334.000000;-0.068463
4333.000000;-0.065645
4332.000000;-0.062653
4331.000000;-0.059532
4330.000000;-0.056335
4329.000000;-0.053087
4328.000000;-0.049851
4327.000000;-0.046738
4326.000000;-0.043793
4325.000000;-0.040929
4324.000000;-0.037992
4323.000000;-0.034879
4322.000000;-0.031617
4321.000000;-0.028331
4320.000000;-0.025131
4319.000000;-0.022004
4318.000000;-0.018821
4317.000000;-0.015476
4316.000000;-0.012004
4315.000000;-0.008535
4314.000000;-0.005171
4313.000000;-0.001913
4312.000000;0.001310
4311.000000;0.004598
4310.000000;0.008010
4309.000000;0.011530
4308.000000;0.015089
4307.000000;0.018654
4306.000000;0.022242
4305.000000;0.025843
4304.000000;0.029377
4303.000000;0.032790
4302.000000;0.036146
4301.000000;0.039577
4300.000000;0.043172
4299.000000;0.046935
4298.000000;0.050824
4297.000000;0.054765
4296.000000;0.058669
4295.000000;0.062486
4294.000000;0.066253
4293.000000;0.070044
4292.000000;0.073911
4291.000000;0.077879
4290.000000;0.081943
4289.000000;0.086021
4288.000000;0.089988
4287.000000;0.093801
4286.000000;0.097559
4285.000000;0.101411
4284.000000;0.105433
4283.000000;0.109637
4282.000000;0.113999
4281.000000;0.118436
4280.000000;0.122816
4279.000000;0.127083
4278.000000;0.131310
4277.000000;0.135588
4276.000000;0.139916
4275.000000;0.144257
4274.000000;0.148620
4273.000000;0.153016
4272.000000;0.157401
4271.000000;0.161761
4270.000000;0.166181
4269.000000;0.170752
4268.000000;0.175447
4267.000000;0.180186
4266.000000;0.184938
4265.000000;0.189681
4264.000000;0.194341
4263.000000;0.198882
4262.000000;0.203414
4261.000000;0.208094
4260.000000;0.212966
4259.000000;0.217982
4258.000000;0.223112
4257.000000;0.228302
4256.000000;0.233424
4255.000000;0.238407
4254.000000;0.243391
4253.000000;0.248612
4252.000000;0.254115
4251.000000;0.259715
4250.000000;0.265188
4249.000000;0.270424
4248.000000;0.275434
4247.000000;0.280359
4246.000000;0.285469
4245.000000;0.291020
4244.000000;0.297063
4243.000000;0.303458
4242.000000;0.310038
4241.000000;0.316654
4240.000000;0.323116
4239.000000;0.329247
4238.000000;0.335066
4237.000000;0.340844
4236.000000;0.346918
4235.000000;0.353461
4234.000000;0.360368
4233.000000;0.367328
4232.000000;0.374051
4231.000000;0.380500
4230.000000;0.386859
4229.000000;0.393292
4228.000000;0.399848
4227.000000;0.406618
4226.000000;0.413766
4225.000000;0.421287
4224.000000;0.428918
4223.000000;0.436465
4222.000000;0.444059
4221.000000;0.451897
4220.000000;0.459885
4219.000000;0.467759
4218.000000;0.475456
4217.000000;0.483133
4216.000000;0.490907
4215.000000;0.498831
4214.000000;0.507047
4213.000000;0.515684
4212.000000;0.524642
4211.000000;0.533665
4210.000000;0.542644
4209.000000;0.551655
4208.000000;0.560794
4207.000000;0.570151
4206.000000;0.579867
4205.000000;0.589997
4204.000000;0.600376
4203.000000;0.610827
4202.000000;0.621390
4201.000000;0.632137
4200.000000;0.642930
4199.000000;0.653648
4198.000000;0.664536
4197.000000;0.675997
4196.000000;0.688122
4195.000000;0.700657
4194.000000;0.713338
4193.000000;0.725945
4192.000000;0.738295
4191.000000;0.750596
4190.000000;0.763612
4189.000000;0.777928
4188.000000;0.793094
4187.000000;0.807998
4186.000000;0.822057
4185.000000;0.835615
4184.000000;0.849265
4183.000000;0.863384
4182.000000;0.878304
4181.000000;0.894181
4180.000000;0.910516
4179.000000;0.926390
4178.000000;0.941424
4177.000000;0.956129
4176.000000;0.971227
4175.000000;0.987073
4174.000000;1.003710
4173.000000;1.020885
4172.000000;1.037947
4171.000000;1.054232
4170.000000;1.069552
4169.000000;1.083953
4168.000000;1.097166
4167.000000;1.108828
4166.000000;1.118989
4165.000000;1.127803
4164.000000;1.135020
4163.000000;1.140376
4162.000000;1.144067
4161.000000;1.146198
4160.000000;1.146177
4159.000000;1.143476
4158.000000;1.138687
4157.000000;1.132971
4156.000000;1.126572
4155.000000;1.118565
4154.000000;1.108156
4153.000000;1.095858
4152.000000;1.083153
4151.000000;1.071207
4150.000000;1.060205
4149.000000;1.049786
4148.000000;1.039562
4147.000000;1.028971
4146.000000;1.017164
4145.000000;1.003690
4144.000000;0.989158
4143.000000;0.974728
4142.000000;0.961026
4141.000000;0.947962
4140.000000;0.935439
4139.000000;0.923702
4138.000000;0.912909
4137.000000;0.902756
4136.000000;0.892658
4135.000000;0.882123
4134.000000;0.870994
4133.000000;0.859612
4132.000000;0.848715
4131.000000;0.838886
4130.000000;0.830008
4129.000000;0.821449
4128.000000;0.812760
4127.000000;0.803974
4126.000000;0.795263
4125.000000;0.786637
4124.000000;0.778074
4123.000000;0.769687
4122.000000;0.761596
4121.000000;0.753767
4120.000000;0.746063
4119.000000;0.738446
4118.000000;0.731059
4117.000000;0.724142
4116.000000;0.717806
4115.000000;0.711843
4114.000000;0.705815
4113.000000;0.699386
4112.000000;0.692587
4111.000000;0.685754
4110.000000;0.679302
4109.000000;0.673473
4108.000000;0.668125
4107.000000;0.662736
4106.000000;0.656856
4105.000000;0.650642
4104.000000;0.644782
4103.000000;0.639779
4102.000000;0.635479
4101.000000;0.631329
4100.000000;0.626907
4099.000000;0.622120
4098.000000;0.617133
4097.000000;0.612284
4096.000000;0.607848
4095.000000;0.603705
4094.000000;0.599407
4093.000000;0.594742
4092.000000;0.590066
4091.000000;0.585865
4090.000000;0.582195
4089.000000;0.578755
4088.000000;0.575328
4087.000000;0.571905
4086.000000;0.568482
4085.000000;0.564994
4084.000000;0.561411
4083.000000;0.557704
4082.000000;0.553806
4081.000000;0.549757
4080.000000;0.545796
4079.000000;0.542122
4078.000000;0.538687
4077.000000;0.535383
4076.000000;0.532298
4075.000000;0.529550
4074.000000;0.526983
4073.000000;0.524280
4072.000000;0.521345
4071.000000;0.518352
4070.000000;0.515446
4069.000000;0.512611
4068.000000;0.509824
4067.000000;0.507139
4066.000000;0.504580
4065.000000;0.502051
4064.000000;0.499397
4063.000000;0.496517
4062.000000;0.493488
4061.000000;0.490610
4060.000000;0.488171
4059.000000;0.486076
4058.000000;0.483859
4057.000000;0.481222
4056.000000;0.478380
4055.000000;0.475714
4054.000000;0.473271
4053.000000;0.470866
4052.000000;0.468499
4051.000000;0.466350
4050.000000;0.464397
4049.000000;0.462345
4048.000000;0.459975
4047.000000;0.457356
4046.000000;0.454707
4045.000000;0.452219
4044.000000;0.450017
4043.000000;0.448095
4042.000000;0.446265
4041.000000;0.444329
4040.000000;0.442314
4039.000000;0.440386
4038.000000;0.438564
4037.000000;0.436692
4036.000000;0.434705
4035.000000;0.432759
4034.000000;0.431028
4033.000000;0.429496
4032.000000;0.427971
4031.000000;0.426239
4030.000000;0.424203
4029.000000;0.421978
4028.000000;0.419819
4027.000000;0.417890
4026.000000;0.416144
4025.000000;0.414471
4024.000000;0.412845
4023.000000;0.411233
4022.000000;0.409498
4021.000000;0.407585
4020.000000;0.405708
4019.000000;0.404120
4018.000000;0.402790
4017.000000;0.401479
4016.000000;0.400104
4015.000000;0.398782
4014.000000;0.397537
4013.000000;0.396187
4012.000000;0.394567
4011.000000;0.392705
4010.000000;0.390740
4009.000000;0.388838
4008.000000;0.387185
4007.000000;0.385884
4006.000000;0.384827
4005.000000;0.383777
4004.000000;0.382593
4003.000000;0.381259
4002.000000;0.379757
4001.000000;0.378107
4000.000000;0.376513
3999.000000;0.375220
3998.000000;0.374187
3997.000000;0.373091
3996.000000;0.371756
3995.000000;0.370370
3994.000000;0.369199
3993.000000;0.368234
3992.000000;0.367246
3991.000000;0.366072
3990.000000;0.364747
3989.000000;0.363426
3988.000000;0.362266
3987.000000;0.361285
3986.000000;0.360291
3985.000000;0.359030
3984.000000;0.357490
3983.000000;0.355958
3982.000000;0.354715
3981.000000;0.353754
3980.000000;0.352869
3979.000000;0.351936
3978.000000;0.350985
3977.000000;0.350056
3976.000000;0.349102
3975.000000;0.348047
3974.000000;0.346883
3973.000000;0.345685
3972.000000;0.344541
3971.000000;0.343482
3970.000000;0.342480
3969.000000;0.341519
3968.000000;0.340638
3967.000000;0.339859
3966.000000;0.339113
3965.000000;0.338271
3964.000000;0.337266
3963.000000;0.336108
3962.000000;0.334849
3961.000000;0.333593
3960.000000;0.332520
3959.000000;0.331736
3958.000000;0.331087
3957.000000;0.330241
3956.000000;0.329036
3955.000000;0.327684
3954.000000;0.326524
3953.000000;0.325635
3952.000000;0.324779
3951.000000;0.323704
3950.000000;0.322433
3949.000000;0.321218
3948.000000;0.320254
3947.000000;0.319481
3946.000000;0.318658
3945.000000;0.317606
3944.000000;0.316381
3943.000000;0.315221
3942.000000;0.314315
3941.000000;0.313632
3940.000000;0.312980
3939.000000;0.312230
3938.000000;0.311420
3937.000000;0.310618
3936.000000;0.309730
3935.000000;0.308572
3934.000000;0.307149
3933.000000;0.305751
3932.000000;0.304696
3931.000000;0.304025
3930.000000;0.303503
3929.000000;0.302840
3928.000000;0.301858
3927.000000;0.300572
3926.000000;0.299228
3925.000000;0.298166
3924.000000;0.297476
3923.000000;0.296840
3922.000000;0.295885
3921.000000;0.294644
3920.000000;0.293451
3919.000000;0.292451
3918.000000;0.291491
3917.000000;0.290492
3916.000000;0.289614
3915.000000;0.288942
3914.000000;0.288286
3913.000000;0.287467
3912.000000;0.286577
3911.000000;0.285757
3910.000000;0.284942
3909.000000;0.284016
3908.000000;0.283032
3907.000000;0.282070
3906.000000;0.281039
3905.000000;0.279889
3904.000000;0.278821
3903.000000;0.278040
3902.000000;0.277419
3901.000000;0.276696
3900.000000;0.275919
3899.000000;0.275405
3898.000000;0.275281
3897.000000;0.275326
3896.000000;0.275247
3895.000000;0.274862
3894.000000;0.274080
3893.000000;0.272992
3892.000000;0.272012
3891.000000;0.271596
3890.000000;0.271713
3889.000000;0.271834
3888.000000;0.271494
3887.000000;0.270726
3886.000000;0.269869
3885.000000;0.269179
3884.000000;0.268729
3883.000000;0.268490
3882.000000;0.268349
3881.000000;0.268178
3880.000000;0.267968
3879.000000;0.267798
3878.000000;0.267695
3877.000000;0.267592
3876.000000;0.267462
3875.000000;0.267351
3874.000000;0.267229
3873.000000;0.266945
3872.000000;0.266467
3871.000000;0.266035
3870.000000;0.265912
3869.000000;0.266050
3868.000000;0.266159
3867.000000;0.266051
3866.000000;0.265801
3865.000000;0.265628
3864.000000;0.265699
3863.000000;0.265998
3862.000000;0.266328
3861.000000;0.266475
3860.000000;0.266383
3859.000000;0.266118
3858.000000;0.265688
3857.000000;0.265031
3856.000000;0.264210
3855.000000;0.263504
3854.000000;0.263168
3853.000000;0.263240
3852.000000;0.263534
3851.000000;0.263822
3850.000000;0.264080
3849.000000;0.264455
3848.000000;0.265042
3847.000000;0.265716
3846.000000;0.266203
3845.000000;0.266333
3844.000000;0.266160
3843.000000;0.265832
3842.000000;0.265426
3841.000000;0.264972
3840.000000;0.264557
3839.000000;0.264329
3838.000000;0.264392
3837.000000;0.264727
3836.000000;0.265196
3835.000000;0.265597
3834.000000;0.265731
3833.000000;0.265529
3832.000000;0.265142
3831.000000;0.264836
3830.000000;0.264794
3829.000000;0.265011
3828.000000;0.265359
3827.000000;0.265657
3826.000000;0.265745
3825.000000;0.265583
3824.000000;0.265316
3823.000000;0.265155
3822.000000;0.265174
3821.000000;0.265277
3820.000000;0.265330
3819.000000;0.265276
3818.000000;0.265181
3817.000000;0.265170
3816.000000;0.265309
3815.000000;0.265591
3814.000000;0.265990
3813.000000;0.266460
3812.000000;0.266878
3811.000000;0.267077
3810.000000;0.266971
3809.000000;0.266648
3808.000000;0.266299
3807.000000;0.266046
3806.000000;0.265892
3805.000000;0.265814
3804.000000;0.265820
3803.000000;0.265906
3802.000000;0.266066
3801.000000;0.266352
3800.000000;0.266806
3799.000000;0.267348
3798.000000;0.267793
3797.000000;0.268061
3796.000000;0.268300
3795.000000;0.268699
3794.000000;0.269205
3793.000000;0.269562
3792.000000;0.269611
3791.000000;0.269482
3790.000000;0.269465
3789.000000;0.269729
3788.000000;0.270199
3787.000000;0.270627
3786.000000;0.270794
3785.000000;0.270684
3784.000000;0.270479
3783.000000;0.270365
3782.000000;0.270349
3781.000000;0.270299
3780.000000;0.270149
3779.000000;0.270003
3778.000000;0.270013
3777.000000;0.270225
3776.000000;0.270565
3775.000000;0.270916
3774.000000;0.271206
3773.000000;0.271432
3772.000000;0.271604
3771.000000;0.271698
3770.000000;0.271709
3769.000000;0.271705
3768.000000;0.271753
3767.000000;0.271807
3766.000000;0.271782
3765.000000;0.271746
3764.000000;0.271888
3763.000000;0.272258
3762.000000;0.272628
3761.000000;0.272739
3760.000000;0.272618
3759.000000;0.272517
3758.000000;0.272567
3757.000000;0.272653
3756.000000;0.272635
3755.000000;0.272512
3754.000000;0.272364
3753.000000;0.272238
3752.000000;0.272167
3751.000000;0.272205
3750.000000;0.272347
3749.000000;0.272483
3748.000000;0.272585
3747.000000;0.272776
3746.000000;0.273168
3745.000000;0.273732
3744.000000;0.274290
3743.000000;0.274705
3742.000000;0.274991
3741.000000;0.275130
3740.000000;0.275078
3739.000000;0.274926
3738.000000;0.274873
3737.000000;0.275046
3736.000000;0.275387
3735.000000;0.275722
3734.000000;0.275924
3733.000000;0.276028
3732.000000;0.276183
3731.000000;0.276447
3730.000000;0.276710
3729.000000;0.276866
3728.000000;0.276988
3727.000000;0.277199
3726.000000;0.277447
3725.000000;0.277575
3724.000000;0.277562
3723.000000;0.277554
3722.000000;0.277639
3721.000000;0.277752
3720.000000;0.277798
3719.000000;0.277784
3718.000000;0.277791
3717.000000;0.277903
3716.000000;0.278179
3715.000000;0.278610
3714.000000;0.279063
3713.000000;0.279360
3712.000000;0.279449
3711.000000;0.279436
3710.000000;0.279416
3709.000000;0.279396
3708.000000;0.279409
3707.000000;0.279515
3706.000000;0.279701
3705.000000;0.279892
3704.000000;0.280046
3703.000000;0.280146
3702.000000;0.280170
3701.000000;0.280142
3700.000000;0.280184
3699.000000;0.280391
3698.000000;0.280666
3697.000000;0.280821
3696.000000;0.280851
3695.000000;0.280950
3694.000000;0.281188
3693.000000;0.281372
3692.000000;0.281311
3691.000000;0.281096
3690.000000;0.280997
3689.000000;0.281147
3688.000000;0.281414
3687.000000;0.281642
3686.000000;0.281870
3685.000000;0.282187
3684.000000;0.282547
3683.000000;0.282830
3682.000000;0.282962
3681.000000;0.282959
3680.000000;0.282864
3679.000000;0.282694
3678.000000;0.282462
3677.000000;0.282232
3676.000000;0.282123
3675.000000;0.282244
3674.000000;0.282585
3673.000000;0.283081
3672.000000;0.283687
3671.000000;0.284284
3670.000000;0.284693
3669.000000;0.284872
3668.000000;0.284983
3667.000000;0.285203
3666.000000;0.285470
3665.000000;0.285532
3664.000000;0.285293
3663.000000;0.284993
3662.000000;0.284939
3661.000000;0.285193
3660.000000;0.285596
3659.000000;0.286004
3658.000000;0.286362
3657.000000;0.286613
3656.000000;0.286692
3655.000000;0.286637
3654.000000;0.286607
3653.000000;0.286713
3652.000000;0.286891
3651.000000;0.286990
3650.000000;0.286968
3649.000000;0.286972
3648.000000;0.287117
3647.000000;0.287336
3646.000000;0.287552
3645.000000;0.287774
3644.000000;0.288004
3643.000000;0.288182
3642.000000;0.288280
3641.000000;0.288389
3640.000000;0.288614
3639.000000;0.288885
3638.000000;0.288992
3637.000000;0.288852
3636.000000;0.288672
3635.000000;0.288736
3634.000000;0.289096
3633.000000;0.289587
3632.000000;0.290070
3631.000000;0.290549
3630.000000;0.291008
3629.000000;0.291312
3628.000000;0.291365
3627.000000;0.291246
3626.000000;0.291129
3625.000000;0.291079
3624.000000;0.291011
3623.000000;0.290864
3622.000000;0.290716
3621.000000;0.290702
3620.000000;0.290886
3619.000000;0.291226
3618.000000;0.291630
3617.000000;0.292008
3616.000000;0.292292
3615.000000;0.292436
3614.000000;0.292444
3613.000000;0.292395
3612.000000;0.292394
3611.000000;0.292488
3610.000000;0.292664
3609.000000;0.292878
3608.000000;0.293064
3607.000000;0.293136
3606.000000;0.293066
3605.000000;0.292962
3604.000000;0.292993
3603.000000;0.293192
3602.000000;0.293445
3601.000000;0.293677
3600.000000;0.293941
3599.000000;0.294251
3598.000000;0.294488
3597.000000;0.294568
3596.000000;0.294605
3595.000000;0.294764
3594.000000;0.295037
3593.000000;0.295276
3592.000000;0.295425
3591.000000;0.295571
3590.000000;0.295809
3589.000000;0.296143
3588.000000;0.296516
3587.000000;0.296830
3586.000000;0.296936
3585.000000;0.296760
3584.000000;0.296483
3583.000000;0.296403
3582.000000;0.296621
3581.000000;0.296954
3580.000000;0.297163
3579.000000;0.297146
3578.000000;0.296932
3577.000000;0.296637
3576.000000;0.296474
3575.000000;0.296638
3574.000000;0.297079
3573.000000;0.297496
3572.000000;0.297655
3571.000000;0.297656
3570.000000;0.297771
3569.000000;0.298106
3568.000000;0.298509
3567.000000;0.298807
3566.000000;0.298970
3565.000000;0.299050
3564.000000;0.299103
3563.000000;0.299186
3562.000000;0.299331
3561.000000;0.299507
3560.000000;0.299645
3559.000000;0.299726
3558.000000;0.299808
3557.000000;0.299949
3556.000000;0.300138
3555.000000;0.300328
3554.000000;0.300493
3553.000000;0.300631
3552.000000;0.300727
3551.000000;0.300764
3550.000000;0.300750
3549.000000;0.300698
3548.000000;0.300621
3547.000000;0.300598
3546.000000;0.300793
3545.000000;0.301295
3544.000000;0.301911
3543.000000;0.302263
3542.000000;0.302157
3541.000000;0.301803
3540.000000;0.301558
3539.000000;0.301562
3538.000000;0.301714
3537.000000;0.301941
3536.000000;0.302282
3535.000000;0.302719
3534.000000;0.303070
3533.000000;0.303167
3532.000000;0.303048
3531.000000;0.302923
3530.000000;0.302983
3529.000000;0.303289
3528.000000;0.303749
3527.000000;0.304153
3526.000000;0.304290
3525.000000;0.304123
3524.000000;0.303822
3523.000000;0.303638
3522.000000;0.303739
3521.000000;0.304128
3520.000000;0.304651
3519.000000;0.305090
3518.000000;0.305345
3517.000000;0.305541
3516.000000;0.305846
3515.000000;0.306193
3514.000000;0.306341
3513.000000;0.306250
3512.000000;0.306221
3511.000000;0.306534
3510.000000;0.307075
3509.000000;0.307464
3508.000000;0.307488
3507.000000;0.307270
3506.000000;0.307061
3505.000000;0.307002
3504.000000;0.307082
3503.000000;0.307192
3502.000000;0.307223
3501.000000;0.307180
3500.000000;0.307222
3499.000000;0.307487
3498.000000;0.307905
3497.000000;0.308239
3496.000000;0.308298
3495.000000;0.308058
3494.000000;0.307622
3493.000000;0.307167
3492.000000;0.306911
3491.000000;0.307012
3490.000000;0.307467
3489.000000;0.308122
3488.000000;0.308772
3487.000000;0.309247
3486.000000;0.309454
3485.000000;0.309444
3484.000000;0.309384
3483.000000;0.309397
3482.000000;0.309442
3481.000000;0.309427
3480.000000;0.309380
3479.000000;0.309410
3478.000000;0.309535
3477.000000;0.309656
3476.000000;0.309709
3475.000000;0.309732
3474.000000;0.309784
3473.000000;0.309889
3472.000000;0.310072
3471.000000;0.310356
3470.000000;0.310715
3469.000000;0.311096
3468.000000;0.311507
3467.000000;0.311966
3466.000000;0.312371
3465.000000;0.312526
3464.000000;0.312376
3463.000000;0.312140
3462.000000;0.312112
3461.000000;0.312366
3460.000000;0.312726
3459.000000;0.312978
3458.000000;0.313055
3457.000000;0.313010
3456.000000;0.312902
3455.000000;0.312768
3454.000000;0.312664
3453.000000;0.312672
3452.000000;0.312818
3451.000000;0.313020
3450.000000;0.313156
3449.000000;0.313203
3448.000000;0.313251
3447.000000;0.313369
3446.000000;0.313499
3445.000000;0.313518
3444.000000;0.313409
3443.000000;0.313321
3442.000000;0.313432
3441.000000;0.313766
3440.000000;0.314140
3439.000000;0.314312
3438.000000;0.314209
3437.000000;0.314009
3436.000000;0.313958
3435.000000;0.314129
3434.000000;0.314389
3433.000000;0.314597
3432.000000;0.314756
3431.000000;0.314947
3430.000000;0.315182
3429.000000;0.315391
3428.000000;0.315513
3427.000000;0.315549
3426.000000;0.315560
3425.000000;0.315642
3424.000000;0.315884
3423.000000;0.316313
3422.000000;0.316863
3421.000000;0.317408
3420.000000;0.317794
3419.000000;0.317881
3418.000000;0.317627
3417.000000;0.317177
3416.000000;0.316814
3415.000000;0.316725
3414.000000;0.316846
3413.000000;0.316971
3412.000000;0.316991
3411.000000;0.317008
3410.000000;0.317216
3409.000000;0.317697
3408.000000;0.318300
3407.000000;0.318743
3406.000000;0.318859
3405.000000;0.318749
3404.000000;0.318631
3403.000000;0.318561
3402.000000;0.318425
3401.000000;0.318185
3400.000000;0.317994
3399.000000;0.317992
3398.000000;0.318143
3397.000000;0.318367
3396.000000;0.318720
3395.000000;0.319283
3394.000000;0.319937
3393.000000;0.320420
3392.000000;0.320597
3391.000000;0.320570
3390.000000;0.320508
3389.000000;0.320477
3388.000000;0.320458
3387.000000;0.320446
3386.000000;0.320486
3385.000000;0.320636
3384.000000;0.320877
3383.000000;0.321061
3382.000000;0.321025
3381.000000;0.320811
3380.000000;0.320684
3379.000000;0.320815
3378.000000;0.321049
3377.000000;0.321106
3376.000000;0.320986
3375.000000;0.320976
3374.000000;0.321270
3373.000000;0.321725
3372.000000;0.322065
3371.000000;0.322185
3370.000000;0.322193
3369.000000;0.322231
3368.000000;0.322353
3367.000000;0.322522
3366.000000;0.322678
3365.000000;0.322816
3364.000000;0.323001
3363.000000;0.323275
3362.000000;0.323558
3361.000000;0.323720
3360.000000;0.323735
3359.000000;0.323667
3358.000000;0.323516
3357.000000;0.323202
3356.000000;0.322750
3355.000000;0.322394
3354.000000;0.322398
3353.000000;0.322816
3352.000000;0.323449
3351.000000;0.324006
3350.000000;0.324268
3349.000000;0.324208
3348.000000;0.324027
3347.000000;0.324020
3346.000000;0.324306
3345.000000;0.324709
3344.000000;0.324960
3343.000000;0.324996
3342.000000;0.324973
3341.000000;0.325026
3340.000000;0.325126
3339.000000;0.325215
3338.000000;0.325330
3337.000000;0.325512
3336.000000;0.325657
3335.000000;0.325596
3334.000000;0.325313
3333.000000;0.324992
3332.000000;0.324815
3331.000000;0.324802
3330.000000;0.324880
3329.000000;0.325002
3328.000000;0.325133
3327.000000;0.325200
3326.000000;0.325165
3325.000000;0.325129
3324.000000;0.325245
3323.000000;0.325547
3322.000000;0.325946
3321.000000;0.326377
3320.000000;0.326819
3319.000000;0.327177
3318.000000;0.327287
3317.000000;0.327101
3316.000000;0.326795
3315.000000;0.326604
3314.000000;0.326644
3313.000000;0.326883
3312.000000;0.327204
3311.000000;0.327416
3310.000000;0.327372
3309.000000;0.327174
3308.000000;0.327143
3307.000000;0.327450
3306.000000;0.327856
3305.000000;0.327976
3304.000000;0.327745
3303.000000;0.327450
3302.000000;0.327360
3301.000000;0.327512
3300.000000;0.327844
3299.000000;0.328322
3298.000000;0.328844
3297.000000;0.329181
3296.000000;0.329155
3295.000000;0.328825
3294.000000;0.328428
3293.000000;0.328203
3292.000000;0.328288
3291.000000;0.328679
3290.000000;0.329198
3289.000000;0.329601
3288.000000;0.329784
3287.000000;0.329860
3286.000000;0.329968
3285.000000;0.330086
3284.000000;0.330096
3283.000000;0.329980
3282.000000;0.329846
3281.000000;0.329786
3280.000000;0.329797
3279.000000;0.329838
3278.000000;0.329872
3277.000000;0.329862
3276.000000;0.329791
3275.000000;0.329743
3274.000000;0.329874
3273.000000;0.330239
3272.000000;0.330667
3271.000000;0.330869
3270.000000;0.330709
3269.000000;0.330332
3268.000000;0.330006
3267.000000;0.329865
3266.000000;0.329863
3265.000000;0.329943
3264.000000;0.330147
3263.000000;0.330500
3262.000000;0.330867
3261.000000;0.331035
3260.000000;0.330946
3259.000000;0.330768
3258.000000;0.330709
3257.000000;0.330822
3256.000000;0.330996
3255.000000;0.331095
3254.000000;0.331074
3253.000000;0.331016
3252.000000;0.331074
3251.000000;0.331316
3250.000000;0.331625
3249.000000;0.331806
3248.000000;0.331815
3247.000000;0.331814
3246.000000;0.331953
3245.000000;0.332200
3244.000000;0.332434
3243.000000;0.332630
3242.000000;0.332858
3241.000000;0.333116
3240.000000;0.333297
3239.000000;0.333315
3238.000000;0.333200
3237.000000;0.333016
3236.000000;0.332772
3235.000000;0.332461
3234.000000;0.332149
3233.000000;0.331972
3232.000000;0.332030
3231.000000;0.332279
3230.000000;0.332553
3229.000000;0.332689
3228.000000;0.332678
3227.000000;0.332644
3226.000000;0.332685
3225.000000;0.332756
3224.000000;0.332760
3223.000000;0.332704
3222.000000;0.332675
3221.000000;0.332674
3220.000000;0.332597
3219.000000;0.332437
3218.000000;0.332414
3217.000000;0.332779
3216.000000;0.333494
3215.000000;0.334207
3214.000000;0.334558
3213.000000;0.334472
3212.000000;0.334163
3211.000000;0.333895
3210.000000;0.333798
3209.000000;0.333836
3208.000000;0.333914
3207.000000;0.333993
3206.000000;0.334116
3205.000000;0.334334
3204.000000;0.334612
3203.000000;0.334836
3202.000000;0.334907
3201.000000;0.334780
3200.000000;0.334456
3199.000000;0.333992
3198.000000;0.333546
3197.000000;0.333331
3196.000000;0.333430
3195.000000;0.333715
3194.000000;0.333986
3193.000000;0.334174
3192.000000;0.334349
3191.000000;0.334553
3190.000000;0.334725
3189.000000;0.334791
3188.000000;0.334753
3187.000000;0.334657
3186.000000;0.334546
3185.000000;0.334486
3184.000000;0.334556
3183.000000;0.334749
3182.000000;0.334943
3181.000000;0.335014
3180.000000;0.334944
3179.000000;0.334781
3178.000000;0.334572
3177.000000;0.334409
3176.000000;0.334472
3175.000000;0.334869
3174.000000;0.335427
3173.000000;0.335773
3172.000000;0.335681
3171.000000;0.335292
3170.000000;0.334925
3169.000000;0.334773
3168.000000;0.334813
3167.000000;0.334943
3166.000000;0.335073
3165.000000;0.335142
3164.000000;0.335150
3163.000000;0.335205
3162.000000;0.335418
3161.000000;0.335747
3160.000000;0.336013
3159.000000;0.336118
3158.000000;0.336194
3157.000000;0.336417
3156.000000;0.336751
3155.000000;0.336940
3154.000000;0.336814
3153.000000;0.336504
3152.000000;0.336297
3151.000000;0.336308
3150.000000;0.336369
3149.000000;0.336254
3148.000000;0.335973
3147.000000;0.335755
3146.000000;0.335776
3145.000000;0.335959
3144.000000;0.336104
3143.000000;0.336142
3142.000000;0.336186
3141.000000;0.336344
3140.000000;0.336568
3139.000000;0.336750
3138.000000;0.336873
3137.000000;0.336996
3136.000000;0.337096
3135.000000;0.337055
3134.000000;0.336820
3133.000000;0.336518
3132.000000;0.336342
3131.000000;0.336379
3130.000000;0.336576
3129.000000;0.336834
3128.000000;0.337060
3127.000000;0.337162
3126.000000;0.337082
3125.000000;0.336886
3124.000000;0.336737
3123.000000;0.336716
3122.000000;0.336727
3121.000000;0.336616
3120.000000;0.336388
3119.000000;0.336220
3118.000000;0.336252
3117.000000;0.336433
3116.000000;0.336596
3115.000000;0.336634
3114.000000;0.336568
3113.000000;0.336468
3112.000000;0.336378
3111.000000;0.336338
3110.000000;0.336437
3109.000000;0.336778
3108.000000;0.337354
3107.000000;0.337949
3106.000000;0.338228
3105.000000;0.338004
3104.000000;0.337436
3103.000000;0.336889
3102.000000;0.336571
3101.000000;0.336375
3100.000000;0.336133
3099.000000;0.335896
3098.000000;0.335880
3097.000000;0.336151
3096.000000;0.336511
3095.000000;0.336707
3094.000000;0.336644
3093.000000;0.336368
3092.000000;0.335948
3091.000000;0.335454
3090.000000;0.335012
3089.000000;0.334782
3088.000000;0.334876
3087.000000;0.335296
3086.000000;0.335909
3085.000000;0.336488
3084.000000;0.336839
3083.000000;0.336950
3082.000000;0.336961
3081.000000;0.336995
3080.000000;0.337050
3079.000000;0.337056
3078.000000;0.336975
3077.000000;0.336797
3076.000000;0.336546
3075.000000;0.336310
3074.000000;0.336205
3073.000000;0.336246
3072.000000;0.336329
3071.000000;0.336374
3070.000000;0.336388
3069.000000;0.336339
3068.000000;0.336111
3067.000000;0.335710
3066.000000;0.335394
3065.000000;0.335412
3064.000000;0.335672
3063.000000;0.335832
3062.000000;0.335722
3061.000000;0.335524
3060.000000;0.335518
3059.000000;0.335773
3058.000000;0.336125
3057.000000;0.336331
3056.000000;0.336253
3055.000000;0.335965
3054.000000;0.335714
3053.000000;0.335683
3052.000000;0.335829
3051.000000;0.336032
3050.000000;0.336328
3049.000000;0.336811
3048.000000;0.337328
3047.000000;0.337517
3046.000000;0.337236
3045.000000;0.336757
3044.000000;0.336418
3043.000000;0.336253
3042.000000;0.336098
3041.000000;0.335908
3040.000000;0.335823
3039.000000;0.335968
3038.000000;0.336321
3037.000000;0.336736
3036.000000;0.336999
3035.000000;0.336949
3034.000000;0.336634
3033.000000;0.336297
3032.000000;0.336130
3031.000000;0.336083
3030.000000;0.336025
3029.000000;0.335985
3028.000000;0.336113
3027.000000;0.336431
3026.000000;0.336762
3025.000000;0.336922
3024.000000;0.336868
3023.000000;0.336654
3022.000000;0.336334
3021.000000;0.335954
3020.000000;0.335591
3019.000000;0.335355
3018.000000;0.335335
3017.000000;0.335492
3016.000000;0.335637
3015.000000;0.335591
3014.000000;0.335375
3013.000000;0.335170
3012.000000;0.335081
3011.000000;0.335041
3010.000000;0.334996
3009.000000;0.335020
3008.000000;0.335134
3007.000000;0.335164
3006.000000;0.334935
3005.000000;0.334528
3004.000000;0.334191
3003.000000;0.334044
3002.000000;0.334025
3001.000000;0.334057
3000.000000;0.334117
2999.000000;0.334173
2998.000000;0.334221
2997.000000;0.334368
2996.000000;0.334705
2995.000000;0.335099
2994.000000;0.335278
2993.000000;0.335163
2992.000000;0.334948
2991.000000;0.334821
2990.000000;0.334767
2989.000000;0.334707
2988.000000;0.334677
2987.000000;0.334733
2986.000000;0.334799
2985.000000;0.334752
2984.000000;0.334619
2983.000000;0.334572
2982.000000;0.334736
2981.000000;0.335050
2980.000000;0.335310
2979.000000;0.335308
2978.000000;0.334969
2977.000000;0.334383
2976.000000;0.333733
2975.000000;0.333187
2974.000000;0.332855
2973.000000;0.332800
2972.000000;0.332990
2971.000000;0.333261
2970.000000;0.333425
2969.000000;0.333429
2968.000000;0.333365
2967.000000;0.333334
2966.000000;0.333366
2965.000000;0.333457
2964.000000;0.333591
2963.000000;0.333717
2962.000000;0.333794
2961.000000;0.333852
2960.000000;0.333913
2959.000000;0.333887
2958.000000;0.333673
2957.000000;0.333361
2956.000000;0.333178
2955.000000;0.333193
2954.000000;0.333230
2953.000000;0.333119
2952.000000;0.332886
2951.000000;0.332619
2950.000000;0.332322
2949.000000;0.332010
2948.000000;0.331805
2947.000000;0.331790
2946.000000;0.331872
2945.000000;0.331935
2944.000000;0.332015
2943.000000;0.332163
2942.000000;0.332244
2941.000000;0.332063
2940.000000;0.331670
2939.000000;0.331321
2938.000000;0.331174
2937.000000;0.331198
2936.000000;0.331362
2935.000000;0.331663
2934.000000;0.331940
2933.000000;0.331878
2932.000000;0.331378
2931.000000;0.330770
2930.000000;0.330493
2929.000000;0.330639
2928.000000;0.330928
2927.000000;0.331084
2926.000000;0.331107
2925.000000;0.331149
2924.000000;0.331267
2923.000000;0.331344
2922.000000;0.331244
2921.000000;0.330967
2920.000000;0.330646
2919.000000;0.330396
2918.000000;0.330210
2917.000000;0.330034
2916.000000;0.329907
2915.000000;0.329951
2914.000000;0.330209
2913.000000;0.330530
2912.000000;0.330670
2911.000000;0.330513
2910.000000;0.330190
2909.000000;0.329983
2908.000000;0.330063
2907.000000;0.330307
2906.000000;0.330399
2905.000000;0.330176
2904.000000;0.329815
2903.000000;0.329605
2902.000000;0.329580
2901.000000;0.329519
2900.000000;0.329283
2899.000000;0.329023
2898.000000;0.328964
2897.000000;0.329116
2896.000000;0.329290
2895.000000;0.329317
2894.000000;0.329158
2893.000000;0.328866
2892.000000;0.328554
2891.000000;0.328340
2890.000000;0.328237
2889.000000;0.328107
2888.000000;0.327853
2887.000000;0.327601
2886.000000;0.327578
2885.000000;0.327805
2884.000000;0.328056
2883.000000;0.328134
2882.000000;0.328067
2881.000000;0.327961
2880.000000;0.327807
2879.000000;0.327544
2878.000000;0.327234
2877.000000;0.327033
2876.000000;0.327010
2875.000000;0.327084
2874.000000;0.327144
2873.000000;0.327141
2872.000000;0.327074
2871.000000;0.326967
2870.000000;0.326891
2869.000000;0.326950
2868.000000;0.327172
2867.000000;0.327420
2866.000000;0.327435
2865.000000;0.327018
2864.000000;0.326211
2863.000000;0.325340
2862.000000;0.324831
2861.000000;0.324892
2860.000000;0.325329
2859.000000;0.325728
2858.000000;0.325837
2857.000000;0.325781
2856.000000;0.325861
2855.000000;0.326199
2854.000000;0.326590
2853.000000;0.326686
2852.000000;0.326298
2851.000000;0.325554
2850.000000;0.324804
2849.000000;0.324371
2848.000000;0.324335
2847.000000;0.324529
2846.000000;0.324713
2845.000000;0.324736
2844.000000;0.324576
2843.000000;0.324274
2842.000000;0.323913
2841.000000;0.323631
2840.000000;0.323591
2839.000000;0.323886
2838.000000;0.324452
2837.000000;0.325055
2836.000000;0.325399
2835.000000;0.325305
2834.000000;0.324851
2833.000000;0.324317
2832.000000;0.323956
2831.000000;0.323814
2830.000000;0.323786
2829.000000;0.323762
2828.000000;0.323682
2827.000000;0.323507
2826.000000;0.323251
2825.000000;0.323032
2824.000000;0.322967
2823.000000;0.322998
2822.000000;0.322914
2821.000000;0.322595
2820.000000;0.322141
2819.000000;0.321709
2818.000000;0.321347
2817.000000;0.321077
2816.000000;0.321023
2815.000000;0.321276
2814.000000;0.321682
2813.000000;0.321933
2812.000000;0.321920
2811.000000;0.321839
2810.000000;0.321890
2809.000000;0.322026
2808.000000;0.322089
2807.000000;0.322082
2806.000000;0.322149
2805.000000;0.322292
2804.000000;0.322279
2803.000000;0.321911
2802.000000;0.321313
2801.000000;0.320856
2800.000000;0.320780
2799.000000;0.320941
2798.000000;0.320967
2797.000000;0.320659
2796.000000;0.320183
2795.000000;0.319869
2794.000000;0.319872
2793.000000;0.320079
2792.000000;0.320293
2791.000000;0.320410
2790.000000;0.320393
2789.000000;0.320193
2788.000000;0.319796
2787.000000;0.319328
2786.000000;0.319005
2785.000000;0.318944
2784.000000;0.319036
2783.000000;0.319059
2782.000000;0.318899
2781.000000;0.318648
2780.000000;0.318474
2779.000000;0.318412
2778.000000;0.318319
2777.000000;0.318046
2776.000000;0.317620
2775.000000;0.317234
2774.000000;0.317047
2773.000000;0.317060
2772.000000;0.317172
2771.000000;0.317306
2770.000000;0.317434
2769.000000;0.317500
2768.000000;0.317410
2767.000000;0.317118
2766.000000;0.316715
2765.000000;0.316359
2764.000000;0.316109
2763.000000;0.315879
2762.000000;0.315614
2761.000000;0.315441
2760.000000;0.315534
2759.000000;0.315815
2758.000000;0.315943
2757.000000;0.315692
2756.000000;0.315224
2755.000000;0.314872
2754.000000;0.314761
2753.000000;0.314775
2752.000000;0.314824
2751.000000;0.314910
2750.000000;0.314968
2749.000000;0.314858
2748.000000;0.314591
2747.000000;0.314368
2746.000000;0.314294
2745.000000;0.314241
2744.000000;0.314099
2743.000000;0.314008
2742.000000;0.314192
2741.000000;0.314634
2740.000000;0.315077
2739.000000;0.315263
2738.000000;0.315086
2737.000000;0.314600
2736.000000;0.314029
2735.000000;0.313673
2734.000000;0.313629
2733.000000;0.313657
2732.000000;0.313461
2731.000000;0.313083
2730.000000;0.312831
2729.000000;0.312865
2728.000000;0.313030
2727.000000;0.313096
2726.000000;0.312984
2725.000000;0.312719
2724.000000;0.312349
2723.000000;0.311981
2722.000000;0.311761
2721.000000;0.311707
2720.000000;0.311685
2719.000000;0.311600
2718.000000;0.311540
2717.000000;0.311628
2716.000000;0.311832
2715.000000;0.312008
2714.000000;0.312053
2713.000000;0.311944
2712.000000;0.311705
2711.000000;0.311425
2710.000000;0.311240
2709.000000;0.311207
2708.000000;0.311223
2707.000000;0.311146
2706.000000;0.310956
2705.000000;0.310719
2704.000000;0.310461
2703.000000;0.310174
2702.000000;0.309915
2701.000000;0.309780
2700.000000;0.309756
2699.000000;0.309701
2698.000000;0.309514
2697.000000;0.309251
2696.000000;0.309032
2695.000000;0.308903
2694.000000;0.308806
2693.000000;0.308675
2692.000000;0.308490
2691.000000;0.308291
2690.000000;0.308164
2689.000000;0.308188
2688.000000;0.308337
2687.000000;0.308468
2686.000000;0.308445
2685.000000;0.308291
2684.000000;0.308147
2683.000000;0.308095
2682.000000;0.308085
2681.000000;0.308054
2680.000000;0.308030
2679.000000;0.308046
2678.000000;0.308008
2677.000000;0.307759
2676.000000;0.307262
2675.000000;0.306656
2674.000000;0.306142
2673.000000;0.305870
2672.000000;0.305873
2671.000000;0.305995
2670.000000;0.305926
2669.000000;0.305463
2668.000000;0.304810
2667.000000;0.304444
2666.000000;0.304638
2665.000000;0.305194
2664.000000;0.305699
2663.000000;0.305890
2662.000000;0.305726
2661.000000;0.305284
2660.000000;0.304774
2659.000000;0.304503
2658.000000;0.304616
2657.000000;0.304907
2656.000000;0.305039
2655.000000;0.304923
2654.000000;0.304709
2653.000000;0.304468
2652.000000;0.304108
2651.000000;0.303614
2650.000000;0.303187
2649.000000;0.303035
2648.000000;0.303154
2647.000000;0.303364
2646.000000;0.303464
2645.000000;0.303327
2644.000000;0.302972
2643.000000;0.302583
2642.000000;0.302381
2641.000000;0.302392
2640.000000;0.302421
2639.000000;0.302273
2638.000000;0.301945
2637.000000;0.301586
2636.000000;0.301362
2635.000000;0.301380
2634.000000;0.301617
2633.000000;0.301902
2632.000000;0.302035
2631.000000;0.301985
2630.000000;0.301889
2629.000000;0.301842
2628.000000;0.301795
2627.000000;0.301668
2626.000000;0.301485
2625.000000;0.301328
2624.000000;0.301221
2623.000000;0.301097
2622.000000;0.300816
2621.000000;0.300277
2620.000000;0.299579
2619.000000;0.299049
2618.000000;0.298954
2617.000000;0.299183
2616.000000;0.299346
2615.000000;0.299214
2614.000000;0.298895
2613.000000;0.298590
2612.000000;0.298382
2611.000000;0.298323
2610.000000;0.298465
2609.000000;0.298684
2608.000000;0.298654
2607.000000;0.298224
2606.000000;0.297662
2605.000000;0.297343
2604.000000;0.297309
2603.000000;0.297316
2602.000000;0.297218
2601.000000;0.297094
2600.000000;0.297027
2599.000000;0.296991
2598.000000;0.296943
2597.000000;0.296864
2596.000000;0.296686
2595.000000;0.296341
2594.000000;0.295895
2593.000000;0.295510
2592.000000;0.295258
2591.000000;0.295096
2590.000000;0.295026
2589.000000;0.295125
2588.000000;0.295373
2587.000000;0.295589
2586.000000;0.295624
2585.000000;0.295503
2584.000000;0.295325
2583.000000;0.295123
2582.000000;0.294916
2581.000000;0.294809
2580.000000;0.294896
2579.000000;0.295091
2578.000000;0.295176
2577.000000;0.295049
2576.000000;0.294848
2575.000000;0.294776
2574.000000;0.294852
2573.000000;0.294903
2572.000000;0.294789
2571.000000;0.294556
2570.000000;0.294342
2569.000000;0.294177
2568.000000;0.293957
2567.000000;0.293612
2566.000000;0.293222
2565.000000;0.292926
2564.000000;0.292774
2563.000000;0.292686
2562.000000;0.292541
2561.000000;0.292282
2560.000000;0.291977
2559.000000;0.291786
2558.000000;0.291822
2557.000000;0.292010
2556.000000;0.292125
2555.000000;0.292009
2554.000000;0.291718
2553.000000;0.291441
2552.000000;0.291311
2551.000000;0.291339
2550.000000;0.291454
2549.000000;0.291521
2548.000000;0.291380
2547.000000;0.290961
2546.000000;0.290402
2545.000000;0.289986
2544.000000;0.289920
2543.000000;0.290153
2542.000000;0.290412
2541.000000;0.290404
2540.000000;0.290037
2539.000000;0.289483
2538.000000;0.289028
2537.000000;0.288821
2536.000000;0.288802
2535.000000;0.288846
2534.000000;0.288922
2533.000000;0.289046
2532.000000;0.289151
2531.000000;0.289121
2530.000000;0.288953
2529.000000;0.288805
2528.000000;0.288793
2527.000000;0.288795
2526.000000;0.288552
2525.000000;0.287991
2524.000000;0.287374
2523.000000;0.287044
2522.000000;0.287048
2521.000000;0.287119
2520.000000;0.287025
2519.000000;0.286842
2518.000000;0.286775
2517.000000;0.286820
2516.000000;0.286746
2515.000000;0.286397
2514.000000;0.285895
2513.000000;0.285504
2512.000000;0.285406
2511.000000;0.285625
2510.000000;0.286044
2509.000000;0.286447
2508.000000;0.286626
2507.000000;0.286544
2506.000000;0.286344
2505.000000;0.286173
2504.000000;0.286044
2503.000000;0.285889
2502.000000;0.285675
2501.000000;0.285424
2500.000000;0.285169
2499.000000;0.284955
2498.000000;0.284817
2497.000000;0.284732
2496.000000;0.284612
2495.000000;0.284404
2494.000000;0.284140
2493.000000;0.283880
2492.000000;0.283664
2491.000000;0.283538
2490.000000;0.283523
2489.000000;0.283540
2488.000000;0.283457
2487.000000;0.283253
2486.000000;0.283042
2485.000000;0.282886
2484.000000;0.282701
2483.000000;0.282436
2482.000000;0.282220
2481.000000;0.282184
2480.000000;0.282230
2479.000000;0.282145
2478.000000;0.281894
2477.000000;0.281664
2476.000000;0.281602
2475.000000;0.281668
2474.000000;0.281736
2473.000000;0.281728
2472.000000;0.281611
2471.000000;0.281378
2470.000000;0.281094
2469.000000;0.280882
2468.000000;0.280805
2467.000000;0.280799
2466.000000;0.280773
2465.000000;0.280717
2464.000000;0.280670
2463.000000;0.280621
2462.000000;0.280490
2461.000000;0.280235
2460.000000;0.279928
2459.000000;0.279701
2458.000000;0.279599
2457.000000;0.279532
2456.000000;0.279389
2455.000000;0.279172
2454.000000;0.278951
2453.000000;0.278730
2452.000000;0.278437
2451.000000;0.278086
2450.000000;0.277825
2449.000000;0.277776
2448.000000;0.277878
2447.000000;0.277957
2446.000000;0.277911
2445.000000;0.277756
2444.000000;0.277542
2443.000000;0.277296
2442.000000;0.277031
2441.000000;0.276767
2440.000000;0.276533
2439.000000;0.276379
2438.000000;0.276339
2437.000000;0.276353
2436.000000;0.276297
2435.000000;0.276138
2434.000000;0.275992
2433.000000;0.275954
2432.000000;0.275956
2431.000000;0.275879
2430.000000;0.275747
2429.000000;0.275709
2428.000000;0.275835
2427.000000;0.276033
2426.000000;0.276156
2425.000000;0.276105
2424.000000;0.275846
2423.000000;0.275432
2422.000000;0.275007
2421.000000;0.274719
2420.000000;0.274572
2419.000000;0.274459
2418.000000;0.274307
2417.000000;0.274135
2416.000000;0.273950
2415.000000;0.273691
2414.000000;0.273334
2413.000000;0.272979
2412.000000;0.272777
2411.000000;0.272786
2410.000000;0.272938
2409.000000;0.273114
2408.000000;0.273223
2407.000000;0.273233
2406.000000;0.273161
2405.000000;0.273013
2404.000000;0.272762
2403.000000;0.272397
2402.000000;0.272004
2401.000000;0.271727
2400.000000;0.271648
2399.000000;0.271707
2398.000000;0.271780
2397.000000;0.271787
2396.000000;0.271736
2395.000000;0.271681
2394.000000;0.271661
2393.000000;0.271661
2392.000000;0.271625
2391.000000;0.271500
2390.000000;0.271294
2389.000000;0.271059
2388.000000;0.270847
2387.000000;0.270692
2386.000000;0.270612
2385.000000;0.270604
2384.000000;0.270632
2383.000000;0.270649
2382.000000;0.270614
2381.000000;0.270473
2380.000000;0.270150
2379.000000;0.269625
2378.000000;0.269026
2377.000000;0.268591
2376.000000;0.268498
2375.000000;0.268721
2374.000000;0.269041
2373.000000;0.269223
2372.000000;0.269163
2371.000000;0.268934
2370.000000;0.268682
2369.000000;0.268486
2368.000000;0.268310
2367.000000;0.268105
2366.000000;0.267921
2365.000000;0.267835
2364.000000;0.267814
2363.000000;0.267769
2362.000000;0.267656
2361.000000;0.267511
2360.000000;0.267405
2359.000000;0.267303
2358.000000;0.267139
2357.000000;0.266924
2356.000000;0.266749
2355.000000;0.266789
2354.000000;0.267086
2353.000000;0.267456
2352.000000;0.267492
2351.000000;0.266943
2350.000000;0.266038
2349.000000;0.265247
2348.000000;0.264924
2347.000000;0.264977
2346.000000;0.265032
2345.000000;0.264883
2344.000000;0.264624
2343.000000;0.264543
2342.000000;0.264631
2341.000000;0.264756
2340.000000;0.264873
2339.000000;0.265049
2338.000000;0.265264
2337.000000;0.265288
2336.000000;0.264966
2335.000000;0.264399
2334.000000;0.263919
2333.000000;0.263708
2332.000000;0.263738
2331.000000;0.263816
2330.000000;0.263899
2329.000000;0.263881
2328.000000;0.263782
2327.000000;0.263591
2326.000000;0.263401
2325.000000;0.263249
2324.000000;0.263117
2323.000000;0.263046
2322.000000;0.263052
2321.000000;0.263092
2320.000000;0.263053
2319.000000;0.262915
2318.000000;0.262808
2317.000000;0.262791
2316.000000;0.262808
2315.000000;0.262688
2314.000000;0.262437
2313.000000;0.262112
2312.000000;0.261822
2311.000000;0.261540
2310.000000;0.261270
2309.000000;0.260988
2308.000000;0.260787
2307.000000;0.260748
2306.000000;0.260893
2305.000000;0.261021
2304.000000;0.260904
2303.000000;0.260515
2302.000000;0.260127
2301.000000;0.259974
2300.000000;0.260043
2299.000000;0.260103
2298.000000;0.260038
2297.000000;0.259895
2296.000000;0.259809
2295.000000;0.259837
2294.000000;0.259977
2293.000000;0.260130
2292.000000;0.260136
2291.000000;0.259878
2290.000000;0.259421
2289.000000;0.258973
2288.000000;0.258712
2287.000000;0.258675
2286.000000;0.258763
2285.000000;0.258818
2284.000000;0.258693
2283.000000;0.258359
2282.000000;0.257950
2281.000000;0.257662
2280.000000;0.257576
2279.000000;0.257622
2278.000000;0.257691
2277.000000;0.257740
2276.000000;0.257776
2275.000000;0.257779
2274.000000;0.257708
2273.000000;0.257538
2272.000000;0.257286
2271.000000;0.257011
2270.000000;0.256774
2269.000000;0.256597
2268.000000;0.256437
2267.000000;0.256246
2266.000000;0.256051
2265.000000;0.255945
2264.000000;0.255973
2263.000000;0.256059
2262.000000;0.256065
2261.000000;0.255931
2260.000000;0.255711
2259.000000;0.255503
2258.000000;0.255352
2257.000000;0.255251
2256.000000;0.255199
2255.000000;0.255211
2254.000000;0.255268
2253.000000;0.255279
2252.000000;0.255159
2251.000000;0.254930
2250.000000;0.254724
2249.000000;0.254652
2248.000000;0.254685
2247.000000;0.254685
2246.000000;0.254548
2245.000000;0.254330
2244.000000;0.254187
2243.000000;0.254199
2242.000000;0.254253
2241.000000;0.254158
2240.000000;0.253866
2239.000000;0.253537
2238.000000;0.253332
2237.000000;0.253238
2236.000000;0.253125
2235.000000;0.252943
2234.000000;0.252755
2233.000000;0.252627
2232.000000;0.252580
2231.000000;0.252626
2230.000000;0.252761
2229.000000;0.252894
2228.000000;0.252910
2227.000000;0.252814
2226.000000;0.252746
2225.000000;0.252792
2224.000000;0.252853
2223.000000;0.252774
2222.000000;0.252519
2221.000000;0.252197
2220.000000;0.251936
2219.000000;0.251804
2218.000000;0.251775
2217.000000;0.251740
2216.000000;0.251565
2215.000000;0.251207
2214.000000;0.250755
2213.000000;0.250349
2212.000000;0.250074
2211.000000;0.249966
2210.000000;0.250023
2209.000000;0.250162
2208.000000;0.250220
2207.000000;0.250081
2206.000000;0.249790
2205.000000;0.249501
2204.000000;0.249311
2203.000000;0.249182
2202.000000;0.249046
2201.000000;0.248916
2200.000000;0.248894
2199.000000;0.249055
2198.000000;0.249342
2197.000000;0.249597
2196.000000;0.249693
2195.000000;0.249633
2194.000000;0.249483
2193.000000;0.249251
2192.000000;0.248907
2191.000000;0.248511
2190.000000;0.248220
2189.000000;0.248135
2188.000000;0.248199
2187.000000;0.248278
2186.000000;0.248284
2185.000000;0.248201
2184.000000;0.248028
2183.000000;0.247763
2182.000000;0.247424
2181.000000;0.247061
2180.000000;0.246763
2179.000000;0.246634
2178.000000;0.246690
2177.000000;0.246783
2176.000000;0.246720
2175.000000;0.246489
2174.000000;0.246292
2173.000000;0.246293
2172.000000;0.246412
2171.000000;0.246447
2170.000000;0.246320
2169.000000;0.246131
2168.000000;0.246014
2167.000000;0.246024
2166.000000;0.246111
2165.000000;0.246145
2164.000000;0.245993
2163.000000;0.245676
2162.000000;0.245419
2161.000000;0.245443
2160.000000;0.245708
2159.000000;0.245934
2158.000000;0.245885
2157.000000;0.245575
2156.000000;0.245196
2155.000000;0.244917
2154.000000;0.244789
2153.000000;0.244774
2152.000000;0.244803
2151.000000;0.244828
2150.000000;0.244849
2149.000000;0.244898
2148.000000;0.244993
2147.000000;0.245093
2146.000000;0.245115
2145.000000;0.244969
2144.000000;0.244626
2143.000000;0.244152
2142.000000;0.243671
2141.000000;0.243290
2140.000000;0.243056
2139.000000;0.242974
2138.000000;0.243020
2137.000000;0.243129
2136.000000;0.243204
2135.000000;0.243183
2134.000000;0.243089
2133.000000;0.242988
2132.000000;0.242907
2131.000000;0.242804
2130.000000;0.242608
2129.000000;0.242288
2128.000000;0.241927
2127.000000;0.241697
2126.000000;0.241712
2125.000000;0.241894
2124.000000;0.242028
2123.000000;0.241993
2122.000000;0.241865
2121.000000;0.241788
2120.000000;0.241798
2119.000000;0.241824
2118.000000;0.241798
2117.000000;0.241696
2116.000000;0.241525
2115.000000;0.241333
2114.000000;0.241206
2113.000000;0.241184
2112.000000;0.241194
2111.000000;0.241118
2110.000000;0.240923
2109.000000;0.240657
2108.000000;0.240368
2107.000000;0.240080
2106.000000;0.239856
2105.000000;0.239774
2104.000000;0.239832
2103.000000;0.239926
2102.000000;0.239942
2101.000000;0.239835
2100.000000;0.239609
2099.000000;0.239288
2098.000000;0.238953
2097.000000;0.238741
2096.000000;0.238739
2095.000000;0.238869
2094.000000;0.238942
2093.000000;0.238842
2092.000000;0.238641
2091.000000;0.238504
2090.000000;0.238505
2089.000000;0.238574
2088.000000;0.238601
2087.000000;0.238542
2086.000000;0.238407
2085.000000;0.238205
2084.000000;0.237964
2083.000000;0.237776
2082.000000;0.237735
2081.000000;0.237818
2080.000000;0.237878
2079.000000;0.237782
2078.000000;0.237530
2077.000000;0.237222
2076.000000;0.236954
2075.000000;0.236749
2074.000000;0.236578
2073.000000;0.236424
2072.000000;0.236335
2071.000000;0.236399
2070.000000;0.236625
2069.000000;0.236876
2068.000000;0.236987
2067.000000;0.236935
2066.000000;0.236827
2065.000000;0.236722
2064.000000;0.236562
2063.000000;0.236317
2062.000000;0.236096
2061.000000;0.236029
2060.000000;0.236096
2059.000000;0.236144
2058.000000;0.236037
2057.000000;0.235759
2056.000000;0.235383
2055.000000;0.235025
2054.000000;0.234794
2053.000000;0.234721
2052.000000;0.234732
2051.000000;0.234724
2050.000000;0.234672
2049.000000;0.234628
2048.000000;0.234637
2047.000000;0.234662
2046.000000;0.234608
2045.000000;0.234403
2044.000000;0.234094
2043.000000;0.233858
2042.000000;0.233867
2041.000000;0.234101
2040.000000;0.234328
2039.000000;0.234314
2038.000000;0.234021
2037.000000;0.233585
2036.000000;0.233165
2035.000000;0.232862
2034.000000;0.232743
2033.000000;0.232820
2032.000000;0.233016
2031.000000;0.233195
2030.000000;0.233253
2029.000000;0.233161
2028.000000;0.232940
2027.000000;0.232648
2026.000000;0.232386
2025.000000;0.232243
2024.000000;0.232234
2023.000000;0.232308
2022.000000;0.232414
2021.000000;0.232513
2020.000000;0.232567
2019.000000;0.232563
2018.000000;0.232554
2017.000000;0.232604
2016.000000;0.232681
2015.000000;0.232648
2014.000000;0.232408
2013.000000;0.232031
2012.000000;0.231711
2011.000000;0.231588
2010.000000;0.231627
2009.000000;0.231657
2008.000000;0.231531
2007.000000;0.231234
2006.000000;0.230868
2005.000000;0.230545
2004.000000;0.230335
2003.000000;0.230280
2002.000000;0.230383
2001.000000;0.230552
2000.000000;0.230624
1999.000000;0.230501
1998.000000;0.230254
1997.000000;0.230030
1996.000000;0.229898
1995.000000;0.229811
1994.000000;0.229700
1993.000000;0.229548
1992.000000;0.229381
1991.000000;0.229237
1990.000000;0.229177
1989.000000;0.229259
1988.000000;0.229472
1987.000000;0.229702
1986.000000;0.229816
1985.000000;0.229761
1984.000000;0.229590
1983.000000;0.229390
1982.000000;0.229213
1981.000000;0.229061
1980.000000;0.228927
1979.000000;0.228820
1978.000000;0.228757
1977.000000;0.228745
1976.000000;0.228786
1975.000000;0.228871
1974.000000;0.228955
1973.000000;0.228940
1972.000000;0.228737
1971.000000;0.228364
1970.000000;0.227958
1969.000000;0.227666
1968.000000;0.227547
1967.000000;0.227585
1966.000000;0.227743
1965.000000;0.227969
1964.000000;0.228154
1963.000000;0.228180
1962.000000;0.228009
1961.000000;0.227721
1960.000000;0.227438
1959.000000;0.227233
1958.000000;0.227098
1957.000000;0.226976
1956.000000;0.226829
1955.000000;0.226672
1954.000000;0.226560
1953.000000;0.226523
1952.000000;0.226519
1951.000000;0.226475
1950.000000;0.226362
1949.000000;0.226217
1948.000000;0.226089
1947.000000;0.225993
1946.000000;0.225915
1945.000000;0.225855
1944.000000;0.225835
1943.000000;0.225861
1942.000000;0.225896
1941.000000;0.225869
1940.000000;0.225747
1939.000000;0.225590
1938.000000;0.225509
1937.000000;0.225546
1936.000000;0.225602
1935.000000;0.225518
1934.000000;0.225249
1933.000000;0.224928
1932.000000;0.224725
1931.000000;0.224675
1930.000000;0.224660
1929.000000;0.224563
1928.000000;0.224402
1927.000000;0.224273
1926.000000;0.224219
1925.000000;0.224219
1924.000000;0.224259
1923.000000;0.224338
1922.000000;0.224386
1921.000000;0.224286
1920.000000;0.224030
1919.000000;0.223775
1918.000000;0.223680
1917.000000;0.223738
1916.000000;0.223835
1915.000000;0.223925
1914.000000;0.224035
1913.000000;0.224125
1912.000000;0.224066
1911.000000;0.223802
1910.000000;0.223432
1909.000000;0.223114
1908.000000;0.222939
1907.000000;0.222911
1906.000000;0.222971
1905.000000;0.223005
1904.000000;0.222922
1903.000000;0.222754
1902.000000;0.222623
1901.000000;0.222576
1900.000000;0.222521
1899.000000;0.222388
1898.000000;0.222251
1897.000000;0.222216
1896.000000;0.222247
1895.000000;0.222233
1894.000000;0.222161
1893.000000;0.222125
1892.000000;0.222147
1891.000000;0.222117
1890.000000;0.221948
1889.000000;0.221700
1888.000000;0.221497
1887.000000;0.221379
1886.000000;0.221314
1885.000000;0.221290
1884.000000;0.221320
1883.000000;0.221370
1882.000000;0.221370
1881.000000;0.221302
1880.000000;0.221236
1879.000000;0.221231
1878.000000;0.221256
1877.000000;0.221208
1876.000000;0.221003
1875.000000;0.220644
1874.000000;0.220225
1873.000000;0.219894
1872.000000;0.219761
1871.000000;0.219824
1870.000000;0.219973
1869.000000;0.220095
1868.000000;0.220157
1867.000000;0.220183
1866.000000;0.220184
1865.000000;0.220136
1864.000000;0.220023
1863.000000;0.219841
1862.000000;0.219600
1861.000000;0.219339
1860.000000;0.219158
1859.000000;0.219153
1858.000000;0.219311
1857.000000;0.219507
1856.000000;0.219616
1855.000000;0.219616
1854.000000;0.219540
1853.000000;0.219418
1852.000000;0.219275
1851.000000;0.219151
1850.000000;0.219069
1849.000000;0.218998
1848.000000;0.218895
1847.000000;0.218769
1846.000000;0.218672
1845.000000;0.218624
1844.000000;0.218583
1843.000000;0.218478
1842.000000;0.218290
1841.000000;0.218078
1840.000000;0.217922
1839.000000;0.217838
1838.000000;0.217789
1837.000000;0.217776
1836.000000;0.217858
1835.000000;0.218040
1834.000000;0.218188
1833.000000;0.218176
1832.000000;0.218052
1831.000000;0.217935
1830.000000;0.217769
1829.000000;0.217345
1828.000000;0.216650
1827.000000;0.216033
1826.000000;0.215889
1825.000000;0.216239
1824.000000;0.216739
1823.000000;0.217072
1822.000000;0.217183
1821.000000;0.217164
1820.000000;0.217056
1819.000000;0.216839
1818.000000;0.216532
1817.000000;0.216222
1816.000000;0.215997
1815.000000;0.215877
1814.000000;0.215791
1813.000000;0.215661
1812.000000;0.215510
1811.000000;0.215433
1810.000000;0.215435
1809.000000;0.215379
1808.000000;0.215182
1807.000000;0.214982
1806.000000;0.215000
1805.000000;0.215262
1804.000000;0.215584
1803.000000;0.215790
1802.000000;0.215848
1801.000000;0.215803
1800.000000;0.215703
1799.000000;0.215591
1798.000000;0.215472
1797.000000;0.215284
1796.000000;0.215002
1795.000000;0.214769
1794.000000;0.214788
1793.000000;0.215053
1792.000000;0.215292
1791.000000;0.215262
1790.000000;0.215001
1789.000000;0.214723
1788.000000;0.214565
1787.000000;0.214512
1786.000000;0.214528
1785.000000;0.214623
1784.000000;0.214783
1783.000000;0.214894
1782.000000;0.214805
1781.000000;0.214472
1780.000000;0.214001
1779.000000;0.213575
1778.000000;0.213322
1777.000000;0.213272
1776.000000;0.213387
1775.000000;0.213586
1774.000000;0.213739
1773.000000;0.213702
1772.000000;0.213439
1771.000000;0.213075
1770.000000;0.212817
1769.000000;0.212790
1768.000000;0.212971
1767.000000;0.213240
1766.000000;0.213446
1765.000000;0.213480
1764.000000;0.213364
1763.000000;0.213248
1762.000000;0.213251
1761.000000;0.213322
1760.000000;0.213295
1759.000000;0.213094
1758.000000;0.212798
1757.000000;0.212526
1756.000000;0.212333
1755.000000;0.212208
1754.000000;0.212112
1753.000000;0.212009
1752.000000;0.211905
1751.000000;0.211885
1750.000000;0.212019
1749.000000;0.212235
1748.000000;0.212373
1747.000000;0.212342
1746.000000;0.212182
1745.000000;0.211993
1744.000000;0.211878
1743.000000;0.211938
1742.000000;0.212177
1741.000000;0.212385
1740.000000;0.212263
1739.000000;0.211742
1738.000000;0.211095
1737.000000;0.210664
1736.000000;0.210569
1735.000000;0.210701
1734.000000;0.210914
1733.000000;0.211099
1732.000000;0.211132
1731.000000;0.210949
1730.000000;0.210639
1729.000000;0.210370
1728.000000;0.210237
1727.000000;0.210220
1726.000000;0.210260
1725.000000;0.210336
1724.000000;0.210453
1723.000000;0.210614
1722.000000;0.210775
1721.000000;0.210830
1720.000000;0.210684
1719.000000;0.210359
1718.000000;0.210004
1717.000000;0.209756
1716.000000;0.209642
1715.000000;0.209621
1714.000000;0.209676
1713.000000;0.209794
1712.000000;0.209928
1711.000000;0.210008
1710.000000;0.209984
1709.000000;0.209849
1708.000000;0.209630
1707.000000;0.209393
1706.000000;0.209237
1705.000000;0.209232
1704.000000;0.209355
1703.000000;0.209498
1702.000000;0.209535
1701.000000;0.209419
1700.000000;0.209251
1699.000000;0.209163
1698.000000;0.209169
1697.000000;0.209190
1696.000000;0.209148
1695.000000;0.209045
1694.000000;0.208918
1693.000000;0.208777
1692.000000;0.208644
1691.000000;0.208552
1690.000000;0.208499
1689.000000;0.208450
1688.000000;0.208413
1687.000000;0.208452
1686.000000;0.208601
1685.000000;0.208764
1684.000000;0.208799
1683.000000;0.208670
1682.000000;0.208457
1681.000000;0.208252
1680.000000;0.208097
1679.000000;0.207969
1678.000000;0.207836
1677.000000;0.207699
1676.000000;0.207600
1675.000000;0.207585
1674.000000;0.207627
1673.000000;0.207627
1672.000000;0.207527
1671.000000;0.207378
1670.000000;0.207246
1669.000000;0.207126
1668.000000;0.206983
1667.000000;0.206841
1666.000000;0.206757
1665.000000;0.206720
1664.000000;0.206649
1663.000000;0.206511
1662.000000;0.206344
1661.000000;0.206207
1660.000000;0.206142
1659.000000;0.206187
1658.000000;0.206334
1657.000000;0.206482
1656.000000;0.206509
1655.000000;0.206407
1654.000000;0.206277
1653.000000;0.206178
1652.000000;0.206099
1651.000000;0.206014
1650.000000;0.205956
1649.000000;0.205991
1648.000000;0.206079
1647.000000;0.206111
1646.000000;0.206061
1645.000000;0.205995
1644.000000;0.205968
1643.000000;0.205967
1642.000000;0.205928
1641.000000;0.205767
1640.000000;0.205480
1639.000000;0.205191
1638.000000;0.205049
1637.000000;0.205052
1636.000000;0.205070
1635.000000;0.205065
1634.000000;0.205138
1633.000000;0.205324
1632.000000;0.205500
1631.000000;0.205547
1630.000000;0.205486
1629.000000;0.205405
1628.000000;0.205335
1627.000000;0.205254
1626.000000;0.205147
1625.000000;0.204984
1624.000000;0.204718
1623.000000;0.204394
1622.000000;0.204190
1621.000000;0.204239
1620.000000;0.204447
1619.000000;0.204590
1618.000000;0.204564
1617.000000;0.204464
1616.000000;0.204410
1615.000000;0.204398
1614.000000;0.204348
1613.000000;0.204244
1612.000000;0.204164
1611.000000;0.204163
1610.000000;0.204186
1609.000000;0.204112
1608.000000;0.203898
1607.000000;0.203644
1606.000000;0.203489
1605.000000;0.203456
1604.000000;0.203444
1603.000000;0.203369
1602.000000;0.203271
1601.000000;0.203250
1600.000000;0.203333
1599.000000;0.203465
1598.000000;0.203560
1597.000000;0.203571
1596.000000;0.203518
1595.000000;0.203491
1594.000000;0.203549
1593.000000;0.203608
1592.000000;0.203507
1591.000000;0.203224
1590.000000;0.202963
1589.000000;0.202935
1588.000000;0.203112
1587.000000;0.203269
1586.000000;0.203237
1585.000000;0.203054
1584.000000;0.202873
1583.000000;0.202782
1582.000000;0.202745
1581.000000;0.202665
1580.000000;0.202490
1579.000000;0.202257
1578.000000;0.202064
1577.000000;0.201972
1576.000000;0.201983
1575.000000;0.202073
1574.000000;0.202195
1573.000000;0.202256
1572.000000;0.202193
1571.000000;0.202068
1570.000000;0.202028
1569.000000;0.202117
1568.000000;0.202206
1567.000000;0.202142
1566.000000;0.201946
1565.000000;0.201774
1564.000000;0.201721
1563.000000;0.201749
1562.000000;0.201800
1561.000000;0.201853
1560.000000;0.201888
1559.000000;0.201851
1558.000000;0.201695
1557.000000;0.201471
1556.000000;0.201272
1555.000000;0.201185
1554.000000;0.201194
1553.000000;0.201173
1552.000000;0.201018
1551.000000;0.200809
1550.000000;0.200734
1549.000000;0.200814
1548.000000;0.200843
1547.000000;0.200661
1546.000000;0.200380
1545.000000;0.200230
1544.000000;0.200259
1543.000000;0.200311
1542.000000;0.200280
1541.000000;0.200218
1540.000000;0.200194
1539.000000;0.200217
1538.000000;0.200269
1537.000000;0.200308
1536.000000;0.200304
1535.000000;0.200269
1534.000000;0.200249
1533.000000;0.200282
1532.000000;0.200324
1531.000000;0.200290
1530.000000;0.200184
1529.000000;0.200103
1528.000000;0.200107
1527.000000;0.200154
1526.000000;0.200185
1525.000000;0.200205
1524.000000;0.200218
1523.000000;0.200159
1522.000000;0.199970
1521.000000;0.199721
1520.000000;0.199568
1519.000000;0.199571
1518.000000;0.199648
1517.000000;0.199675
1516.000000;0.199600
1515.000000;0.199461
1514.000000;0.199314
1513.000000;0.199193
1512.000000;0.199100
1511.000000;0.199020
1510.000000;0.198933
1509.000000;0.198823
1508.000000;0.198689
1507.000000;0.198560
1506.000000;0.198487
1505.000000;0.198511
1504.000000;0.198573
1503.000000;0.198584
1502.000000;0.198523
1501.000000;0.198423
1500.000000;0.198322
1499.000000;0.198257
1498.000000;0.198262
1497.000000;0.198334
1496.000000;0.198402
1495.000000;0.198388
1494.000000;0.198290
1493.000000;0.198199
1492.000000;0.198197
1491.000000;0.198248
1490.000000;0.198220
1489.000000;0.198022
1488.000000;0.197718
1487.000000;0.197494
1486.000000;0.197479
1485.000000;0.197626
1484.000000;0.197768
1483.000000;0.197773
1482.000000;0.197669
1481.000000;0.197598
1480.000000;0.197664
1479.000000;0.197827
1478.000000;0.197939
1477.000000;0.197883
1476.000000;0.197677
1475.000000;0.197449
1474.000000;0.197310
1473.000000;0.197273
1472.000000;0.197280
1471.000000;0.197273
1470.000000;0.197201
1469.000000;0.197022
1468.000000;0.196747
1467.000000;0.196479
1466.000000;0.196353
1465.000000;0.196418
1464.000000;0.196594
1463.000000;0.196753
1462.000000;0.196855
1461.000000;0.196949
1460.000000;0.197074
1459.000000;0.197171
1458.000000;0.197144
1457.000000;0.196980
1456.000000;0.196796
1455.000000;0.196694
1454.000000;0.196641
1453.000000;0.196561
1452.000000;0.196427
1451.000000;0.196289
1450.000000;0.196200
1449.000000;0.196136
1448.000000;0.196045
1447.000000;0.195931
1446.000000;0.195859
1445.000000;0.195894
1444.000000;0.196045
1443.000000;0.196268
1442.000000;0.196472
1441.000000;0.196544
1440.000000;0.196416
1439.000000;0.196154
1438.000000;0.195923
1437.000000;0.195838
1436.000000;0.195874
1435.000000;0.195917
1434.000000;0.195889
1433.000000;0.195794
1432.000000;0.195661
1431.000000;0.195501
1430.000000;0.195334
1429.000000;0.195210
1428.000000;0.195179
1427.000000;0.195237
1426.000000;0.195311
1425.000000;0.195318
1424.000000;0.195231
1423.000000;0.195102
1422.000000;0.195003
1421.000000;0.194964
1420.000000;0.194971
1419.000000;0.195004
1418.000000;0.195049
1417.000000;0.195063
1416.000000;0.195015
1415.000000;0.194931
1414.000000;0.194872
1413.000000;0.194855
1412.000000;0.194854
1411.000000;0.194864
1410.000000;0.194909
1409.000000;0.194964
1408.000000;0.194953
1407.000000;0.194859
1406.000000;0.194771
1405.000000;0.194770
1404.000000;0.194802
1403.000000;0.194733
1402.000000;0.194502
1401.000000;0.194185
1400.000000;0.193911
1399.000000;0.193767
1398.000000;0.193763
1397.000000;0.193840
1396.000000;0.193906
1395.000000;0.193902
1394.000000;0.193842
1393.000000;0.193791
1392.000000;0.193791
1391.000000;0.193833
1390.000000;0.193885
1389.000000;0.193925
1388.000000;0.193946
1387.000000;0.193947
1386.000000;0.193913
1385.000000;0.193835
1384.000000;0.193737
1383.000000;0.193672
1382.000000;0.193658
1381.000000;0.193631
1380.000000;0.193530
1379.000000;0.193419
1378.000000;0.193433
1377.000000;0.193586
1376.000000;0.193709
1375.000000;0.193640
1374.000000;0.193428
1373.000000;0.193267
1372.000000;0.193259
1371.000000;0.193341
1370.000000;0.193421
1369.000000;0.193477
1368.000000;0.193489
1367.000000;0.193388
1366.000000;0.193150
1365.000000;0.192879
1364.000000;0.192718
1363.000000;0.192681
1362.000000;0.192665
1361.000000;0.192606
1360.000000;0.192570
1359.000000;0.192657
1358.000000;0.192859
1357.000000;0.193046
1356.000000;0.193067
1355.000000;0.192866
1354.000000;0.192517
1353.000000;0.192170
1352.000000;0.191944
1351.000000;0.191852
1350.000000;0.191836
1349.000000;0.191860
1348.000000;0.191940
1347.000000;0.192071
1346.000000;0.192181
1345.000000;0.192197
1344.000000;0.192128
1343.000000;0.192047
1342.000000;0.192012
1341.000000;0.192052
1340.000000;0.192175
1339.000000;0.192334
1338.000000;0.192400
1337.000000;0.192255
1336.000000;0.191947
1335.000000;0.191677
1334.000000;0.191602
1333.000000;0.191686
1332.000000;0.191769
1331.000000;0.191748
1330.000000;0.191650
1329.000000;0.191573
1328.000000;0.191582
1327.000000;0.191676
1326.000000;0.191793
1325.000000;0.191846
1324.000000;0.191763
1323.000000;0.191533
1322.000000;0.191237
1321.000000;0.191009
1320.000000;0.190924
1319.000000;0.190910
1318.000000;0.190826
1317.000000;0.190658
1316.000000;0.190595
1315.000000;0.190823
1314.000000;0.191279
1313.000000;0.191680
1312.000000;0.191798
1311.000000;0.191646
1310.000000;0.191379
1309.000000;0.191120
1308.000000;0.190914
1307.000000;0.190766
1306.000000;0.190667
1305.000000;0.190612
1304.000000;0.190609
1303.000000;0.190640
1302.000000;0.190616
1301.000000;0.190454
1300.000000;0.190211
1299.000000;0.190053
1298.000000;0.190050
1297.000000;0.190097
1296.000000;0.190078
1295.000000;0.190027
1294.000000;0.190023
1293.000000;0.190027
1292.000000;0.189949
1291.000000;0.189803
1290.000000;0.189721
1289.000000;0.189781
1288.000000;0.189933
1287.000000;0.190065
1286.000000;0.190094
1285.000000;0.190029
1284.000000;0.189977
1283.000000;0.190065
1282.000000;0.190275
1281.000000;0.190429
1280.000000;0.190403
1279.000000;0.190308
1278.000000;0.190336
1277.000000;0.190488
1276.000000;0.190563
1275.000000;0.190424
1274.000000;0.190141
1273.000000;0.189854
1272.000000;0.189637
1271.000000;0.189512
1270.000000;0.189505
1269.000000;0.189605
1268.000000;0.189729
1267.000000;0.189801
1266.000000;0.189816
1265.000000;0.189805
1264.000000;0.189776
1263.000000;0.189707
1262.000000;0.189588
1261.000000;0.189442
1260.000000;0.189331
1259.000000;0.189315
1258.000000;0.189370
1257.000000;0.189375
1256.000000;0.189227
1255.000000;0.188975
1254.000000;0.188752
1253.000000;0.188615
1252.000000;0.188505
1251.000000;0.188388
1250.000000;0.188329
1249.000000;0.188397
1248.000000;0.188569
1247.000000;0.188766
1246.000000;0.188925
1245.000000;0.189015
1244.000000;0.189020
1243.000000;0.188959
1242.000000;0.188882
1241.000000;0.188813
1240.000000;0.188734
1239.000000;0.188643
1238.000000;0.188580
1237.000000;0.188572
1236.000000;0.188577
1235.000000;0.188541
1234.000000;0.188471
1233.000000;0.188414
1232.000000;0.188389
1231.000000;0.188367
1230.000000;0.188309
1229.000000;0.188212
1228.000000;0.188102
1227.000000;0.188016
1226.000000;0.187975
1225.000000;0.187971
1224.000000;0.187986
1223.000000;0.188011
1222.000000;0.188036
1221.000000;0.188033
1220.000000;0.187979
1219.000000;0.187903
1218.000000;0.187885
1217.000000;0.187979
1216.000000;0.188136
1215.000000;0.188221
1214.000000;0.188133
1213.000000;0.187917
1212.000000;0.187731
1211.000000;0.187695
1210.000000;0.187767
1209.000000;0.187796
1208.000000;0.187688
1207.000000;0.187469
1206.000000;0.187215
1205.000000;0.186985
1204.000000;0.186850
1203.000000;0.186879
1202.000000;0.187056
1201.000000;0.187252
1200.000000;0.187346
