Criado como novo conjunto de dados;"e2410_daniel_v2.spp","56525.0 Secs"
cm-1;Abs
10000.000000;1.151241
9999.000000;1.151565
9998.000000;1.151889
9997.000000;1.152213
9996.000000;1.152537
9995.000000;1.152863
9994.000000;1.153187
9993.000000;1.153513
9992.000000;1.153837
9991.000000;1.154153
9990.000000;1.154158
9989.000000;1.154078
9988.000000;1.153974
9987.000000;1.153506
9986.000000;1.152636
9985.000000;1.151731
9984.000000;1.150860
9983.000000;1.149760
9982.000000;1.148659
9981.000000;1.148256
9980.000000;1.148603
9979.000000;1.148803
9978.000000;1.148190
9977.000000;1.147166
9976.000000;1.146478
9975.000000;1.146278
9974.000000;1.146266
9973.000000;1.146196
9972.000000;1.145842
9971.000000;1.144939
9970.000000;1.143565
9969.000000;1.142244
9968.000000;1.141410
9967.000000;1.141029
9966.000000;1.140866
9965.000000;1.140757
9964.000000;1.140552
9963.000000;1.140183
9962.000000;1.139832
9961.000000;1.139627
9960.000000;1.139225
9959.000000;1.138202
9958.000000;1.136810
9957.000000;1.135729
9956.000000;1.135089
9955.000000;1.134410
9954.000000;1.133511
9953.000000;1.132763
9952.000000;1.132341
9951.000000;1.131955
9950.000000;1.131507
9949.000000;1.131325
9948.000000;1.131473
9947.000000;1.131468
9946.000000;1.130948
9945.000000;1.130112
9944.000000;1.129286
9943.000000;1.128557
9942.000000;1.128029
9941.000000;1.127915
9940.000000;1.128175
9939.000000;1.128502
9938.000000;1.128786
9937.000000;1.129085
9936.000000;1.129048
9935.000000;1.128007
9934.000000;1.125872
9933.000000;1.123421
9932.000000;1.121529
9931.000000;1.120520
9930.000000;1.120278
9929.000000;1.120426
9928.000000;1.120336
9927.000000;1.119584
9926.000000;1.118544
9925.000000;1.118051
9924.000000;1.118398
9923.000000;1.119135
9922.000000;1.119784
9921.000000;1.120152
9920.000000;1.119944
9919.000000;1.118835
9918.000000;1.117083
9917.000000;1.115453
9916.000000;1.114402
9915.000000;1.113874
9914.000000;1.113826
9913.000000;1.114257
9912.000000;1.114688
9911.000000;1.114436
9910.000000;1.113570
9909.000000;1.112846
9908.000000;1.112517
9907.000000;1.111979
9906.000000;1.110821
9905.000000;1.109454
9904.000000;1.108423
9903.000000;1.107766
9902.000000;1.107334
9901.000000;1.107079
9900.000000;1.106760
9899.000000;1.106032
9898.000000;1.105102
9897.000000;1.104657
9896.000000;1.104861
9895.000000;1.105066
9894.000000;1.104827
9893.000000;1.104533
9892.000000;1.104657
9891.000000;1.105006
9890.000000;1.105124
9889.000000;1.104876
9888.000000;1.104216
9887.000000;1.102953
9886.000000;1.101197
9885.000000;1.099609
9884.000000;1.098738
9883.000000;1.098460
9882.000000;1.098369
9881.000000;1.098342
9880.000000;1.098417
9879.000000;1.098461
9878.000000;1.098301
9877.000000;1.097910
9876.000000;1.097293
9875.000000;1.096470
9874.000000;1.095664
9873.000000;1.095114
9872.000000;1.094630
9871.000000;1.093746
9870.000000;1.092433
9869.000000;1.091212
9868.000000;1.090450
9867.000000;1.089990
9866.000000;1.089570
9865.000000;1.089152
9864.000000;1.088771
9863.000000;1.088484
9862.000000;1.088470
9861.000000;1.088720
9860.000000;1.088631
9859.000000;1.087561
9858.000000;1.085855
9857.000000;1.084655
9856.000000;1.084525
9855.000000;1.084869
9854.000000;1.084873
9853.000000;1.084427
9852.000000;1.083890
9851.000000;1.083494
9850.000000;1.083296
9849.000000;1.083274
9848.000000;1.083228
9847.000000;1.082965
9846.000000;1.082675
9845.000000;1.082647
9844.000000;1.082597
9843.000000;1.081849
9842.000000;1.080310
9841.000000;1.078672
9840.000000;1.077499
9839.000000;1.076742
9838.000000;1.076264
9837.000000;1.076199
9836.000000;1.076521
9835.000000;1.076825
9834.000000;1.076785
9833.000000;1.076408
9832.000000;1.075689
9831.000000;1.074574
9830.000000;1.073388
9829.000000;1.072678
9828.000000;1.072400
9827.000000;1.071892
9826.000000;1.070896
9825.000000;1.069986
9824.000000;1.069688
9823.000000;1.069778
9822.000000;1.069783
9821.000000;1.069639
9820.000000;1.069491
9819.000000;1.069291
9818.000000;1.068972
9817.000000;1.068622
9816.000000;1.068187
9815.000000;1.067385
9814.000000;1.066171
9813.000000;1.064931
9812.000000;1.064012
9811.000000;1.063415
9810.000000;1.063081
9809.000000;1.063028
9808.000000;1.063054
9807.000000;1.062792
9806.000000;1.062267
9805.000000;1.061889
9804.000000;1.061725
9803.000000;1.061282
9802.000000;1.060284
9801.000000;1.059154
9800.000000;1.058439
9799.000000;1.058192
9798.000000;1.058212
9797.000000;1.058434
9796.000000;1.058736
9795.000000;1.058741
9794.000000;1.058171
9793.000000;1.057205
9792.000000;1.056258
9791.000000;1.055589
9790.000000;1.055244
9789.000000;1.055095
9788.000000;1.054857
9787.000000;1.054354
9786.000000;1.053810
9785.000000;1.053546
9784.000000;1.053437
9783.000000;1.053083
9782.000000;1.052481
9781.000000;1.052006
9780.000000;1.051712
9779.000000;1.051221
9778.000000;1.050403
9777.000000;1.049585
9776.000000;1.048952
9775.000000;1.048283
9774.000000;1.047482
9773.000000;1.046829
9772.000000;1.046481
9771.000000;1.046190
9770.000000;1.045746
9769.000000;1.045261
9768.000000;1.044823
9767.000000;1.044289
9766.000000;1.043631
9765.000000;1.043073
9764.000000;1.042711
9763.000000;1.042380
9762.000000;1.042011
9761.000000;1.041710
9760.000000;1.041372
9759.000000;1.040729
9758.000000;1.039915
9757.000000;1.039473
9756.000000;1.039573
9755.000000;1.039676
9754.000000;1.039195
9753.000000;1.038121
9752.000000;1.036800
9751.000000;1.035572
9750.000000;1.034806
9749.000000;1.034833
9748.000000;1.035532
9747.000000;1.036296
9746.000000;1.036625
9745.000000;1.036469
9744.000000;1.035912
9743.000000;1.034941
9742.000000;1.033696
9741.000000;1.032570
9740.000000;1.031832
9739.000000;1.031448
9738.000000;1.031316
9737.000000;1.031359
9736.000000;1.031337
9735.000000;1.030985
9734.000000;1.030394
9733.000000;1.029828
9732.000000;1.029181
9731.000000;1.028120
9730.000000;1.026812
9729.000000;1.025911
9728.000000;1.025649
9727.000000;1.025500
9726.000000;1.024945
9725.000000;1.024117
9724.000000;1.023433
9723.000000;1.023051
9722.000000;1.022936
9721.000000;1.023060
9720.000000;1.023281
9719.000000;1.023308
9718.000000;1.022980
9717.000000;1.022316
9716.000000;1.021298
9715.000000;1.019996
9714.000000;1.018923
9713.000000;1.018698
9712.000000;1.019208
9711.000000;1.019585
9710.000000;1.019261
9709.000000;1.018569
9708.000000;1.018056
9707.000000;1.017683
9706.000000;1.017084
9705.000000;1.016249
9704.000000;1.015570
9703.000000;1.015356
9702.000000;1.015513
9701.000000;1.015615
9700.000000;1.015244
9699.000000;1.014443
9698.000000;1.013766
9697.000000;1.013619
9696.000000;1.013634
9695.000000;1.013049
9694.000000;1.011684
9693.000000;1.010159
9692.000000;1.009147
9691.000000;1.008839
9690.000000;1.009061
9689.000000;1.009430
9688.000000;1.009410
9687.000000;1.008691
9686.000000;1.007605
9685.000000;1.006728
9684.000000;1.006147
9683.000000;1.005557
9682.000000;1.005010
9681.000000;1.004931
9680.000000;1.005330
9679.000000;1.005607
9678.000000;1.005289
9677.000000;1.004468
9676.000000;1.003394
9675.000000;1.002211
9674.000000;1.001206
9673.000000;1.000742
9672.000000;1.000713
9671.000000;1.000565
9670.000000;1.000073
9669.000000;0.999606
9668.000000;0.999441
9667.000000;0.999304
9666.000000;0.998860
9665.000000;0.998193
9664.000000;0.997549
9663.000000;0.997034
9662.000000;0.996743
9661.000000;0.996770
9660.000000;0.996872
9659.000000;0.996529
9658.000000;0.995586
9657.000000;0.994479
9656.000000;0.993640
9655.000000;0.993043
9654.000000;0.992498
9653.000000;0.991980
9652.000000;0.991506
9651.000000;0.991022
9650.000000;0.990599
9649.000000;0.990402
9648.000000;0.990358
9647.000000;0.990200
9646.000000;0.989931
9645.000000;0.989850
9644.000000;0.990034
9643.000000;0.990179
9642.000000;0.990011
9641.000000;0.989428
9640.000000;0.988249
9639.000000;0.986387
9638.000000;0.984394
9637.000000;0.983210
9636.000000;0.983113
9635.000000;0.983412
9634.000000;0.983403
9633.000000;0.983147
9632.000000;0.983002
9631.000000;0.982930
9630.000000;0.982660
9629.000000;0.982163
9628.000000;0.981548
9627.000000;0.980790
9626.000000;0.979919
9625.000000;0.979204
9624.000000;0.978832
9623.000000;0.978601
9622.000000;0.978199
9621.000000;0.977626
9620.000000;0.977123
9619.000000;0.976868
9618.000000;0.976852
9617.000000;0.976898
9616.000000;0.976696
9615.000000;0.976049
9614.000000;0.975173
9613.000000;0.974520
9612.000000;0.974259
9611.000000;0.974198
9610.000000;0.974207
9609.000000;0.974339
9608.000000;0.974464
9607.000000;0.974196
9606.000000;0.973386
9605.000000;0.972363
9604.000000;0.971486
9603.000000;0.970745
9602.000000;0.969987
9601.000000;0.969262
9600.000000;0.968738
9599.000000;0.968431
9598.000000;0.968202
9597.000000;0.967910
9596.000000;0.967506
9595.000000;0.967073
9594.000000;0.966764
9593.000000;0.966570
9592.000000;0.966244
9591.000000;0.965648
9590.000000;0.965038
9589.000000;0.964744
9588.000000;0.964702
9587.000000;0.964628
9586.000000;0.964496
9585.000000;0.964452
9584.000000;0.964363
9583.000000;0.963920
9582.000000;0.963161
9581.000000;0.962438
9580.000000;0.961876
9579.000000;0.961295
9578.000000;0.960689
9577.000000;0.960306
9576.000000;0.960177
9575.000000;0.959996
9574.000000;0.959559
9573.000000;0.958990
9572.000000;0.958443
9571.000000;0.957930
9570.000000;0.957497
9569.000000;0.957250
9568.000000;0.957135
9567.000000;0.956969
9566.000000;0.956695
9565.000000;0.956363
9564.000000;0.955911
9563.000000;0.955275
9562.000000;0.954615
9561.000000;0.954130
9560.000000;0.953743
9559.000000;0.953314
9558.000000;0.952964
9557.000000;0.952795
9556.000000;0.952494
9555.000000;0.951752
9554.000000;0.950906
9553.000000;0.950534
9552.000000;0.950565
9551.000000;0.950447
9550.000000;0.950117
9549.000000;0.950082
9548.000000;0.950465
9547.000000;0.950673
9546.000000;0.950235
9545.000000;0.949358
9544.000000;0.948469
9543.000000;0.947735
9542.000000;0.947212
9541.000000;0.946939
9540.000000;0.946692
9539.000000;0.946127
9538.000000;0.945332
9537.000000;0.944773
9536.000000;0.944592
9535.000000;0.944438
9534.000000;0.944100
9533.000000;0.943764
9532.000000;0.943466
9531.000000;0.942870
9530.000000;0.941860
9529.000000;0.940863
9528.000000;0.940260
9527.000000;0.939907
9526.000000;0.939527
9525.000000;0.939214
9524.000000;0.939225
9523.000000;0.939517
9522.000000;0.939724
9521.000000;0.939436
9520.000000;0.938432
9519.000000;0.936935
9518.000000;0.935642
9517.000000;0.935176
9516.000000;0.935428
9515.000000;0.935745
9514.000000;0.935743
9513.000000;0.935524
9512.000000;0.935143
9511.000000;0.934460
9510.000000;0.933611
9509.000000;0.933056
9508.000000;0.932931
9507.000000;0.932816
9506.000000;0.932393
9505.000000;0.931886
9504.000000;0.931595
9503.000000;0.931394
9502.000000;0.930984
9501.000000;0.930321
9500.000000;0.929535
9499.000000;0.928693
9498.000000;0.927866
9497.000000;0.927197
9496.000000;0.926749
9495.000000;0.926489
9494.000000;0.926473
9493.000000;0.926756
9492.000000;0.927090
9491.000000;0.927072
9490.000000;0.926672
9489.000000;0.926262
9488.000000;0.926037
9487.000000;0.925778
9486.000000;0.925262
9485.000000;0.924534
9484.000000;0.923722
9483.000000;0.922963
9482.000000;0.922555
9481.000000;0.922720
9480.000000;0.923113
9479.000000;0.923058
9478.000000;0.922426
9477.000000;0.921835
9476.000000;0.921773
9475.000000;0.921950
9474.000000;0.921755
9473.000000;0.920977
9472.000000;0.919854
9471.000000;0.918750
9470.000000;0.917998
9469.000000;0.917779
9468.000000;0.917926
9467.000000;0.918071
9466.000000;0.918091
9465.000000;0.918163
9464.000000;0.918322
9463.000000;0.918313
9462.000000;0.917969
9461.000000;0.917395
9460.000000;0.916685
9459.000000;0.915831
9458.000000;0.915002
9457.000000;0.914499
9456.000000;0.914284
9455.000000;0.913951
9454.000000;0.913353
9453.000000;0.912867
9452.000000;0.912818
9451.000000;0.912980
9450.000000;0.912899
9449.000000;0.912415
9448.000000;0.911650
9447.000000;0.910741
9446.000000;0.909825
9445.000000;0.909100
9444.000000;0.908683
9443.000000;0.908519
9442.000000;0.908486
9441.000000;0.908452
9440.000000;0.908243
9439.000000;0.907783
9438.000000;0.907271
9437.000000;0.906960
9436.000000;0.906777
9435.000000;0.906457
9434.000000;0.906004
9433.000000;0.905664
9432.000000;0.905448
9431.000000;0.905082
9430.000000;0.904477
9429.000000;0.903867
9428.000000;0.903389
9427.000000;0.902913
9426.000000;0.902377
9425.000000;0.901963
9424.000000;0.901819
9423.000000;0.901900
9422.000000;0.902125
9421.000000;0.902362
9420.000000;0.902243
9419.000000;0.901423
9418.000000;0.900133
9417.000000;0.899079
9416.000000;0.898676
9415.000000;0.898697
9414.000000;0.898756
9413.000000;0.898714
9412.000000;0.898512
9411.000000;0.898018
9410.000000;0.897290
9409.000000;0.896646
9408.000000;0.896268
9407.000000;0.896008
9406.000000;0.895702
9405.000000;0.895398
9404.000000;0.895137
9403.000000;0.894799
9402.000000;0.894335
9401.000000;0.893898
9400.000000;0.893595
9399.000000;0.893368
9398.000000;0.893166
9397.000000;0.892991
9396.000000;0.892701
9395.000000;0.892082
9394.000000;0.891209
9393.000000;0.890436
9392.000000;0.889966
9391.000000;0.889698
9390.000000;0.889532
9389.000000;0.889500
9388.000000;0.889519
9387.000000;0.889371
9386.000000;0.889054
9385.000000;0.888821
9384.000000;0.888770
9383.000000;0.888694
9382.000000;0.888453
9381.000000;0.888184
9380.000000;0.888001
9379.000000;0.887767
9378.000000;0.887321
9377.000000;0.886688
9376.000000;0.885959
9375.000000;0.885203
9374.000000;0.884555
9373.000000;0.884152
9372.000000;0.883928
9371.000000;0.883715
9370.000000;0.883524
9369.000000;0.883451
9368.000000;0.883346
9367.000000;0.882941
9366.000000;0.882340
9365.000000;0.881931
9364.000000;0.881756
9363.000000;0.881400
9362.000000;0.880646
9361.000000;0.879844
9360.000000;0.879418
9359.000000;0.879370
9358.000000;0.879497
9357.000000;0.879756
9356.000000;0.880148
9355.000000;0.880484
9354.000000;0.880536
9353.000000;0.880287
9352.000000;0.879823
9351.000000;0.879157
9350.000000;0.878315
9349.000000;0.877497
9348.000000;0.876947
9347.000000;0.876755
9346.000000;0.876805
9345.000000;0.876854
9344.000000;0.876639
9343.000000;0.876042
9342.000000;0.875195
9341.000000;0.874324
9340.000000;0.873556
9339.000000;0.872986
9338.000000;0.872788
9337.000000;0.873022
9336.000000;0.873410
9335.000000;0.873584
9334.000000;0.873512
9333.000000;0.873424
9332.000000;0.873380
9331.000000;0.873201
9330.000000;0.872805
9329.000000;0.872309
9328.000000;0.871810
9327.000000;0.871322
9326.000000;0.870903
9325.000000;0.870564
9324.000000;0.870091
9323.000000;0.869277
9322.000000;0.868333
9321.000000;0.867765
9320.000000;0.867826
9319.000000;0.868284
9318.000000;0.868694
9317.000000;0.868669
9316.000000;0.868000
9315.000000;0.866830
9314.000000;0.865687
9313.000000;0.865051
9312.000000;0.864912
9311.000000;0.864958
9310.000000;0.865043
9309.000000;0.865173
9308.000000;0.865172
9307.000000;0.864821
9306.000000;0.864285
9305.000000;0.863971
9304.000000;0.863942
9303.000000;0.863844
9302.000000;0.863421
9301.000000;0.862747
9300.000000;0.861931
9299.000000;0.861008
9298.000000;0.860149
9297.000000;0.859616
9296.000000;0.859430
9295.000000;0.859384
9294.000000;0.859427
9293.000000;0.859695
9292.000000;0.860114
9291.000000;0.860311
9290.000000;0.860018
9289.000000;0.859326
9288.000000;0.858504
9287.000000;0.857808
9286.000000;0.857460
9285.000000;0.857521
9284.000000;0.857741
9283.000000;0.857778
9282.000000;0.857571
9281.000000;0.857293
9280.000000;0.857013
9279.000000;0.856649
9278.000000;0.856189
9277.000000;0.855692
9276.000000;0.855162
9275.000000;0.854669
9274.000000;0.854449
9273.000000;0.854568
9272.000000;0.854621
9271.000000;0.854144
9270.000000;0.853212
9269.000000;0.852319
9268.000000;0.851795
9267.000000;0.851690
9266.000000;0.851997
9265.000000;0.852533
9264.000000;0.852764
9263.000000;0.852276
9262.000000;0.851357
9261.000000;0.850647
9260.000000;0.850331
9259.000000;0.850122
9258.000000;0.849922
9257.000000;0.849903
9256.000000;0.849981
9255.000000;0.849794
9254.000000;0.849278
9253.000000;0.848752
9252.000000;0.848376
9251.000000;0.848015
9250.000000;0.847645
9249.000000;0.847408
9248.000000;0.847212
9247.000000;0.846798
9246.000000;0.846281
9245.000000;0.846120
9244.000000;0.846428
9243.000000;0.846790
9242.000000;0.846886
9241.000000;0.846818
9240.000000;0.846676
9239.000000;0.846298
9238.000000;0.845642
9237.000000;0.844961
9236.000000;0.844411
9235.000000;0.843841
9234.000000;0.843161
9233.000000;0.842524
9232.000000;0.842008
9231.000000;0.841464
9230.000000;0.840859
9229.000000;0.840431
9228.000000;0.840358
9227.000000;0.840569
9226.000000;0.840957
9225.000000;0.841452
9224.000000;0.841808
9223.000000;0.841711
9222.000000;0.841238
9221.000000;0.840855
9220.000000;0.840801
9219.000000;0.840802
9218.000000;0.840478
9217.000000;0.839749
9216.000000;0.838743
9215.000000;0.837642
9214.000000;0.836759
9213.000000;0.836421
9212.000000;0.836627
9211.000000;0.837012
9210.000000;0.837243
9209.000000;0.837239
9208.000000;0.837016
9207.000000;0.836627
9206.000000;0.836261
9205.000000;0.836116
9204.000000;0.836114
9203.000000;0.836031
9202.000000;0.835870
9201.000000;0.835779
9200.000000;0.835659
9199.000000;0.835253
9198.000000;0.834609
9197.000000;0.834033
9196.000000;0.833578
9195.000000;0.832987
9194.000000;0.832237
9193.000000;0.831696
9192.000000;0.831644
9191.000000;0.831967
9190.000000;0.832398
9189.000000;0.832733
9188.000000;0.832780
9187.000000;0.832468
9186.000000;0.832031
9185.000000;0.831753
9184.000000;0.831528
9183.000000;0.831044
9182.000000;0.830365
9181.000000;0.829878
9180.000000;0.829666
9179.000000;0.829441
9178.000000;0.829135
9177.000000;0.829023
9176.000000;0.829140
9175.000000;0.829073
9174.000000;0.828569
9173.000000;0.827904
9172.000000;0.827442
9171.000000;0.827210
9170.000000;0.827102
9169.000000;0.827109
9168.000000;0.827151
9167.000000;0.827012
9166.000000;0.826679
9165.000000;0.826409
9164.000000;0.826306
9163.000000;0.826125
9162.000000;0.825671
9161.000000;0.825104
9160.000000;0.824677
9159.000000;0.824425
9158.000000;0.824255
9157.000000;0.824085
9156.000000;0.823792
9155.000000;0.823278
9154.000000;0.822674
9153.000000;0.822227
9152.000000;0.821948
9151.000000;0.821661
9150.000000;0.821387
9149.000000;0.821313
9148.000000;0.821361
9147.000000;0.821220
9146.000000;0.820884
9145.000000;0.820711
9144.000000;0.820802
9143.000000;0.820766
9142.000000;0.820309
9141.000000;0.819654
9140.000000;0.819151
9139.000000;0.818824
9138.000000;0.818558
9137.000000;0.818404
9136.000000;0.818431
9135.000000;0.818488
9134.000000;0.818390
9133.000000;0.818164
9132.000000;0.817954
9131.000000;0.817841
9130.000000;0.817865
9129.000000;0.818029
9128.000000;0.818175
9127.000000;0.818050
9126.000000;0.817597
9125.000000;0.817021
9124.000000;0.816513
9123.000000;0.816119
9122.000000;0.815866
9121.000000;0.815763
9120.000000;0.815669
9119.000000;0.815418
9118.000000;0.815093
9117.000000;0.814909
9116.000000;0.814820
9115.000000;0.814570
9114.000000;0.814125
9113.000000;0.813705
9112.000000;0.813358
9111.000000;0.812898
9110.000000;0.812331
9109.000000;0.811971
9108.000000;0.811979
9107.000000;0.812100
9106.000000;0.812026
9105.000000;0.811735
9104.000000;0.811394
9103.000000;0.811162
9102.000000;0.811167
9101.000000;0.811407
9100.000000;0.811598
9099.000000;0.811392
9098.000000;0.810821
9097.000000;0.810258
9096.000000;0.809914
9095.000000;0.809669
9094.000000;0.809428
9093.000000;0.809280
9092.000000;0.809230
9091.000000;0.809106
9090.000000;0.808831
9089.000000;0.808528
9088.000000;0.808296
9087.000000;0.808152
9086.000000;0.808195
9085.000000;0.808500
9084.000000;0.808805
9083.000000;0.808680
9082.000000;0.808081
9081.000000;0.807373
9080.000000;0.806767
9079.000000;0.806135
9078.000000;0.805446
9077.000000;0.804971
9076.000000;0.804883
9075.000000;0.805017
9074.000000;0.805159
9073.000000;0.805245
9072.000000;0.805163
9071.000000;0.804761
9070.000000;0.804209
9069.000000;0.803965
9068.000000;0.804178
9067.000000;0.804428
9066.000000;0.804278
9065.000000;0.803789
9064.000000;0.803310
9063.000000;0.803033
9062.000000;0.802968
9061.000000;0.803077
9060.000000;0.803226
9059.000000;0.803197
9058.000000;0.802953
9057.000000;0.802694
9056.000000;0.802560
9055.000000;0.802469
9054.000000;0.802336
9053.000000;0.802192
9052.000000;0.802016
9051.000000;0.801709
9050.000000;0.801327
9049.000000;0.801071
9048.000000;0.800956
9047.000000;0.800751
9046.000000;0.800345
9045.000000;0.799905
9044.000000;0.799595
9043.000000;0.799429
9042.000000;0.799457
9041.000000;0.799768
9040.000000;0.800177
9039.000000;0.800249
9038.000000;0.799813
9037.000000;0.799167
9036.000000;0.798638
9035.000000;0.798224
9034.000000;0.797821
9033.000000;0.797480
9032.000000;0.797228
9031.000000;0.796944
9030.000000;0.796600
9029.000000;0.796415
9028.000000;0.796537
9027.000000;0.796795
9026.000000;0.796928
9025.000000;0.796873
9024.000000;0.796659
9023.000000;0.796250
9022.000000;0.795693
9021.000000;0.795232
9020.000000;0.795049
9019.000000;0.795027
9018.000000;0.794939
9017.000000;0.794751
9016.000000;0.794596
9015.000000;0.794541
9014.000000;0.794514
9013.000000;0.794369
9012.000000;0.793954
9011.000000;0.793222
9010.000000;0.792358
9009.000000;0.791707
9008.000000;0.791518
9007.000000;0.791821
9006.000000;0.792489
9005.000000;0.793268
9004.000000;0.793787
9003.000000;0.793774
9002.000000;0.793262
9001.000000;0.792459
9000.000000;0.791465
8999.000000;0.790359
8998.000000;0.789458
8997.000000;0.789158
8996.000000;0.789460
8995.000000;0.789910
8994.000000;0.790093
8993.000000;0.789986
8992.000000;0.789779
8991.000000;0.789613
8990.000000;0.789539
8989.000000;0.789526
8988.000000;0.789435
8987.000000;0.789183
8986.000000;0.788963
8985.000000;0.789051
8984.000000;0.789398
8983.000000;0.789623
8982.000000;0.789441
8981.000000;0.788894
8980.000000;0.788171
8979.000000;0.787476
8978.000000;0.787055
8977.000000;0.787040
8976.000000;0.787218
8975.000000;0.787215
8974.000000;0.786970
8973.000000;0.786760
8972.000000;0.786740
8971.000000;0.786758
8970.000000;0.786652
8969.000000;0.786429
8968.000000;0.786112
8967.000000;0.785687
8966.000000;0.785289
8965.000000;0.785152
8964.000000;0.785260
8963.000000;0.785292
8962.000000;0.785017
8961.000000;0.784517
8960.000000;0.783985
8959.000000;0.783564
8958.000000;0.783421
8957.000000;0.783652
8956.000000;0.784012
8955.000000;0.784043
8954.000000;0.783595
8953.000000;0.783001
8952.000000;0.782620
8951.000000;0.782464
8950.000000;0.782368
8949.000000;0.782255
8948.000000;0.782092
8947.000000;0.781817
8946.000000;0.781474
8945.000000;0.781257
8944.000000;0.781292
8943.000000;0.781507
8942.000000;0.781757
8941.000000;0.781910
8940.000000;0.781800
8939.000000;0.781340
8938.000000;0.780722
8937.000000;0.780270
8936.000000;0.780064
8935.000000;0.779910
8934.000000;0.779739
8933.000000;0.779728
8932.000000;0.779954
8931.000000;0.780162
8930.000000;0.780046
8929.000000;0.779568
8928.000000;0.778922
8927.000000;0.778340
8926.000000;0.778021
8925.000000;0.778040
8924.000000;0.778252
8923.000000;0.778411
8922.000000;0.778424
8921.000000;0.778363
8920.000000;0.778267
8919.000000;0.778127
8918.000000;0.778007
8917.000000;0.777948
8916.000000;0.777789
8915.000000;0.777362
8914.000000;0.776876
8913.000000;0.776764
8912.000000;0.777111
8911.000000;0.777525
8910.000000;0.777646
8909.000000;0.777502
8908.000000;0.777284
8907.000000;0.777059
8906.000000;0.776806
8905.000000;0.776525
8904.000000;0.776193
8903.000000;0.775829
8902.000000;0.775655
8901.000000;0.775922
8900.000000;0.776483
8899.000000;0.776812
8898.000000;0.776569
8897.000000;0.775932
8896.000000;0.775262
8895.000000;0.774689
8894.000000;0.774186
8893.000000;0.773822
8892.000000;0.773716
8891.000000;0.773858
8890.000000;0.774095
8889.000000;0.774252
8888.000000;0.774243
8887.000000;0.774154
8886.000000;0.774193
8885.000000;0.774423
8884.000000;0.774565
8883.000000;0.774284
8882.000000;0.773640
8881.000000;0.773048
8880.000000;0.772766
8879.000000;0.772690
8878.000000;0.772654
8877.000000;0.772651
8876.000000;0.772684
8875.000000;0.772644
8874.000000;0.772454
8873.000000;0.772180
8872.000000;0.771903
8871.000000;0.771652
8870.000000;0.771507
8869.000000;0.771574
8868.000000;0.771805
8867.000000;0.771985
8866.000000;0.771964
8865.000000;0.771770
8864.000000;0.771515
8863.000000;0.771326
8862.000000;0.771339
8861.000000;0.771546
8860.000000;0.771687
8859.000000;0.771503
8858.000000;0.771086
8857.000000;0.770763
8856.000000;0.770655
8855.000000;0.770600
8854.000000;0.770499
8853.000000;0.770450
8852.000000;0.770512
8851.000000;0.770582
8850.000000;0.770574
8849.000000;0.770487
8848.000000;0.770266
8847.000000;0.769839
8846.000000;0.769345
8845.000000;0.769083
8844.000000;0.769139
8843.000000;0.769268
8842.000000;0.769226
8841.000000;0.769024
8840.000000;0.768803
8839.000000;0.768665
8838.000000;0.768675
8837.000000;0.768837
8836.000000;0.769000
8835.000000;0.768973
8834.000000;0.768789
8833.000000;0.768687
8832.000000;0.768782
8831.000000;0.768932
8830.000000;0.768982
8829.000000;0.768966
8828.000000;0.769004
8827.000000;0.769158
8826.000000;0.769392
8825.000000;0.769568
8824.000000;0.769496
8823.000000;0.769143
8822.000000;0.768769
8821.000000;0.768684
8820.000000;0.768897
8819.000000;0.769163
8818.000000;0.769323
8817.000000;0.769399
8816.000000;0.769410
8815.000000;0.769343
8814.000000;0.769287
8813.000000;0.769356
8812.000000;0.769495
8811.000000;0.769555
8810.000000;0.769518
8809.000000;0.769440
8808.000000;0.769223
8807.000000;0.768729
8806.000000;0.768110
8805.000000;0.767759
8804.000000;0.767889
8803.000000;0.768362
8802.000000;0.768916
8801.000000;0.769334
8800.000000;0.769442
8799.000000;0.769199
8798.000000;0.768827
8797.000000;0.768635
8796.000000;0.768690
8795.000000;0.768826
8794.000000;0.768935
8793.000000;0.769023
8792.000000;0.769041
8791.000000;0.768932
8790.000000;0.768801
8789.000000;0.768811
8788.000000;0.768929
8787.000000;0.769025
8786.000000;0.769169
8785.000000;0.769526
8784.000000;0.770008
8783.000000;0.770326
8782.000000;0.770370
8781.000000;0.770248
8780.000000;0.769999
8779.000000;0.769601
8778.000000;0.769254
8777.000000;0.769259
8776.000000;0.769573
8775.000000;0.769823
8774.000000;0.769841
8773.000000;0.769835
8772.000000;0.769962
8771.000000;0.770056
8770.000000;0.769948
8769.000000;0.769769
8768.000000;0.769780
8767.000000;0.770081
8766.000000;0.770605
8765.000000;0.771183
8764.000000;0.771550
8763.000000;0.771521
8762.000000;0.771233
8761.000000;0.771048
8760.000000;0.771150
8759.000000;0.771417
8758.000000;0.771692
8757.000000;0.771930
8756.000000;0.772062
8755.000000;0.771986
8754.000000;0.771774
8753.000000;0.771673
8752.000000;0.771825
8751.000000;0.772143
8750.000000;0.772486
8749.000000;0.772747
8748.000000;0.772778
8747.000000;0.772503
8746.000000;0.772120
8745.000000;0.771961
8744.000000;0.772097
8743.000000;0.772325
8742.000000;0.772549
8741.000000;0.772910
8740.000000;0.773455
8739.000000;0.773972
8738.000000;0.774267
8737.000000;0.774392
8736.000000;0.774492
8735.000000;0.774599
8734.000000;0.774649
8733.000000;0.774584
8732.000000;0.774379
8731.000000;0.774107
8730.000000;0.773967
8729.000000;0.774097
8728.000000;0.774377
8727.000000;0.774572
8726.000000;0.774630
8725.000000;0.774670
8724.000000;0.774754
8723.000000;0.774872
8722.000000;0.775067
8721.000000;0.775318
8720.000000;0.775360
8719.000000;0.774963
8718.000000;0.774358
8717.000000;0.774077
8716.000000;0.774348
8715.000000;0.774918
8714.000000;0.775473
8713.000000;0.775944
8712.000000;0.776338
8711.000000;0.776572
8710.000000;0.776591
8709.000000;0.776474
8708.000000;0.776340
8707.000000;0.776280
8706.000000;0.776365
8705.000000;0.776530
8704.000000;0.776528
8703.000000;0.776218
8702.000000;0.775830
8701.000000;0.775719
8700.000000;0.775914
8699.000000;0.776173
8698.000000;0.776398
8697.000000;0.776666
8696.000000;0.776931
8695.000000;0.777024
8694.000000;0.776961
8693.000000;0.776924
8692.000000;0.776916
8691.000000;0.776781
8690.000000;0.776543
8689.000000;0.776419
8688.000000;0.776477
8687.000000;0.776560
8686.000000;0.776584
8685.000000;0.776589
8684.000000;0.776504
8683.000000;0.776211
8682.000000;0.775858
8681.000000;0.775773
8680.000000;0.776003
8679.000000;0.776282
8678.000000;0.776490
8677.000000;0.776780
8676.000000;0.777186
8675.000000;0.777467
8674.000000;0.777455
8673.000000;0.777251
8672.000000;0.776982
8671.000000;0.776649
8670.000000;0.776328
8669.000000;0.776180
8668.000000;0.776171
8667.000000;0.776067
8666.000000;0.775805
8665.000000;0.775606
8664.000000;0.775622
8663.000000;0.775778
8662.000000;0.776019
8661.000000;0.776377
8660.000000;0.776713
8659.000000;0.776719
8658.000000;0.776347
8657.000000;0.775919
8656.000000;0.775698
8655.000000;0.775642
8654.000000;0.775705
8653.000000;0.776004
8652.000000;0.776499
8651.000000;0.776825
8650.000000;0.776725
8649.000000;0.776399
8648.000000;0.776191
8647.000000;0.776141
8646.000000;0.776074
8645.000000;0.775956
8644.000000;0.775892
8643.000000;0.775886
8642.000000;0.775835
8641.000000;0.775664
8640.000000;0.775364
8639.000000;0.774941
8638.000000;0.774458
8637.000000;0.774037
8636.000000;0.773754
8635.000000;0.773599
8634.000000;0.773548
8633.000000;0.773556
8632.000000;0.773479
8631.000000;0.773199
8630.000000;0.772835
8629.000000;0.772649
8628.000000;0.772680
8627.000000;0.772699
8626.000000;0.772550
8625.000000;0.772363
8624.000000;0.772318
8623.000000;0.772420
8622.000000;0.772567
8621.000000;0.772695
8620.000000;0.772734
8619.000000;0.772607
8618.000000;0.772335
8617.000000;0.772046
8616.000000;0.771785
8615.000000;0.771456
8614.000000;0.770985
8613.000000;0.770440
8612.000000;0.769987
8611.000000;0.769813
8610.000000;0.770031
8609.000000;0.770499
8608.000000;0.770790
8607.000000;0.770581
8606.000000;0.770046
8605.000000;0.769648
8604.000000;0.769547
8603.000000;0.769475
8602.000000;0.769192
8601.000000;0.768784
8600.000000;0.768461
8599.000000;0.768299
8598.000000;0.768291
8597.000000;0.768428
8596.000000;0.768613
8595.000000;0.768672
8594.000000;0.768545
8593.000000;0.768340
8592.000000;0.768148
8591.000000;0.767934
8590.000000;0.767645
8589.000000;0.767297
8588.000000;0.766933
8587.000000;0.766633
8586.000000;0.766559
8585.000000;0.766802
8584.000000;0.767199
8583.000000;0.767455
8582.000000;0.767453
8581.000000;0.767279
8580.000000;0.766988
8579.000000;0.766574
8578.000000;0.766168
8577.000000;0.766000
8576.000000;0.766113
8575.000000;0.766295
8574.000000;0.766333
8573.000000;0.766183
8572.000000;0.765884
8571.000000;0.765503
8570.000000;0.765168
8569.000000;0.764970
8568.000000;0.764810
8567.000000;0.764513
8566.000000;0.764078
8565.000000;0.763645
8564.000000;0.763252
8563.000000;0.762840
8562.000000;0.762459
8561.000000;0.762252
8560.000000;0.762245
8559.000000;0.762358
8558.000000;0.762586
8557.000000;0.762938
8556.000000;0.763229
8555.000000;0.763212
8554.000000;0.762927
8553.000000;0.762639
8552.000000;0.762441
8551.000000;0.762175
8550.000000;0.761781
8549.000000;0.761432
8548.000000;0.761257
8547.000000;0.761172
8546.000000;0.761074
8545.000000;0.760958
8544.000000;0.760790
8543.000000;0.760468
8542.000000;0.760014
8541.000000;0.759615
8540.000000;0.759406
8539.000000;0.759356
8538.000000;0.759378
8537.000000;0.759391
8536.000000;0.759282
8535.000000;0.759002
8534.000000;0.758700
8533.000000;0.758567
8532.000000;0.758548
8531.000000;0.758416
8530.000000;0.758106
8529.000000;0.757747
8528.000000;0.757405
8527.000000;0.757060
8526.000000;0.756836
8525.000000;0.756936
8524.000000;0.757300
8523.000000;0.757602
8522.000000;0.757650
8521.000000;0.757545
8520.000000;0.757377
8519.000000;0.757048
8518.000000;0.756517
8517.000000;0.755987
8516.000000;0.755697
8515.000000;0.755666
8514.000000;0.755739
8513.000000;0.755725
8512.000000;0.755460
8511.000000;0.754929
8510.000000;0.754365
8509.000000;0.754068
8508.000000;0.754069
8507.000000;0.754144
8506.000000;0.754141
8505.000000;0.754088
8504.000000;0.753971
8503.000000;0.753687
8502.000000;0.753301
8501.000000;0.753081
8500.000000;0.753145
8499.000000;0.753292
8498.000000;0.753277
8497.000000;0.753114
8496.000000;0.752973
8495.000000;0.752938
8494.000000;0.752982
8493.000000;0.753042
8492.000000;0.753028
8491.000000;0.752857
8490.000000;0.752566
8489.000000;0.752281
8488.000000;0.752060
8487.000000;0.751850
8486.000000;0.751633
8485.000000;0.751460
8484.000000;0.751328
8483.000000;0.751136
8482.000000;0.750829
8481.000000;0.750478
8480.000000;0.750177
8479.000000;0.749973
8478.000000;0.749876
8477.000000;0.749847
8476.000000;0.749777
8475.000000;0.749591
8474.000000;0.749366
8473.000000;0.749231
8472.000000;0.749203
8471.000000;0.749213
8470.000000;0.749239
8469.000000;0.749263
8468.000000;0.749185
8467.000000;0.748939
8466.000000;0.748641
8465.000000;0.748464
8464.000000;0.748407
8463.000000;0.748358
8462.000000;0.748291
8461.000000;0.748219
8460.000000;0.748039
8459.000000;0.747656
8458.000000;0.747212
8457.000000;0.746952
8456.000000;0.746885
8455.000000;0.746805
8454.000000;0.746604
8453.000000;0.746365
8452.000000;0.746147
8451.000000;0.745942
8450.000000;0.745825
8449.000000;0.745905
8448.000000;0.746096
8447.000000;0.746168
8446.000000;0.746043
8445.000000;0.745843
8444.000000;0.745635
8443.000000;0.745351
8442.000000;0.745008
8441.000000;0.744771
8440.000000;0.744739
8439.000000;0.744808
8438.000000;0.744817
8437.000000;0.744687
8436.000000;0.744428
8435.000000;0.744109
8434.000000;0.743838
8433.000000;0.743642
8432.000000;0.743414
8431.000000;0.743101
8430.000000;0.742847
8429.000000;0.742800
8428.000000;0.742852
8427.000000;0.742773
8426.000000;0.742530
8425.000000;0.742270
8424.000000;0.742047
8423.000000;0.741818
8422.000000;0.741631
8421.000000;0.741576
8420.000000;0.741566
8419.000000;0.741427
8418.000000;0.741185
8417.000000;0.741042
8416.000000;0.741054
8415.000000;0.741078
8414.000000;0.741022
8413.000000;0.740922
8412.000000;0.740776
8411.000000;0.740520
8410.000000;0.740195
8409.000000;0.739924
8408.000000;0.739717
8407.000000;0.739503
8406.000000;0.739314
8405.000000;0.739236
8404.000000;0.739168
8403.000000;0.738898
8402.000000;0.738432
8401.000000;0.738054
8400.000000;0.738013
8399.000000;0.738303
8398.000000;0.738724
8397.000000;0.738993
8396.000000;0.738856
8395.000000;0.738325
8394.000000;0.737766
8393.000000;0.737549
8392.000000;0.737626
8391.000000;0.737626
8390.000000;0.737341
8389.000000;0.736892
8388.000000;0.736470
8387.000000;0.736159
8386.000000;0.735987
8385.000000;0.735919
8384.000000;0.735805
8383.000000;0.735560
8382.000000;0.735354
8381.000000;0.735412
8380.000000;0.735650
8379.000000;0.735768
8378.000000;0.735639
8377.000000;0.735377
8376.000000;0.735058
8375.000000;0.734688
8374.000000;0.734395
8373.000000;0.734344
8372.000000;0.734439
8371.000000;0.734394
8370.000000;0.734126
8369.000000;0.733829
8368.000000;0.733642
8367.000000;0.733509
8366.000000;0.733390
8365.000000;0.733312
8364.000000;0.733200
8363.000000;0.732914
8362.000000;0.732509
8361.000000;0.732200
8360.000000;0.732047
8359.000000;0.731918
8358.000000;0.731773
8357.000000;0.731698
8356.000000;0.731632
8355.000000;0.731366
8354.000000;0.730898
8353.000000;0.730490
8352.000000;0.730291
8351.000000;0.730163
8350.000000;0.729978
8349.000000;0.729825
8348.000000;0.729812
8347.000000;0.729883
8346.000000;0.729929
8345.000000;0.729870
8344.000000;0.729590
8343.000000;0.729017
8342.000000;0.728351
8341.000000;0.727977
8340.000000;0.728038
8339.000000;0.728294
8338.000000;0.728447
8337.000000;0.728432
8336.000000;0.728315
8335.000000;0.728148
8334.000000;0.727999
8333.000000;0.727932
8332.000000;0.727864
8331.000000;0.727635
8330.000000;0.727269
8329.000000;0.726986
8328.000000;0.726897
8327.000000;0.726894
8326.000000;0.726869
8325.000000;0.726821
8324.000000;0.726696
8323.000000;0.726351
8322.000000;0.725801
8321.000000;0.725291
8320.000000;0.725015
8319.000000;0.724943
8318.000000;0.724960
8317.000000;0.725001
8316.000000;0.725001
8315.000000;0.724891
8314.000000;0.724728
8313.000000;0.724637
8312.000000;0.724576
8311.000000;0.724366
8310.000000;0.723982
8309.000000;0.723624
8308.000000;0.723420
8307.000000;0.723292
8306.000000;0.723167
8305.000000;0.723088
8304.000000;0.723023
8303.000000;0.722808
8302.000000;0.722383
8301.000000;0.721929
8300.000000;0.721622
8299.000000;0.721449
8298.000000;0.721334
8297.000000;0.721260
8296.000000;0.721178
8295.000000;0.720964
8294.000000;0.720607
8293.000000;0.720278
8292.000000;0.720109
8291.000000;0.720031
8290.000000;0.719917
8289.000000;0.719756
8288.000000;0.719577
8287.000000;0.719365
8286.000000;0.719125
8285.000000;0.718921
8284.000000;0.718775
8283.000000;0.718631
8282.000000;0.718463
8281.000000;0.718318
8280.000000;0.718193
8279.000000;0.718021
8278.000000;0.717801
8277.000000;0.717604
8276.000000;0.717427
8275.000000;0.717192
8274.000000;0.716907
8273.000000;0.716671
8272.000000;0.716487
8271.000000;0.716264
8270.000000;0.716030
8269.000000;0.715934
8268.000000;0.715959
8267.000000;0.715858
8266.000000;0.715477
8265.000000;0.714968
8264.000000;0.714565
8263.000000;0.714326
8262.000000;0.714184
8261.000000;0.714107
8260.000000;0.714070
8259.000000;0.714007
8258.000000;0.713899
8257.000000;0.713813
8256.000000;0.713769
8255.000000;0.713675
8254.000000;0.713493
8253.000000;0.713334
8252.000000;0.713295
8251.000000;0.713308
8250.000000;0.713244
8249.000000;0.713063
8248.000000;0.712781
8247.000000;0.712374
8246.000000;0.711830
8245.000000;0.711237
8244.000000;0.710734
8243.000000;0.710420
8242.000000;0.710329
8241.000000;0.710424
8240.000000;0.710572
8239.000000;0.710607
8238.000000;0.710467
8237.000000;0.710229
8236.000000;0.709993
8235.000000;0.709793
8234.000000;0.709610
8233.000000;0.709396
8232.000000;0.709090
8231.000000;0.708710
8230.000000;0.708413
8229.000000;0.708348
8228.000000;0.708462
8227.000000;0.708526
8226.000000;0.708385
8225.000000;0.708062
8224.000000;0.707657
8223.000000;0.707248
8222.000000;0.706917
8221.000000;0.706734
8220.000000;0.706680
8219.000000;0.706656
8218.000000;0.706591
8217.000000;0.706462
8216.000000;0.706251
8215.000000;0.705974
8214.000000;0.705718
8213.000000;0.705553
8212.000000;0.705416
8211.000000;0.705201
8210.000000;0.704930
8209.000000;0.704714
8208.000000;0.704569
8207.000000;0.704419
8206.000000;0.704245
8205.000000;0.704086
8204.000000;0.703904
8203.000000;0.703614
8202.000000;0.703250
8201.000000;0.702959
8200.000000;0.702804
8199.000000;0.702702
8198.000000;0.702564
8197.000000;0.702375
8196.000000;0.702129
8195.000000;0.701826
8194.000000;0.701532
8193.000000;0.701325
8192.000000;0.701164
8191.000000;0.700949
8190.000000;0.700680
8189.000000;0.700444
8188.000000;0.700255
8187.000000;0.700053
8186.000000;0.699846
8185.000000;0.699720
8184.000000;0.699681
8183.000000;0.699626
8182.000000;0.699490
8181.000000;0.699319
8180.000000;0.699189
8179.000000;0.699151
8178.000000;0.699245
8177.000000;0.699431
8176.000000;0.699534
8175.000000;0.699375
8174.000000;0.698977
8173.000000;0.698524
8172.000000;0.698148
8171.000000;0.697864
8170.000000;0.697673
8169.000000;0.697573
8168.000000;0.697479
8167.000000;0.697283
8166.000000;0.697012
8165.000000;0.696794
8164.000000;0.696688
8163.000000;0.696648
8162.000000;0.696625
8161.000000;0.696559
8160.000000;0.696321
8159.000000;0.695826
8158.000000;0.695201
8157.000000;0.694701
8156.000000;0.694443
8155.000000;0.694338
8154.000000;0.694261
8153.000000;0.694155
8152.000000;0.693987
8151.000000;0.693757
8150.000000;0.693550
8149.000000;0.693455
8148.000000;0.693458
8147.000000;0.693481
8146.000000;0.693498
8145.000000;0.693474
8144.000000;0.693288
8143.000000;0.692873
8142.000000;0.692365
8141.000000;0.691953
8140.000000;0.691629
8139.000000;0.691283
8138.000000;0.690960
8137.000000;0.690807
8136.000000;0.690783
8135.000000;0.690665
8134.000000;0.690348
8133.000000;0.689953
8132.000000;0.689614
8131.000000;0.689353
8130.000000;0.689178
8129.000000;0.689098
8128.000000;0.689012
8127.000000;0.688781
8126.000000;0.688417
8125.000000;0.688070
8124.000000;0.687805
8123.000000;0.687570
8122.000000;0.687384
8121.000000;0.687349
8120.000000;0.687440
8119.000000;0.687462
8118.000000;0.687288
8117.000000;0.686973
8116.000000;0.686619
8115.000000;0.686278
8114.000000;0.686021
8113.000000;0.685914
8112.000000;0.685884
8111.000000;0.685762
8110.000000;0.685511
8109.000000;0.685247
8108.000000;0.685033
8107.000000;0.684797
8106.000000;0.684501
8105.000000;0.684213
8104.000000;0.683967
8103.000000;0.683724
8102.000000;0.683507
8101.000000;0.683419
8100.000000;0.683467
8099.000000;0.683497
8098.000000;0.683385
8097.000000;0.683150
8096.000000;0.682854
8095.000000;0.682520
8094.000000;0.682211
8093.000000;0.682023
8092.000000;0.681962
8091.000000;0.681922
8090.000000;0.681847
8089.000000;0.681770
8088.000000;0.681656
8087.000000;0.681367
8086.000000;0.680868
8085.000000;0.680325
8084.000000;0.679920
8083.000000;0.679677
8082.000000;0.679537
8081.000000;0.679487
8080.000000;0.679516
8079.000000;0.679542
8078.000000;0.679499
8077.000000;0.679416
8076.000000;0.679338
8075.000000;0.679221
8074.000000;0.678975
8073.000000;0.678584
8072.000000;0.678135
8071.000000;0.677748
8070.000000;0.677497
8069.000000;0.677376
8068.000000;0.677309
8067.000000;0.677215
8066.000000;0.677041
8065.000000;0.676740
8064.000000;0.676294
8063.000000;0.675799
8062.000000;0.675440
8061.000000;0.675289
8060.000000;0.675195
8059.000000;0.674976
8058.000000;0.674667
8057.000000;0.674436
8056.000000;0.674344
8055.000000;0.674321
8054.000000;0.674340
8053.000000;0.674433
8052.000000;0.674537
8051.000000;0.674498
8050.000000;0.674243
8049.000000;0.673843
8048.000000;0.673389
8047.000000;0.672946
8046.000000;0.672599
8045.000000;0.672426
8044.000000;0.672374
8043.000000;0.672316
8042.000000;0.672207
8041.000000;0.672111
8040.000000;0.672041
8039.000000;0.671911
8038.000000;0.671648
8037.000000;0.671262
8036.000000;0.670811
8035.000000;0.670384
8034.000000;0.670106
8033.000000;0.670035
8032.000000;0.670048
8031.000000;0.669962
8030.000000;0.669739
8029.000000;0.669473
8028.000000;0.669216
8027.000000;0.668961
8026.000000;0.668752
8025.000000;0.668665
8024.000000;0.668647
8023.000000;0.668545
8022.000000;0.668305
8021.000000;0.668024
8020.000000;0.667784
8019.000000;0.667567
8018.000000;0.667351
8017.000000;0.667147
8016.000000;0.666909
8015.000000;0.666551
8014.000000;0.666091
8013.000000;0.665672
8012.000000;0.665379
8011.000000;0.665158
8010.000000;0.664955
8009.000000;0.664823
8008.000000;0.664814
8007.000000;0.664844
8006.000000;0.664732
8005.000000;0.664370
8004.000000;0.663810
8003.000000;0.663224
8002.000000;0.662771
8001.000000;0.662494
8000.000000;0.662342
7999.000000;0.662287
7998.000000;0.662358
7997.000000;0.662529
7996.000000;0.662676
7995.000000;0.662714
7994.000000;0.662688
7993.000000;0.662632
7992.000000;0.662438
7991.000000;0.662005
7990.000000;0.661435
7989.000000;0.660952
7988.000000;0.660659
7987.000000;0.660505
7986.000000;0.660440
7985.000000;0.660451
7984.000000;0.660471
7983.000000;0.660395
7982.000000;0.660211
7981.000000;0.659992
7980.000000;0.659766
7979.000000;0.659496
7978.000000;0.659188
7977.000000;0.658903
7976.000000;0.658645
7975.000000;0.658359
7974.000000;0.658023
7973.000000;0.657666
7972.000000;0.657305
7971.000000;0.656947
7970.000000;0.656656
7969.000000;0.656512
7968.000000;0.656513
7967.000000;0.656571
7966.000000;0.656586
7965.000000;0.656483
7964.000000;0.656213
7963.000000;0.655809
7962.000000;0.655389
7961.000000;0.655047
7960.000000;0.654769
7959.000000;0.654522
7958.000000;0.654323
7957.000000;0.654170
7956.000000;0.653973
7955.000000;0.653688
7954.000000;0.653405
7953.000000;0.653214
7952.000000;0.653068
7951.000000;0.652887
7950.000000;0.652715
7949.000000;0.652625
7948.000000;0.652571
7947.000000;0.652470
7946.000000;0.652358
7945.000000;0.652282
7944.000000;0.652151
7943.000000;0.651850
7942.000000;0.651455
7941.000000;0.651134
7940.000000;0.650915
7939.000000;0.650724
7938.000000;0.650599
7937.000000;0.650631
7936.000000;0.650728
7935.000000;0.650641
7934.000000;0.650280
7933.000000;0.649819
7932.000000;0.649474
7931.000000;0.649300
7930.000000;0.649252
7929.000000;0.649260
7928.000000;0.649234
7927.000000;0.649102
7926.000000;0.648886
7925.000000;0.648666
7924.000000;0.648455
7923.000000;0.648211
7922.000000;0.647932
7921.000000;0.647640
7920.000000;0.647301
7919.000000;0.646901
7918.000000;0.646551
7917.000000;0.646372
7916.000000;0.646299
7915.000000;0.646155
7914.000000;0.645909
7913.000000;0.645711
7912.000000;0.645640
7911.000000;0.645586
7910.000000;0.645421
7909.000000;0.645162
7908.000000;0.644926
7907.000000;0.644788
7906.000000;0.644729
7905.000000;0.644659
7904.000000;0.644490
7903.000000;0.644230
7902.000000;0.643978
7901.000000;0.643799
7900.000000;0.643654
7899.000000;0.643492
7898.000000;0.643314
7897.000000;0.643088
7896.000000;0.642710
7895.000000;0.642198
7894.000000;0.641772
7893.000000;0.641600
7892.000000;0.641552
7891.000000;0.641389
7890.000000;0.641117
7889.000000;0.640933
7888.000000;0.640875
7887.000000;0.640762
7886.000000;0.640484
7885.000000;0.640169
7884.000000;0.639991
7883.000000;0.639967
7882.000000;0.639979
7881.000000;0.639891
7880.000000;0.639626
7879.000000;0.639224
7878.000000;0.638858
7877.000000;0.638674
7876.000000;0.638633
7875.000000;0.638584
7874.000000;0.638439
7873.000000;0.638203
7872.000000;0.637894
7871.000000;0.637561
7870.000000;0.637332
7869.000000;0.637270
7868.000000;0.637247
7867.000000;0.637081
7866.000000;0.636792
7865.000000;0.636551
7864.000000;0.636418
7863.000000;0.636277
7862.000000;0.636044
7861.000000;0.635768
7860.000000;0.635525
7859.000000;0.635336
7858.000000;0.635192
7857.000000;0.635052
7856.000000;0.634840
7855.000000;0.634536
7854.000000;0.634258
7853.000000;0.634124
7852.000000;0.634095
7851.000000;0.634039
7850.000000;0.633929
7849.000000;0.633809
7848.000000;0.633641
7847.000000;0.633349
7846.000000;0.632996
7845.000000;0.632752
7844.000000;0.632675
7843.000000;0.632661
7842.000000;0.632608
7841.000000;0.632491
7840.000000;0.632304
7839.000000;0.632067
7838.000000;0.631882
7837.000000;0.631835
7836.000000;0.631842
7835.000000;0.631723
7834.000000;0.631430
7833.000000;0.631080
7832.000000;0.630762
7831.000000;0.630459
7830.000000;0.630165
7829.000000;0.629939
7828.000000;0.629820
7827.000000;0.629771
7826.000000;0.629731
7825.000000;0.629658
7824.000000;0.629537
7823.000000;0.629415
7822.000000;0.629363
7821.000000;0.629345
7820.000000;0.629206
7819.000000;0.628892
7818.000000;0.628580
7817.000000;0.628447
7816.000000;0.628415
7815.000000;0.628299
7814.000000;0.628113
7813.000000;0.628029
7812.000000;0.628070
7811.000000;0.628065
7810.000000;0.627908
7809.000000;0.627663
7808.000000;0.627410
7807.000000;0.627164
7806.000000;0.626950
7805.000000;0.626804
7804.000000;0.626662
7803.000000;0.626416
7802.000000;0.626094
7801.000000;0.625837
7800.000000;0.625699
7799.000000;0.625595
7798.000000;0.625466
7797.000000;0.625332
7796.000000;0.625190
7795.000000;0.625005
7794.000000;0.624820
7793.000000;0.624730
7792.000000;0.624724
7791.000000;0.624675
7790.000000;0.624511
7789.000000;0.624265
7788.000000;0.623984
7787.000000;0.623696
7786.000000;0.623467
7785.000000;0.623356
7784.000000;0.623307
7783.000000;0.623213
7782.000000;0.623074
7781.000000;0.622955
7780.000000;0.622819
7779.000000;0.622561
7778.000000;0.622206
7777.000000;0.621917
7776.000000;0.621775
7775.000000;0.621700
7774.000000;0.621606
7773.000000;0.621506
7772.000000;0.621435
7771.000000;0.621390
7770.000000;0.621380
7769.000000;0.621421
7768.000000;0.621460
7767.000000;0.621414
7766.000000;0.621280
7765.000000;0.621108
7764.000000;0.620884
7763.000000;0.620550
7762.000000;0.620144
7761.000000;0.619792
7760.000000;0.619574
7759.000000;0.619482
7758.000000;0.619511
7757.000000;0.619652
7756.000000;0.619812
7755.000000;0.619859
7754.000000;0.619756
7753.000000;0.619567
7752.000000;0.619335
7751.000000;0.619081
7750.000000;0.618878
7749.000000;0.618797
7748.000000;0.618791
7747.000000;0.618751
7746.000000;0.618663
7745.000000;0.618585
7744.000000;0.618501
7743.000000;0.618338
7742.000000;0.618116
7741.000000;0.617946
7740.000000;0.617865
7739.000000;0.617806
7738.000000;0.617720
7737.000000;0.617617
7736.000000;0.617491
7735.000000;0.617328
7734.000000;0.617166
7733.000000;0.617043
7732.000000;0.616913
7731.000000;0.616725
7730.000000;0.616548
7729.000000;0.616490
7728.000000;0.616516
7727.000000;0.616500
7726.000000;0.616415
7725.000000;0.616323
7724.000000;0.616238
7723.000000;0.616140
7722.000000;0.616094
7721.000000;0.616156
7720.000000;0.616207
7719.000000;0.616063
7718.000000;0.615757
7717.000000;0.615508
7716.000000;0.615396
7715.000000;0.615276
7714.000000;0.615045
7713.000000;0.614804
7712.000000;0.614692
7711.000000;0.614709
7710.000000;0.614769
7709.000000;0.614787
7708.000000;0.614683
7707.000000;0.614426
7706.000000;0.614129
7705.000000;0.613955
7704.000000;0.613915
7703.000000;0.613870
7702.000000;0.613759
7701.000000;0.613651
7700.000000;0.613577
7699.000000;0.613459
7698.000000;0.613286
7697.000000;0.613175
7696.000000;0.613192
7695.000000;0.613242
7694.000000;0.613206
7693.000000;0.613092
7692.000000;0.612978
7691.000000;0.612914
7690.000000;0.612934
7689.000000;0.613055
7688.000000;0.613196
7687.000000;0.613207
7686.000000;0.613040
7685.000000;0.612805
7684.000000;0.612629
7683.000000;0.612548
7682.000000;0.612547
7681.000000;0.612604
7680.000000;0.612649
7679.000000;0.612588
7678.000000;0.612439
7677.000000;0.612331
7676.000000;0.612333
7675.000000;0.612375
7674.000000;0.612364
7673.000000;0.612295
7672.000000;0.612201
7671.000000;0.612085
7670.000000;0.611952
7669.000000;0.611821
7668.000000;0.611681
7667.000000;0.611506
7666.000000;0.611343
7665.000000;0.611282
7664.000000;0.611323
7663.000000;0.611354
7662.000000;0.611304
7661.000000;0.611217
7660.000000;0.611160
7659.000000;0.611144
7658.000000;0.611166
7657.000000;0.611252
7656.000000;0.611398
7655.000000;0.611540
7654.000000;0.611622
7653.000000;0.611639
7652.000000;0.611601
7651.000000;0.611519
7650.000000;0.611438
7649.000000;0.611412
7648.000000;0.611420
7647.000000;0.611385
7646.000000;0.611285
7645.000000;0.611169
7644.000000;0.611067
7643.000000;0.610952
7642.000000;0.610807
7641.000000;0.610656
7640.000000;0.610516
7639.000000;0.610399
7638.000000;0.610361
7637.000000;0.610472
7636.000000;0.610697
7635.000000;0.610894
7634.000000;0.610948
7633.000000;0.610866
7632.000000;0.610738
7631.000000;0.610668
7630.000000;0.610730
7629.000000;0.610916
7628.000000;0.611106
7627.000000;0.611171
7626.000000;0.611095
7625.000000;0.610957
7624.000000;0.610829
7623.000000;0.610746
7622.000000;0.610764
7621.000000;0.610919
7620.000000;0.611135
7619.000000;0.611255
7618.000000;0.611208
7617.000000;0.611062
7616.000000;0.610926
7615.000000;0.610851
7614.000000;0.610852
7613.000000;0.610944
7612.000000;0.611121
7611.000000;0.611333
7610.000000;0.611511
7609.000000;0.611602
7608.000000;0.611601
7607.000000;0.611581
7606.000000;0.611640
7605.000000;0.611787
7604.000000;0.611915
7603.000000;0.611924
7602.000000;0.611824
7601.000000;0.611680
7600.000000;0.611534
7599.000000;0.611446
7598.000000;0.611513
7597.000000;0.611730
7596.000000;0.611923
7595.000000;0.611920
7594.000000;0.611779
7593.000000;0.611711
7592.000000;0.611822
7591.000000;0.612042
7590.000000;0.612261
7589.000000;0.612427
7588.000000;0.612520
7587.000000;0.612544
7586.000000;0.612545
7585.000000;0.612551
7584.000000;0.612515
7583.000000;0.612401
7582.000000;0.612293
7581.000000;0.612311
7580.000000;0.612464
7579.000000;0.612678
7578.000000;0.612912
7577.000000;0.613133
7576.000000;0.613243
7575.000000;0.613166
7574.000000;0.613014
7573.000000;0.612997
7572.000000;0.613156
7571.000000;0.613325
7570.000000;0.613376
7569.000000;0.613395
7568.000000;0.613557
7567.000000;0.613916
7566.000000;0.614353
7565.000000;0.614680
7564.000000;0.614772
7563.000000;0.614655
7562.000000;0.614497
7561.000000;0.614467
7560.000000;0.614604
7559.000000;0.614845
7558.000000;0.615121
7557.000000;0.615378
7556.000000;0.615558
7555.000000;0.615647
7554.000000;0.615725
7553.000000;0.615878
7552.000000;0.616105
7551.000000;0.616348
7550.000000;0.616580
7549.000000;0.616792
7548.000000;0.616950
7547.000000;0.617029
7546.000000;0.617070
7545.000000;0.617112
7544.000000;0.617140
7543.000000;0.617158
7542.000000;0.617241
7541.000000;0.617414
7540.000000;0.617576
7539.000000;0.617652
7538.000000;0.617735
7537.000000;0.617943
7536.000000;0.618211
7535.000000;0.618386
7534.000000;0.618470
7533.000000;0.618613
7532.000000;0.618879
7531.000000;0.619176
7530.000000;0.619409
7529.000000;0.619570
7528.000000;0.619676
7527.000000;0.619738
7526.000000;0.619809
7525.000000;0.619945
7524.000000;0.620115
7523.000000;0.620242
7522.000000;0.620334
7521.000000;0.620476
7520.000000;0.620693
7519.000000;0.620928
7518.000000;0.621137
7517.000000;0.621332
7516.000000;0.621530
7515.000000;0.621754
7514.000000;0.622052
7513.000000;0.622413
7512.000000;0.622719
7511.000000;0.622868
7510.000000;0.622913
7509.000000;0.622985
7508.000000;0.623114
7507.000000;0.623252
7506.000000;0.623421
7505.000000;0.623699
7504.000000;0.624050
7503.000000;0.624329
7502.000000;0.624463
7501.000000;0.624518
7500.000000;0.624574
7499.000000;0.624647
7498.000000;0.624764
7497.000000;0.624976
7496.000000;0.625268
7495.000000;0.625551
7494.000000;0.625759
7493.000000;0.625935
7492.000000;0.626098
7491.000000;0.626299
7490.000000;0.626529
7489.000000;0.626753
7488.000000;0.626959
7487.000000;0.627129
7486.000000;0.627280
7485.000000;0.627433
7484.000000;0.627603
7483.000000;0.627811
7482.000000;0.628079
7481.000000;0.628365
7480.000000;0.628574
7479.000000;0.628694
7478.000000;0.628845
7477.000000;0.629125
7476.000000;0.629482
7475.000000;0.629801
7474.000000;0.630063
7473.000000;0.630317
7472.000000;0.630559
7471.000000;0.630767
7470.000000;0.630977
7469.000000;0.631234
7468.000000;0.631489
7467.000000;0.631666
7466.000000;0.631781
7465.000000;0.631920
7464.000000;0.632103
7463.000000;0.632298
7462.000000;0.632496
7461.000000;0.632714
7460.000000;0.632941
7459.000000;0.633180
7458.000000;0.633490
7457.000000;0.633904
7456.000000;0.634336
7455.000000;0.634672
7454.000000;0.634881
7453.000000;0.634993
7452.000000;0.635029
7451.000000;0.635033
7450.000000;0.635107
7449.000000;0.635298
7448.000000;0.635522
7447.000000;0.635688
7446.000000;0.635836
7445.000000;0.636064
7444.000000;0.636374
7443.000000;0.636685
7442.000000;0.636942
7441.000000;0.637133
7440.000000;0.637261
7439.000000;0.637382
7438.000000;0.637588
7437.000000;0.637885
7436.000000;0.638171
7435.000000;0.638396
7434.000000;0.638636
7433.000000;0.638912
7432.000000;0.639103
7431.000000;0.639158
7430.000000;0.639234
7429.000000;0.639473
7428.000000;0.639781
7427.000000;0.640007
7426.000000;0.640210
7425.000000;0.640540
7424.000000;0.640960
7423.000000;0.641271
7422.000000;0.641390
7421.000000;0.641438
7420.000000;0.641538
7419.000000;0.641699
7418.000000;0.641892
7417.000000;0.642111
7416.000000;0.642365
7415.000000;0.642683
7414.000000;0.643101
7413.000000;0.643572
7412.000000;0.643937
7411.000000;0.644087
7410.000000;0.644130
7409.000000;0.644237
7408.000000;0.644433
7407.000000;0.644628
7406.000000;0.644783
7405.000000;0.644917
7404.000000;0.645026
7403.000000;0.645112
7402.000000;0.645243
7401.000000;0.645455
7400.000000;0.645650
7399.000000;0.645756
7398.000000;0.645906
7397.000000;0.646218
7396.000000;0.646553
7395.000000;0.646761
7394.000000;0.646925
7393.000000;0.647127
7392.000000;0.647201
7391.000000;0.646973
7390.000000;0.646650
7389.000000;0.646632
7388.000000;0.647018
7387.000000;0.647568
7386.000000;0.648069
7385.000000;0.648481
7384.000000;0.648810
7383.000000;0.649059
7382.000000;0.649242
7381.000000;0.649383
7380.000000;0.649522
7379.000000;0.649738
7378.000000;0.650079
7377.000000;0.650439
7376.000000;0.650666
7375.000000;0.650806
7374.000000;0.651058
7373.000000;0.651471
7372.000000;0.651839
7371.000000;0.651964
7370.000000;0.651909
7369.000000;0.651870
7368.000000;0.651926
7367.000000;0.652119
7366.000000;0.652547
7365.000000;0.653072
7364.000000;0.653287
7363.000000;0.653059
7362.000000;0.652735
7361.000000;0.652752
7360.000000;0.653243
7359.000000;0.654015
7358.000000;0.654685
7357.000000;0.654878
7356.000000;0.654567
7355.000000;0.654220
7354.000000;0.654473
7353.000000;0.655423
7352.000000;0.656453
7351.000000;0.656868
7350.000000;0.656598
7349.000000;0.656159
7348.000000;0.656087
7347.000000;0.656498
7346.000000;0.657045
7345.000000;0.657289
7344.000000;0.657187
7343.000000;0.657279
7342.000000;0.658087
7341.000000;0.659336
7340.000000;0.660141
7339.000000;0.660084
7338.000000;0.659727
7337.000000;0.659743
7336.000000;0.660130
7335.000000;0.660567
7334.000000;0.660965
7333.000000;0.661437
7332.000000;0.662063
7331.000000;0.662755
7330.000000;0.663325
7329.000000;0.663650
7328.000000;0.663795
7327.000000;0.663966
7326.000000;0.664317
7325.000000;0.664766
7324.000000;0.664993
7323.000000;0.664865
7322.000000;0.664749
7321.000000;0.665145
7320.000000;0.666064
7319.000000;0.667063
7318.000000;0.667891
7317.000000;0.668666
7316.000000;0.669446
7315.000000;0.670090
7314.000000;0.670509
7313.000000;0.670855
7312.000000;0.671411
7311.000000;0.672264
7310.000000;0.673164
7309.000000;0.673756
7308.000000;0.673889
7307.000000;0.673795
7306.000000;0.673956
7305.000000;0.674745
7304.000000;0.676056
7303.000000;0.677243
7302.000000;0.677723
7301.000000;0.677532
7300.000000;0.677223
7299.000000;0.677443
7298.000000;0.678491
7297.000000;0.680069
7296.000000;0.681442
7295.000000;0.682135
7294.000000;0.682448
7293.000000;0.683057
7292.000000;0.684280
7291.000000;0.685826
7290.000000;0.687219
7289.000000;0.688340
7288.000000;0.689384
7287.000000;0.690474
7286.000000;0.691523
7285.000000;0.692468
7284.000000;0.693421
7283.000000;0.694452
7282.000000;0.695521
7281.000000;0.696622
7280.000000;0.697769
7279.000000;0.698945
7278.000000;0.700114
7277.000000;0.701265
7276.000000;0.702446
7275.000000;0.703681
7274.000000;0.704903
7273.000000;0.706063
7272.000000;0.707203
7271.000000;0.708382
7270.000000;0.709622
7269.000000;0.710960
7268.000000;0.712446
7267.000000;0.714077
7266.000000;0.715812
7265.000000;0.717618
7264.000000;0.719429
7263.000000;0.721093
7262.000000;0.722490
7261.000000;0.723713
7260.000000;0.725010
7259.000000;0.726490
7258.000000;0.728075
7257.000000;0.729701
7256.000000;0.731418
7255.000000;0.733307
7254.000000;0.735355
7253.000000;0.737465
7252.000000;0.739474
7251.000000;0.741340
7250.000000;0.743214
7249.000000;0.745176
7248.000000;0.747216
7247.000000;0.749358
7246.000000;0.751598
7245.000000;0.753809
7244.000000;0.755889
7243.000000;0.757926
7242.000000;0.760168
7241.000000;0.762744
7240.000000;0.765446
7239.000000;0.767837
7238.000000;0.769746
7237.000000;0.771556
7236.000000;0.773822
7235.000000;0.776679
7234.000000;0.779790
7233.000000;0.782738
7232.000000;0.785276
7231.000000;0.787548
7230.000000;0.789978
7229.000000;0.792709
7228.000000;0.795562
7227.000000;0.798428
7226.000000;0.801315
7225.000000;0.804248
7224.000000;0.807296
7223.000000;0.810487
7222.000000;0.813660
7221.000000;0.816598
7220.000000;0.819360
7219.000000;0.822260
7218.000000;0.825539
7217.000000;0.829148
7216.000000;0.832826
7215.000000;0.836318
7214.000000;0.839603
7213.000000;0.842928
7212.000000;0.846508
7211.000000;0.850300
7210.000000;0.854092
7209.000000;0.857785
7208.000000;0.861533
7207.000000;0.865545
7206.000000;0.869763
7205.000000;0.873918
7204.000000;0.877871
7203.000000;0.881754
7202.000000;0.885728
7201.000000;0.889775
7200.000000;0.893788
7199.000000;0.897753
7198.000000;0.901839
7197.000000;0.906267
7196.000000;0.911039
7195.000000;0.915849
7194.000000;0.920341
7193.000000;0.924509
7192.000000;0.928699
7191.000000;0.933228
7190.000000;0.938077
7189.000000;0.942999
7188.000000;0.947819
7187.000000;0.952549
7186.000000;0.957328
7185.000000;0.962233
7184.000000;0.967167
7183.000000;0.971977
7182.000000;0.976643
7181.000000;0.981298
7180.000000;0.986152
7179.000000;0.991359
7178.000000;0.996860
7177.000000;1.002429
7176.000000;1.007937
7175.000000;1.013427
7174.000000;1.019004
7173.000000;1.024711
7172.000000;1.030404
7171.000000;1.035968
7170.000000;1.041542
7169.000000;1.047387
7168.000000;1.053420
7167.000000;1.059150
7166.000000;1.064378
7165.000000;1.069418
7164.000000;1.074463
7163.000000;1.079257
7162.000000;1.083683
7161.000000;1.088229
7160.000000;1.093583
7159.000000;1.099881
7158.000000;1.106599
7157.000000;1.113026
7156.000000;1.118792
7155.000000;1.124036
7154.000000;1.129275
7153.000000;1.134996
7152.000000;1.141075
7151.000000;1.146898
7150.000000;1.152222
7149.000000;1.157460
7148.000000;1.162931
7147.000000;1.168445
7146.000000;1.173782
7145.000000;1.179095
7144.000000;1.184655
7143.000000;1.190451
7142.000000;1.196227
7141.000000;1.201765
7140.000000;1.207026
7139.000000;1.212163
7138.000000;1.217470
7137.000000;1.223118
7136.000000;1.228907
7135.000000;1.234502
7134.000000;1.239921
7133.000000;1.245521
7132.000000;1.251473
7131.000000;1.257575
7130.000000;1.263654
7129.000000;1.269642
7128.000000;1.275261
7127.000000;1.280139
7126.000000;1.284327
7125.000000;1.288337
7124.000000;1.292631
7123.000000;1.297406
7122.000000;1.302815
7121.000000;1.308771
7120.000000;1.314576
7119.000000;1.319431
7118.000000;1.323505
7117.000000;1.327883
7116.000000;1.333199
7115.000000;1.338858
7114.000000;1.343942
7113.000000;1.348343
7112.000000;1.352564
7111.000000;1.356924
7110.000000;1.361484
7109.000000;1.366280
7108.000000;1.371102
7107.000000;1.375323
7106.000000;1.378587
7105.000000;1.381493
7104.000000;1.384980
7103.000000;1.389296
7102.000000;1.393898
7101.000000;1.398077
7100.000000;1.401580
7099.000000;1.404818
7098.000000;1.408494
7097.000000;1.412883
7096.000000;1.417502
7095.000000;1.421647
7094.000000;1.425206
7093.000000;1.428628
7092.000000;1.432151
7091.000000;1.435551
7090.000000;1.438650
7089.000000;1.441551
7088.000000;1.444343
7087.000000;1.447043
7086.000000;1.449876
7085.000000;1.453097
7084.000000;1.456496
7083.000000;1.459603
7082.000000;1.462410
7081.000000;1.465348
7080.000000;1.468574
7079.000000;1.471845
7078.000000;1.475057
7077.000000;1.478356
7076.000000;1.481625
7075.000000;1.484348
7074.000000;1.486297
7073.000000;1.487985
7072.000000;1.490178
7071.000000;1.493231
7070.000000;1.496945
7069.000000;1.500704
7068.000000;1.503757
7067.000000;1.505777
7066.000000;1.507229
7065.000000;1.508799
7064.000000;1.510541
7063.000000;1.512085
7062.000000;1.513496
7061.000000;1.515165
7060.000000;1.516939
7059.000000;1.518167
7058.000000;1.518694
7057.000000;1.519186
7056.000000;1.520359
7055.000000;1.522387
7054.000000;1.525090
7053.000000;1.528159
7052.000000;1.531029
7051.000000;1.533135
7050.000000;1.534526
7049.000000;1.535705
7048.000000;1.536802
7047.000000;1.537533
7046.000000;1.538022
7045.000000;1.538957
7044.000000;1.540700
7043.000000;1.542846
7042.000000;1.544849
7041.000000;1.546501
7040.000000;1.547712
7039.000000;1.548506
7038.000000;1.549334
7037.000000;1.550714
7036.000000;1.552419
7035.000000;1.553651
7034.000000;1.554206
7033.000000;1.554788
7032.000000;1.555924
7031.000000;1.557289
7030.000000;1.558398
7029.000000;1.559298
7028.000000;1.560285
7027.000000;1.561555
7026.000000;1.563329
7025.000000;1.565659
7024.000000;1.567859
7023.000000;1.568865
7022.000000;1.568564
7021.000000;1.568031
7020.000000;1.568063
7019.000000;1.568254
7018.000000;1.568041
7017.000000;1.567862
7016.000000;1.568517
7015.000000;1.569880
7014.000000;1.571023
7013.000000;1.571405
7012.000000;1.571310
7011.000000;1.571287
7010.000000;1.571728
7009.000000;1.572861
7008.000000;1.574565
7007.000000;1.576130
7006.000000;1.576670
7005.000000;1.576026
7004.000000;1.575039
7003.000000;1.574756
7002.000000;1.575421
7001.000000;1.576325
7000.000000;1.576660
6999.000000;1.576438
6998.000000;1.576406
6997.000000;1.577083
6996.000000;1.578163
6995.000000;1.578955
6994.000000;1.579104
6993.000000;1.578651
6992.000000;1.577791
6991.000000;1.576970
6990.000000;1.576913
6989.000000;1.578023
6988.000000;1.579812
6987.000000;1.581378
6986.000000;1.582384
6985.000000;1.583119
6984.000000;1.583700
6983.000000;1.583749
6982.000000;1.582878
6981.000000;1.581223
6980.000000;1.579494
6979.000000;1.578587
6978.000000;1.578909
6977.000000;1.579876
6976.000000;1.580404
6975.000000;1.580164
6974.000000;1.579893
6973.000000;1.580124
6972.000000;1.580259
6971.000000;1.579448
6970.000000;1.577841
6969.000000;1.576261
6968.000000;1.575083
6967.000000;1.574247
6966.000000;1.574038
6965.000000;1.574903
6964.000000;1.576611
6963.000000;1.578309
6962.000000;1.579326
6961.000000;1.579385
6960.000000;1.578390
6959.000000;1.576721
6958.000000;1.575385
6957.000000;1.575039
6956.000000;1.575085
6955.000000;1.574507
6954.000000;1.573364
6953.000000;1.572561
6952.000000;1.572454
6951.000000;1.572659
6950.000000;1.573004
6949.000000;1.573630
6948.000000;1.574230
6947.000000;1.574251
6946.000000;1.573916
6945.000000;1.574012
6944.000000;1.574479
6943.000000;1.574265
6942.000000;1.572803
6941.000000;1.570764
6940.000000;1.569108
6939.000000;1.568189
6938.000000;1.567947
6937.000000;1.568171
6936.000000;1.568319
6935.000000;1.567838
6934.000000;1.566890
6933.000000;1.566056
6932.000000;1.565294
6931.000000;1.564023
6930.000000;1.562276
6929.000000;1.560856
6928.000000;1.560167
6927.000000;1.559808
6926.000000;1.559594
6925.000000;1.560000
6924.000000;1.561124
6923.000000;1.562030
6922.000000;1.561796
6921.000000;1.560624
6920.000000;1.559399
6919.000000;1.558708
6918.000000;1.558632
6917.000000;1.558873
6916.000000;1.558758
6915.000000;1.557695
6914.000000;1.555963
6913.000000;1.554471
6912.000000;1.553561
6911.000000;1.552666
6910.000000;1.551351
6909.000000;1.549940
6908.000000;1.548774
6907.000000;1.547663
6906.000000;1.546575
6905.000000;1.546118
6904.000000;1.546645
6903.000000;1.547429
6902.000000;1.547413
6901.000000;1.546400
6900.000000;1.544910
6899.000000;1.543318
6898.000000;1.541712
6897.000000;1.540311
6896.000000;1.539426
6895.000000;1.539075
6894.000000;1.539057
6893.000000;1.539229
6892.000000;1.539365
6891.000000;1.539036
6890.000000;1.538063
6889.000000;1.536848
6888.000000;1.535931
6887.000000;1.535426
6886.000000;1.535164
6885.000000;1.535092
6884.000000;1.535132
6883.000000;1.534868
6882.000000;1.533807
6881.000000;1.531990
6880.000000;1.530039
6879.000000;1.528589
6878.000000;1.527830
6877.000000;1.527514
6876.000000;1.527290
6875.000000;1.527008
6874.000000;1.526717
6873.000000;1.526340
6872.000000;1.525530
6871.000000;1.524093
6870.000000;1.522393
6869.000000;1.520993
6868.000000;1.519990
6867.000000;1.519112
6866.000000;1.518408
6865.000000;1.518273
6864.000000;1.518666
6863.000000;1.518797
6862.000000;1.517901
6861.000000;1.516046
6860.000000;1.513954
6859.000000;1.512291
6858.000000;1.511340
6857.000000;1.510996
6856.000000;1.510805
6855.000000;1.510199
6854.000000;1.508920
6853.000000;1.507130
6852.000000;1.505087
6851.000000;1.502989
6850.000000;1.501222
6849.000000;1.500302
6848.000000;1.500265
6847.000000;1.500328
6846.000000;1.499526
6845.000000;1.497643
6844.000000;1.495292
6843.000000;1.493165
6842.000000;1.491476
6841.000000;1.490131
6840.000000;1.489135
6839.000000;1.488622
6838.000000;1.488455
6837.000000;1.488022
6836.000000;1.486641
6835.000000;1.484199
6834.000000;1.481247
6833.000000;1.478466
6832.000000;1.476246
6831.000000;1.474740
6830.000000;1.473875
6829.000000;1.473145
6828.000000;1.471778
6827.000000;1.469499
6826.000000;1.466906
6825.000000;1.464699
6824.000000;1.462815
6823.000000;1.460758
6822.000000;1.458569
6821.000000;1.456865
6820.000000;1.455919
6819.000000;1.455213
6818.000000;1.454005
6817.000000;1.451991
6816.000000;1.449337
6815.000000;1.446441
6814.000000;1.443792
6813.000000;1.441709
6812.000000;1.440079
6811.000000;1.438553
6810.000000;1.436989
6809.000000;1.435407
6808.000000;1.433575
6807.000000;1.431080
6806.000000;1.427953
6805.000000;1.424844
6804.000000;1.422395
6803.000000;1.420681
6802.000000;1.419365
6801.000000;1.418118
6800.000000;1.416723
6799.000000;1.415006
6798.000000;1.412884
6797.000000;1.410411
6796.000000;1.407667
6795.000000;1.404748
6794.000000;1.401891
6793.000000;1.399419
6792.000000;1.397432
6791.000000;1.395682
6790.000000;1.393811
6789.000000;1.391646
6788.000000;1.389254
6787.000000;1.386849
6786.000000;1.384652
6785.000000;1.382652
6784.000000;1.380483
6783.000000;1.377753
6782.000000;1.374517
6781.000000;1.371259
6780.000000;1.368384
6779.000000;1.365919
6778.000000;1.363708
6777.000000;1.361635
6776.000000;1.359535
6775.000000;1.357132
6774.000000;1.354266
6773.000000;1.351111
6772.000000;1.348036
6771.000000;1.345285
6770.000000;1.342841
6769.000000;1.340537
6768.000000;1.338228
6767.000000;1.335894
6766.000000;1.333568
6765.000000;1.331221
6764.000000;1.328775
6763.000000;1.326268
6762.000000;1.323867
6761.000000;1.321630
6760.000000;1.319381
6759.000000;1.316942
6758.000000;1.314388
6757.000000;1.311934
6756.000000;1.309641
6755.000000;1.307393
6754.000000;1.305052
6753.000000;1.302494
6752.000000;1.299586
6751.000000;1.296372
6750.000000;1.293209
6749.000000;1.290504
6748.000000;1.288272
6747.000000;1.286091
6746.000000;1.283515
6745.000000;1.280449
6744.000000;1.277179
6743.000000;1.274158
6742.000000;1.271697
6741.000000;1.269721
6740.000000;1.267828
6739.000000;1.265676
6738.000000;1.263263
6737.000000;1.260756
6736.000000;1.258198
6735.000000;1.255539
6734.000000;1.252862
6733.000000;1.250344
6732.000000;1.247986
6731.000000;1.245582
6730.000000;1.242957
6729.000000;1.240110
6728.000000;1.237153
6727.000000;1.234208
6726.000000;1.231358
6725.000000;1.228592
6724.000000;1.225804
6723.000000;1.222958
6722.000000;1.220211
6721.000000;1.217776
6720.000000;1.215682
6719.000000;1.213753
6718.000000;1.211752
6717.000000;1.209481
6716.000000;1.206848
6715.000000;1.203977
6714.000000;1.201172
6713.000000;1.198637
6712.000000;1.196283
6711.000000;1.193898
6710.000000;1.191388
6709.000000;1.188805
6708.000000;1.186168
6707.000000;1.183420
6706.000000;1.180688
6705.000000;1.178157
6704.000000;1.175826
6703.000000;1.173565
6702.000000;1.171327
6701.000000;1.169136
6700.000000;1.166944
6699.000000;1.164607
6698.000000;1.162078
6697.000000;1.159473
6696.000000;1.156961
6695.000000;1.154567
6694.000000;1.152230
6693.000000;1.149883
6692.000000;1.147503
6691.000000;1.145120
6690.000000;1.142772
6689.000000;1.140443
6688.000000;1.138089
6687.000000;1.135720
6686.000000;1.133363
6685.000000;1.130919
6684.000000;1.128249
6683.000000;1.125478
6682.000000;1.123007
6681.000000;1.121031
6680.000000;1.119162
6679.000000;1.116752
6678.000000;1.113597
6677.000000;1.110168
6676.000000;1.107155
6675.000000;1.104900
6674.000000;1.103220
6673.000000;1.101623
6672.000000;1.099699
6671.000000;1.097367
6670.000000;1.094787
6669.000000;1.092089
6668.000000;1.089316
6667.000000;1.086619
6666.000000;1.084251
6665.000000;1.082219
6664.000000;1.080158
6663.000000;1.077746
6662.000000;1.075116
6661.000000;1.072639
6660.000000;1.070414
6659.000000;1.068231
6658.000000;1.065952
6657.000000;1.063669
6656.000000;1.061481
6655.000000;1.059356
6654.000000;1.057256
6653.000000;1.055213
6652.000000;1.053210
6651.000000;1.051142
6650.000000;1.048940
6649.000000;1.046647
6648.000000;1.044335
6647.000000;1.042033
6646.000000;1.039730
6645.000000;1.037382
6644.000000;1.034952
6643.000000;1.032523
6642.000000;1.030268
6641.000000;1.028211
6640.000000;1.026117
6639.000000;1.023801
6638.000000;1.021462
6637.000000;1.019460
6636.000000;1.017806
6635.000000;1.016091
6634.000000;1.013968
6633.000000;1.011489
6632.000000;1.008892
6631.000000;1.006296
6630.000000;1.003724
6629.000000;1.001269
6628.000000;0.999043
6627.000000;0.997001
6626.000000;0.994962
6625.000000;0.992798
6624.000000;0.990568
6623.000000;0.988437
6622.000000;0.986499
6621.000000;0.984678
6620.000000;0.982796
6619.000000;0.980761
6618.000000;0.978645
6617.000000;0.976547
6616.000000;0.974454
6615.000000;0.972294
6614.000000;0.970082
6613.000000;0.967906
6612.000000;0.965787
6611.000000;0.963655
6610.000000;0.961463
6609.000000;0.959243
6608.000000;0.957049
6607.000000;0.954922
6606.000000;0.952912
6605.000000;0.951049
6604.000000;0.949280
6603.000000;0.947498
6602.000000;0.945644
6601.000000;0.943728
6600.000000;0.941753
6599.000000;0.939700
6598.000000;0.937605
6597.000000;0.935568
6596.000000;0.933653
6595.000000;0.931826
6594.000000;0.930030
6593.000000;0.928270
6592.000000;0.926579
6591.000000;0.924905
6590.000000;0.923101
6589.000000;0.921053
6588.000000;0.918807
6587.000000;0.916549
6586.000000;0.914434
6585.000000;0.912474
6584.000000;0.910598
6583.000000;0.908768
6582.000000;0.906982
6581.000000;0.905196
6580.000000;0.903333
6579.000000;0.901368
6578.000000;0.899329
6577.000000;0.897245
6576.000000;0.895166
6575.000000;0.893227
6574.000000;0.891542
6573.000000;0.890030
6572.000000;0.888466
6571.000000;0.886734
6570.000000;0.884920
6569.000000;0.883125
6568.000000;0.881325
6567.000000;0.879477
6566.000000;0.877610
6565.000000;0.875736
6564.000000;0.873820
6563.000000;0.871909
6562.000000;0.870146
6561.000000;0.868545
6560.000000;0.866877
6559.000000;0.864966
6558.000000;0.862958
6557.000000;0.861135
6556.000000;0.859537
6555.000000;0.857947
6554.000000;0.856191
6553.000000;0.854285
6552.000000;0.852329
6551.000000;0.850424
6550.000000;0.848680
6549.000000;0.847136
6548.000000;0.845673
6547.000000;0.844143
6546.000000;0.842562
6545.000000;0.841040
6544.000000;0.839537
6543.000000;0.837873
6542.000000;0.835979
6541.000000;0.833997
6540.000000;0.832082
6539.000000;0.830254
6538.000000;0.828503
6537.000000;0.826872
6536.000000;0.825362
6535.000000;0.823848
6534.000000;0.822207
6533.000000;0.820485
6532.000000;0.818830
6531.000000;0.817305
6530.000000;0.815821
6529.000000;0.814265
6528.000000;0.812623
6527.000000;0.810977
6526.000000;0.809383
6525.000000;0.807788
6524.000000;0.806079
6523.000000;0.804229
6522.000000;0.802357
6521.000000;0.800620
6520.000000;0.799074
6519.000000;0.797661
6518.000000;0.796287
6517.000000;0.794882
6516.000000;0.793411
6515.000000;0.791889
6514.000000;0.790374
6513.000000;0.788887
6512.000000;0.787384
6511.000000;0.785819
6510.000000;0.784222
6509.000000;0.782645
6508.000000;0.781087
6507.000000;0.779530
6506.000000;0.778011
6505.000000;0.776576
6504.000000;0.775193
6503.000000;0.773773
6502.000000;0.772289
6501.000000;0.770787
6500.000000;0.769310
6499.000000;0.767852
6498.000000;0.766389
6497.000000;0.764909
6496.000000;0.763408
6495.000000;0.761910
6494.000000;0.760472
6493.000000;0.759109
6492.000000;0.757740
6491.000000;0.756269
6490.000000;0.754720
6489.000000;0.753227
6488.000000;0.751896
6487.000000;0.750704
6486.000000;0.749547
6485.000000;0.748314
6484.000000;0.746944
6483.000000;0.745450
6482.000000;0.743912
6481.000000;0.742402
6480.000000;0.740940
6479.000000;0.739515
6478.000000;0.738119
6477.000000;0.736719
6476.000000;0.735257
6475.000000;0.733733
6474.000000;0.732257
6473.000000;0.730944
6472.000000;0.729776
6471.000000;0.728636
6470.000000;0.727430
6469.000000;0.726134
6468.000000;0.724743
6467.000000;0.723278
6466.000000;0.721835
6465.000000;0.720534
6464.000000;0.719380
6463.000000;0.718243
6462.000000;0.716987
6461.000000;0.715591
6460.000000;0.714149
6459.000000;0.712796
6458.000000;0.711621
6457.000000;0.710582
6456.000000;0.709528
6455.000000;0.708333
6454.000000;0.707007
6453.000000;0.705629
6452.000000;0.704220
6451.000000;0.702764
6450.000000;0.701311
6449.000000;0.699975
6448.000000;0.698806
6447.000000;0.697751
6446.000000;0.696727
6445.000000;0.695666
6444.000000;0.694492
6443.000000;0.693164
6442.000000;0.691753
6441.000000;0.690421
6440.000000;0.689264
6439.000000;0.688243
6438.000000;0.687258
6437.000000;0.686230
6436.000000;0.685103
6435.000000;0.683852
6434.000000;0.682531
6433.000000;0.681253
6432.000000;0.680069
6431.000000;0.678916
6430.000000;0.677718
6429.000000;0.676481
6428.000000;0.675255
6427.000000;0.674057
6426.000000;0.672888
6425.000000;0.671769
6424.000000;0.670717
6423.000000;0.669689
6422.000000;0.668625
6421.000000;0.667508
6420.000000;0.666354
6419.000000;0.665161
6418.000000;0.663927
6417.000000;0.662684
6416.000000;0.661493
6415.000000;0.660382
6414.000000;0.659334
6413.000000;0.658314
6412.000000;0.657293
6411.000000;0.656244
6410.000000;0.655152
6409.000000;0.654033
6408.000000;0.652942
6407.000000;0.651934
6406.000000;0.651025
6405.000000;0.650157
6404.000000;0.649210
6403.000000;0.648083
6402.000000;0.646802
6401.000000;0.645526
6400.000000;0.644402
6399.000000;0.643436
6398.000000;0.642514
6397.000000;0.641553
6396.000000;0.640571
6395.000000;0.639606
6394.000000;0.638633
6393.000000;0.637595
6392.000000;0.636493
6391.000000;0.635397
6390.000000;0.634359
6389.000000;0.633369
6388.000000;0.632385
6387.000000;0.631378
6386.000000;0.630330
6385.000000;0.629229
6384.000000;0.628093
6383.000000;0.626979
6382.000000;0.625949
6381.000000;0.625023
6380.000000;0.624172
6379.000000;0.623340
6378.000000;0.622458
6377.000000;0.621485
6376.000000;0.620448
6375.000000;0.619420
6374.000000;0.618425
6373.000000;0.617415
6372.000000;0.616367
6371.000000;0.615345
6370.000000;0.614416
6369.000000;0.613546
6368.000000;0.612656
6367.000000;0.611737
6366.000000;0.610831
6365.000000;0.609905
6364.000000;0.608876
6363.000000;0.607765
6362.000000;0.606721
6361.000000;0.605842
6360.000000;0.605061
6359.000000;0.604257
6358.000000;0.603414
6357.000000;0.602592
6356.000000;0.601800
6355.000000;0.600993
6354.000000;0.600154
6353.000000;0.599306
6352.000000;0.598457
6351.000000;0.597595
6350.000000;0.596722
6349.000000;0.595839
6348.000000;0.594927
6347.000000;0.593968
6346.000000;0.592990
6345.000000;0.592043
6344.000000;0.591144
6343.000000;0.590292
6342.000000;0.589505
6341.000000;0.588783
6340.000000;0.588065
6339.000000;0.587292
6338.000000;0.586490
6337.000000;0.585741
6336.000000;0.585042
6335.000000;0.584277
6334.000000;0.583349
6333.000000;0.582303
6332.000000;0.581266
6331.000000;0.580318
6330.000000;0.579442
6329.000000;0.578597
6328.000000;0.577778
6327.000000;0.577004
6326.000000;0.576272
6325.000000;0.575537
6324.000000;0.574761
6323.000000;0.573954
6322.000000;0.573159
6321.000000;0.572402
6320.000000;0.571662
6319.000000;0.570905
6318.000000;0.570119
6317.000000;0.569312
6316.000000;0.568495
6315.000000;0.567689
6314.000000;0.566930
6313.000000;0.566235
6312.000000;0.565585
6311.000000;0.564937
6310.000000;0.564261
6309.000000;0.563539
6308.000000;0.562775
6307.000000;0.561988
6306.000000;0.561210
6305.000000;0.560443
6304.000000;0.559663
6303.000000;0.558870
6302.000000;0.558103
6301.000000;0.557393
6300.000000;0.556715
6299.000000;0.556019
6298.000000;0.555288
6297.000000;0.554529
6296.000000;0.553736
6295.000000;0.552916
6294.000000;0.552121
6293.000000;0.551413
6292.000000;0.550775
6291.000000;0.550116
6290.000000;0.549380
6289.000000;0.548607
6288.000000;0.547872
6287.000000;0.547181
6286.000000;0.546467
6285.000000;0.545693
6284.000000;0.544907
6283.000000;0.544195
6282.000000;0.543580
6281.000000;0.542995
6280.000000;0.542355
6279.000000;0.541647
6278.000000;0.540915
6277.000000;0.540198
6276.000000;0.539489
6275.000000;0.538774
6274.000000;0.538064
6273.000000;0.537386
6272.000000;0.536754
6271.000000;0.536164
6270.000000;0.535603
6269.000000;0.535042
6268.000000;0.534441
6267.000000;0.533778
6266.000000;0.533066
6265.000000;0.532335
6264.000000;0.531600
6263.000000;0.530867
6262.000000;0.530150
6261.000000;0.529476
6260.000000;0.528858
6259.000000;0.528275
6258.000000;0.527674
6257.000000;0.527013
6256.000000;0.526301
6255.000000;0.525596
6254.000000;0.524939
6253.000000;0.524310
6252.000000;0.523667
6251.000000;0.523010
6250.000000;0.522366
6249.000000;0.521733
6248.000000;0.521083
6247.000000;0.520414
6246.000000;0.519773
6245.000000;0.519204
6244.000000;0.518712
6243.000000;0.518274
6242.000000;0.517859
6241.000000;0.517405
6240.000000;0.516849
6239.000000;0.516188
6238.000000;0.515484
6237.000000;0.514800
6236.000000;0.514143
6235.000000;0.513509
6234.000000;0.512911
6233.000000;0.512352
6232.000000;0.511787
6231.000000;0.511171
6230.000000;0.510515
6229.000000;0.509862
6228.000000;0.509235
6227.000000;0.508634
6226.000000;0.508067
6225.000000;0.507533
6224.000000;0.506997
6223.000000;0.506411
6222.000000;0.505771
6221.000000;0.505117
6220.000000;0.504476
6219.000000;0.503853
6218.000000;0.503251
6217.000000;0.502687
6216.000000;0.502165
6215.000000;0.501658
6214.000000;0.501132
6213.000000;0.500567
6212.000000;0.499972
6211.000000;0.499372
6210.000000;0.498789
6209.000000;0.498229
6208.000000;0.497692
6207.000000;0.497189
6206.000000;0.496729
6205.000000;0.496282
6204.000000;0.495800
6203.000000;0.495267
6202.000000;0.494720
6201.000000;0.494191
6200.000000;0.493668
6199.000000;0.493121
6198.000000;0.492541
6197.000000;0.491929
6196.000000;0.491275
6195.000000;0.490601
6194.000000;0.489982
6193.000000;0.489489
6192.000000;0.489104
6191.000000;0.488733
6190.000000;0.488308
6189.000000;0.487840
6188.000000;0.487359
6187.000000;0.486848
6186.000000;0.486255
6185.000000;0.485562
6184.000000;0.484841
6183.000000;0.484213
6182.000000;0.483753
6181.000000;0.483415
6180.000000;0.483067
6179.000000;0.482625
6178.000000;0.482115
6177.000000;0.481620
6176.000000;0.481167
6175.000000;0.480717
6174.000000;0.480225
6173.000000;0.479694
6172.000000;0.479140
6171.000000;0.478580
6170.000000;0.478039
6169.000000;0.477557
6168.000000;0.477144
6167.000000;0.476755
6166.000000;0.476325
6165.000000;0.475833
6164.000000;0.475324
6163.000000;0.474860
6162.000000;0.474459
6161.000000;0.474077
6160.000000;0.473642
6159.000000;0.473120
6158.000000;0.472544
6157.000000;0.471977
6156.000000;0.471466
6155.000000;0.471001
6154.000000;0.470532
6153.000000;0.470014
6152.000000;0.469453
6151.000000;0.468888
6150.000000;0.468352
6149.000000;0.467839
6148.000000;0.467324
6147.000000;0.466807
6146.000000;0.466308
6145.000000;0.465824
6144.000000;0.465322
6143.000000;0.464791
6142.000000;0.464271
6141.000000;0.463829
6140.000000;0.463497
6139.000000;0.463245
6138.000000;0.463006
6137.000000;0.462715
6136.000000;0.462337
6135.000000;0.461876
6134.000000;0.461367
6133.000000;0.460852
6132.000000;0.460365
6131.000000;0.459912
6130.000000;0.459470
6129.000000;0.459023
6128.000000;0.458603
6127.000000;0.458262
6126.000000;0.457994
6125.000000;0.457707
6124.000000;0.457305
6123.000000;0.456801
6122.000000;0.456301
6121.000000;0.455876
6120.000000;0.455493
6119.000000;0.455085
6118.000000;0.454640
6117.000000;0.454193
6116.000000;0.453761
6115.000000;0.453326
6114.000000;0.452865
6113.000000;0.452380
6112.000000;0.451890
6111.000000;0.451414
6110.000000;0.450972
6109.000000;0.450569
6108.000000;0.450193
6107.000000;0.449816
6106.000000;0.449425
6105.000000;0.449031
6104.000000;0.448667
6103.000000;0.448351
6102.000000;0.448059
6101.000000;0.447737
6100.000000;0.447351
6099.000000;0.446915
6098.000000;0.446456
6097.000000;0.445982
6096.000000;0.445493
6095.000000;0.445007
6094.000000;0.444544
6093.000000;0.444091
6092.000000;0.443621
6091.000000;0.443147
6090.000000;0.442739
6089.000000;0.442447
6088.000000;0.442251
6087.000000;0.442066
6086.000000;0.441806
6085.000000;0.441434
6084.000000;0.440988
6083.000000;0.440559
6082.000000;0.440218
6081.000000;0.439950
6080.000000;0.439674
6079.000000;0.439347
6078.000000;0.438986
6077.000000;0.438608
6076.000000;0.438196
6075.000000;0.437747
6074.000000;0.437319
6073.000000;0.436965
6072.000000;0.436660
6071.000000;0.436317
6070.000000;0.435904
6069.000000;0.435471
6068.000000;0.435091
6067.000000;0.434777
6066.000000;0.434485
6065.000000;0.434169
6064.000000;0.433824
6063.000000;0.433470
6062.000000;0.433126
6061.000000;0.432797
6060.000000;0.432484
6059.000000;0.432192
6058.000000;0.431913
6057.000000;0.431619
6056.000000;0.431299
6055.000000;0.430979
6054.000000;0.430696
6053.000000;0.430441
6052.000000;0.430155
6051.000000;0.429801
6050.000000;0.429402
6049.000000;0.429009
6048.000000;0.428640
6047.000000;0.428291
6046.000000;0.427969
6045.000000;0.427693
6044.000000;0.427470
6043.000000;0.427271
6042.000000;0.427036
6041.000000;0.426698
6040.000000;0.426240
6039.000000;0.425719
6038.000000;0.425238
6037.000000;0.424858
6036.000000;0.424565
6035.000000;0.424311
6034.000000;0.424063
6033.000000;0.423808
6032.000000;0.423525
6031.000000;0.423202
6030.000000;0.422858
6029.000000;0.422521
6028.000000;0.422202
6027.000000;0.421896
6026.000000;0.421602
6025.000000;0.421321
6024.000000;0.421043
6023.000000;0.420766
6022.000000;0.420516
6021.000000;0.420322
6020.000000;0.420168
6019.000000;0.420004
6018.000000;0.419798
6017.000000;0.419556
6016.000000;0.419301
6015.000000;0.419041
6014.000000;0.418777
6013.000000;0.418510
6012.000000;0.418235
6011.000000;0.417939
6010.000000;0.417616
6009.000000;0.417282
6008.000000;0.416965
6007.000000;0.416674
6006.000000;0.416396
6005.000000;0.416109
6004.000000;0.415809
6003.000000;0.415514
6002.000000;0.415237
6001.000000;0.414983
6000.000000;0.414749
5999.000000;0.414545
5998.000000;0.414370
5997.000000;0.414199
5996.000000;0.413989
5995.000000;0.413726
5994.000000;0.413448
5993.000000;0.413210
5992.000000;0.413035
5991.000000;0.412905
5990.000000;0.412785
5989.000000;0.412641
5988.000000;0.412446
5987.000000;0.412190
5986.000000;0.411901
5985.000000;0.411626
5984.000000;0.411396
5983.000000;0.411187
5982.000000;0.410951
5981.000000;0.410670
5980.000000;0.410366
5979.000000;0.410065
5978.000000;0.409768
5977.000000;0.409472
5976.000000;0.409204
5975.000000;0.408995
5974.000000;0.408827
5973.000000;0.408635
5972.000000;0.408369
5971.000000;0.408050
5970.000000;0.407747
5969.000000;0.407508
5968.000000;0.407327
5967.000000;0.407167
5966.000000;0.406992
5965.000000;0.406796
5964.000000;0.406609
5963.000000;0.406474
5962.000000;0.406393
5961.000000;0.406317
5960.000000;0.406194
5959.000000;0.406018
5958.000000;0.405827
5957.000000;0.405659
5956.000000;0.405519
5955.000000;0.405390
5954.000000;0.405249
5953.000000;0.405084
5952.000000;0.404920
5951.000000;0.404807
5950.000000;0.404762
5949.000000;0.404730
5948.000000;0.404626
5947.000000;0.404428
5946.000000;0.404186
5945.000000;0.403957
5944.000000;0.403745
5943.000000;0.403523
5942.000000;0.403299
5941.000000;0.403121
5940.000000;0.403019
5939.000000;0.402966
5938.000000;0.402892
5937.000000;0.402751
5936.000000;0.402567
5935.000000;0.402397
5934.000000;0.402257
5933.000000;0.402121
5932.000000;0.401970
5931.000000;0.401833
5930.000000;0.401729
5929.000000;0.401629
5928.000000;0.401484
5927.000000;0.401297
5926.000000;0.401120
5925.000000;0.400983
5924.000000;0.400875
5923.000000;0.400794
5922.000000;0.400755
5921.000000;0.400751
5920.000000;0.400734
5919.000000;0.400668
5918.000000;0.400579
5917.000000;0.400521
5916.000000;0.400507
5915.000000;0.400503
5914.000000;0.400460
5913.000000;0.400360
5912.000000;0.400215
5911.000000;0.400060
5910.000000;0.399925
5909.000000;0.399817
5908.000000;0.399714
5907.000000;0.399593
5906.000000;0.399450
5905.000000;0.399298
5904.000000;0.399146
5903.000000;0.399005
5902.000000;0.398881
5901.000000;0.398772
5900.000000;0.398661
5899.000000;0.398529
5898.000000;0.398377
5897.000000;0.398232
5896.000000;0.398138
5895.000000;0.398116
5894.000000;0.398138
5893.000000;0.398146
5892.000000;0.398091
5891.000000;0.397982
5890.000000;0.397873
5889.000000;0.397822
5888.000000;0.397855
5887.000000;0.397954
5886.000000;0.398067
5885.000000;0.398135
5884.000000;0.398129
5883.000000;0.398049
5882.000000;0.397917
5881.000000;0.397749
5880.000000;0.397566
5879.000000;0.397394
5878.000000;0.397255
5877.000000;0.397150
5876.000000;0.397074
5875.000000;0.397038
5874.000000;0.397056
5873.000000;0.397119
5872.000000;0.397184
5871.000000;0.397209
5870.000000;0.397188
5869.000000;0.397148
5868.000000;0.397122
5867.000000;0.397132
5866.000000;0.397177
5865.000000;0.397247
5864.000000;0.397331
5863.000000;0.397419
5862.000000;0.397484
5861.000000;0.397502
5860.000000;0.397484
5859.000000;0.397478
5858.000000;0.397513
5857.000000;0.397561
5856.000000;0.397574
5855.000000;0.397548
5854.000000;0.397534
5853.000000;0.397583
5852.000000;0.397692
5851.000000;0.397808
5850.000000;0.397866
5849.000000;0.397849
5848.000000;0.397808
5847.000000;0.397821
5846.000000;0.397909
5845.000000;0.398014
5844.000000;0.398064
5843.000000;0.398068
5842.000000;0.398095
5841.000000;0.398189
5840.000000;0.398315
5839.000000;0.398400
5838.000000;0.398412
5837.000000;0.398384
5836.000000;0.398371
5835.000000;0.398409
5834.000000;0.398501
5833.000000;0.398647
5832.000000;0.398860
5831.000000;0.399126
5830.000000;0.399373
5829.000000;0.399511
5828.000000;0.399519
5827.000000;0.399481
5826.000000;0.399502
5825.000000;0.399617
5824.000000;0.399794
5823.000000;0.399991
5822.000000;0.400179
5821.000000;0.400332
5820.000000;0.400447
5819.000000;0.400562
5818.000000;0.400711
5817.000000;0.400875
5816.000000;0.400996
5815.000000;0.401061
5814.000000;0.401139
5813.000000;0.401307
5812.000000;0.401568
5811.000000;0.401856
5810.000000;0.402103
5809.000000;0.402305
5808.000000;0.402518
5807.000000;0.402789
5806.000000;0.403097
5805.000000;0.403363
5804.000000;0.403536
5803.000000;0.403633
5802.000000;0.403702
5801.000000;0.403770
5800.000000;0.403847
5799.000000;0.403957
5798.000000;0.404120
5797.000000;0.404314
5796.000000;0.404502
5795.000000;0.404675
5794.000000;0.404849
5793.000000;0.405028
5792.000000;0.405205
5791.000000;0.405401
5790.000000;0.405661
5789.000000;0.405990
5788.000000;0.406342
5787.000000;0.406672
5786.000000;0.406982
5785.000000;0.407294
5784.000000;0.407603
5783.000000;0.407885
5782.000000;0.408132
5781.000000;0.408365
5780.000000;0.408607
5779.000000;0.408871
5778.000000;0.409155
5777.000000;0.409444
5776.000000;0.409735
5775.000000;0.410034
5774.000000;0.410344
5773.000000;0.410646
5772.000000;0.410918
5771.000000;0.411174
5770.000000;0.411461
5769.000000;0.411810
5768.000000;0.412201
5767.000000;0.412588
5766.000000;0.412940
5765.000000;0.413254
5764.000000;0.413551
5763.000000;0.413858
5762.000000;0.414191
5761.000000;0.414550
5760.000000;0.414918
5759.000000;0.415275
5758.000000;0.415608
5757.000000;0.415918
5756.000000;0.416226
5755.000000;0.416569
5754.000000;0.416968
5753.000000;0.417413
5752.000000;0.417873
5751.000000;0.418321
5750.000000;0.418749
5749.000000;0.419153
5748.000000;0.419533
5747.000000;0.419903
5746.000000;0.420284
5745.000000;0.420694
5744.000000;0.421129
5743.000000;0.421570
5742.000000;0.421990
5741.000000;0.422382
5740.000000;0.422774
5739.000000;0.423217
5738.000000;0.423728
5737.000000;0.424276
5736.000000;0.424810
5735.000000;0.425312
5734.000000;0.425788
5733.000000;0.426240
5732.000000;0.426672
5731.000000;0.427099
5730.000000;0.427533
5729.000000;0.427963
5728.000000;0.428381
5727.000000;0.428830
5726.000000;0.429376
5725.000000;0.430025
5724.000000;0.430700
5723.000000;0.431310
5722.000000;0.431831
5721.000000;0.432301
5720.000000;0.432750
5719.000000;0.433174
5718.000000;0.433567
5717.000000;0.433959
5716.000000;0.434404
5715.000000;0.434930
5714.000000;0.435522
5713.000000;0.436149
5712.000000;0.436795
5711.000000;0.437448
5710.000000;0.438069
5709.000000;0.438607
5708.000000;0.439067
5707.000000;0.439528
5706.000000;0.440076
5705.000000;0.440729
5704.000000;0.441432
5703.000000;0.442118
5702.000000;0.442754
5701.000000;0.443336
5700.000000;0.443879
5699.000000;0.444408
5698.000000;0.444953
5697.000000;0.445533
5696.000000;0.446150
5695.000000;0.446805
5694.000000;0.447477
5693.000000;0.448160
5692.000000;0.448793
5691.000000;0.449359
5690.000000;0.449874
5689.000000;0.450371
5688.000000;0.450891
5687.000000;0.451476
5686.000000;0.452148
5685.000000;0.452885
5684.000000;0.453627
5683.000000;0.454317
5682.000000;0.454936
5681.000000;0.455502
5680.000000;0.456045
5679.000000;0.456599
5678.000000;0.457204
5677.000000;0.457876
5676.000000;0.458580
5675.000000;0.459256
5674.000000;0.459872
5673.000000;0.460447
5672.000000;0.461008
5671.000000;0.461563
5670.000000;0.462116
5669.000000;0.462705
5668.000000;0.463369
5667.000000;0.464084
5666.000000;0.464769
5665.000000;0.465367
5664.000000;0.465910
5663.000000;0.466466
5662.000000;0.467057
5661.000000;0.467644
5660.000000;0.468186
5659.000000;0.468689
5658.000000;0.469186
5657.000000;0.469711
5656.000000;0.470287
5655.000000;0.470916
5654.000000;0.471570
5653.000000;0.472211
5652.000000;0.472819
5651.000000;0.473388
5650.000000;0.473903
5649.000000;0.474362
5648.000000;0.474806
5647.000000;0.475302
5646.000000;0.475873
5645.000000;0.476474
5644.000000;0.477053
5643.000000;0.477597
5642.000000;0.478116
5641.000000;0.478605
5640.000000;0.479056
5639.000000;0.479480
5638.000000;0.479912
5637.000000;0.480376
5636.000000;0.480857
5635.000000;0.481321
5634.000000;0.481751
5633.000000;0.482177
5632.000000;0.482636
5631.000000;0.483110
5630.000000;0.483525
5629.000000;0.483843
5628.000000;0.484137
5627.000000;0.484529
5626.000000;0.485062
5625.000000;0.485653
5624.000000;0.486178
5623.000000;0.486574
5622.000000;0.486859
5621.000000;0.487091
5620.000000;0.487332
5619.000000;0.487625
5618.000000;0.487976
5617.000000;0.488350
5616.000000;0.488706
5615.000000;0.489041
5614.000000;0.489381
5613.000000;0.489741
5612.000000;0.490092
5611.000000;0.490383
5610.000000;0.490599
5609.000000;0.490784
5608.000000;0.490998
5607.000000;0.491255
5606.000000;0.491525
5605.000000;0.491802
5604.000000;0.492125
5603.000000;0.492502
5602.000000;0.492861
5601.000000;0.493118
5600.000000;0.493270
5599.000000;0.493386
5598.000000;0.493520
5597.000000;0.493687
5596.000000;0.493891
5595.000000;0.494123
5594.000000;0.494330
5593.000000;0.494458
5592.000000;0.494514
5591.000000;0.494560
5590.000000;0.494637
5589.000000;0.494738
5588.000000;0.494850
5587.000000;0.494964
5586.000000;0.495055
5585.000000;0.495099
5584.000000;0.495108
5583.000000;0.495104
5582.000000;0.495074
5581.000000;0.494993
5580.000000;0.494881
5579.000000;0.494791
5578.000000;0.494750
5577.000000;0.494760
5576.000000;0.494831
5575.000000;0.494958
5574.000000;0.495074
5573.000000;0.495117
5572.000000;0.495117
5571.000000;0.495146
5570.000000;0.495208
5569.000000;0.495245
5568.000000;0.495246
5567.000000;0.495254
5566.000000;0.495261
5565.000000;0.495207
5564.000000;0.495084
5563.000000;0.494956
5562.000000;0.494852
5561.000000;0.494733
5560.000000;0.494606
5559.000000;0.494546
5558.000000;0.494569
5557.000000;0.494592
5556.000000;0.494557
5555.000000;0.494504
5554.000000;0.494469
5553.000000;0.494420
5552.000000;0.494347
5551.000000;0.494317
5550.000000;0.494378
5549.000000;0.494478
5548.000000;0.494536
5547.000000;0.494523
5546.000000;0.494453
5545.000000;0.494348
5544.000000;0.494253
5543.000000;0.494193
5542.000000;0.494106
5541.000000;0.493908
5540.000000;0.493630
5539.000000;0.493403
5538.000000;0.493287
5537.000000;0.493220
5536.000000;0.493123
5535.000000;0.492981
5534.000000;0.492805
5533.000000;0.492615
5532.000000;0.492475
5531.000000;0.492446
5530.000000;0.492483
5529.000000;0.492478
5528.000000;0.492396
5527.000000;0.492314
5526.000000;0.492289
5525.000000;0.492283
5524.000000;0.492264
5523.000000;0.492260
5522.000000;0.492267
5521.000000;0.492224
5520.000000;0.492101
5519.000000;0.491932
5518.000000;0.491770
5517.000000;0.491630
5516.000000;0.491531
5515.000000;0.491494
5514.000000;0.491450
5513.000000;0.491311
5512.000000;0.491133
5511.000000;0.491087
5510.000000;0.491233
5509.000000;0.491431
5508.000000;0.491512
5507.000000;0.491447
5506.000000;0.491315
5505.000000;0.491176
5504.000000;0.491099
5503.000000;0.491139
5502.000000;0.491230
5501.000000;0.491251
5500.000000;0.491163
5499.000000;0.491015
5498.000000;0.490931
5497.000000;0.491021
5496.000000;0.491302
5495.000000;0.491668
5494.000000;0.491928
5493.000000;0.491997
5492.000000;0.491980
5491.000000;0.492021
5490.000000;0.492091
5489.000000;0.492059
5488.000000;0.491947
5487.000000;0.491921
5486.000000;0.492037
5485.000000;0.492157
5484.000000;0.492201
5483.000000;0.492303
5482.000000;0.492510
5481.000000;0.492694
5480.000000;0.492821
5479.000000;0.492999
5478.000000;0.493323
5477.000000;0.493739
5476.000000;0.494138
5475.000000;0.494470
5474.000000;0.494714
5473.000000;0.494846
5472.000000;0.494879
5471.000000;0.494890
5470.000000;0.494945
5469.000000;0.495114
5468.000000;0.495463
5467.000000;0.495922
5466.000000;0.496319
5465.000000;0.496633
5464.000000;0.497091
5463.000000;0.497842
5462.000000;0.498616
5461.000000;0.499100
5460.000000;0.499431
5459.000000;0.499839
5458.000000;0.500184
5457.000000;0.500289
5456.000000;0.500367
5455.000000;0.500715
5454.000000;0.501329
5453.000000;0.502042
5452.000000;0.502768
5451.000000;0.503464
5450.000000;0.504029
5449.000000;0.504551
5448.000000;0.505228
5447.000000;0.505943
5446.000000;0.506455
5445.000000;0.506905
5444.000000;0.507625
5443.000000;0.508625
5442.000000;0.509546
5441.000000;0.510207
5440.000000;0.510891
5439.000000;0.511873
5438.000000;0.512992
5437.000000;0.514012
5436.000000;0.514972
5435.000000;0.515945
5434.000000;0.516948
5433.000000;0.518093
5432.000000;0.519363
5431.000000;0.520496
5430.000000;0.521406
5429.000000;0.522356
5428.000000;0.523537
5427.000000;0.524846
5426.000000;0.526097
5425.000000;0.527264
5424.000000;0.528468
5423.000000;0.529801
5422.000000;0.531302
5421.000000;0.532944
5420.000000;0.534621
5419.000000;0.536296
5418.000000;0.538038
5417.000000;0.539928
5416.000000;0.541942
5415.000000;0.543919
5414.000000;0.545735
5413.000000;0.547444
5412.000000;0.549214
5411.000000;0.551071
5410.000000;0.552910
5409.000000;0.554788
5408.000000;0.556881
5407.000000;0.559167
5406.000000;0.561447
5405.000000;0.563698
5404.000000;0.566150
5403.000000;0.568823
5402.000000;0.571602
5401.000000;0.574480
5400.000000;0.577415
5399.000000;0.580400
5398.000000;0.583479
5397.000000;0.586632
5396.000000;0.589834
5395.000000;0.593076
5394.000000;0.596380
5393.000000;0.599757
5392.000000;0.603217
5391.000000;0.606821
5390.000000;0.610565
5389.000000;0.614371
5388.000000;0.618249
5387.000000;0.622306
5386.000000;0.626535
5385.000000;0.630883
5384.000000;0.635347
5383.000000;0.639856
5382.000000;0.644420
5381.000000;0.649187
5380.000000;0.654184
5379.000000;0.659334
5378.000000;0.664604
5377.000000;0.669942
5376.000000;0.675319
5375.000000;0.680878
5374.000000;0.686804
5373.000000;0.692983
5372.000000;0.699144
5371.000000;0.705323
5370.000000;0.711792
5369.000000;0.718640
5368.000000;0.725731
5367.000000;0.733021
5366.000000;0.740572
5365.000000;0.748384
5364.000000;0.756320
5363.000000;0.764314
5362.000000;0.772545
5361.000000;0.781090
5360.000000;0.789766
5359.000000;0.798565
5358.000000;0.807763
5357.000000;0.817480
5356.000000;0.827531
5355.000000;0.837840
5354.000000;0.848514
5353.000000;0.859480
5352.000000;0.870398
5351.000000;0.881070
5350.000000;0.891815
5349.000000;0.903163
5348.000000;0.915206
5347.000000;0.927707
5346.000000;0.940630
5345.000000;0.953934
5344.000000;0.967342
5343.000000;0.980769
5342.000000;0.994483
5341.000000;1.008483
5340.000000;1.022567
5339.000000;1.036952
5338.000000;1.052038
5337.000000;1.067774
5336.000000;1.083608
5335.000000;1.099225
5334.000000;1.114960
5333.000000;1.131357
5332.000000;1.148436
5331.000000;1.165805
5330.000000;1.183467
5329.000000;1.201622
5328.000000;1.219946
5327.000000;1.238009
5326.000000;1.256043
5325.000000;1.274481
5324.000000;1.293288
5323.000000;1.312329
5322.000000;1.331772
5321.000000;1.351488
5320.000000;1.370703
5319.000000;1.388932
5318.000000;1.406742
5317.000000;1.424849
5316.000000;1.443106
5315.000000;1.461161
5314.000000;1.479242
5313.000000;1.497514
5312.000000;1.515346
5311.000000;1.532072
5310.000000;1.548071
5309.000000;1.564088
5308.000000;1.579879
5307.000000;1.594550
5306.000000;1.607961
5305.000000;1.620847
5304.000000;1.633757
5303.000000;1.646802
5302.000000;1.659848
5301.000000;1.671992
5300.000000;1.681569
5299.000000;1.687872
5298.000000;1.692429
5297.000000;1.697418
5296.000000;1.703519
5295.000000;1.710175
5294.000000;1.716803
5293.000000;1.722906
5292.000000;1.727910
5291.000000;1.731786
5290.000000;1.735309
5289.000000;1.738971
5288.000000;1.742312
5287.000000;1.744937
5286.000000;1.747374
5285.000000;1.750198
5284.000000;1.752950
5283.000000;1.754828
5282.000000;1.755813
5281.000000;1.756214
5280.000000;1.756039
5279.000000;1.755565
5278.000000;1.755628
5277.000000;1.756524
5276.000000;1.757414
5275.000000;1.757621
5274.000000;1.757530
5273.000000;1.757560
5272.000000;1.757474
5271.000000;1.757232
5270.000000;1.757634
5269.000000;1.759286
5268.000000;1.761438
5267.000000;1.762771
5266.000000;1.762929
5265.000000;1.762543
5264.000000;1.762273
5263.000000;1.762485
5262.000000;1.763020
5261.000000;1.762948
5260.000000;1.761590
5259.000000;1.759776
5258.000000;1.759011
5257.000000;1.759547
5256.000000;1.760401
5255.000000;1.761062
5254.000000;1.761909
5253.000000;1.762713
5252.000000;1.762366
5251.000000;1.760637
5250.000000;1.758829
5249.000000;1.758050
5248.000000;1.757774
5247.000000;1.757154
5246.000000;1.756646
5245.000000;1.757086
5244.000000;1.758256
5243.000000;1.759419
5242.000000;1.760336
5241.000000;1.760923
5240.000000;1.760882
5239.000000;1.760463
5238.000000;1.760708
5237.000000;1.762269
5236.000000;1.764497
5235.000000;1.765979
5234.000000;1.765733
5233.000000;1.763781
5232.000000;1.761133
5231.000000;1.759466
5230.000000;1.759923
5229.000000;1.761817
5228.000000;1.763207
5227.000000;1.763273
5226.000000;1.763282
5225.000000;1.764653
5224.000000;1.767094
5223.000000;1.769262
5222.000000;1.770270
5221.000000;1.769806
5220.000000;1.767744
5219.000000;1.764667
5218.000000;1.761974
5217.000000;1.760656
5216.000000;1.760526
5215.000000;1.760973
5214.000000;1.761844
5213.000000;1.763044
5212.000000;1.764154
5211.000000;1.765135
5210.000000;1.766423
5209.000000;1.767742
5208.000000;1.768008
5207.000000;1.767192
5206.000000;1.766880
5205.000000;1.767931
5204.000000;1.768875
5203.000000;1.767887
5202.000000;1.765405
5201.000000;1.763461
5200.000000;1.763224
5199.000000;1.764379
5198.000000;1.766224
5197.000000;1.768224
5196.000000;1.769834
5195.000000;1.770731
5194.000000;1.771039
5193.000000;1.770711
5192.000000;1.769398
5191.000000;1.767454
5190.000000;1.766167
5189.000000;1.766432
5188.000000;1.767910
5187.000000;1.769857
5186.000000;1.771933
5185.000000;1.773604
5184.000000;1.773921
5183.000000;1.772906
5182.000000;1.772073
5181.000000;1.772624
5180.000000;1.774079
5179.000000;1.775365
5178.000000;1.776297
5177.000000;1.777071
5176.000000;1.777244
5175.000000;1.776429
5174.000000;1.775275
5173.000000;1.774602
5172.000000;1.774245
5171.000000;1.773803
5170.000000;1.773773
5169.000000;1.774761
5168.000000;1.776148
5167.000000;1.776746
5166.000000;1.776538
5165.000000;1.776643
5164.000000;1.777680
5163.000000;1.779123
5162.000000;1.780170
5161.000000;1.780562
5160.000000;1.780585
5159.000000;1.780787
5158.000000;1.781470
5157.000000;1.782051
5156.000000;1.781483
5155.000000;1.779766
5154.000000;1.778467
5153.000000;1.779200
5152.000000;1.781983
5151.000000;1.785295
5150.000000;1.787447
5149.000000;1.787781
5148.000000;1.786882
5147.000000;1.785859
5146.000000;1.785168
5145.000000;1.784359
5144.000000;1.783311
5143.000000;1.783164
5142.000000;1.785093
5141.000000;1.788299
5140.000000;1.790383
5139.000000;1.790120
5138.000000;1.788770
5137.000000;1.788119
5136.000000;1.788395
5135.000000;1.788781
5134.000000;1.788780
5133.000000;1.788378
5132.000000;1.787757
5131.000000;1.787331
5130.000000;1.787522
5129.000000;1.788127
5128.000000;1.788506
5127.000000;1.788652
5126.000000;1.789215
5125.000000;1.790250
5124.000000;1.790904
5123.000000;1.790734
5122.000000;1.790411
5121.000000;1.790571
5120.000000;1.790859
5119.000000;1.790665
5118.000000;1.790040
5117.000000;1.789415
5116.000000;1.788977
5115.000000;1.788719
5114.000000;1.788573
5113.000000;1.788218
5112.000000;1.787567
5111.000000;1.787512
5110.000000;1.789161
5109.000000;1.792066
5108.000000;1.794292
5107.000000;1.794718
5106.000000;1.794203
5105.000000;1.793995
5104.000000;1.794364
5103.000000;1.795247
5102.000000;1.796737
5101.000000;1.798097
5100.000000;1.797633
5099.000000;1.794790
5098.000000;1.791429
5097.000000;1.789898
5096.000000;1.790592
5095.000000;1.792204
5094.000000;1.793580
5093.000000;1.794425
5092.000000;1.794800
5091.000000;1.794996
5090.000000;1.795524
5089.000000;1.796367
5088.000000;1.796594
5087.000000;1.795475
5086.000000;1.793618
5085.000000;1.792373
5084.000000;1.792393
5083.000000;1.793393
5082.000000;1.795012
5081.000000;1.797128
5080.000000;1.799441
5079.000000;1.801381
5078.000000;1.802358
5077.000000;1.801925
5076.000000;1.800129
5075.000000;1.797986
5074.000000;1.796909
5073.000000;1.797110
5072.000000;1.797218
5071.000000;1.796050
5070.000000;1.794228
5069.000000;1.793377
5068.000000;1.794072
5067.000000;1.795385
5066.000000;1.796184
5065.000000;1.796060
5064.000000;1.795205
5063.000000;1.793980
5062.000000;1.792654
5061.000000;1.791141
5060.000000;1.789154
5059.000000;1.787005
5058.000000;1.785894
5057.000000;1.786784
5056.000000;1.789191
5055.000000;1.791530
5054.000000;1.792595
5053.000000;1.792345
5052.000000;1.791342
5051.000000;1.790096
5050.000000;1.789057
5049.000000;1.788731
5048.000000;1.789407
5047.000000;1.790820
5046.000000;1.792311
5045.000000;1.793378
5044.000000;1.793863
5043.000000;1.793617
5042.000000;1.792290
5041.000000;1.789723
5040.000000;1.786599
5039.000000;1.784212
5038.000000;1.783248
5037.000000;1.783100
5036.000000;1.782624
5035.000000;1.781383
5034.000000;1.779926
5033.000000;1.779045
5032.000000;1.779242
5031.000000;1.780675
5030.000000;1.782974
5029.000000;1.785065
5028.000000;1.785709
5027.000000;1.784537
5026.000000;1.782355
5025.000000;1.780484
5024.000000;1.779934
5023.000000;1.780985
5022.000000;1.782987
5021.000000;1.784396
5020.000000;1.783625
5019.000000;1.780393
5018.000000;1.776151
5017.000000;1.773062
5016.000000;1.772526
5015.000000;1.774356
5014.000000;1.776909
5013.000000;1.778180
5012.000000;1.777339
5011.000000;1.775274
5010.000000;1.773420
5009.000000;1.772279
5008.000000;1.771283
5007.000000;1.769929
5006.000000;1.768598
5005.000000;1.768097
5004.000000;1.768644
5003.000000;1.769378
5002.000000;1.768992
5001.000000;1.767015
5000.000000;1.764318
4999.000000;1.762213
4998.000000;1.761176
4997.000000;1.760812
4996.000000;1.760851
4995.000000;1.761192
4994.000000;1.760953
4993.000000;1.758816
4992.000000;1.755068
4991.000000;1.752124
4990.000000;1.751958
4989.000000;1.753653
4988.000000;1.754441
4987.000000;1.752743
4986.000000;1.749263
4985.000000;1.745552
4984.000000;1.742705
4983.000000;1.741328
4982.000000;1.741401
4981.000000;1.741877
4980.000000;1.741425
4979.000000;1.739850
4978.000000;1.738075
4977.000000;1.736697
4976.000000;1.735435
4975.000000;1.734087
4974.000000;1.732912
4973.000000;1.731836
4972.000000;1.730200
4971.000000;1.727683
4970.000000;1.724927
4969.000000;1.722707
4968.000000;1.721051
4967.000000;1.719585
4966.000000;1.718287
4965.000000;1.717417
4964.000000;1.716849
4963.000000;1.715887
4962.000000;1.713779
4961.000000;1.710461
4960.000000;1.706899
4959.000000;1.704429
4958.000000;1.703375
4957.000000;1.702535
4956.000000;1.700622
4955.000000;1.698002
4954.000000;1.696253
4953.000000;1.696009
4952.000000;1.696039
4951.000000;1.694794
4950.000000;1.692147
4949.000000;1.689143
4948.000000;1.686631
4947.000000;1.684716
4946.000000;1.683319
4945.000000;1.682458
4944.000000;1.681876
4943.000000;1.680883
4942.000000;1.678932
4941.000000;1.676253
4940.000000;1.673606
4939.000000;1.671389
4938.000000;1.669252
4937.000000;1.666718
4936.000000;1.663868
4935.000000;1.661161
4934.000000;1.658734
4933.000000;1.656404
4932.000000;1.654310
4931.000000;1.652815
4930.000000;1.651596
4929.000000;1.649460
4928.000000;1.645632
4927.000000;1.640906
4926.000000;1.636899
4925.000000;1.634360
4924.000000;1.632607
4923.000000;1.630571
4922.000000;1.627974
4921.000000;1.625338
4920.000000;1.623108
4919.000000;1.621104
4918.000000;1.618868
4917.000000;1.616429
4916.000000;1.614352
4915.000000;1.612839
4914.000000;1.611176
4913.000000;1.608523
4912.000000;1.605086
4911.000000;1.601854
4910.000000;1.599245
4909.000000;1.596736
4908.000000;1.593930
4907.000000;1.591191
4906.000000;1.588844
4905.000000;1.586471
4904.000000;1.583589
4903.000000;1.580491
4902.000000;1.577780
4901.000000;1.575458
4900.000000;1.573061
4899.000000;1.570414
4898.000000;1.567732
4897.000000;1.565199
4896.000000;1.562921
4895.000000;1.561055
4894.000000;1.559496
4893.000000;1.557610
4892.000000;1.554734
4891.000000;1.550896
4890.000000;1.546661
4889.000000;1.542466
4888.000000;1.538434
4887.000000;1.534616
4886.000000;1.530977
4885.000000;1.527373
4884.000000;1.523868
4883.000000;1.520874
4882.000000;1.518681
4881.000000;1.516999
4880.000000;1.515256
4879.000000;1.513172
4878.000000;1.510740
4877.000000;1.507910
4876.000000;1.504752
4875.000000;1.501631
4874.000000;1.498816
4873.000000;1.496070
4872.000000;1.493003
4871.000000;1.489667
4870.000000;1.486430
4869.000000;1.483478
4868.000000;1.480779
4867.000000;1.478310
4866.000000;1.475900
4865.000000;1.473101
4864.000000;1.469704
4863.000000;1.466181
4862.000000;1.463163
4861.000000;1.460622
4860.000000;1.458038
4859.000000;1.455240
4858.000000;1.452535
4857.000000;1.450029
4856.000000;1.447365
4855.000000;1.444287
4854.000000;1.441056
4853.000000;1.438165
4852.000000;1.435857
4851.000000;1.433891
4850.000000;1.431593
4849.000000;1.428245
4848.000000;1.423756
4847.000000;1.418911
4846.000000;1.414688
4845.000000;1.411449
4844.000000;1.408987
4843.000000;1.407074
4842.000000;1.405500
4841.000000;1.403681
4840.000000;1.400906
4839.000000;1.397182
4838.000000;1.393354
4837.000000;1.390154
4836.000000;1.387438
4835.000000;1.384555
4834.000000;1.381235
4833.000000;1.377802
4832.000000;1.374687
4831.000000;1.371983
4830.000000;1.369456
4829.000000;1.366837
4828.000000;1.364051
4827.000000;1.361208
4826.000000;1.358417
4825.000000;1.355638
4824.000000;1.352766
4823.000000;1.349796
4822.000000;1.346801
4821.000000;1.343796
4820.000000;1.340742
4819.000000;1.337666
4818.000000;1.334714
4817.000000;1.332049
4816.000000;1.329695
4815.000000;1.327429
4814.000000;1.324871
4813.000000;1.321803
4812.000000;1.318436
4811.000000;1.315208
4810.000000;1.312324
4809.000000;1.309646
4808.000000;1.307060
4807.000000;1.304610
4806.000000;1.302201
4805.000000;1.299435
4804.000000;1.296007
4803.000000;1.292165
4802.000000;1.288527
4801.000000;1.285561
4800.000000;1.283294
4799.000000;1.281354
4798.000000;1.279176
4797.000000;1.276373
4796.000000;1.273087
4795.000000;1.269829
4794.000000;1.266842
4793.000000;1.263854
4792.000000;1.260635
4791.000000;1.257540
4790.000000;1.255132
4789.000000;1.253415
4788.000000;1.251788
4787.000000;1.249729
4786.000000;1.247224
4785.000000;1.244534
4784.000000;1.241832
4783.000000;1.239146
4782.000000;1.236464
4781.000000;1.233793
4780.000000;1.231205
4779.000000;1.228815
4778.000000;1.226610
4777.000000;1.224350
4776.000000;1.221758
4775.000000;1.218825
4774.000000;1.215783
4773.000000;1.212852
4772.000000;1.210131
4771.000000;1.207687
4770.000000;1.205556
4769.000000;1.203616
4768.000000;1.201594
4767.000000;1.199250
4766.000000;1.196534
4765.000000;1.193574
4764.000000;1.190581
4763.000000;1.187759
4762.000000;1.185219
4761.000000;1.182939
4760.000000;1.180824
4759.000000;1.178799
4758.000000;1.176838
4757.000000;1.174942
4756.000000;1.173054
4755.000000;1.170957
4754.000000;1.168365
4753.000000;1.165263
4752.000000;1.162094
4751.000000;1.159403
4750.000000;1.157271
4749.000000;1.155286
4748.000000;1.153068
4747.000000;1.150612
4746.000000;1.148086
4745.000000;1.145589
4744.000000;1.143222
4743.000000;1.141123
4742.000000;1.139235
4741.000000;1.137244
4740.000000;1.134950
4739.000000;1.132525
4738.000000;1.130222
4737.000000;1.127990
4736.000000;1.125647
4735.000000;1.123272
4734.000000;1.121144
4733.000000;1.119318
4732.000000;1.117522
4731.000000;1.115489
4730.000000;1.113246
4729.000000;1.111054
4728.000000;1.109184
4727.000000;1.107695
4726.000000;1.106350
4725.000000;1.104767
4724.000000;1.102757
4723.000000;1.100464
4722.000000;1.098150
4721.000000;1.095962
4720.000000;1.093973
4719.000000;1.092281
4718.000000;1.090851
4717.000000;1.089398
4716.000000;1.087617
4715.000000;1.085523
4714.000000;1.083409
4713.000000;1.081506
4712.000000;1.079832
4711.000000;1.078293
4710.000000;1.076767
4709.000000;1.075103
4708.000000;1.073211
4707.000000;1.071169
4706.000000;1.069147
4705.000000;1.067222
4704.000000;1.065381
4703.000000;1.063664
4702.000000;1.062183
4701.000000;1.060958
4700.000000;1.059834
4699.000000;1.058582
4698.000000;1.057062
4697.000000;1.055316
4696.000000;1.053553
4695.000000;1.051999
4694.000000;1.050693
4693.000000;1.049438
4692.000000;1.047973
4691.000000;1.046201
4690.000000;1.044242
4689.000000;1.042338
4688.000000;1.040701
4687.000000;1.039402
4686.000000;1.038337
4685.000000;1.037357
4684.000000;1.036399
4683.000000;1.035450
4682.000000;1.034420
4681.000000;1.033218
4680.000000;1.031939
4679.000000;1.030782
4678.000000;1.029760
4677.000000;1.028654
4676.000000;1.027329
4675.000000;1.025900
4674.000000;1.024518
4673.000000;1.023174
4672.000000;1.021843
4671.000000;1.020628
4670.000000;1.019588
4669.000000;1.018580
4668.000000;1.017444
4667.000000;1.016262
4666.000000;1.015236
4665.000000;1.014402
4664.000000;1.013595
4663.000000;1.012634
4662.000000;1.011446
4661.000000;1.010073
4660.000000;1.008689
4659.000000;1.007517
4658.000000;1.006608
4657.000000;1.005768
4656.000000;1.004801
4655.000000;1.003758
4654.000000;1.002818
4653.000000;1.002049
4652.000000;1.001398
4651.000000;1.000829
4650.000000;1.000303
4649.000000;0.999698
4648.000000;0.998887
4647.000000;0.997866
4646.000000;0.996689
4645.000000;0.995380
4644.000000;0.994050
4643.000000;0.992991
4642.000000;0.992424
4641.000000;0.992171
4640.000000;0.991772
4639.000000;0.990997
4638.000000;0.990100
4637.000000;0.989497
4636.000000;0.989280
4635.000000;0.989119
4634.000000;0.988601
4633.000000;0.987631
4632.000000;0.986486
4631.000000;0.985519
4630.000000;0.984845
4629.000000;0.984366
4628.000000;0.983999
4627.000000;0.983728
4626.000000;0.983437
4625.000000;0.982914
4624.000000;0.982143
4623.000000;0.981422
4622.000000;0.981036
4621.000000;0.980917
4620.000000;0.980745
4619.000000;0.980300
4618.000000;0.979561
4617.000000;0.978579
4616.000000;0.977462
4615.000000;0.976445
4614.000000;0.975767
4613.000000;0.975443
4612.000000;0.975262
4611.000000;0.975035
4610.000000;0.974768
4609.000000;0.974576
4608.000000;0.974509
4607.000000;0.974465
4606.000000;0.974237
4605.000000;0.973662
4604.000000;0.972800
4603.000000;0.971932
4602.000000;0.971328
4601.000000;0.971053
4600.000000;0.971025
4599.000000;0.971170
4598.000000;0.971448
4597.000000;0.971782
4596.000000;0.972065
4595.000000;0.972239
4594.000000;0.972289
4593.000000;0.972203
4592.000000;0.971994
4591.000000;0.971730
4590.000000;0.971478
4589.000000;0.971259
4588.000000;0.971082
4587.000000;0.970981
4586.000000;0.970964
4585.000000;0.970993
4584.000000;0.971054
4583.000000;0.971174
4582.000000;0.971341
4581.000000;0.971484
4580.000000;0.971597
4579.000000;0.971757
4578.000000;0.971944
4577.000000;0.971996
4576.000000;0.971862
4575.000000;0.971784
4574.000000;0.972067
4573.000000;0.972723
4572.000000;0.973505
4571.000000;0.974198
4570.000000;0.974755
4569.000000;0.975174
4568.000000;0.975465
4567.000000;0.975732
4566.000000;0.976119
4565.000000;0.976593
4564.000000;0.976946
4563.000000;0.977075
4562.000000;0.977140
4561.000000;0.977365
4560.000000;0.977768
4559.000000;0.978224
4558.000000;0.978734
4557.000000;0.979500
4556.000000;0.980680
4555.000000;0.982155
4554.000000;0.983575
4553.000000;0.984628
4552.000000;0.985232
4551.000000;0.985515
4550.000000;0.985712
4549.000000;0.986077
4548.000000;0.986772
4547.000000;0.987742
4546.000000;0.988762
4545.000000;0.989667
4544.000000;0.990514
4543.000000;0.991443
4542.000000;0.992465
4541.000000;0.993483
4540.000000;0.994475
4539.000000;0.995501
4538.000000;0.996541
4537.000000;0.997459
4536.000000;0.998157
4535.000000;0.998707
4534.000000;0.999302
4533.000000;1.000143
4532.000000;1.001309
4531.000000;1.002624
4530.000000;1.003721
4529.000000;1.004408
4528.000000;1.004950
4527.000000;1.005804
4526.000000;1.007059
4525.000000;1.008332
4524.000000;1.009225
4523.000000;1.009699
4522.000000;1.009970
4521.000000;1.010241
4520.000000;1.010676
4519.000000;1.011425
4518.000000;1.012523
4517.000000;1.013802
4516.000000;1.015029
4515.000000;1.016067
4514.000000;1.016875
4513.000000;1.017484
4512.000000;1.018026
4511.000000;1.018671
4510.000000;1.019445
4509.000000;1.020212
4508.000000;1.020885
4507.000000;1.021558
4506.000000;1.022366
4505.000000;1.023333
4504.000000;1.024436
4503.000000;1.025695
4502.000000;1.027118
4501.000000;1.028633
4500.000000;1.030156
4499.000000;1.031636
4498.000000;1.032990
4497.000000;1.034104
4496.000000;1.034977
4495.000000;1.035770
4494.000000;1.036660
4493.000000;1.037721
4492.000000;1.038951
4491.000000;1.040303
4490.000000;1.041658
4489.000000;1.042903
4488.000000;1.044089
4487.000000;1.045369
4486.000000;1.046751
4485.000000;1.048045
4484.000000;1.049157
4483.000000;1.050282
4482.000000;1.051710
4481.000000;1.053518
4480.000000;1.055504
4479.000000;1.057347
4478.000000;1.058794
4477.000000;1.059825
4476.000000;1.060683
4475.000000;1.061673
4474.000000;1.062933
4473.000000;1.064469
4472.000000;1.066303
4471.000000;1.068388
4470.000000;1.070423
4469.000000;1.072054
4468.000000;1.073332
4467.000000;1.074714
4466.000000;1.076512
4465.000000;1.078584
4464.000000;1.080661
4463.000000;1.082737
4462.000000;1.084950
4461.000000;1.087271
4460.000000;1.089522
4459.000000;1.091588
4458.000000;1.093498
4457.000000;1.095354
4456.000000;1.097266
4455.000000;1.099237
4454.000000;1.101095
4453.000000;1.102717
4452.000000;1.104357
4451.000000;1.106485
4450.000000;1.109199
4449.000000;1.112031
4448.000000;1.114495
4447.000000;1.116607
4446.000000;1.118681
4445.000000;1.120829
4444.000000;1.122945
4443.000000;1.125005
4442.000000;1.127116
4441.000000;1.129323
4440.000000;1.131612
4439.000000;1.134025
4438.000000;1.136568
4437.000000;1.139056
4436.000000;1.141295
4435.000000;1.143412
4434.000000;1.145800
4433.000000;1.148650
4432.000000;1.151670
4431.000000;1.154359
4430.000000;1.156518
4429.000000;1.158440
4428.000000;1.160579
4427.000000;1.163079
4426.000000;1.165690
4425.000000;1.168149
4424.000000;1.170483
4423.000000;1.172845
4422.000000;1.175197
4421.000000;1.177393
4420.000000;1.179503
4419.000000;1.181801
4418.000000;1.184410
4417.000000;1.187161
4416.000000;1.189836
4415.000000;1.192384
4414.000000;1.194880
4413.000000;1.197448
4412.000000;1.200262
4411.000000;1.203423
4410.000000;1.206791
4409.000000;1.210126
4408.000000;1.213407
4407.000000;1.216805
4406.000000;1.220293
4405.000000;1.223534
4404.000000;1.226251
4403.000000;1.228566
4402.000000;1.230904
4401.000000;1.233674
4400.000000;1.236971
4399.000000;1.240427
4398.000000;1.243436
4397.000000;1.245806
4396.000000;1.248093
4395.000000;1.251007
4394.000000;1.254618
4393.000000;1.258451
4392.000000;1.262232
4391.000000;1.266064
4390.000000;1.269913
4389.000000;1.273469
4388.000000;1.276646
4387.000000;1.279730
4386.000000;1.282843
4385.000000;1.285722
4384.000000;1.288199
4383.000000;1.290513
4382.000000;1.292987
4381.000000;1.295825
4380.000000;1.299353
4379.000000;1.303925
4378.000000;1.309275
4377.000000;1.314424
4376.000000;1.318611
4375.000000;1.322053
4374.000000;1.325463
4373.000000;1.329154
4372.000000;1.332964
4371.000000;1.336742
4370.000000;1.340487
4369.000000;1.344146
4368.000000;1.347608
4367.000000;1.350822
4366.000000;1.353772
4365.000000;1.356509
4364.000000;1.359326
4363.000000;1.362667
4362.000000;1.366653
4361.000000;1.370912
4360.000000;1.375011
4359.000000;1.378869
4358.000000;1.382699
4357.000000;1.386796
4356.000000;1.391430
4355.000000;1.396573
4354.000000;1.401621
4353.000000;1.405793
4352.000000;1.408986
4351.000000;1.411869
4350.000000;1.415058
4349.000000;1.418571
4348.000000;1.422169
4347.000000;1.425773
4346.000000;1.429418
4345.000000;1.433293
4344.000000;1.437931
4343.000000;1.443844
4342.000000;1.450709
4341.000000;1.457366
4340.000000;1.462904
4339.000000;1.467337
4338.000000;1.471029
4337.000000;1.474174
4336.000000;1.477215
4335.000000;1.481052
4334.000000;1.486173
4333.000000;1.491951
4332.000000;1.497297
4331.000000;1.501838
4330.000000;1.506104
4329.000000;1.510825
4328.000000;1.516338
4327.000000;1.522376
4326.000000;1.528037
4325.000000;1.532410
4324.000000;1.535605
4323.000000;1.538806
4322.000000;1.543049
4321.000000;1.548221
4320.000000;1.553527
4319.000000;1.558531
4318.000000;1.563210
4317.000000;1.567507
4316.000000;1.571463
4315.000000;1.575520
4314.000000;1.580188
4313.000000;1.585398
4312.000000;1.590410
4311.000000;1.594550
4310.000000;1.597988
4309.000000;1.601720
4308.000000;1.606641
4307.000000;1.612514
4306.000000;1.618094
4305.000000;1.622606
4304.000000;1.626843
4303.000000;1.632254
4302.000000;1.639209
4301.000000;1.646782
4300.000000;1.653982
4299.000000;1.660481
4298.000000;1.666288
4297.000000;1.671561
4296.000000;1.676701
4295.000000;1.681806
4294.000000;1.686237
4293.000000;1.689666
4292.000000;1.693196
4291.000000;1.698294
4290.000000;1.704722
4289.000000;1.710801
4288.000000;1.715919
4287.000000;1.721335
4286.000000;1.728089
4285.000000;1.735492
4284.000000;1.742123
4283.000000;1.747168
4282.000000;1.750511
4281.000000;1.752766
4280.000000;1.755564
4279.000000;1.760674
4278.000000;1.767934
4277.000000;1.775123
4276.000000;1.780577
4275.000000;1.784763
4274.000000;1.788905
4273.000000;1.793638
4272.000000;1.799446
4271.000000;1.806818
4270.000000;1.815012
4269.000000;1.821930
4268.000000;1.826568
4267.000000;1.830575
4266.000000;1.836153
4265.000000;1.843521
4264.000000;1.851244
4263.000000;1.857913
4262.000000;1.862736
4261.000000;1.865867
4260.000000;1.868994
4259.000000;1.874225
4258.000000;1.881574
4257.000000;1.888630
4256.000000;1.893544
4255.000000;1.897373
4254.000000;1.902043
4253.000000;1.907684
4252.000000;1.913452
4251.000000;1.919478
4250.000000;1.926217
4249.000000;1.932694
4248.000000;1.937473
4247.000000;1.941175
4246.000000;1.945712
4245.000000;1.951682
4244.000000;1.957937
4243.000000;1.963168
4242.000000;1.967111
4241.000000;1.970523
4240.000000;1.974919
4239.000000;1.981881
4238.000000;1.991458
4237.000000;2.001293
4236.000000;2.008548
4235.000000;2.012630
4234.000000;2.015336
4233.000000;2.018978
4232.000000;2.024961
4231.000000;2.033042
4230.000000;2.041346
4229.000000;2.047954
4228.000000;2.052430
4227.000000;2.056047
4226.000000;2.060648
4225.000000;2.067484
4224.000000;2.076633
4223.000000;2.086556
4222.000000;2.094247
4221.000000;2.097337
4220.000000;2.096394
4219.000000;2.094337
4218.000000;2.094196
4217.000000;2.097877
4216.000000;2.106333
4215.000000;2.118903
4214.000000;2.132621
4213.000000;2.144114
4212.000000;2.152609
4211.000000;2.159620
4210.000000;2.165051
4209.000000;2.166989
4208.000000;2.165375
4207.000000;2.162612
4206.000000;2.161548
4205.000000;2.164332
4204.000000;2.172112
4203.000000;2.183600
4202.000000;2.194666
4201.000000;2.202844
4200.000000;2.210745
4199.000000;2.221252
4198.000000;2.231283
4197.000000;2.234689
4196.000000;2.231943
4195.000000;2.231085
4194.000000;2.236948
4193.000000;2.245749
4192.000000;2.251183
4191.000000;2.252940
4190.000000;2.255501
4189.000000;2.261288
4188.000000;2.269634
4187.000000;2.279182
4186.000000;2.288310
4185.000000;2.295331
4184.000000;2.300845
4183.000000;2.307752
4182.000000;2.317825
4181.000000;2.329896
4180.000000;2.341449
4179.000000;2.350650
4178.000000;2.355844
4177.000000;2.355888
4176.000000;2.353494
4175.000000;2.355036
4174.000000;2.363644
4173.000000;2.376940
4172.000000;2.389238
4171.000000;2.394717
4170.000000;2.392146
4169.000000;2.386995
4168.000000;2.388423
4167.000000;2.400465
4166.000000;2.415953
4165.000000;2.424104
4164.000000;2.425170
4163.000000;2.429440
4162.000000;2.442271
4161.000000;2.457608
4160.000000;2.464029
4159.000000;2.460750
4158.000000;2.457260
4157.000000;2.458785
4156.000000;2.465929
4155.000000;2.475463
4154.000000;2.481234
4153.000000;2.479070
4152.000000;2.472557
4151.000000;2.471527
4150.000000;2.480069
4149.000000;2.493539
4148.000000;2.507302
4147.000000;2.520623
4146.000000;2.531463
4145.000000;2.535937
4144.000000;2.535470
4143.000000;2.536942
4142.000000;2.542639
4141.000000;2.549689
4140.000000;2.557990
4139.000000;2.571143
4138.000000;2.585311
4137.000000;2.588360
4136.000000;2.578145
4135.000000;2.566864
4134.000000;2.565881
4133.000000;2.575771
4132.000000;2.590318
4131.000000;2.606185
4130.000000;2.618786
4129.000000;2.618124
4128.000000;2.604071
4127.000000;2.591740
4126.000000;2.592336
4125.000000;2.603273
4124.000000;2.617105
4123.000000;2.629011
4122.000000;2.637088
4121.000000;2.638662
4120.000000;2.633802
4119.000000;2.628859
4118.000000;2.626342
4117.000000;2.625598
4116.000000;2.629509
4115.000000;2.643287
4114.000000;2.666430
4113.000000;2.689308
4112.000000;2.703333
4111.000000;2.713936
4110.000000;2.726763
4109.000000;2.733680
4108.000000;2.726235
4107.000000;2.709425
4106.000000;2.696299
4105.000000;2.692755
4104.000000;2.693846
4103.000000;2.696184
4102.000000;2.701014
4101.000000;2.707651
4100.000000;2.712663
4099.000000;2.711682
4098.000000;2.704640
4097.000000;2.702047
4096.000000;2.718308
4095.000000;2.756485
4094.000000;2.799770
4093.000000;2.818801
4092.000000;2.801472
4091.000000;2.770116
4090.000000;2.750881
4089.000000;2.752693
4088.000000;2.771510
4087.000000;2.798483
4086.000000;2.817989
4085.000000;2.813523
4084.000000;2.791302
4083.000000;2.772376
4082.000000;2.767393
4081.000000;2.776796
4080.000000;2.799568
4079.000000;2.830137
4078.000000;2.852252
4077.000000;2.855833
4076.000000;2.852996
4075.000000;2.860931
4074.000000;2.880097
4073.000000;2.892328
4072.000000;2.886244
4071.000000;2.869307
4070.000000;2.851680
4069.000000;2.831244
4068.000000;2.803593
4067.000000;2.783940
4066.000000;2.790646
4065.000000;2.831435
4064.000000;2.898875
4063.000000;2.965152
4062.000000;2.989166
4061.000000;2.957641
4060.000000;2.904931
4059.000000;2.867407
4058.000000;2.846370
4057.000000;2.827009
4056.000000;2.809077
4055.000000;2.804644
4054.000000;2.817002
4053.000000;2.839257
4052.000000;2.858641
4051.000000;2.865694
4050.000000;2.861345
4049.000000;2.850537
4048.000000;2.843865
4047.000000;2.851309
4046.000000;2.873239
4045.000000;2.901074
4044.000000;2.924269
4043.000000;2.940328
4042.000000;2.938202
4041.000000;2.921144
4040.000000;2.919264
4039.000000;2.942131
4038.000000;2.965562
4037.000000;2.961593
4036.000000;2.933125
4035.000000;2.902554
4034.000000;2.877257
4033.000000;2.852991
4032.000000;2.835439
4031.000000;2.834087
4030.000000;2.838377
4029.000000;2.837846
4028.000000;2.838445
4027.000000;2.848390
4026.000000;2.872575
4025.000000;2.906625
4024.000000;2.948795
4023.000000;3.006480
4022.000000;3.066470
4021.000000;3.091777
4020.000000;3.077260
4019.000000;3.050224
4018.000000;3.021407
4017.000000;2.982899
4016.000000;2.941690
4015.000000;2.929958
4014.000000;2.965043
4013.000000;3.024924
4012.000000;3.068648
4011.000000;3.072923
4010.000000;3.058046
4009.000000;3.058517
4008.000000;3.076966
4007.000000;3.104958
4006.000000;3.122327
4005.000000;3.097213
4004.000000;3.049324
4003.000000;3.020748
4002.000000;3.013183
4001.000000;3.008097
4000.000000;3.008941
3999.000000;3.040796
3998.000000;3.100878
3997.000000;3.135264
3996.000000;3.118919
3995.000000;3.082618
3994.000000;3.055416
3993.000000;3.049002
3992.000000;3.073598
3991.000000;3.141266
3990.000000;3.234674
3989.000000;3.301610
3988.000000;3.310613
3987.000000;3.298966
3986.000000;3.273606
3985.000000;3.229117
3984.000000;3.211034
3983.000000;3.231969
3982.000000;3.222925
3981.000000;3.149151
3980.000000;3.045492
3979.000000;2.972198
3978.000000;2.960541
3977.000000;2.996581
3976.000000;3.037636
3975.000000;3.058595
3974.000000;3.080155
3973.000000;3.119047
3972.000000;3.158316
3971.000000;3.187450
3970.000000;3.214429
3969.000000;3.227906
3968.000000;3.235896
3967.000000;3.248781
3966.000000;3.256695
3965.000000;3.244355
3964.000000;3.210328
3963.000000;3.182984
3962.000000;3.166837
3961.000000;3.153520
3960.000000;3.151080
3959.000000;3.163752
3958.000000;3.171212
3957.000000;3.151553
3956.000000;3.145085
3955.000000;3.207308
3954.000000;3.366757
3953.000000;3.603441
3952.000000;3.738867
3951.000000;3.686943
3950.000000;3.512856
3949.000000;3.351269
3948.000000;3.254410
3947.000000;3.200877
3946.000000;3.163979
3945.000000;3.115926
3944.000000;3.083746
3943.000000;3.124934
3942.000000;3.238578
3941.000000;3.345740
3940.000000;3.384802
3939.000000;3.376391
3938.000000;3.320585
3937.000000;3.250341
3936.000000;3.214524
3935.000000;3.229362
3934.000000;3.285204
3933.000000;3.310845
3932.000000;3.320143
3931.000000;3.402456
3930.000000;3.459109
3929.000000;3.431169
3928.000000;3.428588
3927.000000;3.450192
3926.000000;3.485028
3925.000000;3.500080
3924.000000;3.497914
3923.000000;3.528251
3922.000000;3.515741
3921.000000;3.494565
3920.000000;3.502850
3919.000000;3.507109
3918.000000;3.521102
3917.000000;3.504676
3916.000000;3.467960
3915.000000;3.537923
3914.000000;3.648608
3913.000000;3.609633
3912.000000;3.529496
3911.000000;3.441432
3910.000000;3.384179
3909.000000;3.391502
3908.000000;3.430472
3907.000000;3.477783
3906.000000;3.603834
3905.000000;3.794978
3904.000000;3.721730
3903.000000;3.700964
3902.000000;3.708711
3901.000000;3.645829
3900.000000;3.644117
3899.000000;3.743190
3898.000000;3.920039
3897.000000;3.991708
3896.000000;3.799787
3895.000000;3.646594
3894.000000;3.619490
3893.000000;3.632751
3892.000000;3.632061
3891.000000;3.636632
3890.000000;3.627332
3889.000000;3.551802
3888.000000;3.498160
3887.000000;3.557556
3886.000000;3.716344
3885.000000;3.841989
3884.000000;3.973324
3883.000000;4.534740
3882.000000;4.169311
3881.000000;3.774294
3880.000000;3.610406
3879.000000;3.506215
3878.000000;3.499827
3877.000000;3.678092
3876.000000;4.103454
3875.000000;4.408606
3874.000000;4.623473
3873.000000;4.167501
3872.000000;3.901339
3871.000000;3.922702
3870.000000;4.193056
3869.000000;4.222475
3868.000000;4.078065
3867.000000;4.230884
3866.000000;4.592461
3865.000000;4.868996
3864.000000;4.784937
3863.000000;4.415125
3862.000000;4.112323
3861.000000;3.913221
3860.000000;3.727357
3859.000000;3.593652
3858.000000;3.566914
3857.000000;3.587564
3856.000000;3.623146
3855.000000;3.783281
3854.000000;4.055700
3853.000000;4.291706
3852.000000;4.463730
3851.000000;4.629033
3850.000000;4.765768
3849.000000;4.574392
3848.000000;4.285578
3847.000000;4.082483
3846.000000;3.966390
3845.000000;3.842823
3844.000000;3.757055
3843.000000;3.786817
3842.000000;3.861541
3841.000000;3.807875
3840.000000;3.736524
3839.000000;3.940314
3838.000000;4.526560
3837.000000;4.558111
3836.000000;4.087239
3835.000000;3.827993
3834.000000;3.690796
3833.000000;3.620682
3832.000000;3.627683
3831.000000;3.707424
3830.000000;3.825743
3829.000000;3.850522
3828.000000;3.772990
3827.000000;3.787850
3826.000000;3.759516
3825.000000;3.616689
3824.000000;3.539798
3823.000000;3.517872
3822.000000;3.530168
3821.000000;3.598544
3820.000000;3.734657
3819.000000;3.949468
3818.000000;4.244160
3817.000000;4.269488
3816.000000;4.084009
3815.000000;4.120598
3814.000000;4.188511
3813.000000;4.063436
3812.000000;3.959198
3811.000000;3.875710
3810.000000;3.882974
3809.000000;4.024540
3808.000000;4.061352
3807.000000;4.220568
3806.000000;4.201819
3805.000000;3.911160
3804.000000;3.816910
3803.000000;3.802702
3802.000000;3.881548
3801.000000;4.057749
3800.000000;4.144349
3799.000000;4.007393
3798.000000;3.937290
3797.000000;4.147609
3796.000000;4.143180
3795.000000;3.806314
3794.000000;3.855135
3793.000000;4.339727
3792.000000;4.214920
3791.000000;3.916706
3790.000000;3.816925
3789.000000;3.700103
3788.000000;3.591495
3787.000000;3.687505
3786.000000;4.020019
3785.000000;4.070566
3784.000000;4.359939
3783.000000;4.367697
3782.000000;3.755395
3781.000000;3.573832
3780.000000;3.515779
3779.000000;3.608668
3778.000000;3.998826
3777.000000;4.143992
3776.000000;3.814153
3775.000000;3.681572
3774.000000;3.719726
3773.000000;4.001227
3772.000000;3.906087
3771.000000;3.734618
3770.000000;3.710962
3769.000000;3.693169
3768.000000;3.737280
3767.000000;3.691561
3766.000000;3.561906
3765.000000;3.467700
3764.000000;3.454516
3763.000000;3.534538
3762.000000;3.769370
3761.000000;3.924755
3760.000000;3.748746
3759.000000;3.621211
3758.000000;3.538270
3757.000000;3.631927
3756.000000;4.009624
3755.000000;4.236786
3754.000000;4.039901
3753.000000;4.092007
3752.000000;4.378042
3751.000000;4.819711
3750.000000;4.516926
3749.000000;4.287389
3748.000000;4.170043
3747.000000;4.026442
3746.000000;3.931539
3745.000000;3.921337
3744.000000;3.930075
3743.000000;3.958987
3742.000000;3.992816
3741.000000;4.048294
3740.000000;3.961476
3739.000000;4.040704
3738.000000;4.518210
3737.000000;3.961326
3736.000000;3.739475
3735.000000;3.711465
3734.000000;3.670573
3733.000000;3.643532
3732.000000;3.670732
3731.000000;3.880235
3730.000000;4.289514
3729.000000;4.255813
3728.000000;3.876400
3727.000000;3.853591
3726.000000;4.216141
3725.000000;4.778884
3724.000000;4.242214
3723.000000;3.714276
3722.000000;3.441555
3721.000000;3.370539
3720.000000;3.380855
3719.000000;3.483170
3718.000000;3.618543
3717.000000;3.597637
3716.000000;3.465031
3715.000000;3.628653
3714.000000;4.516861
3713.000000;3.734491
3712.000000;3.580512
3711.000000;3.676789
3710.000000;3.853573
3709.000000;4.061558
3708.000000;3.836835
3707.000000;3.725771
3706.000000;3.686644
3705.000000;3.587883
3704.000000;3.493258
3703.000000;3.511997
3702.000000;3.643767
3701.000000;3.769069
3700.000000;3.745424
3699.000000;3.837930
3698.000000;3.993004
3697.000000;3.776544
3696.000000;3.647599
3695.000000;3.586534
3694.000000;3.549753
3693.000000;3.656326
3692.000000;3.950274
3691.000000;4.472051
3690.000000;4.320385
3689.000000;3.923998
3688.000000;3.855519
3687.000000;3.924328
3686.000000;3.963671
3685.000000;3.961567
3684.000000;3.861639
3683.000000;3.663917
3682.000000;3.496282
3681.000000;3.489513
3680.000000;3.717501
3679.000000;4.028651
3678.000000;3.917957
3677.000000;3.883205
3676.000000;4.055281
3675.000000;4.194364
3674.000000;4.239523
3673.000000;4.201705
3672.000000;4.287202
3671.000000;4.427557
3670.000000;4.589730
3669.000000;4.528565
3668.000000;4.006517
3667.000000;3.846598
3666.000000;3.871043
3665.000000;4.010234
3664.000000;4.642307
3663.000000;4.254157
3662.000000;4.043698
3661.000000;4.051782
3660.000000;3.964008
3659.000000;3.707112
3658.000000;3.773716
3657.000000;4.429315
3656.000000;3.802800
3655.000000;3.654684
3654.000000;3.688358
3653.000000;3.699096
3652.000000;3.824149
3651.000000;4.017701
3650.000000;4.230581
3649.000000;4.337282
3648.000000;4.668466
3647.000000;4.417791
3646.000000;4.083602
3645.000000;4.239708
3644.000000;4.080480
3643.000000;3.743629
3642.000000;3.641422
3641.000000;3.580196
3640.000000;3.567193
3639.000000;3.627732
3638.000000;3.689658
3637.000000;3.629573
3636.000000;3.541705
3635.000000;3.642038
3634.000000;3.907499
3633.000000;4.079813
3632.000000;4.078099
3631.000000;3.894002
3630.000000;3.769045
3629.000000;3.717112
3628.000000;3.730369
3627.000000;3.858418
3626.000000;3.978276
3625.000000;3.907202
3624.000000;3.728609
3623.000000;3.711640
3622.000000;4.152712
3621.000000;4.275919
3620.000000;3.839951
3619.000000;3.737957
3618.000000;3.690554
3617.000000;3.792363
3616.000000;3.968957
3615.000000;3.923603
3614.000000;3.907475
3613.000000;4.077961
3612.000000;4.048334
3611.000000;3.915539
3610.000000;3.902495
3609.000000;4.023277
3608.000000;4.074418
3607.000000;3.930426
3606.000000;3.990962
3605.000000;4.407309
3604.000000;4.151192
3603.000000;3.936586
3602.000000;3.891879
3601.000000;3.729927
3600.000000;3.736690
3599.000000;3.867671
3598.000000;3.901067
3597.000000;3.810473
3596.000000;3.852734
3595.000000;3.906455
3594.000000;3.773908
3593.000000;3.729257
3592.000000;3.950508
3591.000000;4.501526
3590.000000;4.757323
3589.000000;4.358166
3588.000000;4.202940
3587.000000;4.627457
3586.000000;4.091342
3585.000000;3.711398
3584.000000;3.783540
3583.000000;4.126040
3582.000000;3.848854
3581.000000;3.610218
3580.000000;3.576779
3579.000000;3.633159
3578.000000;3.723926
3577.000000;3.886453
3576.000000;4.154178
3575.000000;3.824316
3574.000000;3.627240
3573.000000;3.662780
3572.000000;3.930519
3571.000000;3.951184
3570.000000;3.637423
3569.000000;3.634909
3568.000000;3.672967
3567.000000;3.578540
3566.000000;3.516989
3565.000000;3.558975
3564.000000;3.649266
3563.000000;3.673200
3562.000000;3.889512
3561.000000;3.804520
3560.000000;3.437831
3559.000000;3.394722
3558.000000;3.600517
3557.000000;3.908357
3556.000000;3.934827
3555.000000;3.818012
3554.000000;3.790516
3553.000000;3.616922
3552.000000;3.433461
3551.000000;3.399235
3550.000000;3.500854
3549.000000;3.643689
3548.000000;3.712889
3547.000000;3.766227
3546.000000;3.984936
3545.000000;4.444558
3544.000000;4.036202
3543.000000;3.622246
3542.000000;3.461811
3541.000000;3.448186
3540.000000;3.474272
3539.000000;3.397088
3538.000000;3.316243
3537.000000;3.376402
3536.000000;3.636083
3535.000000;4.087132
3534.000000;4.357242
3533.000000;4.514149
3532.000000;4.630164
3531.000000;4.584650
3530.000000;4.563929
3529.000000;4.067369
3528.000000;3.727511
3527.000000;3.553053
3526.000000;3.483624
3525.000000;3.587573
3524.000000;3.787836
3523.000000;3.828779
3522.000000;3.949082
3521.000000;3.974826
3520.000000;3.766260
3519.000000;3.702509
3518.000000;3.734830
3517.000000;3.757171
3516.000000;3.852248
3515.000000;4.206672
3514.000000;4.762440
3513.000000;4.123729
3512.000000;3.845473
3511.000000;4.019192
3510.000000;4.010258
3509.000000;3.870134
3508.000000;3.775557
3507.000000;3.702663
3506.000000;4.124537
3505.000000;4.101002
3504.000000;3.758570
3503.000000;3.871277
3502.000000;3.955642
3501.000000;3.961012
3500.000000;3.963798
3499.000000;4.051283
3498.000000;4.159591
3497.000000;4.186123
3496.000000;4.065041
3495.000000;3.725470
3494.000000;3.578073
3493.000000;3.791639
3492.000000;4.521926
3491.000000;4.266902
3490.000000;3.977437
3489.000000;3.838868
3488.000000;3.877857
3487.000000;3.842256
3486.000000;3.672517
3485.000000;3.926325
3484.000000;4.194516
3483.000000;3.684613
3482.000000;3.600848
3481.000000;3.590848
3480.000000;3.664840
3479.000000;4.397709
3478.000000;4.033095
3477.000000;3.635473
3476.000000;3.587990
3475.000000;3.563391
3474.000000;3.621696
3473.000000;3.643457
3472.000000;3.540274
3471.000000;3.451140
3470.000000;3.462693
3469.000000;3.532645
3468.000000;3.493873
3467.000000;3.417802
3466.000000;3.449730
3465.000000;3.563896
3464.000000;3.701633
3463.000000;4.085659
3462.000000;4.398185
3461.000000;4.030818
3460.000000;3.963044
3459.000000;3.698711
3458.000000;3.577993
3457.000000;3.770205
3456.000000;3.953358
3455.000000;3.995732
3454.000000;4.152501
3453.000000;3.909956
3452.000000;3.739424
3451.000000;3.676719
3450.000000;3.874764
3449.000000;4.097742
3448.000000;3.649204
3447.000000;3.587426
3446.000000;3.716400
3445.000000;3.707545
3444.000000;3.643944
3443.000000;3.883184
3442.000000;4.051168
3441.000000;3.579847
3440.000000;3.462214
3439.000000;3.432975
3438.000000;3.674384
3437.000000;3.981078
3436.000000;3.522948
3435.000000;3.623543
3434.000000;4.066052
3433.000000;4.017960
3432.000000;4.007981
3431.000000;4.187644
3430.000000;4.468616
3429.000000;4.274832
3428.000000;4.128894
3427.000000;3.782798
3426.000000;3.624437
3425.000000;3.767952
3424.000000;4.180567
3423.000000;4.158297
3422.000000;3.715284
3421.000000;3.828760
3420.000000;4.050544
3419.000000;3.732689
3418.000000;3.725811
3417.000000;3.810508
3416.000000;3.949013
3415.000000;4.062947
3414.000000;3.996596
3413.000000;3.834132
3412.000000;3.575058
3411.000000;3.604880
3410.000000;4.103393
3409.000000;4.311372
3408.000000;4.075635
3407.000000;4.168650
3406.000000;3.955353
3405.000000;4.002667
3404.000000;3.948871
3403.000000;3.676171
3402.000000;3.624362
3401.000000;3.697920
3400.000000;3.613208
3399.000000;3.519813
3398.000000;3.632382
3397.000000;3.802615
3396.000000;3.878017
3395.000000;3.787058
3394.000000;3.633933
3393.000000;3.534699
3392.000000;3.447822
3391.000000;3.388057
3390.000000;3.438134
3389.000000;3.540926
3388.000000;3.861446
3387.000000;4.355771
3386.000000;3.638397
3385.000000;3.470398
3384.000000;3.511557
3383.000000;3.648575
3382.000000;3.777311
3381.000000;3.835932
3380.000000;3.844358
3379.000000;3.630891
3378.000000;3.504101
3377.000000;3.455195
3376.000000;3.597072
3375.000000;3.988248
3374.000000;3.713966
3373.000000;3.458377
3372.000000;3.428343
3371.000000;3.456733
3370.000000;3.570918
3369.000000;3.651588
3368.000000;3.667407
3367.000000;3.789497
3366.000000;3.830754
3365.000000;3.796369
3364.000000;4.090577
3363.000000;4.431292
3362.000000;3.860382
3361.000000;3.669070
3360.000000;3.424352
3359.000000;3.267635
3358.000000;3.244719
3357.000000;3.257645
3356.000000;3.311832
3355.000000;3.509885
3354.000000;3.881036
3353.000000;4.106415
3352.000000;4.280095
3351.000000;3.835395
3350.000000;3.586620
3349.000000;3.556193
3348.000000;3.673468
3347.000000;4.235879
3346.000000;3.841174
3345.000000;3.486710
3344.000000;3.492001
3343.000000;3.533845
3342.000000;3.663176
3341.000000;4.158735
3340.000000;4.090177
3339.000000;3.761313
3338.000000;3.611231
3337.000000;3.438472
3336.000000;3.375251
3335.000000;3.522212
3334.000000;3.786832
3333.000000;3.710576
3332.000000;3.691995
3331.000000;3.838780
3330.000000;3.674736
3329.000000;3.543542
3328.000000;3.603645
3327.000000;3.826555
3326.000000;4.157583
3325.000000;3.762666
3324.000000;3.501090
3323.000000;3.499734
3322.000000;3.751265
3321.000000;4.103180
3320.000000;3.957245
3319.000000;4.055442
3318.000000;4.085573
3317.000000;3.735220
3316.000000;3.531795
3315.000000;3.512711
3314.000000;3.547196
3313.000000;3.493954
3312.000000;3.441128
3311.000000;3.456047
3310.000000;3.524605
3309.000000;3.736342
3308.000000;4.059284
3307.000000;3.855097
3306.000000;3.730319
3305.000000;3.952846
3304.000000;4.267956
3303.000000;3.986167
3302.000000;3.859045
3301.000000;3.631382
3300.000000;3.486690
3299.000000;3.668454
3298.000000;4.064832
3297.000000;3.887026
3296.000000;3.840732
3295.000000;3.936920
3294.000000;3.960817
3293.000000;3.999478
3292.000000;3.983439
3291.000000;3.972939
3290.000000;4.067349
3289.000000;4.600266
3288.000000;4.108738
3287.000000;3.692708
3286.000000;3.595981
3285.000000;3.771266
3284.000000;3.848493
3283.000000;3.595319
3282.000000;3.479173
3281.000000;3.424117
3280.000000;3.420748
3279.000000;3.440118
3278.000000;3.434189
3277.000000;3.484894
3276.000000;3.576074
3275.000000;3.552593
3274.000000;3.466495
3273.000000;3.439197
3272.000000;3.471032
3271.000000;3.464105
3270.000000;3.415435
3269.000000;3.509070
3268.000000;3.807772
3267.000000;3.872865
3266.000000;3.647765
3265.000000;3.626690
3264.000000;3.873130
3263.000000;4.038991
3262.000000;3.802172
3261.000000;3.591597
3260.000000;3.530511
3259.000000;3.625146
3258.000000;3.793648
3257.000000;3.902547
3256.000000;3.694203
3255.000000;3.707473
3254.000000;4.118216
3253.000000;4.387821
3252.000000;3.990409
3251.000000;3.765893
3250.000000;3.759839
3249.000000;3.788724
3248.000000;4.178397
3247.000000;4.453907
3246.000000;3.858371
3245.000000;3.806020
3244.000000;3.568286
3243.000000;3.453633
3242.000000;3.524944
3241.000000;3.815630
3240.000000;4.019515
3239.000000;3.576193
3238.000000;3.376400
3237.000000;3.371004
3236.000000;3.416049
3235.000000;3.431369
3234.000000;3.526653
3233.000000;3.741118
3232.000000;3.836655
3231.000000;3.821919
3230.000000;3.865640
3229.000000;3.740861
3228.000000;3.492903
3227.000000;3.575292
3226.000000;4.080351
3225.000000;3.963923
3224.000000;3.816944
3223.000000;3.759068
3222.000000;3.670343
3221.000000;3.555490
3220.000000;3.419431
3219.000000;3.407531
3218.000000;3.495069
3217.000000;3.520493
3216.000000;3.483868
3215.000000;3.549911
3214.000000;3.773234
3213.000000;4.280960
3212.000000;4.138835
3211.000000;3.665106
3210.000000;3.455990
3209.000000;3.418109
3208.000000;3.494184
3207.000000;3.579482
3206.000000;3.669624
3205.000000;3.893046
3204.000000;4.334843
3203.000000;4.044420
3202.000000;3.785755
3201.000000;3.675261
3200.000000;3.522409
3199.000000;3.474820
3198.000000;3.547959
3197.000000;3.748543
3196.000000;4.315978
3195.000000;4.779781
3194.000000;4.095689
3193.000000;3.992408
3192.000000;3.911481
3191.000000;4.084877
3190.000000;4.452507
3189.000000;4.263338
3188.000000;4.060289
3187.000000;3.691028
3186.000000;3.506956
3185.000000;3.564734
3184.000000;3.722847
3183.000000;3.846623
3182.000000;4.101493
3181.000000;4.559416
3180.000000;4.722688
3179.000000;4.005007
3178.000000;3.799314
3177.000000;4.012696
3176.000000;3.742418
3175.000000;3.715571
3174.000000;4.175692
3173.000000;4.202537
3172.000000;4.450545
3171.000000;4.645272
3170.000000;4.118921
3169.000000;3.879959
3168.000000;3.620077
3167.000000;3.504798
3166.000000;3.563374
3165.000000;3.782640
3164.000000;4.206253
3163.000000;4.428067
3162.000000;4.031235
3161.000000;3.943212
3160.000000;3.818420
3159.000000;3.666012
3158.000000;3.696893
3157.000000;4.024327
3156.000000;5.314312
3155.000000;3.946688
3154.000000;3.456809
3153.000000;3.297542
3152.000000;3.269900
3151.000000;3.280084
3150.000000;3.367811
3149.000000;3.694976
3148.000000;3.853419
3147.000000;3.759874
3146.000000;3.878817
3145.000000;3.820881
3144.000000;3.762492
3143.000000;4.006747
3142.000000;4.515794
3141.000000;3.929687
3140.000000;3.756573
3139.000000;3.533758
3138.000000;3.396853
3137.000000;3.426713
3136.000000;3.579903
3135.000000;3.672482
3134.000000;3.645084
3133.000000;3.637614
3132.000000;3.587657
3131.000000;3.511332
3130.000000;3.469588
3129.000000;3.538143
3128.000000;3.568310
3127.000000;3.513160
3126.000000;3.551841
3125.000000;3.670356
3124.000000;4.115086
3123.000000;3.918210
3122.000000;3.656811
3121.000000;3.721675
3120.000000;3.634557
3119.000000;3.680086
3118.000000;3.624922
3117.000000;3.425007
3116.000000;3.406446
3115.000000;3.443168
3114.000000;3.498825
3113.000000;3.631063
3112.000000;3.719732
3111.000000;3.683029
3110.000000;3.685283
3109.000000;3.675533
3108.000000;3.596861
3107.000000;3.472415
3106.000000;3.450604
3105.000000;3.615115
3104.000000;3.668412
3103.000000;3.556944
3102.000000;3.532386
3101.000000;3.688145
3100.000000;4.012631
3099.000000;4.210354
3098.000000;4.568854
3097.000000;4.100163
3096.000000;3.783815
3095.000000;3.555534
3094.000000;3.444072
3093.000000;3.403695
3092.000000;3.399408
3091.000000;3.632857
3090.000000;3.958113
3089.000000;3.645275
3088.000000;3.639548
3087.000000;3.552006
3086.000000;3.479278
3085.000000;3.602967
3084.000000;3.883651
3083.000000;3.896552
3082.000000;3.796501
3081.000000;3.897586
3080.000000;4.273796
3079.000000;4.331510
3078.000000;4.029496
3077.000000;4.067807
3076.000000;4.093445
3075.000000;3.944386
3074.000000;3.790539
3073.000000;3.945518
3072.000000;4.094309
3071.000000;4.005315
3070.000000;4.042114
3069.000000;4.055018
3068.000000;4.143124
3067.000000;4.317460
3066.000000;3.741017
3065.000000;3.658655
3064.000000;3.698511
3063.000000;3.732986
3062.000000;3.736834
3061.000000;3.785240
3060.000000;3.844066
3059.000000;3.743446
3058.000000;3.657682
3057.000000;3.684254
3056.000000;3.727282
3055.000000;3.751868
3054.000000;3.954976
3053.000000;4.199362
3052.000000;3.925128
3051.000000;3.807470
3050.000000;3.581187
3049.000000;3.515228
3048.000000;3.824680
3047.000000;4.340850
3046.000000;3.888853
3045.000000;3.673727
3044.000000;3.597504
3043.000000;3.587507
3042.000000;3.576763
3041.000000;3.556062
3040.000000;3.575507
3039.000000;3.779563
3038.000000;4.359838
3037.000000;4.089457
3036.000000;4.085048
3035.000000;3.978678
3034.000000;3.669641
3033.000000;3.636911
3032.000000;3.805039
3031.000000;4.257392
3030.000000;4.315332
3029.000000;3.922507
3028.000000;3.861496
3027.000000;3.946208
3026.000000;4.040489
3025.000000;3.803931
3024.000000;3.667040
3023.000000;3.953937
3022.000000;4.025078
3021.000000;3.647134
3020.000000;3.511016
3019.000000;3.382654
3018.000000;3.249099
3017.000000;3.209257
3016.000000;3.263256
3015.000000;3.320125
3014.000000;3.314902
3013.000000;3.406715
3012.000000;3.698557
3011.000000;4.102959
3010.000000;3.844613
3009.000000;3.499717
3008.000000;3.331597
3007.000000;3.292235
3006.000000;3.312493
3005.000000;3.289582
3004.000000;3.246515
3003.000000;3.254014
3002.000000;3.336292
3001.000000;3.483190
3000.000000;3.683999
2999.000000;3.886077
2998.000000;3.804755
2997.000000;3.832346
2996.000000;4.102665
2995.000000;4.586923
2994.000000;4.711422
2993.000000;4.020117
2992.000000;3.680578
2991.000000;3.693701
2990.000000;3.798420
2989.000000;3.690499
2988.000000;3.615272
2987.000000;3.716029
2986.000000;3.952748
2985.000000;3.875225
2984.000000;3.628419
2983.000000;3.597092
2982.000000;3.761129
2981.000000;3.877615
2980.000000;3.814863
2979.000000;3.729153
2978.000000;3.595531
2977.000000;3.576340
2976.000000;3.700808
2975.000000;3.849931
2974.000000;3.733184
2973.000000;3.734618
2972.000000;4.014133
2971.000000;4.352870
2970.000000;3.989693
2969.000000;3.707364
2968.000000;3.565557
2967.000000;3.569166
2966.000000;3.637809
2965.000000;3.758383
2964.000000;3.852135
2963.000000;3.838346
2962.000000;3.754799
2961.000000;3.596861
2960.000000;3.459322
2959.000000;3.425242
2958.000000;3.456378
2957.000000;3.459079
2956.000000;3.491551
2955.000000;3.694072
2954.000000;3.846074
2953.000000;3.622349
2952.000000;3.447938
2951.000000;3.409324
2950.000000;3.508754
2949.000000;3.690014
2948.000000;3.971084
2947.000000;4.117087
2946.000000;3.954286
2945.000000;3.784264
2944.000000;3.754433
2943.000000;4.022379
2942.000000;4.074538
2941.000000;3.884131
2940.000000;3.675721
2939.000000;3.423738
2938.000000;3.271515
2937.000000;3.281234
2936.000000;3.415552
2935.000000;3.503162
2934.000000;3.571481
2933.000000;3.771551
2932.000000;3.839811
2931.000000;4.084317
2930.000000;4.112913
2929.000000;3.993589
2928.000000;4.355203
2927.000000;4.084659
2926.000000;3.775309
2925.000000;3.889858
2924.000000;4.371844
2923.000000;4.114340
2922.000000;4.005785
2921.000000;3.760600
2920.000000;3.597072
2919.000000;3.659497
2918.000000;3.818055
2917.000000;3.674641
2916.000000;3.468177
2915.000000;3.437010
2914.000000;3.480316
2913.000000;3.453012
2912.000000;3.413818
2911.000000;3.459406
2910.000000;3.529512
2909.000000;3.508429
2908.000000;3.530433
2907.000000;3.763698
2906.000000;4.456263
2905.000000;4.165811
2904.000000;3.696509
2903.000000;3.573064
2902.000000;3.580686
2901.000000;3.605462
2900.000000;3.683998
2899.000000;3.867726
2898.000000;4.055513
2897.000000;3.684916
2896.000000;3.408253
2895.000000;3.429774
2894.000000;3.761236
2893.000000;4.008762
2892.000000;3.759359
2891.000000;4.272866
2890.000000;4.000662
2889.000000;3.473496
2888.000000;3.380009
2887.000000;3.680547
2886.000000;4.062206
2885.000000;3.820247
2884.000000;3.974965
2883.000000;4.093052
2882.000000;3.979210
2881.000000;4.314025
2880.000000;4.060159
2879.000000;4.018599
2878.000000;4.406186
2877.000000;4.261420
2876.000000;3.791309
2875.000000;3.696888
2874.000000;3.801711
2873.000000;3.909909
2872.000000;3.800169
2871.000000;3.869488
2870.000000;4.018075
2869.000000;3.916152
2868.000000;3.698722
2867.000000;3.577907
2866.000000;3.549142
2865.000000;3.570847
2864.000000;3.673415
2863.000000;4.189604
2862.000000;3.836680
2861.000000;3.675525
2860.000000;3.890734
2859.000000;4.058083
2858.000000;3.648835
2857.000000;3.480133
2856.000000;3.554921
2855.000000;3.729603
2854.000000;3.810616
2853.000000;4.094113
2852.000000;4.048958
2851.000000;3.707321
2850.000000;3.588899
2849.000000;3.487627
2848.000000;3.463428
2847.000000;3.677196
2846.000000;3.898120
2845.000000;3.814250
2844.000000;4.056369
2843.000000;3.905046
2842.000000;3.732522
2841.000000;3.684852
2840.000000;3.640068
2839.000000;3.530648
2838.000000;3.540931
2837.000000;3.838940
2836.000000;3.650535
2835.000000;3.530488
2834.000000;3.670045
2833.000000;3.555521
2832.000000;3.491587
2831.000000;3.540538
2830.000000;3.624245
2829.000000;3.619995
2828.000000;3.624400
2827.000000;3.952889
2826.000000;3.952292
2825.000000;4.030625
2824.000000;4.086139
2823.000000;3.676053
2822.000000;3.489991
2821.000000;3.358875
2820.000000;3.362162
2819.000000;3.515853
2818.000000;3.735397
2817.000000;3.734638
2816.000000;3.472378
2815.000000;3.419019
2814.000000;3.519585
2813.000000;3.486858
2812.000000;3.334174
2811.000000;3.300573
2810.000000;3.370165
2809.000000;3.486691
2808.000000;3.507717
2807.000000;3.550220
2806.000000;3.745928
2805.000000;3.887137
2804.000000;3.966636
2803.000000;4.202720
2802.000000;4.407131
2801.000000;4.316818
2800.000000;4.047493
2799.000000;3.880293
2798.000000;3.544815
2797.000000;3.525801
2796.000000;3.583653
2795.000000;3.514176
2794.000000;3.538525
2793.000000;3.734075
2792.000000;4.186606
2791.000000;3.639709
2790.000000;3.378055
2789.000000;3.368825
2788.000000;3.460278
2787.000000;3.478581
2786.000000;3.476082
2785.000000;3.657592
2784.000000;4.096238
2783.000000;4.140693
2782.000000;3.837541
2781.000000;3.786436
2780.000000;3.864730
2779.000000;3.796429
2778.000000;3.542440
2777.000000;3.385460
2776.000000;3.320264
2775.000000;3.326972
2774.000000;3.369844
2773.000000;3.443999
2772.000000;3.605152
2771.000000;3.803755
2770.000000;3.552913
2769.000000;3.561875
2768.000000;3.639369
2767.000000;3.509164
2766.000000;3.458248
2765.000000;3.529512
2764.000000;3.694509
2763.000000;3.801401
2762.000000;3.800200
2761.000000;3.982257
2760.000000;4.024985
2759.000000;3.548786
2758.000000;3.387158
2757.000000;3.446142
2756.000000;3.557601
2755.000000;3.459439
2754.000000;3.333620
2753.000000;3.387662
2752.000000;3.586414
2751.000000;3.717838
2750.000000;4.000626
2749.000000;4.114943
2748.000000;4.094948
2747.000000;3.952891
2746.000000;3.528057
2745.000000;3.452445
2744.000000;3.467419
2743.000000;3.428218
2742.000000;3.410102
2741.000000;3.606962
2740.000000;4.330365
2739.000000;3.883869
2738.000000;3.751732
2737.000000;3.613960
2736.000000;3.582142
2735.000000;3.925295
2734.000000;3.912754
2733.000000;3.697597
2732.000000;4.133843
2731.000000;4.620357
2730.000000;4.130850
2729.000000;4.059083
2728.000000;3.905838
2727.000000;3.717966
2726.000000;3.707792
2725.000000;3.614716
2724.000000;3.551921
2723.000000;3.652626
2722.000000;3.770810
2721.000000;3.672359
2720.000000;3.541878
2719.000000;3.583336
2718.000000;3.705380
2717.000000;3.696275
2716.000000;3.616512
2715.000000;3.668424
2714.000000;3.839354
2713.000000;3.890032
2712.000000;3.787768
2711.000000;3.801026
2710.000000;3.756670
2709.000000;3.695422
2708.000000;3.700734
2707.000000;3.855261
2706.000000;4.025525
2705.000000;3.786904
2704.000000;3.672754
2703.000000;3.588059
2702.000000;3.676012
2701.000000;3.872041
2700.000000;3.467992
2699.000000;3.359194
2698.000000;3.599411
2697.000000;3.646986
2696.000000;3.480064
2695.000000;3.391820
2694.000000;3.404273
2693.000000;3.608211
2692.000000;3.965691
2691.000000;3.788104
2690.000000;3.612996
2689.000000;3.691411
2688.000000;3.830428
2687.000000;3.684901
2686.000000;3.677419
2685.000000;3.662662
2684.000000;3.579202
2683.000000;3.546165
2682.000000;3.542654
2681.000000;3.494681
2680.000000;3.489150
2679.000000;3.629810
2678.000000;3.838815
2677.000000;3.699687
2676.000000;3.490517
2675.000000;3.469821
2674.000000;3.557164
2673.000000;3.743315
2672.000000;4.126677
2671.000000;3.864330
2670.000000;3.683651
2669.000000;3.631672
2668.000000;3.519906
2667.000000;3.587469
2666.000000;3.828922
2665.000000;3.966030
2664.000000;3.893358
2663.000000;3.626502
2662.000000;3.468002
2661.000000;3.525671
2660.000000;3.797671
2659.000000;4.079249
2658.000000;3.973014
2657.000000;3.688707
2656.000000;3.522702
2655.000000;3.758266
2654.000000;4.275563
2653.000000;3.738360
2652.000000;3.599608
2651.000000;3.470887
2650.000000;3.405692
2649.000000;3.507388
2648.000000;3.843898
2647.000000;4.095700
2646.000000;4.159582
2645.000000;4.132496
2644.000000;3.740054
2643.000000;3.624594
2642.000000;3.609029
2641.000000;3.562238
2640.000000;3.547283
2639.000000;3.491775
2638.000000;3.358816
2637.000000;3.316902
2636.000000;3.353614
2635.000000;3.359631
2634.000000;3.374853
2633.000000;3.466678
2632.000000;3.504985
2631.000000;3.512732
2630.000000;3.584976
2629.000000;3.675351
2628.000000;3.703583
2627.000000;3.885031
2626.000000;4.114254
2625.000000;4.199371
2624.000000;4.089569
2623.000000;3.576541
2622.000000;3.431726
2621.000000;3.524580
2620.000000;3.728146
2619.000000;4.007823
2618.000000;4.237181
2617.000000;4.106050
2616.000000;4.045509
2615.000000;3.880250
2614.000000;3.630521
2613.000000;3.585796
2612.000000;3.641716
2611.000000;3.737471
2610.000000;4.009461
2609.000000;4.014521
2608.000000;3.732442
2607.000000;3.674373
2606.000000;3.623187
2605.000000;3.635872
2604.000000;3.774292
2603.000000;3.980758
2602.000000;3.873523
2601.000000;3.526237
2600.000000;3.394810
2599.000000;3.437418
2598.000000;3.627904
2597.000000;3.796188
2596.000000;3.990835
2595.000000;4.138993
2594.000000;3.792261
2593.000000;3.653148
2592.000000;3.684716
2591.000000;3.832341
2590.000000;3.924139
2589.000000;4.030228
2588.000000;4.101899
2587.000000;4.086353
2586.000000;4.190473
2585.000000;3.993076
2584.000000;3.840327
2583.000000;4.024686
2582.000000;4.315841
2581.000000;3.991800
2580.000000;3.676376
2579.000000;3.684346
2578.000000;3.789954
2577.000000;3.654093
2576.000000;3.626673
2575.000000;3.976860
2574.000000;3.981021
2573.000000;3.917060
2572.000000;4.118821
2571.000000;3.730851
2570.000000;3.601047
2569.000000;3.498331
2568.000000;3.458442
2567.000000;3.592351
2566.000000;3.821711
2565.000000;3.791410
2564.000000;3.635924
2563.000000;3.627540
2562.000000;3.682461
2561.000000;3.716078
2560.000000;3.661369
2559.000000;3.528091
2558.000000;3.513927
2557.000000;3.642404
2556.000000;3.568863
2555.000000;3.605849
2554.000000;3.897706
2553.000000;4.319008
2552.000000;6.421317
2551.000000;4.299004
2550.000000;3.834080
2549.000000;3.744159
2548.000000;3.733899
2547.000000;3.810461
2546.000000;3.893033
2545.000000;3.804735
2544.000000;3.740794
2543.000000;3.831039
2542.000000;4.079529
2541.000000;3.961037
2540.000000;3.827813
2539.000000;4.031522
2538.000000;3.935078
2537.000000;3.788691
2536.000000;3.764200
2535.000000;3.848802
2534.000000;4.055973
2533.000000;3.885716
2532.000000;3.774885
2531.000000;3.864271
2530.000000;3.789194
2529.000000;3.737934
2528.000000;3.709814
2527.000000;3.590687
2526.000000;3.558678
2525.000000;3.687910
2524.000000;3.816523
2523.000000;3.989361
2522.000000;4.353142
2521.000000;4.392012
2520.000000;3.835862
2519.000000;3.586168
2518.000000;3.541851
2517.000000;3.833851
2516.000000;4.295527
2515.000000;3.952008
2514.000000;4.003778
2513.000000;4.061887
2512.000000;3.926280
2511.000000;3.948020
2510.000000;3.925865
2509.000000;3.824008
2508.000000;3.768207
2507.000000;3.603908
2506.000000;3.501060
2505.000000;3.679324
2504.000000;3.863726
2503.000000;3.652559
2502.000000;3.477397
2501.000000;3.394356
2500.000000;3.443297
2499.000000;3.681497
2498.000000;3.872525
2497.000000;3.804366
2496.000000;3.836499
2495.000000;3.568119
2494.000000;3.354802
2493.000000;3.373301
2492.000000;3.547183
2491.000000;3.721424
2490.000000;3.786544
2489.000000;3.716893
2488.000000;3.684508
2487.000000;3.878841
2486.000000;4.388509
2485.000000;4.206605
2484.000000;3.856083
2483.000000;3.698324
2482.000000;3.524857
2481.000000;3.591373
2480.000000;4.117751
2479.000000;4.050549
2478.000000;3.824794
2477.000000;3.770281
2476.000000;3.742178
2475.000000;3.768488
2474.000000;3.826365
2473.000000;3.875461
2472.000000;3.742454
2471.000000;3.679558
2470.000000;3.590822
2469.000000;3.530168
2468.000000;3.632410
2467.000000;3.832334
2466.000000;3.974933
2465.000000;3.789186
2464.000000;3.551347
2463.000000;3.515136
2462.000000;3.577148
2461.000000;3.585601
2460.000000;3.634975
2459.000000;3.928271
2458.000000;4.732826
2457.000000;4.352128
2456.000000;3.923149
2455.000000;3.886142
2454.000000;3.881128
2453.000000;3.911535
2452.000000;3.767769
2451.000000;3.706542
2450.000000;3.723513
2449.000000;3.578593
2448.000000;3.464653
2447.000000;3.577191
2446.000000;4.074420
2445.000000;4.263569
2444.000000;3.927150
2443.000000;3.763291
2442.000000;3.964517
2441.000000;4.082638
2440.000000;3.548003
2439.000000;3.516975
2438.000000;3.653812
2437.000000;3.731314
2436.000000;3.699094
2435.000000;3.651494
2434.000000;3.619946
2433.000000;3.552879
2432.000000;3.537943
2431.000000;3.612427
2430.000000;3.668165
2429.000000;3.598136
2428.000000;3.514135
2427.000000;3.733613
2426.000000;4.009320
2425.000000;3.613513
2424.000000;3.491715
2423.000000;3.523981
2422.000000;3.654391
2421.000000;3.889981
2420.000000;4.128985
2419.000000;4.107606
2418.000000;4.023990
2417.000000;3.824235
2416.000000;3.586867
2415.000000;3.667791
2414.000000;3.762956
2413.000000;3.633912
2412.000000;3.577116
2411.000000;3.472062
2410.000000;3.466403
2409.000000;3.672501
2408.000000;3.862770
2407.000000;4.036339
2406.000000;4.067950
2405.000000;3.861700
2404.000000;3.613353
2403.000000;3.409233
2402.000000;3.375793
2401.000000;3.460916
2400.000000;3.456456
2399.000000;3.459340
2398.000000;3.598763
2397.000000;3.833218
2396.000000;4.124682
2395.000000;3.725584
2394.000000;3.493796
2393.000000;3.597333
2392.000000;3.870000
2391.000000;3.882775
2390.000000;3.789466
2389.000000;3.711624
2388.000000;3.708597
2387.000000;3.920946
2386.000000;4.545598
2385.000000;4.005892
2384.000000;3.531612
2383.000000;3.326893
2382.000000;3.218161
2381.000000;3.203679
2380.000000;3.275413
2379.000000;3.364771
2378.000000;3.493395
2377.000000;3.703888
2376.000000;3.914986
2375.000000;4.200038
2374.000000;4.027965
2373.000000;3.743715
2372.000000;3.555398
2371.000000;3.624786
2370.000000;3.887418
2369.000000;3.866349
2368.000000;3.666853
2367.000000;3.590588
2366.000000;3.531831
2365.000000;3.523172
2364.000000;3.598270
2363.000000;3.935394
2362.000000;4.270729
2361.000000;3.820094
2360.000000;4.013148
2359.000000;4.313258
2358.000000;3.783040
2357.000000;3.599680
2356.000000;3.640092
2355.000000;3.807945
2354.000000;3.840209
2353.000000;3.816597
2352.000000;3.901908
2351.000000;4.006215
2350.000000;4.026445
2349.000000;3.925226
2348.000000;4.014768
2347.000000;4.039232
2346.000000;3.724374
2345.000000;3.700586
2344.000000;3.744655
2343.000000;3.626541
2342.000000;3.567651
2341.000000;3.684019
2340.000000;4.045703
2339.000000;3.938194
2338.000000;3.666698
2337.000000;3.643670
2336.000000;3.672850
2335.000000;3.551058
2334.000000;3.448874
2333.000000;3.537149
2332.000000;3.850331
2331.000000;4.174099
2330.000000;3.793349
2329.000000;4.265325
2328.000000;3.507421
2327.000000;3.034267
2326.000000;3.003278
2325.000000;3.031635
2324.000000;3.279163
2323.000000;3.952996
2322.000000;3.609185
2321.000000;3.286860
2320.000000;3.278218
2319.000000;3.567947
2318.000000;3.908910
2317.000000;3.294487
2316.000000;3.006227
2315.000000;2.920306
2314.000000;2.931466
2313.000000;2.998895
2312.000000;3.148648
2311.000000;3.298921
2310.000000;3.405940
2309.000000;3.455441
2308.000000;3.267306
2307.000000;3.175400
2306.000000;3.214365
2305.000000;3.421764
2304.000000;3.595292
2303.000000;3.492053
2302.000000;3.456627
2301.000000;3.327361
2300.000000;3.232052
2299.000000;3.393145
2298.000000;4.016180
2297.000000;3.967705
2296.000000;3.691383
2295.000000;3.514440
2294.000000;3.408278
2293.000000;3.542092
2292.000000;3.733645
2291.000000;4.106371
2290.000000;4.067001
2289.000000;3.801802
2288.000000;3.810735
2287.000000;3.785760
2286.000000;3.703298
2285.000000;3.545133
2284.000000;3.489582
2283.000000;3.671146
2282.000000;4.018062
2281.000000;4.157526
2280.000000;3.819180
2279.000000;3.558345
2278.000000;3.545268
2277.000000;3.745778
2276.000000;4.004183
2275.000000;3.792386
2274.000000;3.562813
2273.000000;3.506995
2272.000000;3.601433
2271.000000;3.766507
2270.000000;3.820339
2269.000000;3.881493
2268.000000;3.878869
2267.000000;3.833072
2266.000000;3.910598
2265.000000;3.736356
2264.000000;3.733075
2263.000000;3.940421
2262.000000;3.599511
2261.000000;3.550168
2260.000000;3.634435
2259.000000;3.695506
2258.000000;3.967454
2257.000000;3.726665
2256.000000;3.630364
2255.000000;3.739835
2254.000000;3.636565
2253.000000;3.523180
2252.000000;3.451514
2251.000000;3.432437
2250.000000;3.479860
2249.000000;3.678888
2248.000000;3.802855
2247.000000;3.527681
2246.000000;3.414101
2245.000000;3.446333
2244.000000;3.530286
2243.000000;3.506855
2242.000000;3.469444
2241.000000;3.671287
2240.000000;3.812780
2239.000000;3.585728
2238.000000;3.438779
2237.000000;3.417997
2236.000000;3.483939
2235.000000;3.503759
2234.000000;3.467787
2233.000000;3.546432
2232.000000;3.686684
2231.000000;3.630435
2230.000000;3.587288
2229.000000;3.843121
2228.000000;4.306350
2227.000000;4.031443
2226.000000;3.849812
2225.000000;3.666939
2224.000000;3.640537
2223.000000;3.732077
2222.000000;3.754967
2221.000000;4.192181
2220.000000;4.344302
2219.000000;3.849576
2218.000000;3.684562
2217.000000;3.560464
2216.000000;3.551037
2215.000000;3.542094
2214.000000;3.547582
2213.000000;3.781079
2212.000000;4.166247
2211.000000;3.879175
2210.000000;3.691122
2209.000000;3.741914
2208.000000;3.957569
2207.000000;3.920269
2206.000000;3.625344
2205.000000;3.621800
2204.000000;3.736610
2203.000000;3.721747
2202.000000;3.779890
2201.000000;3.973146
2200.000000;4.679162
2199.000000;4.470011
2198.000000;4.199912
2197.000000;4.350649
2196.000000;3.808678
2195.000000;3.622669
2194.000000;3.579035
2193.000000;3.552798
2192.000000;3.646549
2191.000000;3.701353
2190.000000;3.560756
2189.000000;3.533215
2188.000000;3.644442
2187.000000;3.573172
2186.000000;3.440021
2185.000000;3.413914
2184.000000;3.447893
2183.000000;3.464824
2182.000000;3.434015
2181.000000;3.479465
2180.000000;3.700154
2179.000000;3.909807
2178.000000;3.940126
2177.000000;4.054304
2176.000000;4.031022
2175.000000;4.174217
2174.000000;4.441212
2173.000000;3.845938
2172.000000;3.630288
2171.000000;3.709690
2170.000000;4.082752
2169.000000;4.492354
2168.000000;4.159138
2167.000000;4.154254
2166.000000;4.319310
2165.000000;4.040602
2164.000000;3.668210
2163.000000;3.721650
2162.000000;4.275520
2161.000000;4.038207
2160.000000;3.790013
2159.000000;3.853831
2158.000000;3.967230
2157.000000;3.926493
2156.000000;3.819252
2155.000000;3.594156
2154.000000;3.468837
2153.000000;3.570777
2152.000000;3.896910
2151.000000;4.168527
2150.000000;4.171875
2149.000000;4.372129
2148.000000;4.124211
2147.000000;4.017077
2146.000000;3.809889
2145.000000;3.641807
2144.000000;3.689039
2143.000000;3.634987
2142.000000;3.555176
2141.000000;3.664585
2140.000000;3.788238
2139.000000;3.586351
2138.000000;3.430133
2137.000000;3.520280
2136.000000;3.649809
2135.000000;3.550567
2134.000000;3.526490
2133.000000;3.583237
2132.000000;3.602459
2131.000000;3.799746
2130.000000;4.460708
2129.000000;4.366116
2128.000000;4.089058
2127.000000;3.965278
2126.000000;3.793543
2125.000000;3.752970
2124.000000;3.782496
2123.000000;3.814198
2122.000000;3.847540
2121.000000;3.732083
2120.000000;3.577199
2119.000000;3.562996
2118.000000;3.602305
2117.000000;3.517031
2116.000000;3.470844
2115.000000;3.678646
2114.000000;3.779548
2113.000000;3.581636
2112.000000;3.539046
2111.000000;3.482965
2110.000000;3.462402
2109.000000;3.736506
2108.000000;4.139008
2107.000000;3.831985
2106.000000;3.706058
2105.000000;3.591830
2104.000000;3.483777
2103.000000;3.543896
2102.000000;3.685978
2101.000000;3.684723
2100.000000;3.646563
2099.000000;3.732248
2098.000000;4.039166
2097.000000;3.897199
2096.000000;3.812005
2095.000000;4.187126
2094.000000;3.801993
2093.000000;3.621694
2092.000000;3.624703
2091.000000;3.704910
2090.000000;3.752231
2089.000000;3.545165
2088.000000;3.465591
2087.000000;3.532963
2086.000000;3.738145
2085.000000;4.039288
2084.000000;3.984305
2083.000000;3.734636
2082.000000;3.710924
2081.000000;3.750657
2080.000000;3.667435
2079.000000;3.778604
2078.000000;3.842554
2077.000000;3.911489
2076.000000;4.736829
2075.000000;3.895836
2074.000000;3.571276
2073.000000;3.556247
2072.000000;3.679218
2071.000000;3.789375
2070.000000;3.988402
2069.000000;4.420572
2068.000000;3.892567
2067.000000;4.054476
2066.000000;3.937738
2065.000000;3.578569
2064.000000;3.526805
2063.000000;3.441567
2062.000000;3.462645
2061.000000;3.738492
2060.000000;3.682410
2059.000000;3.424045
2058.000000;3.372670
2057.000000;3.343711
2056.000000;3.307374
2055.000000;3.398936
2054.000000;3.707528
2053.000000;3.942009
2052.000000;3.917410
2051.000000;3.905910
2050.000000;4.047111
2049.000000;4.015203
2048.000000;3.662512
2047.000000;3.679192
2046.000000;3.770682
2045.000000;3.946945
2044.000000;4.645370
2043.000000;4.361590
2042.000000;4.400216
2041.000000;4.169356
2040.000000;3.855897
2039.000000;3.584653
2038.000000;3.492975
2037.000000;3.672416
2036.000000;3.679967
2035.000000;3.676079
2034.000000;3.811269
2033.000000;3.772616
2032.000000;3.869565
2031.000000;3.988415
2030.000000;4.335794
2029.000000;4.226306
2028.000000;3.898400
2027.000000;3.834916
2026.000000;3.877969
2025.000000;4.066118
2024.000000;4.204968
2023.000000;4.193077
2022.000000;3.789908
2021.000000;3.805496
2020.000000;3.792529
2019.000000;3.650918
2018.000000;3.632605
2017.000000;3.781206
2016.000000;4.264797
2015.000000;3.918766
2014.000000;3.831154
2013.000000;3.787980
2012.000000;3.604053
2011.000000;3.667886
2010.000000;3.801412
2009.000000;3.682283
2008.000000;3.538786
2007.000000;3.552062
2006.000000;3.642360
2005.000000;3.622281
2004.000000;3.534313
2003.000000;3.454531
2002.000000;3.374777
2001.000000;3.316401
2000.000000;3.355669
1999.000000;3.467915
1998.000000;3.591607
1997.000000;3.838993
1996.000000;4.236016
1995.000000;4.260440
1994.000000;3.919853
1993.000000;3.995734
1992.000000;4.041252
1991.000000;3.629997
1990.000000;3.440409
1989.000000;3.540568
1988.000000;3.928560
1987.000000;3.941022
1986.000000;3.748432
1985.000000;3.710727
1984.000000;3.751033
1983.000000;3.842778
1982.000000;3.909013
1981.000000;3.812053
1980.000000;3.650952
1979.000000;3.776915
1978.000000;4.076342
1977.000000;3.717706
1976.000000;3.452343
1975.000000;3.404108
1974.000000;3.494323
1973.000000;3.553504
1972.000000;3.670201
1971.000000;4.043042
1970.000000;4.278761
1969.000000;4.493075
1968.000000;4.058152
1967.000000;3.885173
1966.000000;3.928876
1965.000000;4.139680
1964.000000;4.068976
1963.000000;3.805677
1962.000000;3.810408
1961.000000;3.800867
1960.000000;3.737768
1959.000000;3.645406
1958.000000;3.564405
1957.000000;3.546228
1956.000000;3.444906
1955.000000;3.415228
1954.000000;3.589636
1953.000000;3.874578
1952.000000;4.056263
1951.000000;3.740184
1950.000000;3.587983
1949.000000;3.634110
1948.000000;3.745477
1947.000000;4.177225
1946.000000;4.140621
1945.000000;3.866137
1944.000000;3.808776
1943.000000;3.813599
1942.000000;3.861662
1941.000000;3.714789
1940.000000;3.583365
1939.000000;3.623185
1938.000000;3.801770
1937.000000;3.899016
1936.000000;3.674247
1935.000000;3.585987
1934.000000;3.646984
1933.000000;3.700936
1932.000000;3.889462
1931.000000;3.743428
1930.000000;3.492553
1929.000000;3.581198
1928.000000;3.997180
1927.000000;4.148702
1926.000000;3.849171
1925.000000;3.728067
1924.000000;3.718596
1923.000000;4.073980
1922.000000;4.562263
1921.000000;4.472368
1920.000000;4.733087
1919.000000;3.896416
1918.000000;3.660697
1917.000000;3.725850
1916.000000;3.742264
1915.000000;3.870415
1914.000000;3.870018
1913.000000;3.893112
1912.000000;4.469345
1911.000000;4.108591
1910.000000;3.741537
1909.000000;3.566034
1908.000000;3.446004
1907.000000;3.361171
1906.000000;3.319771
1905.000000;3.502231
1904.000000;4.028066
1903.000000;3.928382
1902.000000;3.674778
1901.000000;3.638819
1900.000000;3.704758
1899.000000;3.584938
1898.000000;3.419875
1897.000000;3.490823
1896.000000;3.784979
1895.000000;4.396142
1894.000000;4.625542
1893.000000;4.463382
1892.000000;4.230889
1891.000000;4.270381
1890.000000;4.597141
1889.000000;4.135291
1888.000000;3.775806
1887.000000;3.749010
1886.000000;3.991646
1885.000000;3.953782
1884.000000;3.993472
1883.000000;4.302710
1882.000000;3.849176
1881.000000;3.859598
1880.000000;3.882324
1879.000000;3.627965
1878.000000;3.442175
1877.000000;3.393275
1876.000000;3.436534
1875.000000;3.776900
1874.000000;4.131605
1873.000000;3.586964
1872.000000;3.564756
1871.000000;3.574534
1870.000000;3.654304
1869.000000;4.056715
1868.000000;3.886234
1867.000000;3.725690
1866.000000;3.696894
1865.000000;3.869229
1864.000000;4.185712
1863.000000;4.070012
1862.000000;3.930451
1861.000000;3.615932
1860.000000;3.421481
1859.000000;3.420260
1858.000000;3.519559
1857.000000;3.548114
1856.000000;3.586449
1855.000000;3.753452
1854.000000;3.678892
1853.000000;3.739848
1852.000000;4.263390
1851.000000;3.939336
1850.000000;3.786997
1849.000000;3.908413
1848.000000;3.769459
1847.000000;3.730191
1846.000000;3.706110
1845.000000;3.517392
1844.000000;3.427786
1843.000000;3.372376
1842.000000;3.366499
1841.000000;3.735757
1840.000000;4.063584
1839.000000;3.777867
1838.000000;3.974863
1837.000000;4.138616
1836.000000;4.046705
1835.000000;3.805472
1834.000000;3.706851
1833.000000;3.873448
1832.000000;4.157259
1831.000000;3.838336
1830.000000;3.762335
1829.000000;4.096120
1828.000000;3.749462
1827.000000;3.941200
1826.000000;3.719049
1825.000000;3.371676
1824.000000;3.282783
1823.000000;3.273335
1822.000000;3.380518
1821.000000;3.618440
1820.000000;3.993880
1819.000000;3.953217
1818.000000;3.823187
1817.000000;4.186647
1816.000000;4.763878
1815.000000;4.101766
1814.000000;3.655367
1813.000000;3.538473
1812.000000;3.554410
1811.000000;3.557892
1810.000000;3.613801
1809.000000;3.654585
1808.000000;3.631100
1807.000000;3.516993
1806.000000;3.475060
1805.000000;3.496657
1804.000000;3.423232
1803.000000;3.550422
1802.000000;4.132868
1801.000000;4.097312
1800.000000;4.022387
1799.000000;4.255935
1798.000000;3.874369
1797.000000;3.468305
1796.000000;3.421141
1795.000000;3.612834
1794.000000;3.647191
1793.000000;3.580772
1792.000000;3.608479
1791.000000;3.586831
1790.000000;3.624267
1789.000000;3.780261
1788.000000;4.058255
1787.000000;4.110538
1786.000000;3.750303
1785.000000;3.662428
1784.000000;3.846671
1783.000000;3.969450
1782.000000;3.908896
1781.000000;3.937950
1780.000000;3.949881
1779.000000;3.637445
1778.000000;3.487265
1777.000000;3.618308
1776.000000;3.997163
1775.000000;4.076705
1774.000000;4.036327
1773.000000;4.234648
1772.000000;3.451047
1771.000000;3.377613
1770.000000;3.694222
1769.000000;3.794792
1768.000000;3.620352
1767.000000;3.585760
1766.000000;3.613154
1765.000000;4.032009
1764.000000;4.172785
1763.000000;3.719703
1762.000000;3.494371
1761.000000;3.449799
1760.000000;3.801691
1759.000000;3.881355
1758.000000;3.569655
1757.000000;3.351778
1756.000000;3.233678
1755.000000;3.337851
1754.000000;3.613899
1753.000000;3.695502
1752.000000;3.570748
1751.000000;3.587338
1750.000000;3.640808
1749.000000;3.405207
1748.000000;3.228473
1747.000000;3.272666
1746.000000;3.472359
1745.000000;3.584012
1744.000000;3.558099
1743.000000;3.691986
1742.000000;3.794441
1741.000000;3.572872
1740.000000;3.506492
1739.000000;3.588513
1738.000000;3.669703
1737.000000;3.540644
1736.000000;3.383138
1735.000000;3.361483
1734.000000;3.460963
1733.000000;3.522225
1732.000000;3.716959
1731.000000;4.103990
1730.000000;4.006329
1729.000000;3.499182
1728.000000;3.308723
1727.000000;3.434410
1726.000000;3.746251
1725.000000;3.759153
1724.000000;3.585590
1723.000000;3.688016
1722.000000;3.881597
1721.000000;3.737845
1720.000000;3.723510
1719.000000;3.788103
1718.000000;3.776640
1717.000000;3.449911
1716.000000;3.265199
1715.000000;3.362992
1714.000000;3.487251
1713.000000;3.494745
1712.000000;3.551319
1711.000000;3.892412
1710.000000;3.989327
1709.000000;3.739166
1708.000000;3.823485
1707.000000;3.906223
1706.000000;3.942665
1705.000000;3.954945
1704.000000;3.861981
1703.000000;3.594095
1702.000000;3.465319
1701.000000;3.457493
1700.000000;3.473565
1699.000000;3.474132
1698.000000;3.463051
1697.000000;3.556769
1696.000000;3.684783
1695.000000;3.360916
1694.000000;3.215012
1693.000000;3.419072
1692.000000;3.748931
1691.000000;3.916762
1690.000000;4.102286
1689.000000;3.766288
1688.000000;3.781548
1687.000000;4.034137
1686.000000;3.705260
1685.000000;3.858172
1684.000000;3.936629
1683.000000;3.318561
1682.000000;3.308159
1681.000000;3.591260
1680.000000;3.740380
1679.000000;3.520424
1678.000000;3.636705
1677.000000;4.026727
1676.000000;3.733539
1675.000000;3.941498
1674.000000;3.749072
1673.000000;3.393301
1672.000000;3.281935
1671.000000;3.273623
1670.000000;3.320678
1669.000000;3.424062
1668.000000;3.635410
1667.000000;3.672915
1666.000000;3.581872
1665.000000;3.553951
1664.000000;3.520136
1663.000000;3.510177
1662.000000;3.583177
1661.000000;3.602975
1660.000000;3.561131
1659.000000;3.679960
1658.000000;3.686544
1657.000000;3.496185
1656.000000;3.394394
1655.000000;3.453882
1654.000000;3.677330
1653.000000;3.848927
1652.000000;3.698451
1651.000000;3.609016
1650.000000;4.000879
1649.000000;4.172768
1648.000000;4.039680
1647.000000;3.900795
1646.000000;3.345781
1645.000000;3.288809
1644.000000;3.435647
1643.000000;3.438042
1642.000000;3.427016
1641.000000;3.557287
1640.000000;3.702337
1639.000000;3.741927
1638.000000;3.618462
1637.000000;3.436034
1636.000000;3.281091
1635.000000;3.103222
1634.000000;3.075944
1633.000000;3.235395
1632.000000;3.506964
1631.000000;3.704675
1630.000000;3.627256
1629.000000;3.894150
1628.000000;4.415702
1627.000000;4.316098
1626.000000;3.900915
1625.000000;3.634566
1624.000000;3.650657
1623.000000;3.805762
1622.000000;3.912630
1621.000000;4.210369
1620.000000;4.292258
1619.000000;4.069465
1618.000000;3.804769
1617.000000;3.798386
1616.000000;4.082952
1615.000000;4.029026
1614.000000;3.923136
1613.000000;3.728671
1612.000000;3.567493
1611.000000;3.478676
1610.000000;3.481298
1609.000000;3.678065
1608.000000;4.088401
1607.000000;3.822864
1606.000000;3.553274
1605.000000;3.570485
1604.000000;3.626036
1603.000000;3.702413
1602.000000;3.771669
1601.000000;3.790048
1600.000000;3.783440
1599.000000;3.609169
1598.000000;3.447264
1597.000000;3.443927
1596.000000;3.635970
1595.000000;3.830824
1594.000000;3.789742
1593.000000;4.564295
1592.000000;3.955882
1591.000000;3.665770
1590.000000;3.514595
1589.000000;3.547441
1588.000000;3.736571
1587.000000;3.588679
1586.000000;3.466441
1585.000000;3.543800
1584.000000;3.687982
1583.000000;3.607394
1582.000000;3.651895
1581.000000;4.092140
1580.000000;3.803144
1579.000000;3.812970
1578.000000;4.235060
1577.000000;3.907135
1576.000000;3.469188
1575.000000;3.484096
1574.000000;3.625026
1573.000000;3.560009
1572.000000;3.552543
1571.000000;3.630536
1570.000000;3.479017
1569.000000;3.351203
1568.000000;3.385408
1567.000000;3.509190
1566.000000;3.640854
1565.000000;3.806476
1564.000000;3.748114
1563.000000;3.694076
1562.000000;3.696539
1561.000000;3.514290
1560.000000;3.360798
1559.000000;3.397783
1558.000000;3.834155
1557.000000;3.946817
1556.000000;3.741095
1555.000000;3.795069
1554.000000;3.884061
1553.000000;3.675156
1552.000000;3.807448
1551.000000;4.146333
1550.000000;3.593712
1549.000000;3.701143
1548.000000;3.897435
1547.000000;3.925285
1546.000000;3.579284
1545.000000;3.335226
1544.000000;3.252655
1543.000000;3.148488
1542.000000;3.143045
1541.000000;3.283359
1540.000000;3.189884
1539.000000;3.223960
1538.000000;3.588438
1537.000000;3.415321
1536.000000;3.466320
1535.000000;3.572284
1534.000000;3.573828
1533.000000;3.410286
1532.000000;3.286604
1531.000000;3.450805
1530.000000;3.686922
1529.000000;3.590469
1528.000000;3.526240
1527.000000;3.550819
1526.000000;3.698180
1525.000000;3.798133
1524.000000;3.796130
1523.000000;3.958156
1522.000000;3.699043
1521.000000;3.565188
1520.000000;3.478098
1519.000000;3.372669
1518.000000;3.398052
1517.000000;3.404896
1516.000000;3.405141
1515.000000;3.510521
1514.000000;3.556047
1513.000000;3.562696
1512.000000;3.525619
1511.000000;3.538131
1510.000000;3.640232
1509.000000;3.723061
1508.000000;3.510019
1507.000000;3.457180
1506.000000;3.440170
1505.000000;3.372283
1504.000000;3.551920
1503.000000;3.894834
1502.000000;4.486301
1501.000000;3.491744
1500.000000;3.295355
1499.000000;3.364974
1498.000000;3.649064
1497.000000;3.718995
1496.000000;3.305885
1495.000000;3.146235
1494.000000;3.238598
1493.000000;3.404693
1492.000000;3.647432
1491.000000;4.062229
1490.000000;3.650612
1489.000000;3.535762
1488.000000;3.356327
1487.000000;3.251315
1486.000000;3.370133
1485.000000;3.556254
1484.000000;3.585440
1483.000000;3.548045
1482.000000;3.675958
1481.000000;3.706362
1480.000000;3.431435
1479.000000;3.391761
1478.000000;3.349301
1477.000000;3.422923
1476.000000;3.808851
1475.000000;4.213840
1474.000000;3.785137
1473.000000;3.620935
1472.000000;3.469893
1471.000000;3.858283
1470.000000;4.181727
1469.000000;3.992633
1468.000000;3.818312
1467.000000;3.722679
1466.000000;4.189987
1465.000000;4.443486
1464.000000;3.963534
1463.000000;3.883608
1462.000000;3.738435
1461.000000;3.403383
1460.000000;3.234721
1459.000000;3.281973
1458.000000;3.498259
1457.000000;3.637169
1456.000000;3.316786
1455.000000;3.228069
1454.000000;3.271306
1453.000000;3.266414
1452.000000;3.342667
1451.000000;3.745987
1450.000000;3.978455
1449.000000;3.991055
1448.000000;3.811097
1447.000000;3.464563
1446.000000;3.378951
1445.000000;3.301035
1444.000000;3.301472
1443.000000;3.429110
1442.000000;3.580570
1441.000000;3.437516
1440.000000;3.301136
1439.000000;3.333875
1438.000000;3.455131
1437.000000;3.348875
1436.000000;3.160546
1435.000000;3.134036
1434.000000;3.184760
1433.000000;3.159091
1432.000000;3.107647
1431.000000;3.179410
1430.000000;3.395240
1429.000000;3.530364
1428.000000;3.531923
1427.000000;3.489423
1426.000000;3.406519
1425.000000;3.295383
1424.000000;3.212643
1423.000000;3.271907
1422.000000;3.470074
1421.000000;3.474660
1420.000000;3.315355
1419.000000;3.303704
1418.000000;3.352547
1417.000000;3.287136
1416.000000;3.160883
1415.000000;3.142014
1414.000000;3.232264
1413.000000;3.313211
1412.000000;3.393994
1411.000000;3.433567
1410.000000;3.338509
1409.000000;3.437410
1408.000000;3.608158
1407.000000;4.163626
1406.000000;3.777968
1405.000000;3.586174
1404.000000;3.917333
1403.000000;3.923439
1402.000000;3.636518
1401.000000;3.515422
1400.000000;3.470931
1399.000000;3.401522
1398.000000;3.339659
1397.000000;3.544815
1396.000000;3.785203
1395.000000;3.568921
1394.000000;3.432947
1393.000000;3.372007
1392.000000;3.398965
1391.000000;3.461314
1390.000000;3.523133
1389.000000;3.545783
1388.000000;3.658170
1387.000000;3.731028
1386.000000;3.728656
1385.000000;3.449380
1384.000000;3.304226
1383.000000;3.415136
1382.000000;3.791295
1381.000000;3.994433
1380.000000;3.596436
1379.000000;3.631027
1378.000000;3.806942
1377.000000;4.217688
1376.000000;3.499403
1375.000000;3.297102
1374.000000;3.349326
1373.000000;3.538878
1372.000000;3.648083
1371.000000;3.228905
1370.000000;3.068068
1369.000000;3.108621
1368.000000;3.285538
1367.000000;3.327269
1366.000000;3.186609
1365.000000;3.139384
1364.000000;3.187563
1363.000000;3.223668
1362.000000;3.214204
1361.000000;3.203677
1360.000000;3.179908
1359.000000;3.190506
1358.000000;3.235839
1357.000000;3.326513
1356.000000;3.443394
1355.000000;3.412917
1354.000000;3.330425
1353.000000;3.381565
1352.000000;3.424617
1351.000000;3.388569
1350.000000;3.385853
1349.000000;3.461116
1348.000000;3.518521
1347.000000;3.464847
1346.000000;3.451348
1345.000000;3.791724
1344.000000;3.845346
1343.000000;3.610262
1342.000000;3.368118
1341.000000;3.266056
1340.000000;3.296932
1339.000000;3.329371
1338.000000;3.347953
1337.000000;3.281020
1336.000000;3.216200
1335.000000;3.204845
1334.000000;3.290294
1333.000000;3.611206
1332.000000;4.108677
1331.000000;3.786663
1330.000000;3.511903
1329.000000;3.514693
1328.000000;3.516014
1327.000000;3.349138
1326.000000;3.189256
1325.000000;3.153787
1324.000000;3.204603
1323.000000;3.236586
1322.000000;3.263994
1321.000000;3.361556
1320.000000;3.434647
1319.000000;3.381189
1318.000000;3.323748
1317.000000;3.274562
1316.000000;3.202011
1315.000000;3.246639
1314.000000;3.320920
1313.000000;3.261104
1312.000000;3.226893
1311.000000;3.302563
1310.000000;3.504731
1309.000000;3.561310
1308.000000;3.514290
1307.000000;3.554709
1306.000000;3.605398
1305.000000;4.122826
1304.000000;4.295181
1303.000000;3.681291
1302.000000;3.435548
1301.000000;3.391284
1300.000000;3.606321
1299.000000;3.502060
1298.000000;3.315232
1297.000000;3.298484
1296.000000;3.337039
1295.000000;3.364732
1294.000000;3.429926
1293.000000;3.836981
1292.000000;3.869004
1291.000000;3.874873
1290.000000;3.639757
1289.000000;3.367374
1288.000000;3.219441
1287.000000;3.140941
1286.000000;3.157234
1285.000000;3.266661
1284.000000;3.441855
1283.000000;3.488474
1282.000000;3.711315
1281.000000;3.961095
1280.000000;3.449347
1279.000000;3.353264
1278.000000;3.408148
1277.000000;3.355724
1276.000000;3.163257
1275.000000;3.145874
1274.000000;3.307747
1273.000000;3.365519
1272.000000;3.307278
1271.000000;3.382764
1270.000000;3.708768
1269.000000;3.471728
1268.000000;3.292804
1267.000000;3.457840
1266.000000;3.800287
1265.000000;3.796968
1264.000000;3.862887
1263.000000;3.744539
1262.000000;3.656166
1261.000000;3.926475
1260.000000;3.720479
1259.000000;3.557196
1258.000000;3.705751
1257.000000;3.579628
1256.000000;3.704977
1255.000000;3.910677
1254.000000;3.307122
1253.000000;3.118658
1252.000000;3.079948
1251.000000;3.167816
1250.000000;3.350658
1249.000000;3.447659
1248.000000;3.365548
1247.000000;3.316624
1246.000000;3.355965
1245.000000;3.943009
1244.000000;3.681038
1243.000000;3.396692
1242.000000;3.429826
1241.000000;3.370595
1240.000000;3.259322
1239.000000;3.236957
1238.000000;3.230209
1237.000000;3.168897
1236.000000;3.167690
1235.000000;3.437884
1234.000000;4.591358
1233.000000;3.708943
1232.000000;3.671124
1231.000000;3.573495
1230.000000;3.484844
1229.000000;3.453825
1228.000000;3.510108
1227.000000;3.406104
1226.000000;3.328577
1225.000000;3.701711
1224.000000;3.711106
1223.000000;3.503640
1222.000000;3.672866
1221.000000;3.523954
1220.000000;3.493641
1219.000000;3.590666
1218.000000;3.640659
1217.000000;4.013418
1216.000000;4.348137
1215.000000;3.857995
1214.000000;3.514830
1213.000000;3.530572
1212.000000;3.844121
1211.000000;3.853562
1210.000000;3.477094
1209.000000;3.495157
1208.000000;3.799144
1207.000000;3.655464
1206.000000;3.642113
1205.000000;3.320731
1204.000000;3.046204
1203.000000;2.984054
1202.000000;3.013956
1201.000000;3.089937
1200.000000;3.229224
