Criado como novo conjunto de dados;"e2410_daniel_v2.spp","73265.6 Secs"
cm-1;Abs
10000.000000;1.462618
9999.000000;1.463212
9998.000000;1.463808
9997.000000;1.464404
9996.000000;1.465001
9995.000000;1.465599
9994.000000;1.466197
9993.000000;1.466799
9992.000000;1.467396
9991.000000;1.468004
9990.000000;1.468592
9989.000000;1.469232
9988.000000;1.469680
9987.000000;1.469531
9986.000000;1.468643
9985.000000;1.467159
9984.000000;1.465471
9983.000000;1.463830
9982.000000;1.462473
9981.000000;1.461928
9980.000000;1.462638
9979.000000;1.464104
9978.000000;1.464975
9977.000000;1.464396
9976.000000;1.462877
9975.000000;1.461568
9974.000000;1.461055
9973.000000;1.461120
9972.000000;1.461248
9971.000000;1.460953
9970.000000;1.459903
9969.000000;1.458224
9968.000000;1.456625
9967.000000;1.455867
9966.000000;1.456085
9965.000000;1.456744
9964.000000;1.457139
9963.000000;1.456802
9962.000000;1.455691
9961.000000;1.454283
9960.000000;1.453384
9959.000000;1.453450
9958.000000;1.454032
9957.000000;1.454070
9956.000000;1.452929
9955.000000;1.451137
9954.000000;1.450019
9953.000000;1.450425
9952.000000;1.451720
9951.000000;1.452191
9950.000000;1.450716
9949.000000;1.448003
9948.000000;1.445806
9947.000000;1.445040
9946.000000;1.445071
9945.000000;1.444839
9944.000000;1.444167
9943.000000;1.443680
9942.000000;1.443815
9941.000000;1.444344
9940.000000;1.444721
9939.000000;1.444574
9938.000000;1.443942
9937.000000;1.443228
9936.000000;1.442866
9935.000000;1.442871
9934.000000;1.442793
9933.000000;1.442227
9932.000000;1.441217
9931.000000;1.440052
9930.000000;1.438856
9929.000000;1.437612
9928.000000;1.436522
9927.000000;1.436110
9926.000000;1.436834
9925.000000;1.438483
9924.000000;1.439985
9923.000000;1.440061
9922.000000;1.438386
9921.000000;1.435974
9920.000000;1.434159
9919.000000;1.433361
9918.000000;1.433105
9917.000000;1.432966
9916.000000;1.432922
9915.000000;1.432848
9914.000000;1.432320
9913.000000;1.431220
9912.000000;1.430020
9911.000000;1.429146
9910.000000;1.428467
9909.000000;1.427678
9908.000000;1.426853
9907.000000;1.426314
9906.000000;1.426199
9905.000000;1.426434
9904.000000;1.426934
9903.000000;1.427566
9902.000000;1.428063
9901.000000;1.428190
9900.000000;1.427814
9899.000000;1.426798
9898.000000;1.425168
9897.000000;1.423531
9896.000000;1.422833
9895.000000;1.423324
9894.000000;1.424100
9893.000000;1.424083
9892.000000;1.423218
9891.000000;1.422346
9890.000000;1.422127
9889.000000;1.422507
9888.000000;1.423032
9887.000000;1.423220
9886.000000;1.422725
9885.000000;1.421548
9884.000000;1.420130
9883.000000;1.418943
9882.000000;1.417994
9881.000000;1.416956
9880.000000;1.415746
9879.000000;1.414702
9878.000000;1.414168
9877.000000;1.414122
9876.000000;1.414226
9875.000000;1.414032
9874.000000;1.413202
9873.000000;1.411797
9872.000000;1.410361
9871.000000;1.409502
9870.000000;1.409320
9869.000000;1.409338
9868.000000;1.409032
9867.000000;1.408320
9866.000000;1.407490
9865.000000;1.406748
9864.000000;1.405921
9863.000000;1.404679
9862.000000;1.403113
9861.000000;1.402020
9860.000000;1.402387
9859.000000;1.404399
9858.000000;1.407006
9857.000000;1.408630
9856.000000;1.408449
9855.000000;1.406995
9854.000000;1.405546
9853.000000;1.404993
9852.000000;1.405185
9851.000000;1.405223
9850.000000;1.404375
9849.000000;1.402729
9848.000000;1.400997
9847.000000;1.399805
9846.000000;1.399283
9845.000000;1.399211
9844.000000;1.399290
9843.000000;1.399239
9842.000000;1.398858
9841.000000;1.398167
9840.000000;1.397452
9839.000000;1.397121
9838.000000;1.397438
9837.000000;1.398213
9836.000000;1.398633
9835.000000;1.397705
9834.000000;1.395176
9833.000000;1.391967
9832.000000;1.389477
9831.000000;1.388589
9830.000000;1.389347
9829.000000;1.391144
9828.000000;1.392804
9827.000000;1.392935
9826.000000;1.391070
9825.000000;1.388524
9824.000000;1.387377
9823.000000;1.388308
9822.000000;1.389886
9821.000000;1.390235
9820.000000;1.389021
9819.000000;1.387360
9818.000000;1.386210
9817.000000;1.385462
9816.000000;1.384495
9815.000000;1.383051
9814.000000;1.381480
9813.000000;1.380366
9812.000000;1.380057
9811.000000;1.380406
9810.000000;1.380886
9809.000000;1.380966
9808.000000;1.380463
9807.000000;1.379663
9806.000000;1.379092
9805.000000;1.379049
9804.000000;1.379228
9803.000000;1.378944
9802.000000;1.377938
9801.000000;1.376776
9800.000000;1.376189
9799.000000;1.376204
9798.000000;1.376277
9797.000000;1.376103
9796.000000;1.375797
9795.000000;1.375363
9794.000000;1.374593
9793.000000;1.373648
9792.000000;1.373120
9791.000000;1.373153
9790.000000;1.373002
9789.000000;1.371926
9788.000000;1.370244
9787.000000;1.368990
9786.000000;1.368646
9785.000000;1.368627
9784.000000;1.368084
9783.000000;1.366928
9782.000000;1.365906
9781.000000;1.365703
9780.000000;1.366122
9779.000000;1.366246
9778.000000;1.365444
9777.000000;1.364019
9776.000000;1.362731
9775.000000;1.361916
9774.000000;1.361393
9773.000000;1.360997
9772.000000;1.360777
9771.000000;1.360690
9770.000000;1.360580
9769.000000;1.360520
9768.000000;1.360820
9767.000000;1.361540
9766.000000;1.362277
9765.000000;1.362466
9764.000000;1.361682
9763.000000;1.359822
9762.000000;1.357436
9761.000000;1.355762
9760.000000;1.355787
9759.000000;1.357071
9758.000000;1.357979
9757.000000;1.357314
9756.000000;1.355416
9755.000000;1.353488
9754.000000;1.352386
9753.000000;1.352304
9752.000000;1.353032
9751.000000;1.354076
9750.000000;1.354831
9749.000000;1.355022
9748.000000;1.354778
9747.000000;1.354164
9746.000000;1.353007
9745.000000;1.351382
9744.000000;1.349856
9743.000000;1.348965
9742.000000;1.348726
9741.000000;1.348827
9740.000000;1.348905
9739.000000;1.348453
9738.000000;1.347031
9737.000000;1.344937
9736.000000;1.343262
9735.000000;1.342862
9734.000000;1.343561
9733.000000;1.344575
9732.000000;1.345323
9731.000000;1.345516
9730.000000;1.344970
9729.000000;1.343864
9728.000000;1.342853
9727.000000;1.342432
9726.000000;1.342388
9725.000000;1.342245
9724.000000;1.341922
9723.000000;1.341534
9722.000000;1.340912
9721.000000;1.339918
9720.000000;1.338983
9719.000000;1.338728
9718.000000;1.339128
9717.000000;1.339582
9716.000000;1.339709
9715.000000;1.339579
9714.000000;1.339199
9713.000000;1.338349
9712.000000;1.336995
9711.000000;1.335443
9710.000000;1.333988
9709.000000;1.332722
9708.000000;1.331745
9707.000000;1.331232
9706.000000;1.331191
9705.000000;1.331341
9704.000000;1.331278
9703.000000;1.330693
9702.000000;1.329537
9701.000000;1.328185
9700.000000;1.327284
9699.000000;1.327235
9698.000000;1.327838
9697.000000;1.328575
9696.000000;1.329081
9695.000000;1.329202
9694.000000;1.328850
9693.000000;1.328095
9692.000000;1.327216
9691.000000;1.326369
9690.000000;1.325370
9689.000000;1.324077
9688.000000;1.322806
9687.000000;1.322052
9686.000000;1.321868
9685.000000;1.321831
9684.000000;1.321530
9683.000000;1.320907
9682.000000;1.320203
9681.000000;1.319761
9680.000000;1.319789
9679.000000;1.320154
9678.000000;1.320537
9677.000000;1.320844
9676.000000;1.321186
9675.000000;1.321362
9674.000000;1.320874
9673.000000;1.319759
9672.000000;1.318929
9671.000000;1.319130
9670.000000;1.319917
9669.000000;1.320185
9668.000000;1.319475
9667.000000;1.318162
9666.000000;1.316601
9665.000000;1.314851
9664.000000;1.313203
9663.000000;1.312169
9662.000000;1.311783
9661.000000;1.311457
9660.000000;1.310782
9659.000000;1.310057
9658.000000;1.309818
9657.000000;1.310219
9656.000000;1.311032
9655.000000;1.311916
9654.000000;1.312467
9653.000000;1.312311
9652.000000;1.311414
9651.000000;1.310174
9650.000000;1.309073
9649.000000;1.308330
9648.000000;1.307885
9647.000000;1.307506
9646.000000;1.306931
9645.000000;1.306085
9644.000000;1.305205
9643.000000;1.304586
9642.000000;1.304236
9641.000000;1.303962
9640.000000;1.303653
9639.000000;1.303256
9638.000000;1.302650
9637.000000;1.301858
9636.000000;1.301242
9635.000000;1.301102
9634.000000;1.301182
9633.000000;1.301004
9632.000000;1.300598
9631.000000;1.300411
9630.000000;1.300489
9629.000000;1.300332
9628.000000;1.299687
9627.000000;1.298868
9626.000000;1.298035
9625.000000;1.296768
9624.000000;1.294842
9623.000000;1.293038
9622.000000;1.292580
9621.000000;1.293747
9620.000000;1.295429
9619.000000;1.296173
9618.000000;1.295507
9617.000000;1.294197
9616.000000;1.293325
9615.000000;1.293218
9614.000000;1.293302
9613.000000;1.292904
9612.000000;1.292031
9611.000000;1.291192
9610.000000;1.290629
9609.000000;1.290093
9608.000000;1.289367
9607.000000;1.288629
9606.000000;1.288137
9605.000000;1.287813
9604.000000;1.287360
9603.000000;1.286625
9602.000000;1.285721
9601.000000;1.284925
9600.000000;1.284540
9599.000000;1.284668
9598.000000;1.285051
9597.000000;1.285304
9596.000000;1.285362
9595.000000;1.285396
9594.000000;1.285266
9593.000000;1.284435
9592.000000;1.282696
9591.000000;1.280659
9590.000000;1.279213
9589.000000;1.278693
9588.000000;1.278863
9587.000000;1.279462
9586.000000;1.280359
9585.000000;1.281276
9584.000000;1.281800
9583.000000;1.281776
9582.000000;1.281416
9581.000000;1.280939
9580.000000;1.280316
9579.000000;1.279444
9578.000000;1.278342
9577.000000;1.277105
9576.000000;1.275872
9575.000000;1.274880
9574.000000;1.274361
9573.000000;1.274262
9572.000000;1.274263
9571.000000;1.274183
9570.000000;1.274195
9569.000000;1.274434
9568.000000;1.274572
9567.000000;1.274077
9566.000000;1.272899
9565.000000;1.271604
9564.000000;1.270751
9563.000000;1.270306
9562.000000;1.269782
9561.000000;1.268800
9560.000000;1.267439
9559.000000;1.266157
9558.000000;1.265483
9557.000000;1.265643
9556.000000;1.266311
9555.000000;1.266784
9554.000000;1.266583
9553.000000;1.265842
9552.000000;1.265005
9551.000000;1.264288
9550.000000;1.263682
9549.000000;1.263327
9548.000000;1.263484
9547.000000;1.263992
9546.000000;1.264117
9545.000000;1.263228
9544.000000;1.261551
9543.000000;1.260035
9542.000000;1.259526
9541.000000;1.260130
9540.000000;1.261194
9539.000000;1.261797
9538.000000;1.261484
9537.000000;1.260672
9536.000000;1.260220
9535.000000;1.260484
9534.000000;1.260984
9533.000000;1.261100
9532.000000;1.260803
9531.000000;1.260427
9530.000000;1.260037
9529.000000;1.259503
9528.000000;1.259035
9527.000000;1.259013
9526.000000;1.259233
9525.000000;1.258885
9524.000000;1.257591
9523.000000;1.256054
9522.000000;1.255290
9521.000000;1.255493
9520.000000;1.255998
9519.000000;1.256169
9518.000000;1.255904
9517.000000;1.255353
9516.000000;1.254548
9515.000000;1.253501
9514.000000;1.252381
9513.000000;1.251419
9512.000000;1.250710
9511.000000;1.250211
9510.000000;1.249820
9509.000000;1.249410
9508.000000;1.248859
9507.000000;1.248155
9506.000000;1.247422
9505.000000;1.246802
9504.000000;1.246351
9503.000000;1.246060
9502.000000;1.245890
9501.000000;1.245740
9500.000000;1.245513
9499.000000;1.245288
9498.000000;1.245323
9497.000000;1.245711
9496.000000;1.246098
9495.000000;1.245910
9494.000000;1.244919
9493.000000;1.243452
9492.000000;1.242031
9491.000000;1.240967
9490.000000;1.240365
9489.000000;1.240304
9488.000000;1.240738
9487.000000;1.241280
9486.000000;1.241364
9485.000000;1.240759
9484.000000;1.239780
9483.000000;1.238849
9482.000000;1.237942
9481.000000;1.236640
9480.000000;1.234790
9479.000000;1.232972
9478.000000;1.232156
9477.000000;1.232839
9476.000000;1.234525
9475.000000;1.236110
9474.000000;1.236773
9473.000000;1.236510
9472.000000;1.235851
9471.000000;1.235247
9470.000000;1.234802
9469.000000;1.234431
9468.000000;1.234084
9467.000000;1.233801
9466.000000;1.233673
9465.000000;1.233719
9464.000000;1.233717
9463.000000;1.233198
9462.000000;1.231823
9461.000000;1.229837
9460.000000;1.228040
9459.000000;1.227207
9458.000000;1.227511
9457.000000;1.228454
9456.000000;1.229244
9455.000000;1.229315
9454.000000;1.228665
9453.000000;1.227810
9452.000000;1.227318
9451.000000;1.227345
9450.000000;1.227627
9449.000000;1.227899
9448.000000;1.228114
9447.000000;1.228201
9446.000000;1.227859
9445.000000;1.226841
9444.000000;1.225354
9443.000000;1.223984
9442.000000;1.223178
9441.000000;1.222902
9440.000000;1.222825
9439.000000;1.222724
9438.000000;1.222627
9437.000000;1.222604
9436.000000;1.222523
9435.000000;1.222103
9434.000000;1.221214
9433.000000;1.220123
9432.000000;1.219358
9431.000000;1.219227
9430.000000;1.219463
9429.000000;1.219436
9428.000000;1.218791
9427.000000;1.217834
9426.000000;1.217235
9425.000000;1.217337
9424.000000;1.217825
9423.000000;1.218051
9422.000000;1.217630
9421.000000;1.216730
9420.000000;1.215858
9419.000000;1.215380
9418.000000;1.215219
9417.000000;1.214951
9416.000000;1.214258
9415.000000;1.213347
9414.000000;1.212813
9413.000000;1.212986
9412.000000;1.213513
9411.000000;1.213761
9410.000000;1.213573
9409.000000;1.213403
9408.000000;1.213641
9407.000000;1.214072
9406.000000;1.214167
9405.000000;1.213764
9404.000000;1.213227
9403.000000;1.212942
9402.000000;1.212868
9401.000000;1.212611
9400.000000;1.211832
9399.000000;1.210544
9398.000000;1.209066
9397.000000;1.207750
9396.000000;1.206764
9395.000000;1.206138
9394.000000;1.205915
9393.000000;1.206117
9392.000000;1.206559
9391.000000;1.206880
9390.000000;1.206836
9389.000000;1.206463
9388.000000;1.205920
9387.000000;1.205293
9386.000000;1.204658
9385.000000;1.204188
9384.000000;1.204038
9383.000000;1.204184
9382.000000;1.204428
9381.000000;1.204508
9380.000000;1.204146
9379.000000;1.203168
9378.000000;1.201748
9377.000000;1.200425
9376.000000;1.199711
9375.000000;1.199686
9374.000000;1.200046
9373.000000;1.200408
9372.000000;1.200494
9371.000000;1.200169
9370.000000;1.199488
9369.000000;1.198646
9368.000000;1.197767
9367.000000;1.196867
9366.000000;1.196107
9365.000000;1.195848
9364.000000;1.196183
9363.000000;1.196595
9362.000000;1.196463
9361.000000;1.195795
9360.000000;1.195091
9359.000000;1.194545
9358.000000;1.193858
9357.000000;1.192902
9356.000000;1.192104
9355.000000;1.191941
9354.000000;1.192352
9353.000000;1.192898
9352.000000;1.193276
9351.000000;1.193412
9350.000000;1.193219
9349.000000;1.192599
9348.000000;1.191674
9347.000000;1.190753
9346.000000;1.190041
9345.000000;1.189496
9344.000000;1.189050
9343.000000;1.188791
9342.000000;1.188790
9341.000000;1.188850
9340.000000;1.188596
9339.000000;1.187833
9338.000000;1.186778
9337.000000;1.185897
9336.000000;1.185547
9335.000000;1.185814
9334.000000;1.186554
9333.000000;1.187457
9332.000000;1.188108
9331.000000;1.188250
9330.000000;1.188029
9329.000000;1.187788
9328.000000;1.187534
9327.000000;1.186880
9326.000000;1.185665
9325.000000;1.184369
9324.000000;1.183640
9323.000000;1.183588
9322.000000;1.183795
9321.000000;1.183861
9320.000000;1.183641
9319.000000;1.183140
9318.000000;1.182555
9317.000000;1.182361
9316.000000;1.182902
9315.000000;1.183800
9314.000000;1.184126
9313.000000;1.183318
9312.000000;1.181680
9311.000000;1.179928
9310.000000;1.178544
9309.000000;1.177695
9308.000000;1.177431
9307.000000;1.177689
9306.000000;1.178216
9305.000000;1.178675
9304.000000;1.178804
9303.000000;1.178474
9302.000000;1.177726
9301.000000;1.176839
9300.000000;1.176181
9299.000000;1.175901
9298.000000;1.175832
9297.000000;1.175719
9296.000000;1.175433
9295.000000;1.174963
9294.000000;1.174374
9293.000000;1.173832
9292.000000;1.173474
9291.000000;1.173255
9290.000000;1.173061
9289.000000;1.172971
9288.000000;1.173161
9287.000000;1.173496
9286.000000;1.173504
9285.000000;1.172897
9284.000000;1.171958
9283.000000;1.171235
9282.000000;1.171002
9281.000000;1.171115
9280.000000;1.171233
9279.000000;1.171068
9278.000000;1.170554
9277.000000;1.169889
9276.000000;1.169334
9275.000000;1.168891
9274.000000;1.168312
9273.000000;1.167480
9272.000000;1.166611
9271.000000;1.165980
9270.000000;1.165586
9269.000000;1.165275
9268.000000;1.165087
9267.000000;1.165304
9266.000000;1.166093
9265.000000;1.167153
9264.000000;1.167791
9263.000000;1.167459
9262.000000;1.166332
9261.000000;1.165260
9260.000000;1.165013
9259.000000;1.165589
9258.000000;1.166325
9257.000000;1.166595
9256.000000;1.166236
9255.000000;1.165415
9254.000000;1.164436
9253.000000;1.163662
9252.000000;1.163273
9251.000000;1.163002
9250.000000;1.162417
9249.000000;1.161528
9248.000000;1.160807
9247.000000;1.160478
9246.000000;1.160179
9245.000000;1.159567
9244.000000;1.158938
9243.000000;1.158887
9242.000000;1.159484
9241.000000;1.160114
9240.000000;1.160092
9239.000000;1.159234
9238.000000;1.157895
9237.000000;1.156661
9236.000000;1.155951
9235.000000;1.155752
9234.000000;1.155711
9233.000000;1.155562
9232.000000;1.155366
9231.000000;1.155277
9230.000000;1.155274
9229.000000;1.155303
9228.000000;1.155478
9227.000000;1.155869
9226.000000;1.156234
9225.000000;1.156256
9224.000000;1.155992
9223.000000;1.155798
9222.000000;1.155790
9221.000000;1.155688
9220.000000;1.155248
9219.000000;1.154576
9218.000000;1.153892
9217.000000;1.153223
9216.000000;1.152484
9215.000000;1.151688
9214.000000;1.150897
9213.000000;1.150104
9212.000000;1.149327
9211.000000;1.148739
9210.000000;1.148521
9209.000000;1.148648
9208.000000;1.148974
9207.000000;1.149458
9206.000000;1.150095
9205.000000;1.150656
9204.000000;1.150784
9203.000000;1.150452
9202.000000;1.150077
9201.000000;1.149977
9200.000000;1.149907
9199.000000;1.149379
9198.000000;1.148357
9197.000000;1.147349
9196.000000;1.146856
9195.000000;1.147006
9194.000000;1.147672
9193.000000;1.148586
9192.000000;1.149260
9191.000000;1.149193
9190.000000;1.148387
9189.000000;1.147415
9188.000000;1.146764
9187.000000;1.146350
9186.000000;1.145877
9185.000000;1.145378
9184.000000;1.145082
9183.000000;1.144975
9182.000000;1.144879
9181.000000;1.144804
9180.000000;1.144837
9179.000000;1.144797
9178.000000;1.144400
9177.000000;1.143742
9176.000000;1.143214
9175.000000;1.142930
9174.000000;1.142618
9173.000000;1.142116
9172.000000;1.141583
9171.000000;1.141110
9170.000000;1.140544
9169.000000;1.139879
9168.000000;1.139443
9167.000000;1.139412
9166.000000;1.139458
9165.000000;1.139174
9164.000000;1.138623
9163.000000;1.138163
9162.000000;1.137876
9161.000000;1.137512
9160.000000;1.136953
9159.000000;1.136440
9158.000000;1.136268
9157.000000;1.136446
9156.000000;1.136743
9155.000000;1.136976
9154.000000;1.137154
9153.000000;1.137321
9152.000000;1.137377
9151.000000;1.137186
9150.000000;1.136880
9149.000000;1.136859
9148.000000;1.137343
9147.000000;1.138007
9146.000000;1.138256
9145.000000;1.137797
9144.000000;1.136777
9143.000000;1.135478
9142.000000;1.134187
9141.000000;1.133255
9140.000000;1.132916
9139.000000;1.132946
9138.000000;1.132834
9137.000000;1.132400
9136.000000;1.131994
9135.000000;1.131938
9134.000000;1.132060
9133.000000;1.131949
9132.000000;1.131469
9131.000000;1.130806
9130.000000;1.130211
9129.000000;1.129883
9128.000000;1.129962
9127.000000;1.130396
9126.000000;1.130910
9125.000000;1.131233
9124.000000;1.131297
9123.000000;1.131131
9122.000000;1.130742
9121.000000;1.130221
9120.000000;1.129782
9119.000000;1.129509
9118.000000;1.129225
9117.000000;1.128778
9116.000000;1.128311
9115.000000;1.128006
9114.000000;1.127714
9113.000000;1.127127
9112.000000;1.126286
9111.000000;1.125647
9110.000000;1.125543
9109.000000;1.125791
9108.000000;1.125917
9107.000000;1.125661
9106.000000;1.125111
9105.000000;1.124432
9104.000000;1.123642
9103.000000;1.122731
9102.000000;1.121882
9101.000000;1.121406
9100.000000;1.121381
9099.000000;1.121488
9098.000000;1.121372
9097.000000;1.121116
9096.000000;1.121206
9095.000000;1.121964
9094.000000;1.123123
9093.000000;1.124004
9092.000000;1.124086
9091.000000;1.123415
9090.000000;1.122500
9089.000000;1.121841
9088.000000;1.121545
9087.000000;1.121412
9086.000000;1.121304
9085.000000;1.121279
9084.000000;1.121351
9083.000000;1.121330
9082.000000;1.121064
9081.000000;1.120638
9080.000000;1.120175
9079.000000;1.119646
9078.000000;1.119090
9077.000000;1.118818
9076.000000;1.119020
9075.000000;1.119329
9074.000000;1.119170
9073.000000;1.118508
9072.000000;1.117834
9071.000000;1.117439
9070.000000;1.117144
9069.000000;1.116788
9068.000000;1.116544
9067.000000;1.116591
9066.000000;1.116833
9065.000000;1.117135
9064.000000;1.117524
9063.000000;1.117926
9062.000000;1.118021
9061.000000;1.117595
9060.000000;1.116824
9059.000000;1.116027
9058.000000;1.115346
9057.000000;1.114818
9056.000000;1.114494
9055.000000;1.114315
9054.000000;1.114095
9053.000000;1.113802
9052.000000;1.113644
9051.000000;1.113702
9050.000000;1.113712
9049.000000;1.113415
9048.000000;1.112914
9047.000000;1.112499
9046.000000;1.112328
9045.000000;1.112444
9044.000000;1.112861
9043.000000;1.113383
9042.000000;1.113592
9041.000000;1.113311
9040.000000;1.112891
9039.000000;1.112750
9038.000000;1.112806
9037.000000;1.112642
9036.000000;1.112079
9035.000000;1.111265
9034.000000;1.110357
9033.000000;1.109481
9032.000000;1.108940
9031.000000;1.109052
9030.000000;1.109714
9029.000000;1.110434
9028.000000;1.110837
9027.000000;1.110938
9026.000000;1.110864
9025.000000;1.110569
9024.000000;1.109964
9023.000000;1.109193
9022.000000;1.108615
9021.000000;1.108521
9020.000000;1.108879
9019.000000;1.109347
9018.000000;1.109550
9017.000000;1.109354
9016.000000;1.108867
9015.000000;1.108237
9014.000000;1.107635
9013.000000;1.107347
9012.000000;1.107551
9011.000000;1.107880
9010.000000;1.107540
9009.000000;1.106165
9008.000000;1.104390
9007.000000;1.103270
9006.000000;1.103222
9005.000000;1.103766
9004.000000;1.104207
9003.000000;1.104274
9002.000000;1.104095
9001.000000;1.103851
9000.000000;1.103577
8999.000000;1.103187
8998.000000;1.102621
8997.000000;1.102023
8996.000000;1.101742
8995.000000;1.102032
8994.000000;1.102774
8993.000000;1.103569
8992.000000;1.104081
8991.000000;1.104219
8990.000000;1.104095
8989.000000;1.103924
8988.000000;1.103890
8987.000000;1.103941
8986.000000;1.103760
8985.000000;1.103117
8984.000000;1.102179
8983.000000;1.101337
8982.000000;1.100780
8981.000000;1.100434
8980.000000;1.100237
8979.000000;1.100214
8978.000000;1.100266
8977.000000;1.100128
8976.000000;1.099659
8975.000000;1.099032
8974.000000;1.098571
8973.000000;1.098461
8972.000000;1.098649
8971.000000;1.098874
8970.000000;1.098811
8969.000000;1.098344
8968.000000;1.097763
8967.000000;1.097515
8966.000000;1.097684
8965.000000;1.097818
8964.000000;1.097416
8963.000000;1.096507
8962.000000;1.095654
8961.000000;1.095421
8960.000000;1.095917
8959.000000;1.096792
8958.000000;1.097532
8957.000000;1.097751
8956.000000;1.097371
8955.000000;1.096663
8954.000000;1.096061
8953.000000;1.095817
8952.000000;1.095764
8951.000000;1.095480
8950.000000;1.094747
8949.000000;1.093811
8948.000000;1.093106
8947.000000;1.092793
8946.000000;1.092690
8945.000000;1.092612
8944.000000;1.092567
8943.000000;1.092573
8942.000000;1.092468
8941.000000;1.092103
8940.000000;1.091640
8939.000000;1.091492
8938.000000;1.091905
8937.000000;1.092696
8936.000000;1.093405
8935.000000;1.093683
8934.000000;1.093510
8933.000000;1.093090
8932.000000;1.092602
8931.000000;1.092104
8930.000000;1.091640
8929.000000;1.091372
8928.000000;1.091467
8927.000000;1.091857
8926.000000;1.092183
8925.000000;1.092034
8924.000000;1.091260
8923.000000;1.090110
8922.000000;1.089101
8921.000000;1.088703
8920.000000;1.089016
8919.000000;1.089697
8918.000000;1.090241
8917.000000;1.090338
8916.000000;1.090000
8915.000000;1.089469
8914.000000;1.089101
8913.000000;1.089207
8912.000000;1.089788
8911.000000;1.090438
8910.000000;1.090679
8909.000000;1.090408
8908.000000;1.089865
8907.000000;1.089256
8906.000000;1.088612
8905.000000;1.087979
8904.000000;1.087462
8903.000000;1.087031
8902.000000;1.086577
8901.000000;1.086236
8900.000000;1.086378
8899.000000;1.087102
8898.000000;1.087940
8897.000000;1.088267
8896.000000;1.087872
8895.000000;1.087011
8894.000000;1.086108
8893.000000;1.085553
8892.000000;1.085569
8891.000000;1.085985
8890.000000;1.086266
8889.000000;1.086036
8888.000000;1.085485
8887.000000;1.085028
8886.000000;1.084707
8885.000000;1.084263
8884.000000;1.083734
8883.000000;1.083545
8882.000000;1.083906
8881.000000;1.084444
8880.000000;1.084634
8879.000000;1.084387
8878.000000;1.083983
8877.000000;1.083603
8876.000000;1.083232
8875.000000;1.082965
8874.000000;1.083063
8873.000000;1.083561
8872.000000;1.084026
8871.000000;1.083952
8870.000000;1.083352
8869.000000;1.082782
8868.000000;1.082707
8867.000000;1.083005
8866.000000;1.083203
8865.000000;1.083068
8864.000000;1.082828
8863.000000;1.082824
8862.000000;1.083092
8861.000000;1.083341
8860.000000;1.083260
8859.000000;1.082798
8858.000000;1.082161
8857.000000;1.081533
8856.000000;1.080847
8855.000000;1.079961
8854.000000;1.079076
8853.000000;1.078769
8852.000000;1.079416
8851.000000;1.080665
8850.000000;1.081720
8849.000000;1.082123
8848.000000;1.082056
8847.000000;1.081886
8846.000000;1.081707
8845.000000;1.081431
8844.000000;1.081061
8843.000000;1.080696
8842.000000;1.080420
8841.000000;1.080328
8840.000000;1.080525
8839.000000;1.080959
8838.000000;1.081345
8837.000000;1.081398
8836.000000;1.081092
8835.000000;1.080634
8834.000000;1.080264
8833.000000;1.080133
8832.000000;1.080272
8831.000000;1.080556
8830.000000;1.080781
8829.000000;1.080835
8828.000000;1.080736
8827.000000;1.080486
8826.000000;1.080029
8825.000000;1.079428
8824.000000;1.078927
8823.000000;1.078729
8822.000000;1.078816
8821.000000;1.079044
8820.000000;1.079292
8819.000000;1.079422
8818.000000;1.079250
8817.000000;1.078729
8816.000000;1.078135
8815.000000;1.077916
8814.000000;1.078344
8813.000000;1.079314
8812.000000;1.080389
8811.000000;1.081030
8810.000000;1.080925
8809.000000;1.080238
8808.000000;1.079462
8807.000000;1.078999
8806.000000;1.078897
8805.000000;1.078984
8804.000000;1.079077
8803.000000;1.079052
8802.000000;1.078909
8801.000000;1.078839
8800.000000;1.079049
8799.000000;1.079412
8798.000000;1.079529
8797.000000;1.079236
8796.000000;1.078865
8795.000000;1.078812
8794.000000;1.079032
8793.000000;1.079200
8792.000000;1.079198
8791.000000;1.079187
8790.000000;1.079312
8789.000000;1.079585
8788.000000;1.080011
8787.000000;1.080580
8786.000000;1.081149
8785.000000;1.081516
8784.000000;1.081598
8783.000000;1.081383
8782.000000;1.080804
8781.000000;1.079932
8780.000000;1.079223
8779.000000;1.079210
8778.000000;1.079826
8777.000000;1.080336
8776.000000;1.080153
8775.000000;1.079547
8774.000000;1.079322
8773.000000;1.079876
8772.000000;1.080788
8771.000000;1.081350
8770.000000;1.081318
8769.000000;1.081035
8768.000000;1.080925
8767.000000;1.081035
8766.000000;1.081109
8765.000000;1.080983
8764.000000;1.080768
8763.000000;1.080687
8762.000000;1.080865
8761.000000;1.081280
8760.000000;1.081789
8759.000000;1.082151
8758.000000;1.082179
8757.000000;1.081982
8756.000000;1.081920
8755.000000;1.082196
8754.000000;1.082562
8753.000000;1.082593
8752.000000;1.082217
8751.000000;1.081815
8750.000000;1.081782
8749.000000;1.082105
8748.000000;1.082400
8747.000000;1.082313
8746.000000;1.081873
8745.000000;1.081485
8744.000000;1.081536
8743.000000;1.082007
8742.000000;1.082511
8741.000000;1.082721
8740.000000;1.082667
8739.000000;1.082596
8738.000000;1.082658
8737.000000;1.082833
8736.000000;1.083060
8735.000000;1.083277
8734.000000;1.083411
8733.000000;1.083448
8732.000000;1.083489
8731.000000;1.083614
8730.000000;1.083738
8729.000000;1.083735
8728.000000;1.083661
8727.000000;1.083691
8726.000000;1.083839
8725.000000;1.083907
8724.000000;1.083744
8723.000000;1.083457
8722.000000;1.083311
8721.000000;1.083501
8720.000000;1.084008
8719.000000;1.084601
8718.000000;1.084953
8717.000000;1.084878
8716.000000;1.084485
8715.000000;1.084073
8714.000000;1.083871
8713.000000;1.083936
8712.000000;1.084244
8711.000000;1.084748
8710.000000;1.085318
8709.000000;1.085723
8708.000000;1.085794
8707.000000;1.085577
8706.000000;1.085268
8705.000000;1.085015
8704.000000;1.084833
8703.000000;1.084711
8702.000000;1.084763
8701.000000;1.085207
8700.000000;1.086102
8699.000000;1.087103
8698.000000;1.087616
8697.000000;1.087342
8696.000000;1.086649
8695.000000;1.086244
8694.000000;1.086455
8693.000000;1.086968
8692.000000;1.087284
8691.000000;1.087284
8690.000000;1.087176
8689.000000;1.087028
8688.000000;1.086633
8687.000000;1.085908
8686.000000;1.085168
8685.000000;1.084804
8684.000000;1.084790
8683.000000;1.084773
8682.000000;1.084639
8681.000000;1.084719
8680.000000;1.085331
8679.000000;1.086291
8678.000000;1.087077
8677.000000;1.087351
8676.000000;1.087142
8675.000000;1.086606
8674.000000;1.085876
8673.000000;1.085148
8672.000000;1.084642
8671.000000;1.084391
8670.000000;1.084213
8669.000000;1.083982
8668.000000;1.083799
8667.000000;1.083804
8666.000000;1.083960
8665.000000;1.084122
8664.000000;1.084223
8663.000000;1.084279
8662.000000;1.084297
8661.000000;1.084295
8660.000000;1.084343
8659.000000;1.084469
8658.000000;1.084575
8657.000000;1.084551
8656.000000;1.084429
8655.000000;1.084318
8654.000000;1.084253
8653.000000;1.084232
8652.000000;1.084321
8651.000000;1.084563
8650.000000;1.084774
8649.000000;1.084650
8648.000000;1.084167
8647.000000;1.083752
8646.000000;1.083875
8645.000000;1.084516
8644.000000;1.085158
8643.000000;1.085325
8642.000000;1.085023
8641.000000;1.084618
8640.000000;1.084388
8639.000000;1.084298
8638.000000;1.084156
8637.000000;1.083848
8636.000000;1.083382
8635.000000;1.082832
8634.000000;1.082301
8633.000000;1.081912
8632.000000;1.081745
8631.000000;1.081778
8630.000000;1.081903
8629.000000;1.081980
8628.000000;1.081885
8627.000000;1.081596
8626.000000;1.081268
8625.000000;1.081129
8624.000000;1.081250
8623.000000;1.081451
8622.000000;1.081487
8621.000000;1.081273
8620.000000;1.080880
8619.000000;1.080449
8618.000000;1.080160
8617.000000;1.080170
8616.000000;1.080412
8615.000000;1.080561
8614.000000;1.080346
8613.000000;1.079853
8612.000000;1.079376
8611.000000;1.079061
8610.000000;1.078872
8609.000000;1.078803
8608.000000;1.078866
8607.000000;1.078891
8606.000000;1.078614
8605.000000;1.078059
8604.000000;1.077598
8603.000000;1.077521
8602.000000;1.077717
8601.000000;1.077871
8600.000000;1.077808
8599.000000;1.077548
8598.000000;1.077194
8597.000000;1.076910
8596.000000;1.076851
8595.000000;1.076966
8594.000000;1.076964
8593.000000;1.076651
8592.000000;1.076217
8591.000000;1.076014
8590.000000;1.076105
8589.000000;1.076209
8588.000000;1.076085
8587.000000;1.075793
8586.000000;1.075526
8585.000000;1.075322
8584.000000;1.075046
8583.000000;1.074596
8582.000000;1.074024
8581.000000;1.073464
8580.000000;1.072989
8579.000000;1.072572
8578.000000;1.072181
8577.000000;1.071875
8576.000000;1.071816
8575.000000;1.072159
8574.000000;1.072875
8573.000000;1.073654
8572.000000;1.074030
8571.000000;1.073766
8570.000000;1.073144
8569.000000;1.072750
8568.000000;1.072870
8567.000000;1.073175
8566.000000;1.073099
8565.000000;1.072483
8564.000000;1.071718
8563.000000;1.071294
8562.000000;1.071325
8561.000000;1.071530
8560.000000;1.071537
8559.000000;1.071215
8558.000000;1.070771
8557.000000;1.070527
8556.000000;1.070559
8555.000000;1.070596
8554.000000;1.070333
8553.000000;1.069755
8552.000000;1.069059
8551.000000;1.068394
8550.000000;1.067866
8549.000000;1.067679
8548.000000;1.067997
8547.000000;1.068655
8546.000000;1.069223
8545.000000;1.069444
8544.000000;1.069389
8543.000000;1.069177
8542.000000;1.068760
8541.000000;1.068123
8540.000000;1.067484
8539.000000;1.067113
8538.000000;1.067058
8537.000000;1.067172
8536.000000;1.067306
8535.000000;1.067352
8534.000000;1.067202
8533.000000;1.066827
8532.000000;1.066390
8531.000000;1.066142
8530.000000;1.066190
8529.000000;1.066414
8528.000000;1.066595
8527.000000;1.066569
8526.000000;1.066293
8525.000000;1.065825
8524.000000;1.065274
8523.000000;1.064758
8522.000000;1.064382
8521.000000;1.064203
8520.000000;1.064189
8519.000000;1.064252
8518.000000;1.064348
8517.000000;1.064474
8516.000000;1.064532
8515.000000;1.064329
8514.000000;1.063799
8513.000000;1.063148
8512.000000;1.062639
8511.000000;1.062316
8510.000000;1.062090
8509.000000;1.061957
8508.000000;1.061931
8507.000000;1.061828
8506.000000;1.061410
8505.000000;1.060777
8504.000000;1.060373
8503.000000;1.060513
8502.000000;1.061048
8501.000000;1.061519
8500.000000;1.061500
8499.000000;1.060826
8498.000000;1.059734
8497.000000;1.058814
8496.000000;1.058579
8495.000000;1.058963
8494.000000;1.059402
8493.000000;1.059463
8492.000000;1.059217
8491.000000;1.058957
8490.000000;1.058769
8489.000000;1.058550
8488.000000;1.058241
8487.000000;1.057897
8486.000000;1.057616
8485.000000;1.057518
8484.000000;1.057652
8483.000000;1.057879
8482.000000;1.057981
8481.000000;1.057955
8480.000000;1.057996
8479.000000;1.058124
8478.000000;1.058062
8477.000000;1.057626
8476.000000;1.057018
8475.000000;1.056549
8474.000000;1.056238
8473.000000;1.055889
8472.000000;1.055416
8471.000000;1.054909
8470.000000;1.054509
8469.000000;1.054385
8468.000000;1.054702
8467.000000;1.055382
8466.000000;1.056019
8465.000000;1.056211
8464.000000;1.055944
8463.000000;1.055478
8462.000000;1.054977
8461.000000;1.054448
8460.000000;1.053931
8459.000000;1.053482
8458.000000;1.053025
8457.000000;1.052454
8456.000000;1.051894
8455.000000;1.051630
8454.000000;1.051764
8453.000000;1.052112
8452.000000;1.052450
8451.000000;1.052703
8450.000000;1.052864
8449.000000;1.052887
8448.000000;1.052747
8447.000000;1.052502
8446.000000;1.052204
8445.000000;1.051798
8444.000000;1.051174
8443.000000;1.050337
8442.000000;1.049529
8441.000000;1.049144
8440.000000;1.049385
8439.000000;1.049992
8438.000000;1.050420
8437.000000;1.050393
8436.000000;1.050141
8435.000000;1.049997
8434.000000;1.049943
8433.000000;1.049729
8432.000000;1.049307
8431.000000;1.048871
8430.000000;1.048521
8429.000000;1.048179
8428.000000;1.047881
8427.000000;1.047883
8426.000000;1.048347
8425.000000;1.049079
8424.000000;1.049701
8423.000000;1.049986
8422.000000;1.049960
8421.000000;1.049738
8420.000000;1.049357
8419.000000;1.048741
8418.000000;1.047801
8417.000000;1.046637
8416.000000;1.045645
8415.000000;1.045273
8414.000000;1.045605
8413.000000;1.046238
8412.000000;1.046673
8411.000000;1.046763
8410.000000;1.046723
8409.000000;1.046760
8408.000000;1.046854
8407.000000;1.046870
8406.000000;1.046750
8405.000000;1.046500
8404.000000;1.046075
8403.000000;1.045411
8402.000000;1.044588
8401.000000;1.043839
8400.000000;1.043355
8399.000000;1.043135
8398.000000;1.043088
8397.000000;1.043206
8396.000000;1.043522
8395.000000;1.043904
8394.000000;1.044076
8393.000000;1.043896
8392.000000;1.043523
8391.000000;1.043227
8390.000000;1.043122
8389.000000;1.043169
8388.000000;1.043342
8387.000000;1.043631
8386.000000;1.043906
8385.000000;1.043937
8384.000000;1.043610
8383.000000;1.043059
8382.000000;1.042529
8381.000000;1.042162
8380.000000;1.041933
8379.000000;1.041756
8378.000000;1.041576
8377.000000;1.041388
8376.000000;1.041201
8375.000000;1.041020
8374.000000;1.040820
8373.000000;1.040541
8372.000000;1.040145
8371.000000;1.039698
8370.000000;1.039378
8369.000000;1.039304
8368.000000;1.039380
8367.000000;1.039367
8366.000000;1.039149
8365.000000;1.038840
8364.000000;1.038588
8363.000000;1.038365
8362.000000;1.038041
8361.000000;1.037597
8360.000000;1.037158
8359.000000;1.036855
8358.000000;1.036757
8357.000000;1.036869
8356.000000;1.037049
8355.000000;1.036976
8354.000000;1.036436
8353.000000;1.035672
8352.000000;1.035211
8351.000000;1.035288
8350.000000;1.035586
8349.000000;1.035657
8348.000000;1.035439
8347.000000;1.035196
8346.000000;1.035106
8345.000000;1.035108
8344.000000;1.035086
8343.000000;1.035010
8342.000000;1.034880
8341.000000;1.034685
8340.000000;1.034481
8339.000000;1.034389
8338.000000;1.034484
8337.000000;1.034692
8336.000000;1.034823
8335.000000;1.034722
8334.000000;1.034403
8333.000000;1.034061
8332.000000;1.033892
8331.000000;1.033866
8330.000000;1.033743
8329.000000;1.033337
8328.000000;1.032717
8327.000000;1.032111
8326.000000;1.031671
8325.000000;1.031417
8324.000000;1.031329
8323.000000;1.031381
8322.000000;1.031518
8321.000000;1.031663
8320.000000;1.031743
8319.000000;1.031668
8318.000000;1.031324
8317.000000;1.030695
8316.000000;1.029934
8315.000000;1.029270
8314.000000;1.028841
8313.000000;1.028683
8312.000000;1.028814
8311.000000;1.029200
8310.000000;1.029674
8309.000000;1.030024
8308.000000;1.030179
8307.000000;1.030211
8306.000000;1.030136
8305.000000;1.029850
8304.000000;1.029318
8303.000000;1.028719
8302.000000;1.028290
8301.000000;1.028053
8300.000000;1.027811
8299.000000;1.027402
8298.000000;1.026877
8297.000000;1.026432
8296.000000;1.026199
8295.000000;1.026131
8294.000000;1.026051
8293.000000;1.025793
8292.000000;1.025303
8291.000000;1.024649
8290.000000;1.023946
8289.000000;1.023288
8288.000000;1.022765
8287.000000;1.022534
8286.000000;1.022767
8285.000000;1.023480
8284.000000;1.024401
8283.000000;1.025088
8282.000000;1.025203
8281.000000;1.024701
8280.000000;1.023800
8279.000000;1.022831
8278.000000;1.022107
8277.000000;1.021793
8276.000000;1.021836
8275.000000;1.022030
8274.000000;1.022177
8273.000000;1.022174
8272.000000;1.021969
8271.000000;1.021523
8270.000000;1.020883
8269.000000;1.020203
8268.000000;1.019650
8267.000000;1.019295
8266.000000;1.019136
8265.000000;1.019125
8264.000000;1.019156
8263.000000;1.019112
8262.000000;1.019010
8261.000000;1.019000
8260.000000;1.019141
8259.000000;1.019265
8258.000000;1.019210
8257.000000;1.019067
8256.000000;1.019041
8255.000000;1.019101
8254.000000;1.018990
8253.000000;1.018599
8252.000000;1.018120
8251.000000;1.017753
8250.000000;1.017430
8249.000000;1.016947
8248.000000;1.016279
8247.000000;1.015640
8246.000000;1.015269
8245.000000;1.015239
8244.000000;1.015431
8243.000000;1.015630
8242.000000;1.015667
8241.000000;1.015520
8240.000000;1.015288
8239.000000;1.015071
8238.000000;1.014893
8237.000000;1.014736
8236.000000;1.014579
8235.000000;1.014395
8234.000000;1.014156
8233.000000;1.013885
8232.000000;1.013636
8231.000000;1.013424
8230.000000;1.013202
8229.000000;1.012944
8228.000000;1.012712
8227.000000;1.012587
8226.000000;1.012548
8225.000000;1.012463
8224.000000;1.012224
8223.000000;1.011905
8222.000000;1.011745
8221.000000;1.011912
8220.000000;1.012269
8219.000000;1.012438
8218.000000;1.012143
8217.000000;1.011454
8216.000000;1.010664
8215.000000;1.009997
8214.000000;1.009508
8213.000000;1.009153
8212.000000;1.008860
8211.000000;1.008549
8210.000000;1.008236
8209.000000;1.008084
8208.000000;1.008247
8207.000000;1.008647
8206.000000;1.008976
8205.000000;1.008967
8204.000000;1.008617
8203.000000;1.008174
8202.000000;1.007926
8201.000000;1.007969
8200.000000;1.008088
8199.000000;1.007934
8198.000000;1.007376
8197.000000;1.006645
8196.000000;1.006048
8195.000000;1.005639
8194.000000;1.005284
8193.000000;1.004958
8192.000000;1.004796
8191.000000;1.004877
8190.000000;1.005106
8189.000000;1.005312
8188.000000;1.005323
8187.000000;1.004998
8186.000000;1.004354
8185.000000;1.003665
8184.000000;1.003255
8183.000000;1.003148
8182.000000;1.003083
8181.000000;1.002883
8180.000000;1.002642
8179.000000;1.002492
8178.000000;1.002395
8177.000000;1.002268
8176.000000;1.002145
8175.000000;1.002072
8174.000000;1.001973
8173.000000;1.001756
8172.000000;1.001477
8171.000000;1.001288
8170.000000;1.001239
8169.000000;1.001245
8168.000000;1.001194
8167.000000;1.001048
8166.000000;1.000847
8165.000000;1.000668
8164.000000;1.000525
8163.000000;1.000326
8162.000000;0.999970
8161.000000;0.999500
8160.000000;0.999066
8159.000000;0.998747
8158.000000;0.998497
8157.000000;0.998275
8156.000000;0.998093
8155.000000;0.997917
8154.000000;0.997672
8153.000000;0.997390
8152.000000;0.997200
8151.000000;0.997107
8150.000000;0.996920
8149.000000;0.996517
8148.000000;0.996025
8147.000000;0.995648
8146.000000;0.995412
8145.000000;0.995215
8144.000000;0.995067
8143.000000;0.995115
8142.000000;0.995451
8141.000000;0.995944
8140.000000;0.996252
8139.000000;0.996004
8138.000000;0.995109
8137.000000;0.993947
8136.000000;0.993131
8135.000000;0.992975
8134.000000;0.993245
8133.000000;0.993482
8132.000000;0.993457
8131.000000;0.993228
8130.000000;0.992908
8129.000000;0.992573
8128.000000;0.992308
8127.000000;0.992173
8126.000000;0.992119
8125.000000;0.992054
8124.000000;0.991958
8123.000000;0.991820
8122.000000;0.991534
8121.000000;0.991011
8120.000000;0.990386
8119.000000;0.989943
8118.000000;0.989790
8117.000000;0.989744
8116.000000;0.989561
8115.000000;0.989175
8114.000000;0.988687
8113.000000;0.988248
8112.000000;0.988034
8111.000000;0.988215
8110.000000;0.988781
8109.000000;0.989408
8108.000000;0.989615
8107.000000;0.989165
8106.000000;0.988289
8105.000000;0.987480
8104.000000;0.987056
8103.000000;0.986946
8102.000000;0.986879
8101.000000;0.986704
8100.000000;0.986492
8099.000000;0.986379
8098.000000;0.986417
8097.000000;0.986564
8096.000000;0.986727
8095.000000;0.986796
8094.000000;0.986687
8093.000000;0.986400
8092.000000;0.985991
8091.000000;0.985499
8090.000000;0.984976
8089.000000;0.984550
8088.000000;0.984351
8087.000000;0.984338
8086.000000;0.984315
8085.000000;0.984163
8084.000000;0.983950
8083.000000;0.983741
8082.000000;0.983450
8081.000000;0.982991
8080.000000;0.982468
8079.000000;0.982085
8078.000000;0.981912
8077.000000;0.981877
8076.000000;0.981911
8075.000000;0.981971
8074.000000;0.981974
8073.000000;0.981847
8072.000000;0.981646
8071.000000;0.981455
8070.000000;0.981186
8069.000000;0.980649
8068.000000;0.979881
8067.000000;0.979234
8066.000000;0.978998
8065.000000;0.979064
8064.000000;0.979066
8063.000000;0.978821
8062.000000;0.978463
8061.000000;0.978181
8060.000000;0.977953
8059.000000;0.977611
8058.000000;0.977083
8057.000000;0.976495
8056.000000;0.976062
8055.000000;0.975911
8054.000000;0.976003
8053.000000;0.976185
8052.000000;0.976326
8051.000000;0.976420
8050.000000;0.976545
8049.000000;0.976718
8048.000000;0.976815
8047.000000;0.976653
8046.000000;0.976174
8045.000000;0.975514
8044.000000;0.974910
8043.000000;0.974523
8042.000000;0.974325
8041.000000;0.974141
8040.000000;0.973834
8039.000000;0.973465
8038.000000;0.973231
8037.000000;0.973208
8036.000000;0.973195
8035.000000;0.972922
8034.000000;0.972389
8033.000000;0.971905
8032.000000;0.971746
8031.000000;0.971874
8030.000000;0.972013
8029.000000;0.971934
8028.000000;0.971609
8027.000000;0.971163
8026.000000;0.970735
8025.000000;0.970376
8024.000000;0.970047
8023.000000;0.969748
8022.000000;0.969620
8021.000000;0.969820
8020.000000;0.970226
8019.000000;0.970428
8018.000000;0.970088
8017.000000;0.969269
8016.000000;0.968331
8015.000000;0.967609
8014.000000;0.967275
8013.000000;0.967369
8012.000000;0.967777
8011.000000;0.968212
8010.000000;0.968382
8009.000000;0.968205
8008.000000;0.967764
8007.000000;0.967141
8006.000000;0.966436
8005.000000;0.965868
8004.000000;0.965642
8003.000000;0.965676
8002.000000;0.965671
8001.000000;0.965469
8000.000000;0.965201
7999.000000;0.965011
7998.000000;0.964831
7997.000000;0.964530
7996.000000;0.964152
7995.000000;0.963862
7994.000000;0.963728
7993.000000;0.963670
7992.000000;0.963587
7991.000000;0.963451
7990.000000;0.963284
7989.000000;0.963120
7988.000000;0.962970
7987.000000;0.962788
7986.000000;0.962490
7985.000000;0.962055
7984.000000;0.961560
7983.000000;0.961106
7982.000000;0.960740
7981.000000;0.960471
7980.000000;0.960311
7979.000000;0.960270
7978.000000;0.960331
7977.000000;0.960441
7976.000000;0.960491
7975.000000;0.960355
7974.000000;0.960000
7973.000000;0.959578
7972.000000;0.959306
7971.000000;0.959241
7970.000000;0.959229
7969.000000;0.959108
7968.000000;0.958872
7967.000000;0.958613
7966.000000;0.958369
7965.000000;0.958108
7964.000000;0.957817
7963.000000;0.957525
7962.000000;0.957249
7961.000000;0.956953
7960.000000;0.956593
7959.000000;0.956188
7958.000000;0.955842
7957.000000;0.955657
7956.000000;0.955616
7955.000000;0.955576
7954.000000;0.955407
7953.000000;0.955110
7952.000000;0.954772
7951.000000;0.954478
7950.000000;0.954296
7949.000000;0.954271
7948.000000;0.954337
7947.000000;0.954281
7946.000000;0.953924
7945.000000;0.953334
7944.000000;0.952758
7943.000000;0.952351
7942.000000;0.952073
7941.000000;0.951830
7940.000000;0.951604
7939.000000;0.951422
7938.000000;0.951304
7937.000000;0.951269
7936.000000;0.951302
7935.000000;0.951312
7934.000000;0.951202
7933.000000;0.950996
7932.000000;0.950815
7931.000000;0.950721
7930.000000;0.950675
7929.000000;0.950637
7928.000000;0.950593
7927.000000;0.950466
7926.000000;0.950150
7925.000000;0.949640
7924.000000;0.949065
7923.000000;0.948545
7922.000000;0.948143
7921.000000;0.947924
7920.000000;0.947936
7919.000000;0.948089
7918.000000;0.948189
7917.000000;0.948151
7916.000000;0.948049
7915.000000;0.947913
7914.000000;0.947645
7913.000000;0.947204
7912.000000;0.946733
7911.000000;0.946379
7910.000000;0.946107
7909.000000;0.945833
7908.000000;0.945620
7907.000000;0.945599
7906.000000;0.945740
7905.000000;0.945838
7904.000000;0.945712
7903.000000;0.945331
7902.000000;0.944803
7901.000000;0.944297
7900.000000;0.943955
7899.000000;0.943778
7898.000000;0.943622
7897.000000;0.943369
7896.000000;0.943054
7895.000000;0.942784
7894.000000;0.942600
7893.000000;0.942481
7892.000000;0.942421
7891.000000;0.942375
7890.000000;0.942226
7889.000000;0.941889
7888.000000;0.941436
7887.000000;0.941015
7886.000000;0.940687
7885.000000;0.940425
7884.000000;0.940228
7883.000000;0.940135
7882.000000;0.940127
7881.000000;0.940136
7880.000000;0.940155
7879.000000;0.940216
7878.000000;0.940261
7877.000000;0.940131
7876.000000;0.939747
7875.000000;0.939234
7874.000000;0.938811
7873.000000;0.938580
7872.000000;0.938448
7871.000000;0.938230
7870.000000;0.937815
7869.000000;0.937269
7868.000000;0.936797
7867.000000;0.936596
7866.000000;0.936717
7865.000000;0.937041
7864.000000;0.937362
7863.000000;0.937484
7862.000000;0.937309
7861.000000;0.936875
7860.000000;0.936341
7859.000000;0.935891
7858.000000;0.935624
7857.000000;0.935513
7856.000000;0.935454
7855.000000;0.935357
7854.000000;0.935230
7853.000000;0.935149
7852.000000;0.935145
7851.000000;0.935116
7850.000000;0.934902
7849.000000;0.934447
7848.000000;0.933852
7847.000000;0.933284
7846.000000;0.932861
7845.000000;0.932642
7844.000000;0.932617
7843.000000;0.932679
7842.000000;0.932670
7841.000000;0.932504
7840.000000;0.932214
7839.000000;0.931860
7838.000000;0.931466
7837.000000;0.931075
7836.000000;0.930777
7835.000000;0.930605
7834.000000;0.930448
7833.000000;0.930167
7832.000000;0.929781
7831.000000;0.929468
7830.000000;0.929376
7829.000000;0.929476
7828.000000;0.929612
7827.000000;0.929637
7826.000000;0.929507
7825.000000;0.929283
7824.000000;0.929064
7823.000000;0.928899
7822.000000;0.928765
7821.000000;0.928597
7820.000000;0.928370
7819.000000;0.928134
7818.000000;0.927996
7817.000000;0.928040
7816.000000;0.928209
7815.000000;0.928294
7814.000000;0.928109
7813.000000;0.927702
7812.000000;0.927306
7811.000000;0.927074
7810.000000;0.926925
7809.000000;0.926696
7808.000000;0.926353
7807.000000;0.925994
7806.000000;0.925703
7805.000000;0.925504
7804.000000;0.925402
7803.000000;0.925395
7802.000000;0.925434
7801.000000;0.925441
7800.000000;0.925369
7799.000000;0.925219
7798.000000;0.925008
7797.000000;0.924786
7796.000000;0.924646
7795.000000;0.924638
7794.000000;0.924667
7793.000000;0.924579
7792.000000;0.924356
7791.000000;0.924158
7790.000000;0.924111
7789.000000;0.924150
7788.000000;0.924117
7787.000000;0.923964
7786.000000;0.923749
7785.000000;0.923480
7784.000000;0.923068
7783.000000;0.922495
7782.000000;0.921932
7781.000000;0.921619
7780.000000;0.921616
7779.000000;0.921737
7778.000000;0.921713
7777.000000;0.921428
7776.000000;0.921001
7775.000000;0.920698
7774.000000;0.920720
7773.000000;0.921012
7772.000000;0.921261
7771.000000;0.921146
7770.000000;0.920632
7769.000000;0.919994
7768.000000;0.919546
7767.000000;0.919399
7766.000000;0.919475
7765.000000;0.919667
7764.000000;0.919894
7763.000000;0.920034
7762.000000;0.919951
7761.000000;0.919636
7760.000000;0.919262
7759.000000;0.919054
7758.000000;0.919067
7757.000000;0.919134
7756.000000;0.919026
7755.000000;0.918692
7754.000000;0.918292
7753.000000;0.917997
7752.000000;0.917781
7751.000000;0.917511
7750.000000;0.917174
7749.000000;0.916904
7748.000000;0.916758
7747.000000;0.916634
7746.000000;0.916470
7745.000000;0.916394
7744.000000;0.916518
7743.000000;0.916695
7742.000000;0.916681
7741.000000;0.916468
7740.000000;0.916264
7739.000000;0.916154
7738.000000;0.915972
7737.000000;0.915584
7736.000000;0.915110
7735.000000;0.914779
7734.000000;0.914691
7733.000000;0.914796
7732.000000;0.915006
7731.000000;0.915207
7730.000000;0.915254
7729.000000;0.915078
7728.000000;0.914788
7727.000000;0.914585
7726.000000;0.914572
7725.000000;0.914691
7724.000000;0.914797
7723.000000;0.914770
7722.000000;0.914593
7721.000000;0.914376
7720.000000;0.914255
7719.000000;0.914219
7718.000000;0.914117
7717.000000;0.913867
7716.000000;0.913586
7715.000000;0.913429
7714.000000;0.913368
7713.000000;0.913239
7712.000000;0.912980
7711.000000;0.912703
7710.000000;0.912533
7709.000000;0.912477
7708.000000;0.912481
7707.000000;0.912537
7706.000000;0.912662
7705.000000;0.912823
7704.000000;0.912922
7703.000000;0.912865
7702.000000;0.912635
7701.000000;0.912302
7700.000000;0.911961
7699.000000;0.911650
7698.000000;0.911350
7697.000000;0.911057
7696.000000;0.910835
7695.000000;0.910750
7694.000000;0.910771
7693.000000;0.910783
7692.000000;0.910701
7691.000000;0.910536
7690.000000;0.910354
7689.000000;0.910197
7688.000000;0.910089
7687.000000;0.910081
7686.000000;0.910229
7685.000000;0.910493
7684.000000;0.910688
7683.000000;0.910606
7682.000000;0.910236
7681.000000;0.909830
7680.000000;0.909674
7679.000000;0.909790
7678.000000;0.909922
7677.000000;0.909830
7676.000000;0.909556
7675.000000;0.909333
7674.000000;0.909285
7673.000000;0.909318
7672.000000;0.909286
7671.000000;0.909194
7670.000000;0.909168
7669.000000;0.909284
7668.000000;0.909480
7667.000000;0.909635
7666.000000;0.909680
7665.000000;0.909602
7664.000000;0.909402
7663.000000;0.909098
7662.000000;0.908770
7661.000000;0.908533
7660.000000;0.908442
7659.000000;0.908444
7658.000000;0.908448
7657.000000;0.908421
7656.000000;0.908386
7655.000000;0.908331
7654.000000;0.908200
7653.000000;0.907986
7652.000000;0.907786
7651.000000;0.907716
7650.000000;0.907759
7649.000000;0.907768
7648.000000;0.907647
7647.000000;0.907470
7646.000000;0.907393
7645.000000;0.907467
7644.000000;0.907611
7643.000000;0.907744
7642.000000;0.907873
7641.000000;0.908019
7640.000000;0.908128
7639.000000;0.908141
7638.000000;0.908084
7637.000000;0.908032
7636.000000;0.907991
7635.000000;0.907894
7634.000000;0.907704
7633.000000;0.907467
7632.000000;0.907271
7631.000000;0.907208
7630.000000;0.907341
7629.000000;0.907622
7628.000000;0.907845
7627.000000;0.907809
7626.000000;0.907532
7625.000000;0.907240
7624.000000;0.907102
7623.000000;0.907085
7622.000000;0.907094
7621.000000;0.907127
7620.000000;0.907213
7619.000000;0.907294
7618.000000;0.907294
7617.000000;0.907249
7616.000000;0.907261
7615.000000;0.907349
7614.000000;0.907439
7613.000000;0.907473
7612.000000;0.907451
7611.000000;0.907383
7610.000000;0.907268
7609.000000;0.907130
7608.000000;0.907010
7607.000000;0.906930
7606.000000;0.906897
7605.000000;0.906931
7604.000000;0.907038
7603.000000;0.907185
7602.000000;0.907336
7601.000000;0.907462
7600.000000;0.907502
7599.000000;0.907389
7598.000000;0.907172
7597.000000;0.907041
7596.000000;0.907124
7595.000000;0.907315
7594.000000;0.907425
7593.000000;0.907427
7592.000000;0.907429
7591.000000;0.907456
7590.000000;0.907423
7589.000000;0.907331
7588.000000;0.907325
7587.000000;0.907487
7586.000000;0.907712
7585.000000;0.907864
7584.000000;0.907958
7583.000000;0.908094
7582.000000;0.908291
7581.000000;0.908481
7580.000000;0.908622
7579.000000;0.908741
7578.000000;0.908870
7577.000000;0.909011
7576.000000;0.909157
7575.000000;0.909298
7574.000000;0.909394
7573.000000;0.909402
7572.000000;0.909340
7571.000000;0.909303
7570.000000;0.909378
7569.000000;0.909538
7568.000000;0.909655
7567.000000;0.909648
7566.000000;0.909607
7565.000000;0.909716
7564.000000;0.910019
7563.000000;0.910321
7562.000000;0.910389
7561.000000;0.910203
7560.000000;0.909939
7559.000000;0.909730
7558.000000;0.909561
7557.000000;0.909398
7556.000000;0.909319
7555.000000;0.909436
7554.000000;0.909756
7553.000000;0.910187
7552.000000;0.910639
7551.000000;0.911046
7550.000000;0.911318
7549.000000;0.911358
7548.000000;0.911166
7547.000000;0.910888
7546.000000;0.910715
7545.000000;0.910752
7544.000000;0.910970
7543.000000;0.911291
7542.000000;0.911648
7541.000000;0.911983
7540.000000;0.912241
7539.000000;0.912424
7538.000000;0.912621
7537.000000;0.912916
7536.000000;0.913261
7535.000000;0.913502
7534.000000;0.913548
7533.000000;0.913469
7532.000000;0.913398
7531.000000;0.913393
7530.000000;0.913432
7529.000000;0.913497
7528.000000;0.913593
7527.000000;0.913724
7526.000000;0.913882
7525.000000;0.914065
7524.000000;0.914259
7523.000000;0.914412
7522.000000;0.914492
7521.000000;0.914553
7520.000000;0.914724
7519.000000;0.915090
7518.000000;0.915591
7517.000000;0.916017
7516.000000;0.916150
7515.000000;0.915975
7514.000000;0.915741
7513.000000;0.915752
7512.000000;0.916076
7511.000000;0.916507
7510.000000;0.916811
7509.000000;0.916942
7508.000000;0.917006
7507.000000;0.917106
7506.000000;0.917289
7505.000000;0.917543
7504.000000;0.917792
7503.000000;0.917956
7502.000000;0.918065
7501.000000;0.918249
7500.000000;0.918543
7499.000000;0.918794
7498.000000;0.918847
7497.000000;0.918751
7496.000000;0.918690
7495.000000;0.918782
7494.000000;0.919044
7493.000000;0.919447
7492.000000;0.919901
7491.000000;0.920198
7490.000000;0.920334
7489.000000;0.920170
7488.000000;0.920080
7487.000000;0.920236
7486.000000;0.920586
7485.000000;0.921017
7484.000000;0.921429
7483.000000;0.921706
7482.000000;0.921775
7481.000000;0.921727
7480.000000;0.921761
7479.000000;0.921952
7478.000000;0.922181
7477.000000;0.922324
7476.000000;0.922409
7475.000000;0.922535
7474.000000;0.922732
7473.000000;0.922995
7472.000000;0.923351
7471.000000;0.923812
7470.000000;0.924312
7469.000000;0.924741
7468.000000;0.925027
7467.000000;0.925155
7466.000000;0.925171
7465.000000;0.925179
7464.000000;0.925285
7463.000000;0.925482
7462.000000;0.925675
7461.000000;0.925840
7460.000000;0.926098
7459.000000;0.926548
7458.000000;0.927095
7457.000000;0.927510
7456.000000;0.927641
7455.000000;0.927497
7454.000000;0.927202
7453.000000;0.926952
7452.000000;0.926947
7451.000000;0.927241
7450.000000;0.927645
7449.000000;0.927890
7448.000000;0.927939
7447.000000;0.928030
7446.000000;0.928378
7445.000000;0.928892
7444.000000;0.929284
7443.000000;0.929411
7442.000000;0.929405
7441.000000;0.929473
7440.000000;0.929667
7439.000000;0.929906
7438.000000;0.930145
7437.000000;0.930411
7436.000000;0.930694
7435.000000;0.930898
7434.000000;0.930959
7433.000000;0.930953
7432.000000;0.931041
7431.000000;0.931302
7430.000000;0.931659
7429.000000;0.931994
7428.000000;0.932275
7427.000000;0.932528
7426.000000;0.932734
7425.000000;0.932827
7424.000000;0.932843
7423.000000;0.932997
7422.000000;0.933508
7421.000000;0.934339
7420.000000;0.935153
7419.000000;0.935621
7418.000000;0.935735
7417.000000;0.935761
7416.000000;0.935936
7415.000000;0.936275
7414.000000;0.936653
7413.000000;0.936973
7412.000000;0.937250
7411.000000;0.937560
7410.000000;0.937939
7409.000000;0.938327
7408.000000;0.938618
7407.000000;0.938763
7406.000000;0.938773
7405.000000;0.938670
7404.000000;0.938484
7403.000000;0.938334
7402.000000;0.938421
7401.000000;0.938865
7400.000000;0.939537
7399.000000;0.940153
7398.000000;0.940535
7397.000000;0.940754
7396.000000;0.941031
7395.000000;0.941472
7394.000000;0.941888
7393.000000;0.942043
7392.000000;0.942050
7391.000000;0.942292
7390.000000;0.942936
7389.000000;0.943735
7388.000000;0.944385
7387.000000;0.944949
7386.000000;0.945672
7385.000000;0.946526
7384.000000;0.947277
7383.000000;0.947941
7382.000000;0.948745
7381.000000;0.949615
7380.000000;0.950144
7379.000000;0.950324
7378.000000;0.950880
7377.000000;0.952336
7376.000000;0.954059
7375.000000;0.954862
7374.000000;0.954462
7373.000000;0.953832
7372.000000;0.953980
7371.000000;0.954845
7370.000000;0.955536
7369.000000;0.955327
7368.000000;0.954239
7367.000000;0.952964
7366.000000;0.952311
7365.000000;0.952523
7364.000000;0.953164
7363.000000;0.953742
7362.000000;0.954212
7361.000000;0.954732
7360.000000;0.955204
7359.000000;0.955491
7358.000000;0.955995
7357.000000;0.957219
7356.000000;0.958726
7355.000000;0.959390
7354.000000;0.958885
7353.000000;0.958218
7352.000000;0.958441
7351.000000;0.959533
7350.000000;0.960748
7349.000000;0.961537
7348.000000;0.961843
7347.000000;0.962013
7346.000000;0.962679
7345.000000;0.964197
7344.000000;0.966131
7343.000000;0.967919
7342.000000;0.970023
7341.000000;0.973330
7340.000000;0.977257
7339.000000;0.979640
7338.000000;0.979248
7337.000000;0.977350
7336.000000;0.975867
7335.000000;0.974939
7334.000000;0.973337
7333.000000;0.970633
7332.000000;0.967768
7331.000000;0.965853
7330.000000;0.965397
7329.000000;0.966278
7328.000000;0.967625
7327.000000;0.968337
7326.000000;0.968510
7325.000000;0.969615
7324.000000;0.972352
7323.000000;0.975192
7322.000000;0.976175
7321.000000;0.975444
7320.000000;0.974810
7319.000000;0.975129
7318.000000;0.975369
7317.000000;0.974303
7316.000000;0.972032
7315.000000;0.969552
7314.000000;0.967768
7313.000000;0.967191
7312.000000;0.967781
7311.000000;0.968852
7310.000000;0.969963
7309.000000;0.971802
7308.000000;0.975127
7307.000000;0.979003
7306.000000;0.981375
7305.000000;0.981620
7304.000000;0.981322
7303.000000;0.981992
7302.000000;0.983200
7301.000000;0.983655
7300.000000;0.983066
7299.000000;0.982185
7298.000000;0.981701
7297.000000;0.982020
7296.000000;0.983431
7295.000000;0.985424
7294.000000;0.986575
7293.000000;0.986154
7292.000000;0.985436
7291.000000;0.986269
7290.000000;0.988614
7289.000000;0.990617
7288.000000;0.990936
7287.000000;0.990067
7286.000000;0.989329
7285.000000;0.989327
7284.000000;0.989737
7283.000000;0.990008
7282.000000;0.989905
7281.000000;0.989587
7280.000000;0.989408
7279.000000;0.989633
7278.000000;0.990203
7277.000000;0.990892
7276.000000;0.991707
7275.000000;0.992845
7274.000000;0.994297
7273.000000;0.995776
7272.000000;0.997024
7271.000000;0.998078
7270.000000;0.999235
7269.000000;1.000713
7268.000000;1.002382
7267.000000;1.003865
7266.000000;1.005008
7265.000000;1.006211
7264.000000;1.008056
7263.000000;1.010514
7262.000000;1.012801
7261.000000;1.014270
7260.000000;1.015182
7259.000000;1.016276
7258.000000;1.017829
7257.000000;1.019550
7256.000000;1.021304
7255.000000;1.023391
7254.000000;1.025918
7253.000000;1.028358
7252.000000;1.030151
7251.000000;1.031483
7250.000000;1.033044
7249.000000;1.035104
7248.000000;1.037269
7247.000000;1.039233
7246.000000;1.041571
7245.000000;1.045407
7244.000000;1.050909
7243.000000;1.056520
7242.000000;1.060366
7241.000000;1.062359
7240.000000;1.064210
7239.000000;1.067204
7238.000000;1.070639
7237.000000;1.073038
7236.000000;1.074394
7235.000000;1.076471
7234.000000;1.080739
7233.000000;1.086429
7232.000000;1.091120
7231.000000;1.093260
7230.000000;1.093835
7229.000000;1.095262
7228.000000;1.098809
7227.000000;1.103381
7226.000000;1.106942
7225.000000;1.108764
7224.000000;1.109770
7223.000000;1.111042
7222.000000;1.112726
7221.000000;1.114314
7220.000000;1.115468
7219.000000;1.116397
7218.000000;1.117725
7217.000000;1.120102
7216.000000;1.123630
7215.000000;1.127651
7214.000000;1.131329
7213.000000;1.134420
7212.000000;1.137322
7211.000000;1.140374
7210.000000;1.143420
7209.000000;1.146207
7208.000000;1.148961
7207.000000;1.152211
7206.000000;1.156179
7205.000000;1.160595
7204.000000;1.164973
7203.000000;1.168975
7202.000000;1.172682
7201.000000;1.176462
7200.000000;1.180491
7199.000000;1.184508
7198.000000;1.188232
7197.000000;1.191880
7196.000000;1.195856
7195.000000;1.199991
7194.000000;1.203562
7193.000000;1.206317
7192.000000;1.208966
7191.000000;1.212294
7190.000000;1.216228
7189.000000;1.220209
7188.000000;1.224124
7187.000000;1.228293
7186.000000;1.232833
7185.000000;1.237689
7184.000000;1.243179
7183.000000;1.249746
7182.000000;1.256993
7181.000000;1.263731
7180.000000;1.269342
7179.000000;1.274495
7178.000000;1.280092
7177.000000;1.286018
7176.000000;1.291411
7175.000000;1.295814
7174.000000;1.299521
7173.000000;1.302959
7172.000000;1.306342
7171.000000;1.310001
7170.000000;1.314441
7169.000000;1.319839
7168.000000;1.325887
7167.000000;1.332158
7166.000000;1.338444
7165.000000;1.344743
7164.000000;1.351221
7163.000000;1.358132
7162.000000;1.365358
7161.000000;1.372199
7160.000000;1.378006
7159.000000;1.382972
7158.000000;1.387898
7157.000000;1.393082
7156.000000;1.397833
7155.000000;1.401387
7154.000000;1.403944
7153.000000;1.406399
7152.000000;1.409255
7151.000000;1.412312
7150.000000;1.415343
7149.000000;1.418540
7148.000000;1.422283
7147.000000;1.426755
7146.000000;1.431868
7145.000000;1.437475
7144.000000;1.443578
7143.000000;1.450351
7142.000000;1.458035
7141.000000;1.466507
7140.000000;1.474777
7139.000000;1.481499
7138.000000;1.486445
7137.000000;1.491020
7136.000000;1.496631
7135.000000;1.502904
7134.000000;1.508301
7133.000000;1.512250
7132.000000;1.515670
7131.000000;1.519328
7130.000000;1.522767
7129.000000;1.525310
7128.000000;1.527294
7127.000000;1.529616
7126.000000;1.532576
7125.000000;1.535948
7124.000000;1.539660
7123.000000;1.543699
7122.000000;1.547850
7121.000000;1.552223
7120.000000;1.557613
7119.000000;1.564481
7118.000000;1.571787
7117.000000;1.577817
7116.000000;1.582277
7115.000000;1.586639
7114.000000;1.592084
7113.000000;1.597868
7112.000000;1.602247
7111.000000;1.604584
7110.000000;1.605970
7109.000000;1.607901
7108.000000;1.610880
7107.000000;1.614428
7106.000000;1.617956
7105.000000;1.621295
7104.000000;1.624589
7103.000000;1.628031
7102.000000;1.631741
7101.000000;1.635760
7100.000000;1.640081
7099.000000;1.644540
7098.000000;1.648783
7097.000000;1.652499
7096.000000;1.655581
7095.000000;1.658169
7094.000000;1.660741
7093.000000;1.663918
7092.000000;1.667806
7091.000000;1.671623
7090.000000;1.674328
7089.000000;1.675696
7088.000000;1.676515
7087.000000;1.677674
7086.000000;1.679395
7085.000000;1.681442
7084.000000;1.683658
7083.000000;1.685965
7082.000000;1.688148
7081.000000;1.690024
7080.000000;1.691734
7079.000000;1.693620
7078.000000;1.695861
7077.000000;1.698317
7076.000000;1.700662
7075.000000;1.702703
7074.000000;1.704699
7073.000000;1.707084
7072.000000;1.709752
7071.000000;1.712080
7070.000000;1.713919
7069.000000;1.715987
7068.000000;1.718794
7067.000000;1.721731
7066.000000;1.723957
7065.000000;1.725724
7064.000000;1.727893
7063.000000;1.730382
7062.000000;1.732138
7061.000000;1.732693
7060.000000;1.732719
7059.000000;1.732832
7058.000000;1.732907
7057.000000;1.732941
7056.000000;1.733524
7055.000000;1.734884
7054.000000;1.736352
7053.000000;1.737388
7052.000000;1.738459
7051.000000;1.740291
7050.000000;1.742773
7049.000000;1.745176
7048.000000;1.747000
7047.000000;1.748134
7046.000000;1.748659
7045.000000;1.748953
7044.000000;1.749513
7043.000000;1.750264
7042.000000;1.750532
7041.000000;1.750132
7040.000000;1.749924
7039.000000;1.750771
7038.000000;1.752387
7037.000000;1.753741
7036.000000;1.754264
7035.000000;1.754240
7034.000000;1.754351
7033.000000;1.755173
7032.000000;1.756775
7031.000000;1.758457
7030.000000;1.759200
7029.000000;1.758757
7028.000000;1.758022
7027.000000;1.758097
7026.000000;1.759350
7025.000000;1.761473
7024.000000;1.763909
7023.000000;1.765913
7022.000000;1.766800
7021.000000;1.766619
7020.000000;1.766177
7019.000000;1.766082
7018.000000;1.766203
7017.000000;1.766317
7016.000000;1.766712
7015.000000;1.767700
7014.000000;1.769019
7013.000000;1.770142
7012.000000;1.770832
7011.000000;1.771037
7010.000000;1.770705
7009.000000;1.770131
7008.000000;1.769989
7007.000000;1.770516
7006.000000;1.771102
7005.000000;1.771126
7004.000000;1.770781
7003.000000;1.770621
7002.000000;1.770786
7001.000000;1.771158
7000.000000;1.771802
6999.000000;1.772615
6998.000000;1.773008
6997.000000;1.772642
6996.000000;1.772109
6995.000000;1.772152
6994.000000;1.772479
6993.000000;1.772143
6992.000000;1.770986
6991.000000;1.769906
6990.000000;1.769698
6989.000000;1.770311
6988.000000;1.771274
6987.000000;1.772189
6986.000000;1.772692
6985.000000;1.772551
6984.000000;1.772082
6983.000000;1.772032
6982.000000;1.772773
6981.000000;1.773918
6980.000000;1.774805
6979.000000;1.775067
6978.000000;1.774672
6977.000000;1.773798
6976.000000;1.772827
6975.000000;1.772105
6974.000000;1.771550
6973.000000;1.770760
6972.000000;1.769631
6971.000000;1.768570
6970.000000;1.767910
6969.000000;1.767408
6968.000000;1.766662
6967.000000;1.765793
6966.000000;1.765281
6965.000000;1.765181
6964.000000;1.764928
6963.000000;1.764045
6962.000000;1.762747
6961.000000;1.761626
6960.000000;1.760969
6959.000000;1.760741
6958.000000;1.761067
6957.000000;1.762190
6956.000000;1.763804
6955.000000;1.764948
6954.000000;1.764920
6953.000000;1.764018
6952.000000;1.763106
6951.000000;1.762670
6950.000000;1.762601
6949.000000;1.762706
6948.000000;1.763015
6947.000000;1.763551
6946.000000;1.764080
6945.000000;1.764088
6944.000000;1.762981
6943.000000;1.760536
6942.000000;1.757386
6941.000000;1.754769
6940.000000;1.753424
6939.000000;1.752839
6938.000000;1.751954
6937.000000;1.750573
6936.000000;1.749662
6935.000000;1.750164
6934.000000;1.751827
6933.000000;1.753341
6932.000000;1.753499
6931.000000;1.752151
6930.000000;1.750143
6929.000000;1.748485
6928.000000;1.747665
6927.000000;1.747631
6926.000000;1.748054
6925.000000;1.748290
6924.000000;1.747420
6923.000000;1.745093
6922.000000;1.742400
6921.000000;1.741105
6920.000000;1.741674
6919.000000;1.742705
6918.000000;1.742740
6917.000000;1.742060
6916.000000;1.741850
6915.000000;1.742156
6914.000000;1.741833
6913.000000;1.740414
6912.000000;1.738923
6911.000000;1.738614
6910.000000;1.739679
6909.000000;1.741392
6908.000000;1.742820
6907.000000;1.743068
6906.000000;1.741447
6905.000000;1.738074
6904.000000;1.734188
6903.000000;1.731422
6902.000000;1.730668
6901.000000;1.731557
6900.000000;1.732874
6899.000000;1.733547
6898.000000;1.733434
6897.000000;1.733180
6896.000000;1.733230
6895.000000;1.733173
6894.000000;1.732274
6893.000000;1.730369
6892.000000;1.727831
6891.000000;1.725005
6890.000000;1.722269
6889.000000;1.720367
6888.000000;1.719975
6887.000000;1.720897
6886.000000;1.722222
6885.000000;1.723293
6884.000000;1.724007
6883.000000;1.724224
6882.000000;1.723611
6881.000000;1.722269
6880.000000;1.720887
6879.000000;1.719972
6878.000000;1.719372
6877.000000;1.718787
6876.000000;1.718226
6875.000000;1.717730
6874.000000;1.717205
6873.000000;1.716805
6872.000000;1.716920
6871.000000;1.717408
6870.000000;1.717320
6869.000000;1.715904
6868.000000;1.713518
6867.000000;1.711030
6866.000000;1.708719
6865.000000;1.706396
6864.000000;1.704288
6863.000000;1.703022
6862.000000;1.702724
6861.000000;1.702828
6860.000000;1.702987
6859.000000;1.703576
6858.000000;1.704871
6857.000000;1.706182
6856.000000;1.706443
6855.000000;1.705510
6854.000000;1.704243
6853.000000;1.703259
6852.000000;1.702274
6851.000000;1.700981
6850.000000;1.699900
6849.000000;1.699712
6848.000000;1.700080
6847.000000;1.699879
6846.000000;1.698579
6845.000000;1.696737
6844.000000;1.695046
6843.000000;1.693558
6842.000000;1.692032
6841.000000;1.690419
6840.000000;1.688708
6839.000000;1.686753
6838.000000;1.684607
6837.000000;1.682648
6836.000000;1.681125
6835.000000;1.679959
6834.000000;1.679173
6833.000000;1.678987
6832.000000;1.679178
6831.000000;1.678919
6830.000000;1.677718
6829.000000;1.676014
6828.000000;1.674405
6827.000000;1.672768
6826.000000;1.670692
6825.000000;1.668376
6824.000000;1.666441
6823.000000;1.665114
6822.000000;1.664145
6821.000000;1.663243
6820.000000;1.662059
6819.000000;1.660077
6818.000000;1.657212
6817.000000;1.654342
6816.000000;1.652554
6815.000000;1.651922
6814.000000;1.651541
6813.000000;1.650614
6812.000000;1.648962
6811.000000;1.646625
6810.000000;1.643706
6809.000000;1.640679
6808.000000;1.638256
6807.000000;1.636757
6806.000000;1.635893
6805.000000;1.635124
6804.000000;1.633947
6803.000000;1.632062
6802.000000;1.629748
6801.000000;1.627963
6800.000000;1.627470
6799.000000;1.627843
6798.000000;1.627760
6797.000000;1.626292
6796.000000;1.623519
6795.000000;1.619975
6794.000000;1.616183
6793.000000;1.612817
6792.000000;1.610642
6791.000000;1.609862
6790.000000;1.609776
6789.000000;1.609296
6788.000000;1.607700
6787.000000;1.604932
6786.000000;1.601456
6785.000000;1.597949
6784.000000;1.594916
6783.000000;1.592483
6782.000000;1.590566
6781.000000;1.589134
6780.000000;1.588088
6779.000000;1.587076
6778.000000;1.585709
6777.000000;1.583903
6776.000000;1.581779
6775.000000;1.579395
6774.000000;1.576865
6773.000000;1.574508
6772.000000;1.572476
6771.000000;1.570361
6770.000000;1.567639
6769.000000;1.564434
6768.000000;1.561431
6767.000000;1.559075
6766.000000;1.557218
6765.000000;1.555499
6764.000000;1.553658
6763.000000;1.551495
6762.000000;1.548956
6761.000000;1.546368
6760.000000;1.544238
6759.000000;1.542712
6758.000000;1.541398
6757.000000;1.539739
6756.000000;1.537412
6755.000000;1.534466
6754.000000;1.531357
6753.000000;1.528752
6752.000000;1.526941
6751.000000;1.525455
6750.000000;1.523536
6749.000000;1.521017
6748.000000;1.518409
6747.000000;1.516168
6746.000000;1.514189
6745.000000;1.512035
6744.000000;1.509431
6743.000000;1.506487
6742.000000;1.503649
6741.000000;1.501352
6740.000000;1.499538
6739.000000;1.497616
6738.000000;1.495142
6737.000000;1.492411
6736.000000;1.490095
6735.000000;1.488423
6734.000000;1.487025
6733.000000;1.485440
6732.000000;1.483442
6731.000000;1.480960
6730.000000;1.478073
6729.000000;1.475090
6728.000000;1.472332
6727.000000;1.469850
6726.000000;1.467576
6725.000000;1.465609
6724.000000;1.464046
6723.000000;1.462683
6722.000000;1.461227
6721.000000;1.459692
6720.000000;1.458220
6719.000000;1.456580
6718.000000;1.454291
6717.000000;1.451239
6716.000000;1.447803
6715.000000;1.444363
6714.000000;1.441045
6713.000000;1.437973
6712.000000;1.435384
6711.000000;1.433401
6710.000000;1.431943
6709.000000;1.430868
6708.000000;1.429938
6707.000000;1.428679
6706.000000;1.426679
6705.000000;1.423967
6704.000000;1.420978
6703.000000;1.418050
6702.000000;1.415234
6701.000000;1.412599
6700.000000;1.410300
6699.000000;1.408106
6698.000000;1.405729
6697.000000;1.402893
6696.000000;1.400400
6695.000000;1.398629
6694.000000;1.397188
6693.000000;1.395633
6692.000000;1.393661
6691.000000;1.391374
6690.000000;1.388937
6689.000000;1.386442
6688.000000;1.383870
6687.000000;1.381185
6686.000000;1.378515
6685.000000;1.376176
6684.000000;1.374328
6683.000000;1.372630
6682.000000;1.370507
6681.000000;1.367789
6680.000000;1.364901
6679.000000;1.362396
6678.000000;1.360499
6677.000000;1.359083
6676.000000;1.357817
6675.000000;1.356280
6674.000000;1.354206
6673.000000;1.351727
6672.000000;1.349227
6671.000000;1.346883
6670.000000;1.344544
6669.000000;1.342061
6668.000000;1.339550
6667.000000;1.337238
6666.000000;1.335176
6665.000000;1.333197
6664.000000;1.331064
6663.000000;1.328688
6662.000000;1.326250
6661.000000;1.324044
6660.000000;1.322101
6659.000000;1.320105
6658.000000;1.317890
6657.000000;1.315813
6656.000000;1.314330
6655.000000;1.313281
6654.000000;1.311986
6653.000000;1.310086
6652.000000;1.307905
6651.000000;1.305873
6650.000000;1.303946
6649.000000;1.301790
6648.000000;1.299311
6647.000000;1.296756
6646.000000;1.294391
6645.000000;1.292255
6644.000000;1.290189
6643.000000;1.288028
6642.000000;1.285791
6641.000000;1.283666
6640.000000;1.281740
6639.000000;1.279816
6638.000000;1.277626
6637.000000;1.275180
6636.000000;1.272748
6635.000000;1.270541
6634.000000;1.268520
6633.000000;1.266508
6632.000000;1.264337
6631.000000;1.261980
6630.000000;1.259689
6629.000000;1.257875
6628.000000;1.256610
6627.000000;1.255347
6626.000000;1.253433
6625.000000;1.250859
6624.000000;1.248214
6623.000000;1.245932
6622.000000;1.243941
6621.000000;1.242059
6620.000000;1.240315
6619.000000;1.238736
6618.000000;1.237129
6617.000000;1.235310
6616.000000;1.233343
6615.000000;1.231364
6614.000000;1.229328
6613.000000;1.227110
6612.000000;1.224754
6611.000000;1.222469
6610.000000;1.220470
6609.000000;1.218839
6608.000000;1.217419
6607.000000;1.215810
6606.000000;1.213678
6605.000000;1.211167
6604.000000;1.208815
6603.000000;1.206952
6602.000000;1.205332
6601.000000;1.203497
6600.000000;1.201336
6599.000000;1.199108
6598.000000;1.197044
6597.000000;1.195168
6596.000000;1.193464
6595.000000;1.191975
6594.000000;1.190676
6593.000000;1.189388
6592.000000;1.187941
6591.000000;1.186348
6590.000000;1.184726
6589.000000;1.183052
6588.000000;1.181118
6587.000000;1.178810
6586.000000;1.176379
6585.000000;1.174276
6584.000000;1.172691
6583.000000;1.171350
6582.000000;1.169847
6581.000000;1.168058
6580.000000;1.166150
6579.000000;1.164279
6578.000000;1.162440
6577.000000;1.160562
6576.000000;1.158616
6575.000000;1.156631
6574.000000;1.154704
6573.000000;1.152946
6572.000000;1.151334
6571.000000;1.149667
6570.000000;1.147773
6569.000000;1.145732
6568.000000;1.143788
6567.000000;1.142086
6566.000000;1.140586
6565.000000;1.139141
6564.000000;1.137572
6563.000000;1.135770
6562.000000;1.133852
6561.000000;1.132123
6560.000000;1.130711
6559.000000;1.129335
6558.000000;1.127637
6557.000000;1.125648
6556.000000;1.123729
6555.000000;1.122078
6554.000000;1.120542
6553.000000;1.118905
6552.000000;1.117142
6551.000000;1.115344
6550.000000;1.113598
6549.000000;1.111990
6548.000000;1.110564
6547.000000;1.109209
6546.000000;1.107712
6545.000000;1.105988
6544.000000;1.104157
6543.000000;1.102387
6542.000000;1.100759
6541.000000;1.099286
6540.000000;1.097924
6539.000000;1.096554
6538.000000;1.095069
6537.000000;1.093478
6536.000000;1.091844
6535.000000;1.090160
6534.000000;1.088429
6533.000000;1.086770
6532.000000;1.085272
6531.000000;1.083786
6530.000000;1.082072
6529.000000;1.080167
6528.000000;1.078365
6527.000000;1.076821
6526.000000;1.075396
6525.000000;1.073955
6524.000000;1.072561
6523.000000;1.071265
6522.000000;1.069920
6521.000000;1.068358
6520.000000;1.066646
6519.000000;1.064999
6518.000000;1.063524
6517.000000;1.062177
6516.000000;1.060893
6515.000000;1.059642
6514.000000;1.058380
6513.000000;1.057035
6512.000000;1.055538
6511.000000;1.053864
6510.000000;1.052064
6509.000000;1.050271
6508.000000;1.048594
6507.000000;1.047025
6506.000000;1.045497
6505.000000;1.044012
6504.000000;1.042634
6503.000000;1.041355
6502.000000;1.040100
6501.000000;1.038841
6500.000000;1.037595
6499.000000;1.036292
6498.000000;1.034801
6497.000000;1.033127
6496.000000;1.031469
6495.000000;1.030019
6494.000000;1.028775
6493.000000;1.027604
6492.000000;1.026403
6491.000000;1.025167
6490.000000;1.023977
6489.000000;1.022913
6488.000000;1.021932
6487.000000;1.020833
6486.000000;1.019441
6485.000000;1.017817
6484.000000;1.016192
6483.000000;1.014719
6482.000000;1.013398
6481.000000;1.012205
6480.000000;1.011122
6479.000000;1.010022
6478.000000;1.008698
6477.000000;1.007094
6476.000000;1.005405
6475.000000;1.003863
6474.000000;1.002529
6473.000000;1.001320
6472.000000;1.000149
6471.000000;0.998973
6470.000000;0.997772
6469.000000;0.996560
6468.000000;0.995354
6467.000000;0.994104
6466.000000;0.992723
6465.000000;0.991235
6464.000000;0.989799
6463.000000;0.988541
6462.000000;0.987399
6461.000000;0.986187
6460.000000;0.984779
6459.000000;0.983215
6458.000000;0.981686
6457.000000;0.980408
6456.000000;0.979432
6455.000000;0.978576
6454.000000;0.977587
6453.000000;0.976366
6452.000000;0.974989
6451.000000;0.973551
6450.000000;0.972109
6449.000000;0.970739
6448.000000;0.969507
6447.000000;0.968386
6446.000000;0.967276
6445.000000;0.966148
6444.000000;0.965047
6443.000000;0.963962
6442.000000;0.962812
6441.000000;0.961585
6440.000000;0.960390
6439.000000;0.959317
6438.000000;0.958328
6437.000000;0.957305
6436.000000;0.956134
6435.000000;0.954741
6434.000000;0.953168
6433.000000;0.951606
6432.000000;0.950266
6431.000000;0.949177
6430.000000;0.948197
6429.000000;0.947219
6428.000000;0.946244
6427.000000;0.945248
6426.000000;0.944135
6425.000000;0.942897
6424.000000;0.941685
6423.000000;0.940636
6422.000000;0.939716
6421.000000;0.938787
6420.000000;0.937761
6419.000000;0.936620
6418.000000;0.935395
6417.000000;0.934174
6416.000000;0.933064
6415.000000;0.932072
6414.000000;0.931089
6413.000000;0.930032
6412.000000;0.928937
6411.000000;0.927867
6410.000000;0.926829
6409.000000;0.925826
6408.000000;0.924907
6407.000000;0.924082
6406.000000;0.923251
6405.000000;0.922293
6404.000000;0.921190
6403.000000;0.920018
6402.000000;0.918855
6401.000000;0.917768
6400.000000;0.916813
6399.000000;0.915989
6398.000000;0.915198
6397.000000;0.914318
6396.000000;0.913300
6395.000000;0.912168
6394.000000;0.910980
6393.000000;0.909798
6392.000000;0.908682
6391.000000;0.907643
6390.000000;0.906628
6389.000000;0.905574
6388.000000;0.904452
6387.000000;0.903268
6386.000000;0.902077
6385.000000;0.900993
6384.000000;0.900130
6383.000000;0.899474
6382.000000;0.898856
6381.000000;0.898078
6380.000000;0.897049
6379.000000;0.895815
6378.000000;0.894493
6377.000000;0.893221
6376.000000;0.892093
6375.000000;0.891116
6374.000000;0.890231
6373.000000;0.889394
6372.000000;0.888613
6371.000000;0.887887
6370.000000;0.887153
6369.000000;0.886328
6368.000000;0.885373
6367.000000;0.884319
6366.000000;0.883234
6365.000000;0.882180
6364.000000;0.881186
6363.000000;0.880251
6362.000000;0.879379
6361.000000;0.878587
6360.000000;0.877855
6359.000000;0.877108
6358.000000;0.876275
6357.000000;0.875340
6356.000000;0.874323
6355.000000;0.873259
6354.000000;0.872243
6353.000000;0.871396
6352.000000;0.870721
6351.000000;0.870052
6350.000000;0.869234
6349.000000;0.868311
6348.000000;0.867430
6347.000000;0.866607
6346.000000;0.865735
6345.000000;0.864804
6344.000000;0.863943
6343.000000;0.863227
6342.000000;0.862563
6341.000000;0.861834
6340.000000;0.861023
6339.000000;0.860166
6338.000000;0.859262
6337.000000;0.858320
6336.000000;0.857392
6335.000000;0.856518
6334.000000;0.855669
6333.000000;0.854828
6332.000000;0.854044
6331.000000;0.853367
6330.000000;0.852757
6329.000000;0.852121
6328.000000;0.851403
6327.000000;0.850601
6326.000000;0.849738
6325.000000;0.848842
6324.000000;0.847951
6323.000000;0.847080
6322.000000;0.846214
6321.000000;0.845340
6320.000000;0.844467
6319.000000;0.843612
6318.000000;0.842792
6317.000000;0.842029
6316.000000;0.841331
6315.000000;0.840669
6314.000000;0.840004
6313.000000;0.839331
6312.000000;0.838640
6311.000000;0.837879
6310.000000;0.837009
6309.000000;0.836083
6308.000000;0.835201
6307.000000;0.834383
6306.000000;0.833574
6305.000000;0.832770
6304.000000;0.832031
6303.000000;0.831377
6302.000000;0.830755
6301.000000;0.830136
6300.000000;0.829542
6299.000000;0.828948
6298.000000;0.828247
6297.000000;0.827381
6296.000000;0.826456
6295.000000;0.825632
6294.000000;0.824963
6293.000000;0.824382
6292.000000;0.823793
6291.000000;0.823139
6290.000000;0.822401
6289.000000;0.821602
6288.000000;0.820809
6287.000000;0.820082
6286.000000;0.819423
6285.000000;0.818793
6284.000000;0.818159
6283.000000;0.817513
6282.000000;0.816857
6281.000000;0.816191
6280.000000;0.815515
6279.000000;0.814831
6278.000000;0.814148
6277.000000;0.813468
6276.000000;0.812745
6275.000000;0.811918
6274.000000;0.811010
6273.000000;0.810181
6272.000000;0.809598
6271.000000;0.809242
6270.000000;0.808913
6269.000000;0.808428
6268.000000;0.807763
6267.000000;0.807009
6266.000000;0.806262
6265.000000;0.805571
6264.000000;0.804937
6263.000000;0.804327
6262.000000;0.803703
6261.000000;0.803061
6260.000000;0.802422
6259.000000;0.801784
6258.000000;0.801121
6257.000000;0.800432
6256.000000;0.799749
6255.000000;0.799086
6254.000000;0.798434
6253.000000;0.797779
6252.000000;0.797100
6251.000000;0.796357
6250.000000;0.795544
6249.000000;0.794756
6248.000000;0.794126
6247.000000;0.793666
6246.000000;0.793224
6245.000000;0.792633
6244.000000;0.791877
6243.000000;0.791103
6242.000000;0.790486
6241.000000;0.790087
6240.000000;0.789804
6239.000000;0.789450
6238.000000;0.788927
6237.000000;0.788300
6236.000000;0.787688
6235.000000;0.787096
6234.000000;0.786431
6233.000000;0.785662
6232.000000;0.784890
6231.000000;0.784218
6230.000000;0.783633
6229.000000;0.783035
6228.000000;0.782356
6227.000000;0.781607
6226.000000;0.780859
6225.000000;0.780191
6224.000000;0.779631
6223.000000;0.779122
6222.000000;0.778582
6221.000000;0.777997
6220.000000;0.777432
6219.000000;0.776945
6218.000000;0.776512
6217.000000;0.776051
6216.000000;0.775506
6215.000000;0.774888
6214.000000;0.774271
6213.000000;0.773735
6212.000000;0.773271
6211.000000;0.772780
6210.000000;0.772183
6209.000000;0.771538
6208.000000;0.770972
6207.000000;0.770526
6206.000000;0.770117
6205.000000;0.769658
6204.000000;0.769143
6203.000000;0.768598
6202.000000;0.768025
6201.000000;0.767434
6200.000000;0.766870
6199.000000;0.766346
6198.000000;0.765799
6197.000000;0.765144
6196.000000;0.764384
6195.000000;0.763625
6194.000000;0.762994
6193.000000;0.762533
6192.000000;0.762172
6191.000000;0.761793
6190.000000;0.761334
6189.000000;0.760828
6188.000000;0.760336
6187.000000;0.759861
6186.000000;0.759358
6185.000000;0.758802
6184.000000;0.758226
6183.000000;0.757687
6182.000000;0.757217
6181.000000;0.756806
6180.000000;0.756395
6179.000000;0.755924
6178.000000;0.755378
6177.000000;0.754798
6176.000000;0.754226
6175.000000;0.753667
6174.000000;0.753121
6173.000000;0.752598
6172.000000;0.752090
6171.000000;0.751578
6170.000000;0.751090
6169.000000;0.750687
6168.000000;0.750348
6167.000000;0.749942
6166.000000;0.749384
6165.000000;0.748757
6164.000000;0.748190
6163.000000;0.747695
6162.000000;0.747193
6161.000000;0.746678
6160.000000;0.746231
6159.000000;0.745881
6158.000000;0.745555
6157.000000;0.745174
6156.000000;0.744723
6155.000000;0.744217
6154.000000;0.743674
6153.000000;0.743136
6152.000000;0.742626
6151.000000;0.742112
6150.000000;0.741548
6149.000000;0.740970
6148.000000;0.740458
6147.000000;0.740015
6146.000000;0.739554
6145.000000;0.739020
6144.000000;0.738460
6143.000000;0.737948
6142.000000;0.737514
6141.000000;0.737134
6140.000000;0.736757
6139.000000;0.736324
6138.000000;0.735838
6137.000000;0.735393
6136.000000;0.735054
6135.000000;0.734731
6134.000000;0.734251
6133.000000;0.733588
6132.000000;0.732916
6131.000000;0.732403
6130.000000;0.732037
6129.000000;0.731701
6128.000000;0.731353
6127.000000;0.731047
6126.000000;0.730825
6125.000000;0.730627
6124.000000;0.730328
6123.000000;0.729852
6122.000000;0.729271
6121.000000;0.728746
6120.000000;0.728350
6119.000000;0.727970
6118.000000;0.727445
6117.000000;0.726777
6116.000000;0.726143
6115.000000;0.725695
6114.000000;0.725427
6113.000000;0.725223
6112.000000;0.724958
6111.000000;0.724543
6110.000000;0.723969
6109.000000;0.723330
6108.000000;0.722744
6107.000000;0.722228
6106.000000;0.721719
6105.000000;0.721212
6104.000000;0.720799
6103.000000;0.720547
6102.000000;0.720389
6101.000000;0.720193
6100.000000;0.719875
6099.000000;0.719428
6098.000000;0.718897
6097.000000;0.718362
6096.000000;0.717897
6095.000000;0.717509
6094.000000;0.717145
6093.000000;0.716766
6092.000000;0.716376
6091.000000;0.715973
6090.000000;0.715549
6089.000000;0.715153
6088.000000;0.714869
6087.000000;0.714693
6086.000000;0.714499
6085.000000;0.714162
6084.000000;0.713692
6083.000000;0.713207
6082.000000;0.712811
6081.000000;0.712523
6080.000000;0.712264
6079.000000;0.711911
6078.000000;0.711386
6077.000000;0.710749
6076.000000;0.710144
6075.000000;0.709663
6074.000000;0.709283
6073.000000;0.708953
6072.000000;0.708663
6071.000000;0.708412
6070.000000;0.708157
6069.000000;0.707866
6068.000000;0.707551
6067.000000;0.707231
6066.000000;0.706881
6065.000000;0.706470
6064.000000;0.706035
6063.000000;0.705655
6062.000000;0.705375
6061.000000;0.705173
6060.000000;0.704982
6059.000000;0.704737
6058.000000;0.704409
6057.000000;0.704012
6056.000000;0.703586
6055.000000;0.703156
6054.000000;0.702750
6053.000000;0.702412
6052.000000;0.702180
6051.000000;0.702026
6050.000000;0.701862
6049.000000;0.701611
6048.000000;0.701256
6047.000000;0.700824
6046.000000;0.700360
6045.000000;0.699920
6044.000000;0.699537
6043.000000;0.699181
6042.000000;0.698786
6041.000000;0.698322
6040.000000;0.697829
6039.000000;0.697378
6038.000000;0.697024
6037.000000;0.696783
6036.000000;0.696624
6035.000000;0.696468
6034.000000;0.696249
6033.000000;0.695964
6032.000000;0.695650
6031.000000;0.695308
6030.000000;0.694918
6029.000000;0.694502
6028.000000;0.694125
6027.000000;0.693816
6026.000000;0.693531
6025.000000;0.693219
6024.000000;0.692880
6023.000000;0.692566
6022.000000;0.692330
6021.000000;0.692184
6020.000000;0.692082
6019.000000;0.691945
6018.000000;0.691733
6017.000000;0.691468
6016.000000;0.691184
6015.000000;0.690878
6014.000000;0.690557
6013.000000;0.690272
6012.000000;0.690053
6011.000000;0.689847
6010.000000;0.689585
6009.000000;0.689279
6008.000000;0.688984
6007.000000;0.688696
6006.000000;0.688383
6005.000000;0.688083
6004.000000;0.687872
6003.000000;0.687733
6002.000000;0.687562
6001.000000;0.687308
6000.000000;0.687014
5999.000000;0.686710
5998.000000;0.686368
5997.000000;0.685994
5996.000000;0.685664
5995.000000;0.685420
5994.000000;0.685214
5993.000000;0.684999
5992.000000;0.684813
5991.000000;0.684706
5990.000000;0.684635
5989.000000;0.684495
5988.000000;0.684220
5987.000000;0.683840
5986.000000;0.683447
5985.000000;0.683131
5984.000000;0.682900
5983.000000;0.682670
5982.000000;0.682352
5981.000000;0.681968
5980.000000;0.681600
5979.000000;0.681264
5978.000000;0.680910
5977.000000;0.680560
5976.000000;0.680323
5975.000000;0.680247
5974.000000;0.680224
5973.000000;0.680116
5972.000000;0.679882
5971.000000;0.679556
5970.000000;0.679155
5969.000000;0.678708
5968.000000;0.678299
5967.000000;0.678010
5966.000000;0.677851
5965.000000;0.677780
5964.000000;0.677753
5963.000000;0.677714
5962.000000;0.677593
5961.000000;0.677387
5960.000000;0.677196
5959.000000;0.677102
5958.000000;0.677044
5957.000000;0.676880
5956.000000;0.676562
5955.000000;0.676184
5954.000000;0.675875
5953.000000;0.675709
5952.000000;0.675703
5951.000000;0.675824
5950.000000;0.675966
5949.000000;0.675976
5948.000000;0.675757
5947.000000;0.675336
5946.000000;0.674839
5945.000000;0.674385
5944.000000;0.674026
5943.000000;0.673751
5942.000000;0.673544
5941.000000;0.673408
5940.000000;0.673342
5939.000000;0.673304
5938.000000;0.673248
5937.000000;0.673158
5936.000000;0.673036
5935.000000;0.672864
5934.000000;0.672635
5933.000000;0.672409
5932.000000;0.672284
5931.000000;0.672280
5930.000000;0.672299
5929.000000;0.672237
5928.000000;0.672082
5927.000000;0.671898
5926.000000;0.671740
5925.000000;0.671635
5924.000000;0.671602
5923.000000;0.671643
5922.000000;0.671715
5921.000000;0.671749
5920.000000;0.671694
5919.000000;0.671542
5918.000000;0.671309
5917.000000;0.671028
5916.000000;0.670736
5915.000000;0.670462
5914.000000;0.670219
5913.000000;0.670009
5912.000000;0.669822
5911.000000;0.669653
5910.000000;0.669516
5909.000000;0.669435
5908.000000;0.669405
5907.000000;0.669371
5906.000000;0.669272
5905.000000;0.669107
5904.000000;0.668929
5903.000000;0.668794
5902.000000;0.668730
5901.000000;0.668737
5900.000000;0.668759
5899.000000;0.668694
5898.000000;0.668475
5897.000000;0.668160
5896.000000;0.667894
5895.000000;0.667771
5894.000000;0.667756
5893.000000;0.667740
5892.000000;0.667640
5891.000000;0.667467
5890.000000;0.667319
5889.000000;0.667297
5888.000000;0.667399
5887.000000;0.667506
5886.000000;0.667507
5885.000000;0.667423
5884.000000;0.667356
5883.000000;0.667341
5882.000000;0.667315
5881.000000;0.667224
5880.000000;0.667080
5879.000000;0.666908
5878.000000;0.666717
5877.000000;0.666534
5876.000000;0.666422
5875.000000;0.666399
5874.000000;0.666412
5873.000000;0.666402
5872.000000;0.666364
5871.000000;0.666326
5870.000000;0.666299
5869.000000;0.666292
5868.000000;0.666330
5867.000000;0.666422
5866.000000;0.666537
5865.000000;0.666636
5864.000000;0.666685
5863.000000;0.666665
5862.000000;0.666576
5861.000000;0.666462
5860.000000;0.666378
5859.000000;0.666326
5858.000000;0.666261
5857.000000;0.666175
5856.000000;0.666133
5855.000000;0.666196
5854.000000;0.666344
5853.000000;0.666486
5852.000000;0.666536
5851.000000;0.666470
5850.000000;0.666331
5849.000000;0.666210
5848.000000;0.666184
5847.000000;0.666268
5846.000000;0.666430
5845.000000;0.666640
5844.000000;0.666865
5843.000000;0.667048
5842.000000;0.667133
5841.000000;0.667123
5840.000000;0.667077
5839.000000;0.667039
5838.000000;0.667005
5837.000000;0.666974
5836.000000;0.666965
5835.000000;0.666992
5834.000000;0.667062
5833.000000;0.667208
5832.000000;0.667456
5831.000000;0.667752
5830.000000;0.667961
5829.000000;0.667991
5828.000000;0.667886
5827.000000;0.667778
5826.000000;0.667771
5825.000000;0.667877
5824.000000;0.668042
5823.000000;0.668199
5822.000000;0.668325
5821.000000;0.668439
5820.000000;0.668575
5819.000000;0.668742
5818.000000;0.668930
5817.000000;0.669126
5816.000000;0.669301
5815.000000;0.669403
5814.000000;0.669409
5813.000000;0.669359
5812.000000;0.669326
5811.000000;0.669361
5810.000000;0.669499
5809.000000;0.669760
5808.000000;0.670110
5807.000000;0.670429
5806.000000;0.670612
5805.000000;0.670684
5804.000000;0.670755
5803.000000;0.670875
5802.000000;0.671003
5801.000000;0.671094
5800.000000;0.671158
5799.000000;0.671231
5798.000000;0.671346
5797.000000;0.671547
5796.000000;0.671846
5795.000000;0.672170
5794.000000;0.672428
5793.000000;0.672618
5792.000000;0.672818
5791.000000;0.673048
5790.000000;0.673229
5789.000000;0.673300
5788.000000;0.673301
5787.000000;0.673337
5786.000000;0.673495
5785.000000;0.673807
5784.000000;0.674233
5783.000000;0.674646
5782.000000;0.674926
5781.000000;0.675065
5780.000000;0.675163
5779.000000;0.675303
5778.000000;0.675510
5777.000000;0.675812
5776.000000;0.676240
5775.000000;0.676739
5774.000000;0.677164
5773.000000;0.677440
5772.000000;0.677648
5771.000000;0.677913
5770.000000;0.678265
5769.000000;0.678649
5768.000000;0.679025
5767.000000;0.679364
5766.000000;0.679616
5765.000000;0.679751
5764.000000;0.679826
5763.000000;0.679956
5762.000000;0.680219
5761.000000;0.680598
5760.000000;0.681019
5759.000000;0.681404
5758.000000;0.681731
5757.000000;0.682040
5756.000000;0.682387
5755.000000;0.682782
5754.000000;0.683194
5753.000000;0.683600
5752.000000;0.683991
5751.000000;0.684333
5750.000000;0.684585
5749.000000;0.684775
5748.000000;0.685015
5747.000000;0.685402
5746.000000;0.685940
5745.000000;0.686546
5744.000000;0.687118
5743.000000;0.687579
5742.000000;0.687925
5741.000000;0.688245
5740.000000;0.688639
5739.000000;0.689120
5738.000000;0.689604
5737.000000;0.690011
5736.000000;0.690333
5735.000000;0.690603
5734.000000;0.690871
5733.000000;0.691200
5732.000000;0.691652
5731.000000;0.692207
5730.000000;0.692758
5729.000000;0.693203
5728.000000;0.693522
5727.000000;0.693791
5726.000000;0.694126
5725.000000;0.694620
5724.000000;0.695261
5723.000000;0.695928
5722.000000;0.696501
5721.000000;0.696975
5720.000000;0.697425
5719.000000;0.697885
5718.000000;0.698332
5717.000000;0.698770
5716.000000;0.699247
5715.000000;0.699775
5714.000000;0.700315
5713.000000;0.700850
5712.000000;0.701404
5711.000000;0.701976
5710.000000;0.702519
5709.000000;0.703022
5708.000000;0.703530
5707.000000;0.704075
5706.000000;0.704634
5705.000000;0.705192
5704.000000;0.705771
5703.000000;0.706371
5702.000000;0.706948
5701.000000;0.707480
5700.000000;0.707990
5699.000000;0.708508
5698.000000;0.709042
5697.000000;0.709629
5696.000000;0.710299
5695.000000;0.711047
5694.000000;0.711771
5693.000000;0.712529
5692.000000;0.713242
5691.000000;0.713865
5690.000000;0.714406
5689.000000;0.714836
5688.000000;0.715261
5687.000000;0.715752
5686.000000;0.716305
5685.000000;0.716879
5684.000000;0.717464
5683.000000;0.718058
5682.000000;0.718638
5681.000000;0.719197
5680.000000;0.719740
5679.000000;0.720245
5678.000000;0.720685
5677.000000;0.721123
5676.000000;0.721695
5675.000000;0.722445
5674.000000;0.723239
5673.000000;0.723909
5672.000000;0.724423
5671.000000;0.724877
5670.000000;0.725365
5669.000000;0.725925
5668.000000;0.726552
5667.000000;0.727228
5666.000000;0.727926
5665.000000;0.728611
5664.000000;0.729220
5663.000000;0.729677
5662.000000;0.729994
5661.000000;0.730330
5660.000000;0.730855
5659.000000;0.731550
5658.000000;0.732232
5657.000000;0.732787
5656.000000;0.733270
5655.000000;0.733756
5654.000000;0.734216
5653.000000;0.734609
5652.000000;0.734991
5651.000000;0.735450
5650.000000;0.736006
5649.000000;0.736630
5648.000000;0.737301
5647.000000;0.737979
5646.000000;0.738579
5645.000000;0.739041
5644.000000;0.739399
5643.000000;0.739744
5642.000000;0.740157
5641.000000;0.740693
5640.000000;0.741342
5639.000000;0.741988
5638.000000;0.742474
5637.000000;0.742775
5636.000000;0.743038
5635.000000;0.743419
5634.000000;0.743926
5633.000000;0.744462
5632.000000;0.744935
5631.000000;0.745296
5630.000000;0.745538
5629.000000;0.745734
5628.000000;0.746006
5627.000000;0.746394
5626.000000;0.746825
5625.000000;0.747234
5624.000000;0.747640
5623.000000;0.748052
5622.000000;0.748378
5621.000000;0.748546
5620.000000;0.748623
5619.000000;0.748749
5618.000000;0.748985
5617.000000;0.749302
5616.000000;0.749664
5615.000000;0.750039
5614.000000;0.750372
5613.000000;0.750628
5612.000000;0.750835
5611.000000;0.751035
5610.000000;0.751223
5609.000000;0.751396
5608.000000;0.751600
5607.000000;0.751891
5606.000000;0.752271
5605.000000;0.752697
5604.000000;0.753116
5603.000000;0.753444
5602.000000;0.753604
5601.000000;0.753626
5600.000000;0.753653
5599.000000;0.753795
5598.000000;0.754019
5597.000000;0.754233
5596.000000;0.754404
5595.000000;0.754532
5594.000000;0.754592
5593.000000;0.754567
5592.000000;0.754512
5591.000000;0.754498
5590.000000;0.754526
5589.000000;0.754538
5588.000000;0.754491
5587.000000;0.754372
5586.000000;0.754200
5585.000000;0.754057
5584.000000;0.754046
5583.000000;0.754182
5582.000000;0.754353
5581.000000;0.754454
5580.000000;0.754495
5579.000000;0.754544
5578.000000;0.754634
5577.000000;0.754772
5576.000000;0.754958
5575.000000;0.755137
5574.000000;0.755210
5573.000000;0.755167
5572.000000;0.755133
5571.000000;0.755212
5570.000000;0.755329
5569.000000;0.755340
5568.000000;0.755233
5567.000000;0.755109
5566.000000;0.755021
5565.000000;0.754943
5564.000000;0.754878
5563.000000;0.754858
5562.000000;0.754847
5561.000000;0.754747
5560.000000;0.754522
5559.000000;0.754229
5558.000000;0.753917
5557.000000;0.753602
5556.000000;0.753352
5555.000000;0.753300
5554.000000;0.753495
5553.000000;0.753821
5552.000000;0.754136
5551.000000;0.754433
5550.000000;0.754795
5549.000000;0.755204
5548.000000;0.755490
5547.000000;0.755473
5546.000000;0.755123
5545.000000;0.754584
5544.000000;0.754057
5543.000000;0.753643
5542.000000;0.753288
5541.000000;0.752894
5540.000000;0.752493
5539.000000;0.752255
5538.000000;0.752277
5537.000000;0.752442
5536.000000;0.752583
5535.000000;0.752697
5534.000000;0.752897
5533.000000;0.753177
5532.000000;0.753365
5531.000000;0.753316
5530.000000;0.753047
5529.000000;0.752646
5528.000000;0.752137
5527.000000;0.751518
5526.000000;0.750902
5525.000000;0.750531
5524.000000;0.750589
5523.000000;0.750980
5522.000000;0.751383
5521.000000;0.751548
5520.000000;0.751558
5519.000000;0.751743
5518.000000;0.752285
5517.000000;0.752999
5516.000000;0.753504
5515.000000;0.753555
5514.000000;0.753179
5513.000000;0.752551
5512.000000;0.751889
5511.000000;0.751456
5510.000000;0.751437
5509.000000;0.751746
5508.000000;0.752072
5507.000000;0.752241
5506.000000;0.752441
5505.000000;0.752959
5504.000000;0.753735
5503.000000;0.754348
5502.000000;0.754486
5501.000000;0.754208
5500.000000;0.753675
5499.000000;0.752859
5498.000000;0.751724
5497.000000;0.750687
5496.000000;0.750566
5495.000000;0.751797
5494.000000;0.753948
5493.000000;0.756206
5492.000000;0.758216
5491.000000;0.760192
5490.000000;0.762244
5489.000000;0.764000
5488.000000;0.764983
5487.000000;0.765031
5486.000000;0.764162
5485.000000;0.762347
5484.000000;0.759734
5483.000000;0.756882
5482.000000;0.754427
5481.000000;0.752523
5480.000000;0.750958
5479.000000;0.749991
5478.000000;0.750516
5477.000000;0.753052
5476.000000;0.756875
5475.000000;0.760376
5474.000000;0.762419
5473.000000;0.763126
5472.000000;0.763261
5471.000000;0.763288
5470.000000;0.763218
5469.000000;0.762971
5468.000000;0.762571
5467.000000;0.762143
5466.000000;0.761838
5465.000000;0.761970
5464.000000;0.763038
5463.000000;0.765210
5462.000000;0.767851
5461.000000;0.769868
5460.000000;0.770657
5459.000000;0.770582
5458.000000;0.770358
5457.000000;0.770181
5456.000000;0.769746
5455.000000;0.768813
5454.000000;0.767518
5453.000000;0.766352
5452.000000;0.765893
5451.000000;0.766323
5450.000000;0.767349
5449.000000;0.768822
5448.000000;0.771125
5447.000000;0.774486
5446.000000;0.778171
5445.000000;0.781253
5444.000000;0.783932
5443.000000;0.787026
5442.000000;0.790316
5441.000000;0.792462
5440.000000;0.792594
5439.000000;0.791383
5438.000000;0.790301
5437.000000;0.790209
5436.000000;0.790959
5435.000000;0.791852
5434.000000;0.792210
5433.000000;0.792206
5432.000000;0.793038
5431.000000;0.795676
5430.000000;0.799709
5429.000000;0.803717
5428.000000;0.806453
5427.000000;0.807577
5426.000000;0.807515
5425.000000;0.806920
5424.000000;0.806190
5423.000000;0.805212
5422.000000;0.803555
5421.000000;0.801069
5420.000000;0.798145
5419.000000;0.795459
5418.000000;0.793950
5417.000000;0.794769
5416.000000;0.798513
5415.000000;0.804525
5414.000000;0.811394
5413.000000;0.818394
5412.000000;0.825856
5411.000000;0.833696
5410.000000;0.840476
5409.000000;0.844696
5408.000000;0.846303
5407.000000;0.846143
5406.000000;0.844561
5405.000000;0.841566
5404.000000;0.837909
5403.000000;0.834892
5402.000000;0.833214
5401.000000;0.832782
5400.000000;0.833610
5399.000000;0.835800
5398.000000;0.839012
5397.000000;0.842949
5396.000000;0.847896
5395.000000;0.854143
5394.000000;0.861037
5393.000000;0.867357
5392.000000;0.872572
5391.000000;0.876934
5390.000000;0.880612
5389.000000;0.883583
5388.000000;0.886248
5387.000000;0.889299
5386.000000;0.892760
5385.000000;0.895883
5384.000000;0.898361
5383.000000;0.900891
5382.000000;0.903958
5381.000000;0.907347
5380.000000;0.911271
5379.000000;0.916528
5378.000000;0.923334
5377.000000;0.930824
5376.000000;0.938034
5375.000000;0.944903
5374.000000;0.951730
5373.000000;0.958166
5372.000000;0.963648
5371.000000;0.968184
5370.000000;0.972094
5369.000000;0.975389
5368.000000;0.978059
5367.000000;0.980881
5366.000000;0.985175
5365.000000;0.991536
5364.000000;0.999299
5363.000000;1.007544
5362.000000;1.015933
5361.000000;1.024456
5360.000000;1.032903
5359.000000;1.040930
5358.000000;1.048685
5357.000000;1.057010
5356.000000;1.066910
5355.000000;1.078786
5354.000000;1.092040
5353.000000;1.105447
5352.000000;1.118146
5351.000000;1.130238
5350.000000;1.142077
5349.000000;1.153587
5348.000000;1.164863
5347.000000;1.176804
5346.000000;1.190290
5345.000000;1.204814
5344.000000;1.218694
5343.000000;1.231160
5342.000000;1.243518
5341.000000;1.257301
5340.000000;1.272411
5339.000000;1.287703
5338.000000;1.302316
5337.000000;1.315837
5336.000000;1.328058
5335.000000;1.339414
5334.000000;1.351100
5333.000000;1.363899
5332.000000;1.377026
5331.000000;1.389173
5330.000000;1.400521
5329.000000;1.412639
5328.000000;1.426354
5327.000000;1.440767
5326.000000;1.454736
5325.000000;1.468280
5324.000000;1.481852
5323.000000;1.495415
5322.000000;1.508960
5321.000000;1.522687
5320.000000;1.536273
5319.000000;1.548977
5318.000000;1.560890
5317.000000;1.573131
5316.000000;1.586443
5315.000000;1.600328
5314.000000;1.613895
5313.000000;1.626888
5312.000000;1.639532
5311.000000;1.652187
5310.000000;1.665161
5309.000000;1.678171
5308.000000;1.690051
5307.000000;1.699824
5306.000000;1.708088
5305.000000;1.716382
5304.000000;1.725203
5303.000000;1.733598
5302.000000;1.740673
5301.000000;1.746492
5300.000000;1.751455
5299.000000;1.755923
5298.000000;1.760637
5297.000000;1.766337
5296.000000;1.772497
5295.000000;1.777451
5294.000000;1.780409
5293.000000;1.782326
5292.000000;1.784296
5291.000000;1.786408
5290.000000;1.788584
5289.000000;1.791444
5288.000000;1.795534
5287.000000;1.800334
5286.000000;1.804692
5285.000000;1.807683
5284.000000;1.808763
5283.000000;1.807821
5282.000000;1.805666
5281.000000;1.803900
5280.000000;1.803693
5279.000000;1.804856
5278.000000;1.806270
5277.000000;1.806885
5276.000000;1.806087
5275.000000;1.803726
5274.000000;1.800507
5273.000000;1.797981
5272.000000;1.797461
5271.000000;1.798893
5270.000000;1.801014
5269.000000;1.802611
5268.000000;1.803802
5267.000000;1.805950
5266.000000;1.810121
5265.000000;1.815760
5264.000000;1.820963
5263.000000;1.824203
5262.000000;1.825562
5261.000000;1.826066
5260.000000;1.826261
5259.000000;1.826142
5258.000000;1.825742
5257.000000;1.824953
5256.000000;1.823301
5255.000000;1.820725
5254.000000;1.818200
5253.000000;1.816928
5252.000000;1.817221
5251.000000;1.818677
5250.000000;1.821035
5249.000000;1.823877
5248.000000;1.826214
5247.000000;1.827434
5246.000000;1.828177
5245.000000;1.829297
5244.000000;1.830230
5243.000000;1.829670
5242.000000;1.827566
5241.000000;1.825086
5240.000000;1.822517
5239.000000;1.818915
5238.000000;1.814144
5237.000000;1.809836
5236.000000;1.807724
5235.000000;1.807972
5234.000000;1.809623
5233.000000;1.811761
5232.000000;1.813799
5231.000000;1.815269
5230.000000;1.816142
5229.000000;1.817101
5228.000000;1.818774
5227.000000;1.820833
5226.000000;1.822380
5225.000000;1.823091
5224.000000;1.823311
5223.000000;1.823290
5222.000000;1.822993
5221.000000;1.822568
5220.000000;1.822324
5219.000000;1.822132
5218.000000;1.821362
5217.000000;1.819536
5216.000000;1.816795
5215.000000;1.813836
5214.000000;1.811415
5213.000000;1.809879
5212.000000;1.809095
5211.000000;1.808838
5210.000000;1.809309
5209.000000;1.810958
5208.000000;1.813738
5207.000000;1.817044
5206.000000;1.820470
5205.000000;1.823877
5204.000000;1.826585
5203.000000;1.827372
5202.000000;1.825643
5201.000000;1.822169
5200.000000;1.818473
5199.000000;1.815669
5198.000000;1.814017
5197.000000;1.813143
5196.000000;1.812415
5195.000000;1.811517
5194.000000;1.810750
5193.000000;1.810469
5192.000000;1.810232
5191.000000;1.809065
5190.000000;1.806849
5189.000000;1.804902
5188.000000;1.804723
5187.000000;1.806554
5186.000000;1.809505
5185.000000;1.812545
5184.000000;1.814909
5183.000000;1.815991
5182.000000;1.815532
5181.000000;1.813941
5180.000000;1.812149
5179.000000;1.811004
5178.000000;1.810775
5177.000000;1.811082
5176.000000;1.811243
5175.000000;1.810782
5174.000000;1.809680
5173.000000;1.808142
5172.000000;1.806355
5171.000000;1.804655
5170.000000;1.803492
5169.000000;1.802801
5168.000000;1.801868
5167.000000;1.800432
5166.000000;1.799570
5165.000000;1.800651
5164.000000;1.803548
5163.000000;1.806590
5162.000000;1.808282
5161.000000;1.808416
5160.000000;1.807599
5159.000000;1.806587
5158.000000;1.806132
5157.000000;1.806539
5156.000000;1.807095
5155.000000;1.806661
5154.000000;1.805120
5153.000000;1.803605
5152.000000;1.803139
5151.000000;1.803698
5150.000000;1.804570
5149.000000;1.804900
5148.000000;1.804026
5147.000000;1.802067
5146.000000;1.800101
5145.000000;1.798980
5144.000000;1.798209
5143.000000;1.796982
5142.000000;1.795970
5141.000000;1.796739
5140.000000;1.799396
5139.000000;1.802012
5138.000000;1.802781
5137.000000;1.801739
5136.000000;1.800002
5135.000000;1.798449
5134.000000;1.797713
5133.000000;1.798220
5132.000000;1.799407
5131.000000;1.799855
5130.000000;1.798954
5129.000000;1.797681
5128.000000;1.797191
5127.000000;1.797387
5126.000000;1.797390
5125.000000;1.796611
5124.000000;1.794833
5123.000000;1.792082
5122.000000;1.789161
5121.000000;1.787628
5120.000000;1.788429
5119.000000;1.790841
5118.000000;1.793189
5117.000000;1.794345
5116.000000;1.794303
5115.000000;1.793816
5114.000000;1.793870
5113.000000;1.795032
5112.000000;1.796847
5111.000000;1.798267
5110.000000;1.798933
5109.000000;1.799448
5108.000000;1.800268
5107.000000;1.801007
5106.000000;1.801102
5105.000000;1.800457
5104.000000;1.799177
5103.000000;1.797366
5102.000000;1.795471
5101.000000;1.794186
5100.000000;1.793760
5099.000000;1.793928
5098.000000;1.794541
5097.000000;1.795606
5096.000000;1.796693
5095.000000;1.797206
5094.000000;1.797313
5093.000000;1.797692
5092.000000;1.798209
5091.000000;1.797883
5090.000000;1.796387
5089.000000;1.794536
5088.000000;1.793017
5087.000000;1.791729
5086.000000;1.790748
5085.000000;1.790756
5084.000000;1.791933
5083.000000;1.793445
5082.000000;1.794610
5081.000000;1.795617
5080.000000;1.796572
5079.000000;1.796880
5078.000000;1.796257
5077.000000;1.795383
5076.000000;1.794837
5075.000000;1.794364
5074.000000;1.793865
5073.000000;1.793981
5072.000000;1.794848
5071.000000;1.795369
5070.000000;1.794728
5069.000000;1.793735
5068.000000;1.793654
5067.000000;1.794475
5066.000000;1.795326
5065.000000;1.795845
5064.000000;1.796129
5063.000000;1.795979
5062.000000;1.795186
5061.000000;1.794086
5060.000000;1.792954
5059.000000;1.791409
5058.000000;1.789253
5057.000000;1.787370
5056.000000;1.786908
5055.000000;1.787925
5054.000000;1.789549
5053.000000;1.791117
5052.000000;1.792514
5051.000000;1.793779
5050.000000;1.794982
5049.000000;1.796180
5048.000000;1.797065
5047.000000;1.797113
5046.000000;1.796431
5045.000000;1.795762
5044.000000;1.795267
5043.000000;1.794210
5042.000000;1.792387
5041.000000;1.790914
5040.000000;1.790818
5039.000000;1.791705
5038.000000;1.792623
5037.000000;1.793443
5036.000000;1.794442
5035.000000;1.795205
5034.000000;1.795111
5033.000000;1.794504
5032.000000;1.794374
5031.000000;1.795123
5030.000000;1.796342
5029.000000;1.797403
5028.000000;1.797634
5027.000000;1.796457
5026.000000;1.794121
5025.000000;1.791709
5024.000000;1.789839
5023.000000;1.788053
5022.000000;1.786079
5021.000000;1.784869
5020.000000;1.785470
5019.000000;1.787423
5018.000000;1.789233
5017.000000;1.790079
5016.000000;1.790146
5015.000000;1.789638
5014.000000;1.788537
5013.000000;1.787190
5012.000000;1.786236
5011.000000;1.785935
5010.000000;1.786057
5009.000000;1.786255
5008.000000;1.786221
5007.000000;1.785724
5006.000000;1.784852
5005.000000;1.783912
5004.000000;1.782874
5003.000000;1.781464
5002.000000;1.780038
5001.000000;1.779549
5000.000000;1.780182
4999.000000;1.780909
4998.000000;1.780870
4997.000000;1.780642
4996.000000;1.781187
4995.000000;1.782177
4994.000000;1.782855
4993.000000;1.783122
4992.000000;1.783240
4991.000000;1.782802
4990.000000;1.781180
4989.000000;1.778626
4988.000000;1.776051
4987.000000;1.774065
4986.000000;1.772850
4985.000000;1.772366
4984.000000;1.771964
4983.000000;1.770595
4982.000000;1.768379
4981.000000;1.767225
4980.000000;1.768693
4979.000000;1.771734
4978.000000;1.773629
4977.000000;1.772929
4976.000000;1.770439
4975.000000;1.767618
4974.000000;1.765415
4973.000000;1.764525
4972.000000;1.765258
4971.000000;1.766807
4970.000000;1.767646
4969.000000;1.767035
4968.000000;1.765460
4967.000000;1.763565
4966.000000;1.761556
4965.000000;1.759683
4964.000000;1.758352
4963.000000;1.757449
4962.000000;1.756355
4961.000000;1.754962
4960.000000;1.754096
4959.000000;1.754488
4958.000000;1.755613
4957.000000;1.755881
4956.000000;1.754002
4955.000000;1.750275
4954.000000;1.746530
4953.000000;1.744543
4952.000000;1.744306
4951.000000;1.744154
4950.000000;1.742758
4949.000000;1.740594
4948.000000;1.738950
4947.000000;1.738151
4946.000000;1.737511
4945.000000;1.736607
4944.000000;1.735711
4943.000000;1.734946
4942.000000;1.733831
4941.000000;1.731836
4940.000000;1.728900
4939.000000;1.725330
4938.000000;1.721700
4937.000000;1.718890
4936.000000;1.717690
4935.000000;1.718153
4934.000000;1.719445
4933.000000;1.720414
4932.000000;1.720279
4931.000000;1.718920
4930.000000;1.716739
4929.000000;1.714238
4928.000000;1.711703
4927.000000;1.709356
4926.000000;1.707617
4925.000000;1.706787
4924.000000;1.706465
4923.000000;1.705761
4922.000000;1.704284
4921.000000;1.702429
4920.000000;1.700562
4919.000000;1.698603
4918.000000;1.696629
4917.000000;1.695162
4916.000000;1.694387
4915.000000;1.693657
4914.000000;1.692217
4913.000000;1.689991
4912.000000;1.687257
4911.000000;1.684156
4910.000000;1.681040
4909.000000;1.678704
4908.000000;1.677625
4907.000000;1.677340
4906.000000;1.677085
4905.000000;1.676604
4904.000000;1.675836
4903.000000;1.674346
4902.000000;1.671831
4901.000000;1.668855
4900.000000;1.666313
4899.000000;1.664373
4898.000000;1.662577
4897.000000;1.660741
4896.000000;1.659076
4895.000000;1.657555
4894.000000;1.655827
4893.000000;1.653785
4892.000000;1.651678
4891.000000;1.649612
4890.000000;1.647374
4889.000000;1.644836
4888.000000;1.642204
4887.000000;1.639839
4886.000000;1.638050
4885.000000;1.636981
4884.000000;1.636468
4883.000000;1.636054
4882.000000;1.635309
4881.000000;1.634028
4880.000000;1.632093
4879.000000;1.629441
4878.000000;1.626332
4877.000000;1.623298
4876.000000;1.620604
4875.000000;1.618082
4874.000000;1.615624
4873.000000;1.613456
4872.000000;1.611644
4871.000000;1.609756
4870.000000;1.607408
4869.000000;1.604854
4868.000000;1.602629
4867.000000;1.600853
4866.000000;1.599235
4865.000000;1.597530
4864.000000;1.595671
4863.000000;1.593632
4862.000000;1.591438
4861.000000;1.589196
4860.000000;1.586977
4859.000000;1.584852
4858.000000;1.582998
4857.000000;1.581412
4856.000000;1.579533
4855.000000;1.576795
4854.000000;1.573607
4853.000000;1.571054
4852.000000;1.569369
4851.000000;1.567477
4850.000000;1.564501
4849.000000;1.561029
4848.000000;1.558266
4847.000000;1.556514
4846.000000;1.555204
4845.000000;1.553942
4844.000000;1.552709
4843.000000;1.551257
4842.000000;1.549138
4841.000000;1.546380
4840.000000;1.543548
4839.000000;1.541073
4838.000000;1.538897
4837.000000;1.536740
4836.000000;1.534409
4835.000000;1.531883
4834.000000;1.529337
4833.000000;1.527054
4832.000000;1.525152
4831.000000;1.523468
4830.000000;1.521795
4829.000000;1.519991
4828.000000;1.517808
4827.000000;1.515015
4826.000000;1.511863
4825.000000;1.508977
4824.000000;1.506570
4823.000000;1.504209
4822.000000;1.501605
4821.000000;1.499109
4820.000000;1.497014
4819.000000;1.494931
4818.000000;1.492382
4817.000000;1.489605
4816.000000;1.487161
4815.000000;1.485108
4814.000000;1.483155
4813.000000;1.481333
4812.000000;1.479823
4811.000000;1.478301
4810.000000;1.476136
4809.000000;1.473283
4808.000000;1.470423
4807.000000;1.468156
4806.000000;1.466390
4805.000000;1.464521
4804.000000;1.462014
4803.000000;1.458824
4802.000000;1.455504
4801.000000;1.452702
4800.000000;1.450390
4799.000000;1.447880
4798.000000;1.444800
4797.000000;1.441747
4796.000000;1.439538
4795.000000;1.438178
4794.000000;1.437004
4793.000000;1.435589
4792.000000;1.433956
4791.000000;1.432121
4790.000000;1.430013
4789.000000;1.427777
4788.000000;1.425625
4787.000000;1.423442
4786.000000;1.421021
4785.000000;1.418595
4784.000000;1.416609
4783.000000;1.414961
4782.000000;1.413052
4781.000000;1.410652
4780.000000;1.408204
4779.000000;1.406125
4778.000000;1.404256
4777.000000;1.402186
4776.000000;1.399792
4775.000000;1.397256
4774.000000;1.394825
4773.000000;1.392688
4772.000000;1.390846
4771.000000;1.388973
4770.000000;1.386635
4769.000000;1.383787
4768.000000;1.380914
4767.000000;1.378558
4766.000000;1.376825
4765.000000;1.375353
4764.000000;1.373633
4763.000000;1.371357
4762.000000;1.368694
4761.000000;1.366236
4760.000000;1.364506
4759.000000;1.363416
4758.000000;1.362322
4757.000000;1.360631
4756.000000;1.358271
4755.000000;1.355600
4754.000000;1.353013
4753.000000;1.350673
4752.000000;1.348504
4751.000000;1.346396
4750.000000;1.344448
4749.000000;1.342893
4748.000000;1.341696
4747.000000;1.340346
4746.000000;1.338311
4745.000000;1.335661
4744.000000;1.333073
4743.000000;1.331154
4742.000000;1.329907
4741.000000;1.328821
4740.000000;1.327346
4739.000000;1.325293
4738.000000;1.322905
4737.000000;1.320613
4736.000000;1.318671
4735.000000;1.317002
4734.000000;1.315389
4733.000000;1.313710
4732.000000;1.311967
4731.000000;1.310192
4730.000000;1.308439
4729.000000;1.306761
4728.000000;1.305079
4727.000000;1.303182
4726.000000;1.301025
4725.000000;1.298892
4724.000000;1.297101
4723.000000;1.295594
4722.000000;1.294037
4721.000000;1.292299
4720.000000;1.290619
4719.000000;1.289245
4718.000000;1.288102
4717.000000;1.286909
4716.000000;1.285523
4715.000000;1.284026
4714.000000;1.282524
4713.000000;1.280974
4712.000000;1.279279
4711.000000;1.277479
4710.000000;1.275722
4709.000000;1.274050
4708.000000;1.272334
4707.000000;1.270523
4706.000000;1.268839
4705.000000;1.267537
4704.000000;1.266524
4703.000000;1.265412
4702.000000;1.263984
4701.000000;1.262421
4700.000000;1.261008
4699.000000;1.259791
4698.000000;1.258625
4697.000000;1.257430
4696.000000;1.256253
4695.000000;1.255142
4694.000000;1.254037
4693.000000;1.252783
4692.000000;1.251242
4691.000000;1.249452
4690.000000;1.247668
4689.000000;1.246178
4688.000000;1.245057
4687.000000;1.244174
4686.000000;1.243353
4685.000000;1.242434
4684.000000;1.241256
4683.000000;1.239788
4682.000000;1.238245
4681.000000;1.236891
4680.000000;1.235720
4679.000000;1.234521
4678.000000;1.233232
4677.000000;1.232023
4676.000000;1.230983
4675.000000;1.229973
4674.000000;1.228834
4673.000000;1.227555
4672.000000;1.226160
4671.000000;1.224647
4670.000000;1.223151
4669.000000;1.221977
4668.000000;1.221361
4667.000000;1.221238
4666.000000;1.221304
4665.000000;1.221188
4664.000000;1.220593
4663.000000;1.219461
4662.000000;1.218032
4661.000000;1.216627
4660.000000;1.215406
4659.000000;1.214424
4658.000000;1.213792
4657.000000;1.213481
4656.000000;1.213054
4655.000000;1.212004
4654.000000;1.210428
4653.000000;1.208996
4652.000000;1.208151
4651.000000;1.207678
4650.000000;1.207179
4649.000000;1.206613
4648.000000;1.206146
4647.000000;1.205767
4646.000000;1.205343
4645.000000;1.204848
4644.000000;1.204282
4643.000000;1.203504
4642.000000;1.202395
4641.000000;1.201087
4640.000000;1.199860
4639.000000;1.198887
4638.000000;1.198197
4637.000000;1.197759
4636.000000;1.197468
4635.000000;1.197147
4634.000000;1.196704
4633.000000;1.196167
4632.000000;1.195529
4631.000000;1.194726
4630.000000;1.193844
4629.000000;1.193163
4628.000000;1.192832
4627.000000;1.192648
4626.000000;1.192276
4625.000000;1.191600
4624.000000;1.190773
4623.000000;1.190073
4622.000000;1.189749
4621.000000;1.189830
4620.000000;1.189997
4619.000000;1.189818
4618.000000;1.189218
4617.000000;1.188545
4616.000000;1.188097
4615.000000;1.187819
4614.000000;1.187526
4613.000000;1.187199
4612.000000;1.186899
4611.000000;1.186583
4610.000000;1.186187
4609.000000;1.185734
4608.000000;1.185232
4607.000000;1.184628
4606.000000;1.183959
4605.000000;1.183389
4604.000000;1.182995
4603.000000;1.182697
4602.000000;1.182473
4601.000000;1.182427
4600.000000;1.182538
4599.000000;1.182568
4598.000000;1.182367
4597.000000;1.182083
4596.000000;1.181922
4595.000000;1.181920
4594.000000;1.182051
4593.000000;1.182343
4592.000000;1.182718
4591.000000;1.182933
4590.000000;1.182856
4589.000000;1.182631
4588.000000;1.182398
4587.000000;1.182079
4586.000000;1.181617
4585.000000;1.181236
4584.000000;1.181237
4583.000000;1.181628
4582.000000;1.182130
4581.000000;1.182473
4580.000000;1.182584
4579.000000;1.182614
4578.000000;1.182841
4577.000000;1.183385
4576.000000;1.183976
4575.000000;1.184245
4574.000000;1.184266
4573.000000;1.184506
4572.000000;1.185163
4571.000000;1.185890
4570.000000;1.186342
4569.000000;1.186627
4568.000000;1.187007
4567.000000;1.187501
4566.000000;1.188058
4565.000000;1.188800
4564.000000;1.189702
4563.000000;1.190340
4562.000000;1.190348
4561.000000;1.189996
4560.000000;1.189900
4559.000000;1.190308
4558.000000;1.190999
4557.000000;1.191768
4556.000000;1.192617
4555.000000;1.193519
4554.000000;1.194347
4553.000000;1.195099
4552.000000;1.195916
4551.000000;1.196854
4550.000000;1.197818
4549.000000;1.198743
4548.000000;1.199662
4547.000000;1.200601
4546.000000;1.201543
4545.000000;1.202465
4544.000000;1.203308
4543.000000;1.203945
4542.000000;1.204312
4541.000000;1.204513
4540.000000;1.204739
4539.000000;1.205176
4538.000000;1.205994
4537.000000;1.207244
4536.000000;1.208684
4535.000000;1.209945
4534.000000;1.210984
4533.000000;1.212160
4532.000000;1.213680
4531.000000;1.215228
4530.000000;1.216354
4529.000000;1.217010
4528.000000;1.217479
4527.000000;1.217965
4526.000000;1.218522
4525.000000;1.219190
4524.000000;1.219936
4523.000000;1.220602
4522.000000;1.221137
4521.000000;1.221773
4520.000000;1.222740
4519.000000;1.223964
4518.000000;1.225218
4517.000000;1.226402
4516.000000;1.227435
4515.000000;1.228087
4514.000000;1.228263
4513.000000;1.228284
4512.000000;1.228572
4511.000000;1.229170
4510.000000;1.229850
4509.000000;1.230593
4508.000000;1.231604
4507.000000;1.232907
4506.000000;1.234265
4505.000000;1.235520
4504.000000;1.236743
4503.000000;1.238017
4502.000000;1.239295
4501.000000;1.240494
4500.000000;1.241552
4499.000000;1.242382
4498.000000;1.242964
4497.000000;1.243504
4496.000000;1.244336
4495.000000;1.245584
4494.000000;1.247027
4493.000000;1.248337
4492.000000;1.249398
4491.000000;1.250404
4490.000000;1.251661
4489.000000;1.253250
4488.000000;1.254884
4487.000000;1.256209
4486.000000;1.257234
4485.000000;1.258283
4484.000000;1.259507
4483.000000;1.260669
4482.000000;1.261548
4481.000000;1.262353
4480.000000;1.263553
4479.000000;1.265382
4478.000000;1.267627
4477.000000;1.269790
4476.000000;1.271422
4475.000000;1.272449
4474.000000;1.273231
4473.000000;1.274161
4472.000000;1.275222
4471.000000;1.276173
4470.000000;1.277137
4469.000000;1.278611
4468.000000;1.280780
4467.000000;1.283197
4466.000000;1.285378
4465.000000;1.287390
4464.000000;1.289592
4463.000000;1.292041
4462.000000;1.294446
4461.000000;1.296514
4460.000000;1.298146
4459.000000;1.299433
4458.000000;1.300666
4457.000000;1.302144
4456.000000;1.303851
4455.000000;1.305558
4454.000000;1.307347
4453.000000;1.309626
4452.000000;1.312407
4451.000000;1.314952
4450.000000;1.316540
4449.000000;1.317357
4448.000000;1.318255
4447.000000;1.319852
4446.000000;1.322153
4445.000000;1.324812
4444.000000;1.327413
4443.000000;1.329628
4442.000000;1.331459
4441.000000;1.333266
4440.000000;1.335358
4439.000000;1.337681
4438.000000;1.340054
4437.000000;1.342463
4436.000000;1.344922
4435.000000;1.347293
4434.000000;1.349532
4433.000000;1.351857
4432.000000;1.354394
4431.000000;1.356886
4430.000000;1.359071
4429.000000;1.361131
4428.000000;1.363444
4427.000000;1.366036
4426.000000;1.368605
4425.000000;1.370972
4424.000000;1.373245
4423.000000;1.375646
4422.000000;1.378341
4421.000000;1.381306
4420.000000;1.384186
4419.000000;1.386521
4418.000000;1.388303
4417.000000;1.390064
4416.000000;1.392241
4415.000000;1.394731
4414.000000;1.397249
4413.000000;1.399801
4412.000000;1.402543
4411.000000;1.405496
4410.000000;1.408623
4409.000000;1.411873
4408.000000;1.414931
4407.000000;1.417309
4406.000000;1.419016
4405.000000;1.420764
4404.000000;1.423196
4403.000000;1.426265
4402.000000;1.429664
4401.000000;1.433389
4400.000000;1.437391
4399.000000;1.441083
4398.000000;1.443824
4397.000000;1.445716
4396.000000;1.447451
4395.000000;1.449556
4394.000000;1.452160
4393.000000;1.455245
4392.000000;1.458631
4391.000000;1.461947
4390.000000;1.465044
4389.000000;1.468332
4388.000000;1.472304
4387.000000;1.476854
4386.000000;1.481303
4385.000000;1.484929
4384.000000;1.487313
4383.000000;1.488576
4382.000000;1.489604
4381.000000;1.491639
4380.000000;1.495197
4379.000000;1.499595
4378.000000;1.503830
4377.000000;1.507598
4376.000000;1.511124
4375.000000;1.514506
4374.000000;1.517734
4373.000000;1.520985
4372.000000;1.524328
4371.000000;1.527459
4370.000000;1.530263
4369.000000;1.533346
4368.000000;1.537420
4367.000000;1.542319
4366.000000;1.547086
4365.000000;1.550869
4364.000000;1.553364
4363.000000;1.554734
4362.000000;1.555672
4361.000000;1.557299
4360.000000;1.560482
4359.000000;1.565260
4358.000000;1.571078
4357.000000;1.577254
4356.000000;1.583001
4355.000000;1.587565
4354.000000;1.590895
4353.000000;1.593795
4352.000000;1.596952
4351.000000;1.600246
4350.000000;1.603415
4349.000000;1.606777
4348.000000;1.610690
4347.000000;1.614823
4346.000000;1.618659
4345.000000;1.622309
4344.000000;1.626168
4343.000000;1.630170
4342.000000;1.634079
4341.000000;1.638106
4340.000000;1.642517
4339.000000;1.646958
4338.000000;1.650847
4337.000000;1.654214
4336.000000;1.657532
4335.000000;1.661054
4334.000000;1.664853
4333.000000;1.669166
4332.000000;1.674054
4331.000000;1.679007
4330.000000;1.683454
4329.000000;1.687370
4328.000000;1.690923
4327.000000;1.694044
4326.000000;1.696893
4325.000000;1.700215
4324.000000;1.704592
4323.000000;1.709827
4322.000000;1.715565
4321.000000;1.721869
4320.000000;1.728532
4319.000000;1.734522
4318.000000;1.739048
4317.000000;1.742632
4316.000000;1.746289
4315.000000;1.750296
4314.000000;1.754546
4313.000000;1.759304
4312.000000;1.764595
4311.000000;1.769577
4310.000000;1.773629
4309.000000;1.777423
4308.000000;1.781763
4307.000000;1.786057
4306.000000;1.789256
4305.000000;1.791820
4304.000000;1.795305
4303.000000;1.800269
4302.000000;1.805834
4301.000000;1.811168
4300.000000;1.816313
4299.000000;1.821657
4298.000000;1.827508
4297.000000;1.833924
4296.000000;1.840172
4295.000000;1.844883
4294.000000;1.847804
4293.000000;1.850701
4292.000000;1.855293
4291.000000;1.861076
4290.000000;1.866437
4289.000000;1.871189
4288.000000;1.876406
4287.000000;1.882187
4286.000000;1.887377
4285.000000;1.891348
4284.000000;1.894433
4283.000000;1.896731
4282.000000;1.898261
4281.000000;1.900279
4280.000000;1.904628
4279.000000;1.911375
4278.000000;1.918393
4277.000000;1.923812
4276.000000;1.927843
4275.000000;1.931703
4274.000000;1.935989
4273.000000;1.940808
4272.000000;1.946339
4271.000000;1.952448
4270.000000;1.958391
4269.000000;1.963549
4268.000000;1.968139
4267.000000;1.972987
4266.000000;1.978915
4265.000000;1.986304
4264.000000;1.994616
4263.000000;2.002307
4262.000000;2.007827
4261.000000;2.010945
4260.000000;2.012768
4259.000000;2.014527
4258.000000;2.016794
4257.000000;2.019697
4256.000000;2.023346
4255.000000;2.028113
4254.000000;2.034539
4253.000000;2.042515
4252.000000;2.050574
4251.000000;2.056718
4250.000000;2.060151
4249.000000;2.061633
4248.000000;2.062404
4247.000000;2.063713
4246.000000;2.066970
4245.000000;2.072925
4244.000000;2.080598
4243.000000;2.088308
4242.000000;2.095699
4241.000000;2.103530
4240.000000;2.111298
4239.000000;2.117229
4238.000000;2.121133
4237.000000;2.125062
4236.000000;2.130343
4235.000000;2.136122
4234.000000;2.141589
4233.000000;2.147272
4232.000000;2.153063
4231.000000;2.157397
4230.000000;2.159835
4229.000000;2.162531
4228.000000;2.167836
4227.000000;2.175755
4226.000000;2.184376
4225.000000;2.191454
4224.000000;2.195378
4223.000000;2.196769
4222.000000;2.199342
4221.000000;2.206593
4220.000000;2.217027
4219.000000;2.225040
4218.000000;2.227921
4217.000000;2.228973
4216.000000;2.231968
4215.000000;2.236519
4214.000000;2.240670
4213.000000;2.244465
4212.000000;2.248610
4211.000000;2.252278
4210.000000;2.254943
4209.000000;2.258176
4208.000000;2.263108
4207.000000;2.268709
4206.000000;2.275137
4205.000000;2.284777
4204.000000;2.297251
4203.000000;2.307484
4202.000000;2.311467
4201.000000;2.311395
4200.000000;2.312108
4199.000000;2.315203
4198.000000;2.319361
4197.000000;2.323488
4196.000000;2.327026
4195.000000;2.329756
4194.000000;2.333483
4193.000000;2.341021
4192.000000;2.351593
4191.000000;2.360462
4190.000000;2.365689
4189.000000;2.371089
4188.000000;2.379010
4187.000000;2.385492
4186.000000;2.386703
4185.000000;2.385626
4184.000000;2.387536
4183.000000;2.392575
4182.000000;2.396878
4181.000000;2.399080
4180.000000;2.401262
4179.000000;2.404203
4178.000000;2.406821
4177.000000;2.409439
4176.000000;2.413805
4175.000000;2.421230
4174.000000;2.432930
4173.000000;2.449531
4172.000000;2.467587
4171.000000;2.479847
4170.000000;2.483164
4169.000000;2.482943
4168.000000;2.485930
4167.000000;2.493296
4166.000000;2.503000
4165.000000;2.513125
4164.000000;2.519830
4163.000000;2.518036
4162.000000;2.508567
4161.000000;2.499046
4160.000000;2.494435
4159.000000;2.492761
4158.000000;2.492531
4157.000000;2.497665
4156.000000;2.510344
4155.000000;2.524500
4154.000000;2.532842
4153.000000;2.537342
4152.000000;2.544483
4151.000000;2.553508
4150.000000;2.557915
4149.000000;2.556625
4148.000000;2.555233
4147.000000;2.557296
4146.000000;2.561750
4145.000000;2.567535
4144.000000;2.574547
4143.000000;2.580852
4142.000000;2.584772
4141.000000;2.588088
4140.000000;2.592857
4139.000000;2.598234
4138.000000;2.602355
4137.000000;2.604454
4136.000000;2.604492
4135.000000;2.603724
4134.000000;2.606639
4133.000000;2.617863
4132.000000;2.635019
4131.000000;2.648971
4130.000000;2.654574
4129.000000;2.656511
4128.000000;2.659323
4127.000000;2.659911
4126.000000;2.655676
4125.000000;2.651658
4124.000000;2.655423
4123.000000;2.669618
4122.000000;2.691361
4121.000000;2.714522
4120.000000;2.729685
4119.000000;2.730413
4118.000000;2.723244
4117.000000;2.720001
4116.000000;2.720517
4115.000000;2.714625
4114.000000;2.701967
4113.000000;2.696237
4112.000000;2.706353
4111.000000;2.725027
4110.000000;2.739565
4109.000000;2.747154
4108.000000;2.750547
4107.000000;2.747452
4106.000000;2.734936
4105.000000;2.718906
4104.000000;2.710010
4103.000000;2.712661
4102.000000;2.726466
4101.000000;2.752073
4100.000000;2.786865
4099.000000;2.819485
4098.000000;2.838674
4097.000000;2.842537
4096.000000;2.830698
4095.000000;2.803525
4094.000000;2.772760
4093.000000;2.755899
4092.000000;2.758573
4091.000000;2.769900
4090.000000;2.777641
4089.000000;2.783799
4088.000000;2.795459
4087.000000;2.810313
4086.000000;2.822780
4085.000000;2.834857
4084.000000;2.848178
4083.000000;2.856456
4082.000000;2.858792
4081.000000;2.864253
4080.000000;2.871666
4079.000000;2.864507
4078.000000;2.838671
4077.000000;2.812757
4076.000000;2.802707
4075.000000;2.807987
4074.000000;2.821991
4073.000000;2.841696
4072.000000;2.859670
4071.000000;2.860777
4070.000000;2.844220
4069.000000;2.831106
4068.000000;2.835346
4067.000000;2.846799
4066.000000;2.849586
4065.000000;2.846076
4064.000000;2.847437
4063.000000;2.854867
4062.000000;2.866966
4061.000000;2.890815
4060.000000;2.927985
4059.000000;2.957765
4058.000000;2.954983
4057.000000;2.924981
4056.000000;2.890349
4055.000000;2.858098
4054.000000;2.827937
4053.000000;2.809050
4052.000000;2.808959
4051.000000;2.820251
4050.000000;2.832689
4049.000000;2.849799
4048.000000;2.878104
4047.000000;2.908434
4046.000000;2.924360
4045.000000;2.926006
4044.000000;2.923655
4043.000000;2.915361
4042.000000;2.894874
4041.000000;2.874608
4040.000000;2.875760
4039.000000;2.901224
4038.000000;2.930483
4037.000000;2.941663
4036.000000;2.935489
4035.000000;2.929253
4034.000000;2.941151
4033.000000;2.978811
4032.000000;3.025786
4031.000000;3.042549
4030.000000;3.014672
4029.000000;2.983252
4028.000000;2.984456
4027.000000;3.013076
4026.000000;3.048842
4025.000000;3.087643
4024.000000;3.128160
4023.000000;3.152652
4022.000000;3.146842
4021.000000;3.120592
4020.000000;3.086242
4019.000000;3.045739
4018.000000;3.010418
4017.000000;3.004884
4016.000000;3.042096
4015.000000;3.096424
4014.000000;3.110939
4013.000000;3.076691
4012.000000;3.042869
4011.000000;3.039955
4010.000000;3.062001
4009.000000;3.083096
4008.000000;3.081456
4007.000000;3.055916
4006.000000;3.021600
4005.000000;3.000603
4004.000000;3.004842
4003.000000;3.029607
4002.000000;3.061179
4001.000000;3.071845
4000.000000;3.042782
3999.000000;2.997253
3998.000000;2.968302
3997.000000;2.972687
3996.000000;2.999169
3995.000000;3.012798
3994.000000;3.005232
3993.000000;3.010665
3992.000000;3.049474
3991.000000;3.104071
3990.000000;3.154122
3989.000000;3.209633
3988.000000;3.277593
3987.000000;3.313299
3986.000000;3.276130
3985.000000;3.217127
3984.000000;3.192182
3983.000000;3.190667
3982.000000;3.170463
3981.000000;3.127945
3980.000000;3.099542
3979.000000;3.099128
3978.000000;3.106507
3977.000000;3.103695
3976.000000;3.093643
3975.000000;3.084461
3974.000000;3.083584
3973.000000;3.104408
3972.000000;3.151193
3971.000000;3.194422
3970.000000;3.193909
3969.000000;3.162034
3968.000000;3.138658
3967.000000;3.135470
3966.000000;3.149325
3965.000000;3.188293
3964.000000;3.255216
3963.000000;3.317722
3962.000000;3.321608
3961.000000;3.269465
3960.000000;3.226102
3959.000000;3.221949
3958.000000;3.243390
3957.000000;3.273949
3956.000000;3.303301
3955.000000;3.317115
3954.000000;3.308301
3953.000000;3.291369
3952.000000;3.288755
3951.000000;3.297732
3950.000000;3.292048
3949.000000;3.267995
3948.000000;3.252521
3947.000000;3.261640
3946.000000;3.292426
3945.000000;3.349059
3944.000000;3.423214
3943.000000;3.451216
3942.000000;3.387960
3941.000000;3.283699
3940.000000;3.197815
3939.000000;3.153246
3938.000000;3.155526
3937.000000;3.206222
3936.000000;3.294020
3935.000000;3.370221
3934.000000;3.379426
3933.000000;3.359240
3932.000000;3.375145
3931.000000;3.420802
3930.000000;3.437002
3929.000000;3.414593
3928.000000;3.400922
3927.000000;3.392912
3926.000000;3.374202
3925.000000;3.376239
3924.000000;3.411235
3923.000000;3.445836
3922.000000;3.463356
3921.000000;3.495623
3920.000000;3.567118
3919.000000;3.650286
3918.000000;3.660255
3917.000000;3.576619
3916.000000;3.487250
3915.000000;3.454597
3914.000000;3.490992
3913.000000;3.539600
3912.000000;3.529221
3911.000000;3.485011
3910.000000;3.452598
3909.000000;3.473073
3908.000000;3.576683
3907.000000;3.712819
3906.000000;3.731414
3905.000000;3.602858
3904.000000;3.464985
3903.000000;3.395550
3902.000000;3.408190
3901.000000;3.505804
3900.000000;3.715184
3899.000000;3.871711
3898.000000;3.729588
3897.000000;3.600516
3896.000000;3.512028
3895.000000;3.460080
3894.000000;3.466588
3893.000000;3.555830
3892.000000;3.696211
3891.000000;3.743689
3890.000000;3.630445
3889.000000;3.627536
3888.000000;3.978080
3887.000000;4.101098
3886.000000;4.056957
3885.000000;3.936217
3884.000000;3.569399
3883.000000;3.453754
3882.000000;3.487975
3881.000000;3.618812
3880.000000;3.890747
3879.000000;4.146727
3878.000000;4.234095
3877.000000;3.975954
3876.000000;3.499299
3875.000000;3.282560
3874.000000;3.208359
3873.000000;3.186413
3872.000000;3.203699
3871.000000;3.255992
3870.000000;3.327941
3869.000000;3.488647
3868.000000;3.930062
3867.000000;3.803392
3866.000000;3.442328
3865.000000;3.365826
3864.000000;3.428055
3863.000000;3.610947
3862.000000;3.698927
3861.000000;3.657573
3860.000000;3.522398
3859.000000;3.350730
3858.000000;3.284383
3857.000000;3.283410
3856.000000;3.324150
3855.000000;3.400409
3854.000000;3.448077
3853.000000;3.438366
3852.000000;3.488676
3851.000000;3.632025
3850.000000;3.737552
3849.000000;3.734458
3848.000000;3.762185
3847.000000;3.825269
3846.000000;3.905460
3845.000000;3.933614
3844.000000;3.802664
3843.000000;3.756244
3842.000000;3.846821
3841.000000;3.934734
3840.000000;3.825190
3839.000000;3.629262
3838.000000;3.434362
3837.000000;3.341290
3836.000000;3.386073
3835.000000;3.526026
3834.000000;3.874375
3833.000000;4.188674
3832.000000;4.144674
3831.000000;3.568891
3830.000000;3.324569
3829.000000;3.341048
3828.000000;3.211489
3827.000000;3.373266
3826.000000;3.786042
3825.000000;3.928105
3824.000000;4.551201
3823.000000;4.304808
3822.000000;4.334060
3821.000000;4.160314
3820.000000;3.842794
3819.000000;3.723083
3818.000000;3.747080
3817.000000;3.831345
3816.000000;4.234873
3815.000000;3.801816
3814.000000;3.633016
3813.000000;3.346926
3812.000000;3.227036
3811.000000;3.449330
3810.000000;3.593222
3809.000000;3.965980
3808.000000;3.926107
3807.000000;3.669242
3806.000000;3.523699
3805.000000;3.503183
3804.000000;3.489178
3803.000000;3.582586
3802.000000;4.144199
3801.000000;3.654897
3800.000000;3.328724
3799.000000;3.357617
3798.000000;3.324643
3797.000000;3.250795
3796.000000;3.262910
3795.000000;3.336156
3794.000000;3.444791
3793.000000;3.800499
3792.000000;4.295385
3791.000000;3.795569
3790.000000;3.705422
3789.000000;3.677222
3788.000000;3.643276
3787.000000;3.666203
3786.000000;3.762417
3785.000000;3.835668
3784.000000;3.771983
3783.000000;3.702738
3782.000000;3.642579
3781.000000;3.627727
3780.000000;3.731505
3779.000000;3.938662
3778.000000;3.651402
3777.000000;3.319925
3776.000000;3.192631
3775.000000;3.274911
3774.000000;3.529173
3773.000000;3.739452
3772.000000;3.898310
3771.000000;3.770313
3770.000000;3.593234
3769.000000;3.583800
3768.000000;3.823132
3767.000000;3.974035
3766.000000;3.595067
3765.000000;3.479411
3764.000000;3.488342
3763.000000;3.516824
3762.000000;3.527804
3761.000000;3.439550
3760.000000;3.346791
3759.000000;3.296526
3758.000000;3.274097
3757.000000;3.238484
3756.000000;3.242260
3755.000000;3.215954
3754.000000;3.149697
3753.000000;3.190948
3752.000000;3.273902
3751.000000;3.282557
3750.000000;3.239359
3749.000000;3.310545
3748.000000;3.534276
3747.000000;3.362858
3746.000000;3.203235
3745.000000;3.209663
3744.000000;3.175296
3743.000000;3.240785
3742.000000;3.387682
3741.000000;3.262582
3740.000000;3.180045
3739.000000;3.221804
3738.000000;3.239365
3737.000000;3.244259
3736.000000;3.286743
3735.000000;3.383068
3734.000000;3.256497
3733.000000;3.033767
3732.000000;3.004335
3731.000000;3.154663
3730.000000;3.448864
3729.000000;4.006350
3728.000000;3.814476
3727.000000;3.494329
3726.000000;3.451288
3725.000000;3.467498
3724.000000;3.519719
3723.000000;3.586036
3722.000000;3.677997
3721.000000;3.679907
3720.000000;3.533307
3719.000000;3.456459
3718.000000;3.479317
3717.000000;3.503538
3716.000000;3.519489
3715.000000;3.572092
3714.000000;3.605859
3713.000000;3.575855
3712.000000;3.473276
3711.000000;3.322522
3710.000000;3.194991
3709.000000;3.173829
3708.000000;3.273707
3707.000000;3.372076
3706.000000;3.345992
3705.000000;3.270312
3704.000000;3.273229
3703.000000;3.383883
3702.000000;3.543663
3701.000000;3.772932
3700.000000;3.920900
3699.000000;3.611701
3698.000000;3.434805
3697.000000;3.452086
3696.000000;3.521891
3695.000000;3.557190
3694.000000;3.542778
3693.000000;3.537395
3692.000000;3.598719
3691.000000;3.733504
3690.000000;3.701805
3689.000000;3.425699
3688.000000;3.243109
3687.000000;3.195934
3686.000000;3.152970
3685.000000;3.194762
3684.000000;3.440109
3683.000000;3.798580
3682.000000;3.980302
3681.000000;4.017164
3680.000000;4.107278
3679.000000;4.082362
3678.000000;3.817634
3677.000000;3.579369
3676.000000;3.446813
3675.000000;3.402025
3674.000000;3.440091
3673.000000;3.496393
3672.000000;3.621743
3671.000000;3.697398
3670.000000;4.114846
3669.000000;3.403895
3668.000000;3.172672
3667.000000;3.297363
3666.000000;3.454763
3665.000000;3.617937
3664.000000;3.630850
3663.000000;3.741906
3662.000000;3.994769
3661.000000;4.706464
3660.000000;4.027097
3659.000000;3.616140
3658.000000;3.465075
3657.000000;3.429074
3656.000000;3.513158
3655.000000;3.690453
3654.000000;4.021296
3653.000000;4.408959
3652.000000;4.189977
3651.000000;3.892335
3650.000000;3.600510
3649.000000;3.986297
3648.000000;3.137432
3647.000000;2.871823
3646.000000;2.929834
3645.000000;3.058875
3644.000000;3.264903
3643.000000;3.304836
3642.000000;3.287770
3641.000000;3.298913
3640.000000;3.387531
3639.000000;3.568750
3638.000000;3.839608
3637.000000;3.731271
3636.000000;3.480667
3635.000000;3.383263
3634.000000;3.414308
3633.000000;3.571969
3632.000000;3.689525
3631.000000;3.569766
3630.000000;3.443792
3629.000000;3.354587
3628.000000;3.271708
3627.000000;3.218033
3626.000000;3.230743
3625.000000;3.316702
3624.000000;3.427393
3623.000000;3.511489
3622.000000;3.555720
3621.000000;3.581617
3620.000000;3.655185
3619.000000;3.784635
3618.000000;3.855618
3617.000000;3.847855
3616.000000;3.501209
3615.000000;3.240427
3614.000000;3.177944
3613.000000;3.231635
3612.000000;3.329601
3611.000000;3.534278
3610.000000;4.009607
3609.000000;3.945203
3608.000000;3.720260
3607.000000;3.718752
3606.000000;3.793798
3605.000000;3.776890
3604.000000;3.736994
3603.000000;3.806574
3602.000000;3.844400
3601.000000;3.855321
3600.000000;3.895295
3599.000000;4.151358
3598.000000;3.914507
3597.000000;3.504986
3596.000000;3.370644
3595.000000;3.331216
3594.000000;3.371558
3593.000000;3.538667
3592.000000;3.737347
3591.000000;3.882086
3590.000000;4.081329
3589.000000;4.024448
3588.000000;3.763268
3587.000000;3.590633
3586.000000;3.474960
3585.000000;3.431571
3584.000000;3.491612
3583.000000;3.620104
3582.000000;3.623092
3581.000000;3.536282
3580.000000;3.512837
3579.000000;3.569749
3578.000000;3.597956
3577.000000;3.556899
3576.000000;3.551224
3575.000000;3.871374
3574.000000;4.212705
3573.000000;3.633903
3572.000000;3.601928
3571.000000;3.717554
3570.000000;3.779909
3569.000000;3.810430
3568.000000;3.736977
3567.000000;3.681146
3566.000000;3.641790
3565.000000;3.852593
3564.000000;3.923544
3563.000000;3.631386
3562.000000;3.591488
3561.000000;3.791105
3560.000000;4.367002
3559.000000;4.335220
3558.000000;3.940521
3557.000000;3.785182
3556.000000;3.671357
3555.000000;3.650528
3554.000000;3.704899
3553.000000;3.804164
3552.000000;3.779864
3551.000000;3.833070
3550.000000;4.279453
3549.000000;4.125593
3548.000000;3.898687
3547.000000;4.023891
3546.000000;4.218612
3545.000000;4.252183
3544.000000;4.048574
3543.000000;3.846408
3542.000000;3.712433
3541.000000;3.644277
3540.000000;3.626931
3539.000000;3.654396
3538.000000;3.714350
3537.000000;3.800996
3536.000000;3.925694
3535.000000;4.184987
3534.000000;4.797576
3533.000000;4.254848
3532.000000;3.866947
3531.000000;3.739414
3530.000000;3.699066
3529.000000;3.676782
3528.000000;3.648681
3527.000000;3.661426
3526.000000;3.789030
3525.000000;4.108007
3524.000000;4.123583
3523.000000;3.889307
3522.000000;3.874857
3521.000000;3.973771
3520.000000;4.224634
3519.000000;4.213742
3518.000000;3.762730
3517.000000;3.577995
3516.000000;3.537147
3515.000000;3.899439
3514.000000;4.159243
3513.000000;3.478475
3512.000000;3.292653
3511.000000;3.258928
3510.000000;3.345249
3509.000000;3.565246
3508.000000;4.008858
3507.000000;4.138650
3506.000000;3.773705
3505.000000;3.653313
3504.000000;3.680684
3503.000000;3.850574
3502.000000;4.013536
3501.000000;3.977086
3500.000000;3.883394
3499.000000;3.803859
3498.000000;3.721013
3497.000000;3.662244
3496.000000;3.628622
3495.000000;3.621188
3494.000000;3.670604
3493.000000;3.786891
3492.000000;3.910542
3491.000000;3.879287
3490.000000;3.715307
3489.000000;3.614043
3488.000000;3.614746
3487.000000;3.610423
3486.000000;3.568362
3485.000000;3.568678
3484.000000;3.638821
3483.000000;3.759708
3482.000000;3.726515
3481.000000;3.678055
3480.000000;3.813651
3479.000000;3.817366
3478.000000;3.737063
3477.000000;3.841515
3476.000000;4.236854
3475.000000;4.470770
3474.000000;4.004692
3473.000000;3.874497
3472.000000;3.961942
3471.000000;4.141008
3470.000000;4.121899
3469.000000;3.924699
3468.000000;3.857506
3467.000000;3.950072
3466.000000;4.044785
3465.000000;3.995542
3464.000000;3.947939
3463.000000;3.869556
3462.000000;3.741620
3461.000000;3.619492
3460.000000;3.526648
3459.000000;3.477555
3458.000000;3.472519
3457.000000;3.499680
3456.000000;3.569464
3455.000000;3.719020
3454.000000;4.043534
3453.000000;4.282742
3452.000000;3.909915
3451.000000;3.692447
3450.000000;3.604306
3449.000000;3.606208
3448.000000;3.727066
3447.000000;4.002165
3446.000000;4.516497
3445.000000;4.086984
3444.000000;3.722097
3443.000000;3.538827
3442.000000;3.466400
3441.000000;3.486981
3440.000000;3.580758
3439.000000;3.820155
3438.000000;4.231108
3437.000000;4.066377
3436.000000;3.884085
3435.000000;3.782486
3434.000000;3.692733
3433.000000;3.680158
3432.000000;3.725314
3431.000000;3.795648
3430.000000;3.844155
3429.000000;3.814317
3428.000000;3.719015
3427.000000;3.658075
3426.000000;3.677107
3425.000000;3.732284
3424.000000;3.756896
3423.000000;3.751072
3422.000000;3.732819
3421.000000;3.713262
3420.000000;3.676615
3419.000000;3.608173
3418.000000;3.578907
3417.000000;3.619456
3416.000000;3.701632
3415.000000;3.800601
3414.000000;3.893457
3413.000000;3.968490
3412.000000;4.049383
3411.000000;3.903938
3410.000000;3.640253
3409.000000;3.519234
3408.000000;3.508678
3407.000000;3.552897
3406.000000;3.641946
3405.000000;3.781997
3404.000000;3.882192
3403.000000;3.853872
3402.000000;3.739143
3401.000000;3.595210
3400.000000;3.471299
3399.000000;3.392849
3398.000000;3.375421
3397.000000;3.426830
3396.000000;3.480614
3395.000000;3.497553
3394.000000;3.531470
3393.000000;3.666327
3392.000000;4.210728
3391.000000;3.994412
3390.000000;3.681178
3389.000000;3.624216
3388.000000;3.663006
3387.000000;3.692336
3386.000000;3.658868
3385.000000;3.700852
3384.000000;3.930489
3383.000000;4.287496
3382.000000;4.168643
3381.000000;3.967807
3380.000000;3.818922
3379.000000;3.706980
3378.000000;3.652987
3377.000000;3.719897
3376.000000;4.043981
3375.000000;4.375795
3374.000000;4.730738
3373.000000;4.515598
3372.000000;3.971605
3371.000000;3.808885
3370.000000;3.763760
3369.000000;3.773398
3368.000000;3.968470
3367.000000;4.216734
3366.000000;3.842997
3365.000000;3.687153
3364.000000;3.768879
3363.000000;4.144167
3362.000000;3.750566
3361.000000;3.525821
3360.000000;3.561012
3359.000000;3.704072
3358.000000;3.748288
3357.000000;3.774589
3356.000000;3.826385
3355.000000;3.823200
3354.000000;3.826663
3353.000000;4.025963
3352.000000;4.138598
3351.000000;3.858170
3350.000000;3.736416
3349.000000;3.732813
3348.000000;3.700823
3347.000000;3.571082
3346.000000;3.529859
3345.000000;3.622978
3344.000000;3.812428
3343.000000;4.361653
3342.000000;4.190732
3341.000000;3.742736
3340.000000;3.616130
3339.000000;3.664552
3338.000000;3.857885
3337.000000;4.291790
3336.000000;4.009566
3335.000000;3.611328
3334.000000;3.431570
3333.000000;3.368329
3332.000000;3.378645
3331.000000;3.450546
3330.000000;3.699533
3329.000000;4.070656
3328.000000;3.798074
3327.000000;3.659847
3326.000000;3.629351
3325.000000;3.686497
3324.000000;3.839903
3323.000000;4.091873
3322.000000;4.588711
3321.000000;4.281741
3320.000000;3.798596
3319.000000;3.609855
3318.000000;3.566900
3317.000000;3.589301
3316.000000;3.621175
3315.000000;3.695558
3314.000000;3.925215
3313.000000;4.046184
3312.000000;3.683278
3311.000000;3.505825
3310.000000;3.488017
3309.000000;3.582568
3308.000000;3.660526
3307.000000;3.677906
3306.000000;3.777361
3305.000000;3.853969
3304.000000;3.763353
3303.000000;3.682862
3302.000000;3.729488
3301.000000;3.804250
3300.000000;3.718071
3299.000000;3.626138
3298.000000;3.665165
3297.000000;3.780002
3296.000000;3.912882
3295.000000;3.849476
3294.000000;3.595791
3293.000000;3.450495
3292.000000;3.444846
3291.000000;3.567225
3290.000000;4.086967
3289.000000;3.847478
3288.000000;3.531807
3287.000000;3.475438
3286.000000;3.492325
3285.000000;3.539538
3284.000000;3.590760
3283.000000;3.623085
3282.000000;3.651190
3281.000000;3.627329
3280.000000;3.505802
3279.000000;3.400493
3278.000000;3.390048
3277.000000;3.472441
3276.000000;3.610734
3275.000000;3.747628
3274.000000;3.805213
3273.000000;3.803381
3272.000000;3.801093
3271.000000;3.873200
3270.000000;4.310427
3269.000000;4.135170
3268.000000;3.780303
3267.000000;3.739477
3266.000000;3.760277
3265.000000;3.827053
3264.000000;3.783850
3263.000000;3.743946
3262.000000;3.799910
3261.000000;3.824302
3260.000000;3.800735
3259.000000;3.806781
3258.000000;3.808855
3257.000000;3.805880
3256.000000;3.849708
3255.000000;4.065166
3254.000000;4.136145
3253.000000;3.841147
3252.000000;3.958970
3251.000000;4.015537
3250.000000;3.672334
3249.000000;3.554181
3248.000000;3.530837
3247.000000;3.579731
3246.000000;3.612858
3245.000000;3.582735
3244.000000;3.577047
3243.000000;3.627025
3242.000000;3.764842
3241.000000;3.915918
3240.000000;3.891255
3239.000000;3.835193
3238.000000;3.823340
3237.000000;3.798027
3236.000000;3.706439
3235.000000;3.602277
3234.000000;3.558844
3233.000000;3.574074
3232.000000;3.660005
3231.000000;3.883755
3230.000000;4.507897
3229.000000;4.088889
3228.000000;4.206990
3227.000000;4.203572
3226.000000;3.876368
3225.000000;3.760169
3224.000000;3.748280
3223.000000;3.921900
3222.000000;4.399003
3221.000000;4.592426
3220.000000;4.325179
3219.000000;4.109289
3218.000000;4.084712
3217.000000;4.069068
3216.000000;3.828661
3215.000000;3.730312
3214.000000;3.767756
3213.000000;3.812872
3212.000000;3.818290
3211.000000;3.861883
3210.000000;3.827911
3209.000000;3.808660
3208.000000;3.914199
3207.000000;4.043146
3206.000000;4.063094
3205.000000;4.104913
3204.000000;4.543459
3203.000000;3.886095
3202.000000;3.621236
3201.000000;3.520256
3200.000000;3.542557
3199.000000;3.666758
3198.000000;3.795896
3197.000000;3.793602
3196.000000;3.737209
3195.000000;3.755166
3194.000000;3.842622
3193.000000;3.809911
3192.000000;3.748168
3191.000000;3.723216
3190.000000;3.684758
3189.000000;3.696742
3188.000000;3.885479
3187.000000;3.987717
3186.000000;3.908499
3185.000000;3.984589
3184.000000;4.727774
3183.000000;4.209867
3182.000000;3.846434
3181.000000;3.777994
3180.000000;3.759405
3179.000000;3.813078
3178.000000;3.806354
3177.000000;3.728976
3176.000000;3.728987
3175.000000;3.800548
3174.000000;3.878655
3173.000000;3.763390
3172.000000;3.586380
3171.000000;3.511690
3170.000000;3.525962
3169.000000;3.586363
3168.000000;3.635609
3167.000000;3.678352
3166.000000;3.759745
3165.000000;3.824639
3164.000000;3.763267
3163.000000;3.693756
3162.000000;3.733391
3161.000000;3.878625
3160.000000;3.951886
3159.000000;3.803568
3158.000000;3.645192
3157.000000;3.513805
3156.000000;3.400120
3155.000000;3.341578
3154.000000;3.358978
3153.000000;3.468620
3152.000000;3.678998
3151.000000;4.195074
3150.000000;4.007044
3149.000000;3.771159
3148.000000;3.796670
3147.000000;3.878861
3146.000000;3.731112
3145.000000;3.621216
3144.000000;3.638534
3143.000000;3.746330
3142.000000;3.992712
3141.000000;4.226835
3140.000000;3.965137
3139.000000;4.260668
3138.000000;4.494644
3137.000000;3.917383
3136.000000;3.809890
3135.000000;3.790139
3134.000000;3.900061
3133.000000;3.705158
3132.000000;3.512179
3131.000000;3.494846
3130.000000;3.608382
3129.000000;3.868389
3128.000000;4.530678
3127.000000;4.065347
3126.000000;3.771635
3125.000000;3.637723
3124.000000;3.556016
3123.000000;3.571647
3122.000000;3.631470
3121.000000;3.586447
3120.000000;3.548678
3119.000000;3.609074
3118.000000;3.716511
3117.000000;3.907724
3116.000000;3.872988
3115.000000;3.586091
3114.000000;3.492361
3113.000000;3.421348
3112.000000;3.346545
3111.000000;3.349081
3110.000000;3.502851
3109.000000;3.718983
3108.000000;3.678787
3107.000000;3.655752
3106.000000;3.854211
3105.000000;3.902850
3104.000000;3.762018
3103.000000;3.804330
3102.000000;3.865549
3101.000000;3.718997
3100.000000;3.541189
3099.000000;3.524451
3098.000000;3.762553
3097.000000;4.529828
3096.000000;3.910083
3095.000000;3.808593
3094.000000;3.925324
3093.000000;3.954805
3092.000000;3.633678
3091.000000;3.438468
3090.000000;3.368322
3089.000000;3.377776
3088.000000;3.459123
3087.000000;3.695946
3086.000000;4.160075
3085.000000;4.032271
3084.000000;3.803221
3083.000000;3.661088
3082.000000;3.523047
3081.000000;3.493375
3080.000000;3.686333
3079.000000;3.927816
3078.000000;3.771170
3077.000000;3.719696
3076.000000;3.783006
3075.000000;3.744095
3074.000000;3.618195
3073.000000;3.570512
3072.000000;3.601441
3071.000000;3.574868
3070.000000;3.527074
3069.000000;3.565723
3068.000000;3.691833
3067.000000;3.921833
3066.000000;4.263066
3065.000000;3.845061
3064.000000;3.817073
3063.000000;3.894044
3062.000000;3.780378
3061.000000;3.698436
3060.000000;3.741658
3059.000000;3.834338
3058.000000;3.741030
3057.000000;3.597501
3056.000000;3.549238
3055.000000;3.667113
3054.000000;3.831754
3053.000000;3.700816
3052.000000;3.609073
3051.000000;3.617469
3050.000000;3.667269
3049.000000;3.788863
3048.000000;4.110881
3047.000000;4.334969
3046.000000;3.898436
3045.000000;3.719924
3044.000000;3.747255
3043.000000;3.830041
3042.000000;3.777248
3041.000000;3.687671
3040.000000;3.690530
3039.000000;3.804702
3038.000000;4.031259
3037.000000;4.343182
3036.000000;4.346881
3035.000000;4.081610
3034.000000;3.822551
3033.000000;3.690261
3032.000000;3.686848
3031.000000;3.860388
3030.000000;4.217405
3029.000000;3.981692
3028.000000;3.766351
3027.000000;3.793409
3026.000000;3.885803
3025.000000;3.987977
3024.000000;4.055023
3023.000000;4.683987
3022.000000;4.298903
3021.000000;3.911876
3020.000000;3.891802
3019.000000;3.776520
3018.000000;3.574549
3017.000000;3.434063
3016.000000;3.384802
3015.000000;3.412012
3014.000000;3.524960
3013.000000;3.797894
3012.000000;3.840134
3011.000000;3.557624
3010.000000;3.453263
3009.000000;3.416089
3008.000000;3.380154
3007.000000;3.360971
3006.000000;3.403993
3005.000000;3.526874
3004.000000;3.721272
3003.000000;3.847395
3002.000000;3.813625
3001.000000;3.816663
3000.000000;3.996025
2999.000000;4.189894
2998.000000;3.951933
2997.000000;3.827012
2996.000000;3.809483
2995.000000;3.738724
2994.000000;3.647059
2993.000000;3.581805
2992.000000;3.583755
2991.000000;3.630315
2990.000000;3.694653
2989.000000;3.857151
2988.000000;3.816685
2987.000000;3.619012
2986.000000;3.612052
2985.000000;3.792392
2984.000000;3.968787
2983.000000;3.766598
2982.000000;3.603150
2981.000000;3.574422
2980.000000;3.648446
2979.000000;3.781972
2978.000000;3.914945
2977.000000;4.285605
2976.000000;4.309984
2975.000000;3.858779
2974.000000;4.019233
2973.000000;4.281410
2972.000000;3.947488
2971.000000;3.827118
2970.000000;3.844934
2969.000000;3.834686
2968.000000;3.704931
2967.000000;3.588397
2966.000000;3.596072
2965.000000;3.720286
2964.000000;3.876817
2963.000000;3.941318
2962.000000;3.948868
2961.000000;4.036060
2960.000000;4.363748
2959.000000;4.341237
2958.000000;3.931651
2957.000000;3.809543
2956.000000;3.770671
2955.000000;3.753845
2954.000000;3.856508
2953.000000;4.159802
2952.000000;4.050377
2951.000000;3.662685
2950.000000;3.497504
2949.000000;3.490976
2948.000000;3.687454
2947.000000;4.015858
2946.000000;4.113209
2945.000000;4.008266
2944.000000;3.859957
2943.000000;3.800931
2942.000000;3.836372
2941.000000;3.960893
2940.000000;4.292894
2939.000000;4.345498
2938.000000;3.879603
2937.000000;3.679573
2936.000000;3.720178
2935.000000;3.995965
2934.000000;3.937873
2933.000000;3.720900
2932.000000;3.706958
2931.000000;3.850626
2930.000000;3.938814
2929.000000;3.891932
2928.000000;3.886807
2927.000000;3.760205
2926.000000;3.613284
2925.000000;3.549316
2924.000000;3.577422
2923.000000;3.695988
2922.000000;3.864137
2921.000000;3.958398
2920.000000;3.859657
2919.000000;3.748494
2918.000000;3.678583
2917.000000;3.559527
2916.000000;3.441778
2915.000000;3.412600
2914.000000;3.493690
2913.000000;3.673699
2912.000000;3.934325
2911.000000;4.122375
2910.000000;3.967845
2909.000000;3.960872
2908.000000;4.435750
2907.000000;4.311715
2906.000000;4.115255
2905.000000;4.150651
2904.000000;3.987732
2903.000000;3.789751
2902.000000;3.674729
2901.000000;3.659486
2900.000000;3.810272
2899.000000;4.145373
2898.000000;3.958069
2897.000000;3.647866
2896.000000;3.515784
2895.000000;3.496673
2894.000000;3.610933
2893.000000;3.770887
2892.000000;3.823643
2891.000000;3.898881
2890.000000;3.943485
2889.000000;3.837338
2888.000000;3.773372
2887.000000;3.807601
2886.000000;3.867007
2885.000000;3.773601
2884.000000;3.605215
2883.000000;3.532015
2882.000000;3.652286
2881.000000;3.965585
2880.000000;3.952264
2879.000000;3.953538
2878.000000;4.238893
2877.000000;4.688311
2876.000000;4.410028
2875.000000;3.989760
2874.000000;3.791571
2873.000000;3.719288
2872.000000;3.854818
2871.000000;4.303426
2870.000000;4.149565
2869.000000;3.897275
2868.000000;4.091310
2867.000000;4.375066
2866.000000;3.996739
2865.000000;3.698164
2864.000000;3.571759
2863.000000;3.597363
2862.000000;3.732883
2861.000000;3.712703
2860.000000;3.567311
2859.000000;3.522290
2858.000000;3.572272
2857.000000;3.666254
2856.000000;3.711788
2855.000000;3.639191
2854.000000;3.553031
2853.000000;3.619998
2852.000000;4.018714
2851.000000;4.038862
2850.000000;3.723326
2849.000000;3.687765
2848.000000;3.602879
2847.000000;3.502089
2846.000000;3.483543
2845.000000;3.491420
2844.000000;3.497177
2843.000000;3.545580
2842.000000;3.950373
2841.000000;4.174983
2840.000000;3.715104
2839.000000;3.739113
2838.000000;3.697604
2837.000000;3.583966
2836.000000;3.536379
2835.000000;3.528770
2834.000000;3.542660
2833.000000;3.488444
2832.000000;3.399933
2831.000000;3.336901
2830.000000;3.340795
2829.000000;3.440151
2828.000000;3.706908
2827.000000;4.014123
2826.000000;3.913317
2825.000000;3.922223
2824.000000;3.977935
2823.000000;3.919612
2822.000000;3.926406
2821.000000;4.108216
2820.000000;4.370696
2819.000000;4.288998
2818.000000;4.047513
2817.000000;4.075256
2816.000000;4.248168
2815.000000;3.809993
2814.000000;3.562249
2813.000000;3.528020
2812.000000;3.628469
2811.000000;3.786918
2810.000000;3.806732
2809.000000;3.831072
2808.000000;4.047388
2807.000000;4.186195
2806.000000;3.959397
2805.000000;3.824863
2804.000000;3.816301
2803.000000;3.831529
2802.000000;3.834349
2801.000000;3.850358
2800.000000;3.789476
2799.000000;3.682688
2798.000000;3.713638
2797.000000;3.848904
2796.000000;3.813736
2795.000000;3.703841
2794.000000;3.738894
2793.000000;4.083001
2792.000000;3.953542
2791.000000;3.562599
2790.000000;3.503932
2789.000000;3.558683
2788.000000;3.604672
2787.000000;3.578960
2786.000000;3.499874
2785.000000;3.440955
2784.000000;3.415648
2783.000000;3.469051
2782.000000;3.627100
2781.000000;3.729996
2780.000000;3.725606
2779.000000;3.734254
2778.000000;3.729174
2777.000000;3.800458
2776.000000;4.035564
2775.000000;4.339081
2774.000000;4.371076
2773.000000;4.438818
2772.000000;4.307386
2771.000000;4.020001
2770.000000;3.852055
2769.000000;3.728089
2768.000000;3.632554
2767.000000;3.588555
2766.000000;3.616922
2765.000000;3.710811
2764.000000;3.708156
2763.000000;3.611412
2762.000000;3.593483
2761.000000;3.738364
2760.000000;4.262805
2759.000000;4.159266
2758.000000;3.810525
2757.000000;3.810253
2756.000000;3.793754
2755.000000;3.992140
2754.000000;4.225640
2753.000000;3.924423
2752.000000;4.025213
2751.000000;4.276080
2750.000000;3.920716
2749.000000;3.739485
2748.000000;3.697041
2747.000000;3.725507
2746.000000;3.804126
2745.000000;3.931890
2744.000000;3.953162
2743.000000;3.764307
2742.000000;3.666136
2741.000000;3.649417
2740.000000;3.691082
2739.000000;3.891985
2738.000000;4.234350
2737.000000;4.429297
2736.000000;4.611082
2735.000000;4.481129
2734.000000;4.147948
2733.000000;3.796561
2732.000000;3.550426
2731.000000;3.497465
2730.000000;3.695405
2729.000000;3.934429
2728.000000;3.662572
2727.000000;3.523839
2726.000000;3.531515
2725.000000;3.631269
2724.000000;3.782133
2723.000000;3.998293
2722.000000;4.904382
2721.000000;4.048039
2720.000000;3.615970
2719.000000;3.499951
2718.000000;3.501193
2717.000000;3.526739
2716.000000;3.514464
2715.000000;3.537251
2714.000000;3.604673
2713.000000;3.743889
2712.000000;4.070660
2711.000000;4.381922
2710.000000;4.637017
2709.000000;4.843866
2708.000000;4.079326
2707.000000;3.801132
2706.000000;3.716280
2705.000000;3.904708
2704.000000;4.005627
2703.000000;3.717891
2702.000000;3.616862
2701.000000;3.559253
2700.000000;3.486414
2699.000000;3.452350
2698.000000;3.494602
2697.000000;3.584933
2696.000000;3.568276
2695.000000;3.489664
2694.000000;3.485279
2693.000000;3.611406
2692.000000;3.961935
2691.000000;3.994913
2690.000000;3.698543
2689.000000;3.679574
2688.000000;3.917450
2687.000000;4.556612
2686.000000;4.649788
2685.000000;4.692992
2684.000000;4.490956
2683.000000;3.926514
2682.000000;3.820275
2681.000000;3.894566
2680.000000;4.026965
2679.000000;4.032446
2678.000000;3.919509
2677.000000;3.805048
2676.000000;3.685171
2675.000000;3.639572
2674.000000;3.719999
2673.000000;4.065285
2672.000000;4.433037
2671.000000;4.323223
2670.000000;4.296790
2669.000000;4.069696
2668.000000;3.985465
2667.000000;4.190582
2666.000000;4.315003
2665.000000;3.872467
2664.000000;3.583057
2663.000000;3.449642
2662.000000;3.414719
2661.000000;3.445733
2660.000000;3.503382
2659.000000;3.571215
2658.000000;3.588318
2657.000000;3.586796
2656.000000;3.649812
2655.000000;3.754688
2654.000000;3.864788
2653.000000;3.891464
2652.000000;3.978006
2651.000000;4.294213
2650.000000;4.026595
2649.000000;3.671873
2648.000000;3.527833
2647.000000;3.472422
2646.000000;3.534856
2645.000000;3.694940
2644.000000;3.946670
2643.000000;4.315044
2642.000000;3.891710
2641.000000;3.589560
2640.000000;3.479160
2639.000000;3.409517
2638.000000;3.378578
2637.000000;3.409694
2636.000000;3.544404
2635.000000;3.773773
2634.000000;3.846300
2633.000000;3.744247
2632.000000;3.732872
2631.000000;3.763445
2630.000000;3.692344
2629.000000;3.600830
2628.000000;3.586255
2627.000000;3.690736
2626.000000;4.019028
2625.000000;3.991986
2624.000000;3.660557
2623.000000;3.520963
2622.000000;3.450846
2621.000000;3.452283
2620.000000;3.534668
2619.000000;3.700059
2618.000000;3.832097
2617.000000;4.044717
2616.000000;4.276616
2615.000000;3.953526
2614.000000;4.001935
2613.000000;4.082555
2612.000000;3.844467
2611.000000;3.753805
2610.000000;3.722489
2609.000000;3.708092
2608.000000;3.722115
2607.000000;3.755732
2606.000000;3.811531
2605.000000;3.944653
2604.000000;4.004155
2603.000000;3.953353
2602.000000;3.845952
2601.000000;3.677834
2600.000000;3.679523
2599.000000;3.658104
2598.000000;3.484717
2597.000000;3.402961
2596.000000;3.440134
2595.000000;3.610892
2594.000000;3.906357
2593.000000;3.990716
2592.000000;3.834620
2591.000000;3.719260
2590.000000;3.702027
2589.000000;3.743155
2588.000000;3.737737
2587.000000;3.716197
2586.000000;3.723118
2585.000000;3.712488
2584.000000;3.638485
2583.000000;3.592694
2582.000000;3.672625
2581.000000;3.834220
2580.000000;3.863460
2579.000000;3.764734
2578.000000;3.732864
2577.000000;3.777170
2576.000000;3.787113
2575.000000;3.753612
2574.000000;3.788522
2573.000000;3.941649
2572.000000;4.230792
2571.000000;4.115913
2570.000000;3.715037
2569.000000;3.523363
2568.000000;3.521274
2567.000000;3.678337
2566.000000;3.912833
2565.000000;3.993192
2564.000000;3.884409
2563.000000;3.774279
2562.000000;3.783094
2561.000000;4.103973
2560.000000;4.190635
2559.000000;3.767870
2558.000000;3.634184
2557.000000;3.609337
2556.000000;3.602253
2555.000000;3.653979
2554.000000;3.796528
2553.000000;3.894486
2552.000000;3.953078
2551.000000;3.963373
2550.000000;3.817943
2549.000000;3.819523
2548.000000;4.073982
2547.000000;4.213792
2546.000000;3.974047
2545.000000;4.003113
2544.000000;4.069713
2543.000000;3.989120
2542.000000;3.950921
2541.000000;3.842122
2540.000000;3.860086
2539.000000;4.058124
2538.000000;4.070630
2537.000000;3.942635
2536.000000;3.897877
2535.000000;3.924700
2534.000000;4.018686
2533.000000;4.073912
2532.000000;4.005744
2531.000000;3.856594
2530.000000;3.737298
2529.000000;3.720227
2528.000000;3.824678
2527.000000;4.070411
2526.000000;4.366159
2525.000000;4.273272
2524.000000;3.904603
2523.000000;3.750171
2522.000000;3.901040
2521.000000;3.846851
2520.000000;3.568046
2519.000000;3.490365
2518.000000;3.505625
2517.000000;3.582449
2516.000000;3.685531
2515.000000;3.699494
2514.000000;3.607190
2513.000000;3.525644
2512.000000;3.539035
2511.000000;3.684209
2510.000000;4.084515
2509.000000;4.362227
2508.000000;3.963390
2507.000000;3.881144
2506.000000;4.177393
2505.000000;4.143344
2504.000000;3.771723
2503.000000;3.603063
2502.000000;3.522094
2501.000000;3.505669
2500.000000;3.547707
2499.000000;3.629086
2498.000000;3.757789
2497.000000;4.027743
2496.000000;4.112977
2495.000000;3.942905
2494.000000;4.165097
2493.000000;4.209357
2492.000000;3.937533
2491.000000;3.923012
2490.000000;4.040116
2489.000000;4.310397
2488.000000;4.062667
2487.000000;3.793220
2486.000000;3.774953
2485.000000;3.867563
2484.000000;4.007768
2483.000000;4.137597
2482.000000;4.275372
2481.000000;4.242697
2480.000000;4.014063
2479.000000;3.837425
2478.000000;3.770332
2477.000000;3.807564
2476.000000;3.851232
2475.000000;3.989528
2474.000000;4.096278
2473.000000;3.908222
2472.000000;3.979513
2471.000000;4.201289
2470.000000;4.327398
2469.000000;4.187727
2468.000000;3.767963
2467.000000;3.578598
2466.000000;3.554298
2465.000000;3.645207
2464.000000;3.767367
2463.000000;3.893235
2462.000000;4.117795
2461.000000;4.262379
2460.000000;4.043320
2459.000000;3.742946
2458.000000;3.608193
2457.000000;3.600283
2456.000000;3.757976
2455.000000;4.060646
2454.000000;3.771989
2453.000000;3.573902
2452.000000;3.568339
2451.000000;3.608748
2450.000000;3.731611
2449.000000;3.965846
2448.000000;3.980492
2447.000000;4.103018
2446.000000;4.245327
2445.000000;3.811637
2444.000000;3.730356
2443.000000;3.816933
2442.000000;3.917822
2441.000000;3.944154
2440.000000;3.903134
2439.000000;3.871087
2438.000000;3.812271
2437.000000;3.783359
2436.000000;3.776399
2435.000000;3.788429
2434.000000;3.816844
2433.000000;3.788028
2432.000000;3.720605
2431.000000;3.697328
2430.000000;3.696476
2429.000000;3.687572
2428.000000;3.670225
2427.000000;3.822428
2426.000000;4.252317
2425.000000;3.890723
2424.000000;3.818704
2423.000000;4.046986
2422.000000;3.937756
2421.000000;3.715130
2420.000000;3.578941
2419.000000;3.531602
2418.000000;3.559784
2417.000000;3.647263
2416.000000;3.765413
2415.000000;3.961165
2414.000000;4.300672
2413.000000;4.253359
2412.000000;3.930907
2411.000000;3.766394
2410.000000;3.796777
2409.000000;3.930677
2408.000000;3.938816
2407.000000;3.888981
2406.000000;3.836020
2405.000000;3.764354
2404.000000;3.758733
2403.000000;3.862036
2402.000000;3.966899
2401.000000;4.128885
2400.000000;4.650579
2399.000000;5.140799
2398.000000;4.346926
2397.000000;3.948469
2396.000000;3.838092
2395.000000;3.863981
2394.000000;3.935995
2393.000000;3.814465
2392.000000;3.655731
2391.000000;3.655744
2390.000000;3.814353
2389.000000;4.018564
2388.000000;4.011981
2387.000000;3.993576
2386.000000;4.148162
2385.000000;4.261030
2384.000000;4.259712
2383.000000;4.255861
2382.000000;4.011980
2381.000000;3.812725
2380.000000;3.721736
2379.000000;3.829407
2378.000000;4.184195
2377.000000;3.804889
2376.000000;3.554310
2375.000000;3.565065
2374.000000;3.701918
2373.000000;4.252235
2372.000000;3.895021
2371.000000;3.474044
2370.000000;3.303201
2369.000000;3.239723
2368.000000;3.244760
2367.000000;3.366403
2366.000000;3.572740
2365.000000;3.500486
2364.000000;3.703951
2363.000000;3.906151
2362.000000;3.478730
2361.000000;3.424037
2360.000000;3.906350
2359.000000;4.060715
2358.000000;3.759015
2357.000000;3.877842
2356.000000;3.967144
2355.000000;3.610359
2354.000000;3.454931
2353.000000;3.489766
2352.000000;3.655907
2351.000000;4.107301
2350.000000;3.924502
2349.000000;3.727647
2348.000000;3.630277
2347.000000;3.766726
2346.000000;3.132934
2345.000000;3.161826
2344.000000;3.284598
2343.000000;3.144888
2342.000000;3.035877
2341.000000;3.042361
2340.000000;3.185026
2339.000000;3.290712
2338.000000;3.342561
2337.000000;3.281248
2336.000000;3.244121
2335.000000;3.343451
2334.000000;3.497955
2333.000000;3.564770
2332.000000;3.444845
2331.000000;3.267364
2330.000000;3.185465
2329.000000;3.200884
2328.000000;3.286968
2327.000000;3.384195
2326.000000;3.461578
2325.000000;3.425250
2324.000000;3.321876
2323.000000;3.329289
2322.000000;3.476762
2321.000000;3.758931
2320.000000;3.868198
2319.000000;3.797141
2318.000000;3.885958
2317.000000;4.073000
2316.000000;4.168519
2315.000000;3.950219
2314.000000;3.738982
2313.000000;3.692432
2312.000000;3.797006
2311.000000;4.063412
2310.000000;4.309097
2309.000000;4.179430
2308.000000;4.057123
2307.000000;3.817247
2306.000000;3.613725
2305.000000;3.523544
2304.000000;3.512586
2303.000000;3.500276
2302.000000;3.474662
2301.000000;3.502876
2300.000000;3.613806
2299.000000;3.722607
2298.000000;3.776298
2297.000000;3.821944
2296.000000;3.883110
2295.000000;4.065259
2294.000000;3.974452
2293.000000;3.795718
2292.000000;3.833294
2291.000000;3.962576
2290.000000;3.991997
2289.000000;4.018265
2288.000000;4.285317
2287.000000;4.757215
2286.000000;4.064503
2285.000000;3.778231
2284.000000;3.576781
2283.000000;3.514553
2282.000000;3.638253
2281.000000;4.003052
2280.000000;4.404377
2279.000000;4.102458
2278.000000;3.903793
2277.000000;3.866671
2276.000000;4.083537
2275.000000;4.129697
2274.000000;3.983587
2273.000000;3.980632
2272.000000;3.935909
2271.000000;3.973382
2270.000000;4.047570
2269.000000;3.910275
2268.000000;3.674738
2267.000000;3.547362
2266.000000;3.543792
2265.000000;3.604301
2264.000000;3.654137
2263.000000;3.708121
2262.000000;3.845815
2261.000000;4.118770
2260.000000;4.298479
2259.000000;4.511728
2258.000000;3.968935
2257.000000;3.784014
2256.000000;3.850753
2255.000000;3.843922
2254.000000;3.815921
2253.000000;3.998166
2252.000000;4.070681
2251.000000;3.855285
2250.000000;3.797895
2249.000000;3.874180
2248.000000;3.956165
2247.000000;3.803811
2246.000000;3.629634
2245.000000;3.585661
2244.000000;3.595817
2243.000000;3.593873
2242.000000;3.618237
2241.000000;3.704534
2240.000000;3.722836
2239.000000;3.682371
2238.000000;3.786119
2237.000000;3.968609
2236.000000;4.133131
2235.000000;4.756729
2234.000000;4.204221
2233.000000;3.918149
2232.000000;3.819953
2231.000000;3.862843
2230.000000;3.911777
2229.000000;3.817123
2228.000000;3.875350
2227.000000;4.138910
2226.000000;4.118142
2225.000000;3.918155
2224.000000;3.791942
2223.000000;3.721993
2222.000000;3.789799
2221.000000;3.987212
2220.000000;4.057578
2219.000000;3.741278
2218.000000;3.567127
2217.000000;3.563835
2216.000000;3.650668
2215.000000;3.796509
2214.000000;4.065283
2213.000000;4.364450
2212.000000;4.128036
2211.000000;3.859589
2210.000000;3.778744
2209.000000;3.788994
2208.000000;3.793627
2207.000000;3.810478
2206.000000;3.857875
2205.000000;3.896986
2204.000000;3.966034
2203.000000;3.969180
2202.000000;3.979971
2201.000000;4.037953
2200.000000;3.989118
2199.000000;4.057842
2198.000000;4.439485
2197.000000;3.995581
2196.000000;3.699227
2195.000000;3.690498
2194.000000;3.943110
2193.000000;4.079898
2192.000000;3.857083
2191.000000;3.924862
2190.000000;4.237488
2189.000000;4.134617
2188.000000;4.451070
2187.000000;4.281332
2186.000000;3.853965
2185.000000;3.720961
2184.000000;3.641557
2183.000000;3.672595
2182.000000;3.885182
2181.000000;4.306878
2180.000000;4.359104
2179.000000;3.972159
2178.000000;3.759812
2177.000000;3.655266
2176.000000;3.611051
2175.000000;3.632608
2174.000000;3.684698
2173.000000;3.689601
2172.000000;3.707193
2171.000000;3.789841
2170.000000;3.863953
2169.000000;3.918792
2168.000000;4.097491
2167.000000;4.144015
2166.000000;3.970741
2165.000000;3.804070
2164.000000;3.664210
2163.000000;3.640133
2162.000000;3.845990
2161.000000;4.025322
2160.000000;3.849812
2159.000000;3.771809
2158.000000;3.742486
2157.000000;3.714534
2156.000000;3.706728
2155.000000;3.762920
2154.000000;3.937786
2153.000000;3.896143
2152.000000;3.726958
2151.000000;3.757538
2150.000000;3.869077
2149.000000;3.794611
2148.000000;3.794651
2147.000000;4.131861
2146.000000;4.084747
2145.000000;3.643037
2144.000000;3.658302
2143.000000;3.849015
2142.000000;4.402484
2141.000000;4.381630
2140.000000;4.011611
2139.000000;3.908943
2138.000000;3.724407
2137.000000;3.615012
2136.000000;3.652105
2135.000000;3.856131
2134.000000;4.046933
2133.000000;3.867030
2132.000000;3.692755
2131.000000;3.643137
2130.000000;3.648613
2129.000000;3.617468
2128.000000;3.581518
2127.000000;3.596705
2126.000000;3.661460
2125.000000;3.716895
2124.000000;3.717940
2123.000000;3.723946
2122.000000;3.808224
2121.000000;3.956029
2120.000000;3.975881
2119.000000;3.831015
2118.000000;3.875867
2117.000000;4.262164
2116.000000;4.031613
2115.000000;3.728633
2114.000000;3.711718
2113.000000;3.736402
2112.000000;3.766196
2111.000000;3.806653
2110.000000;4.260312
2109.000000;4.375459
2108.000000;3.999280
2107.000000;3.980902
2106.000000;4.012589
2105.000000;4.058380
2104.000000;3.904465
2103.000000;3.782038
2102.000000;3.781768
2101.000000;3.854254
2100.000000;3.955921
2099.000000;4.041390
2098.000000;4.090616
2097.000000;4.418945
2096.000000;4.177126
2095.000000;4.159209
2094.000000;4.685107
2093.000000;3.939949
2092.000000;3.756185
2091.000000;3.680497
2090.000000;3.763597
2089.000000;3.882924
2088.000000;3.917934
2087.000000;3.974033
2086.000000;3.910440
2085.000000;3.798030
2084.000000;3.819373
2083.000000;3.918028
2082.000000;3.937970
2081.000000;3.877684
2080.000000;3.878239
2079.000000;4.134400
2078.000000;4.119369
2077.000000;3.793602
2076.000000;3.720458
2075.000000;3.889183
2074.000000;4.517550
2073.000000;3.792647
2072.000000;3.588289
2071.000000;3.516133
2070.000000;3.485998
2069.000000;3.496015
2068.000000;3.543629
2067.000000;3.580211
2066.000000;3.586354
2065.000000;3.637804
2064.000000;3.777924
2063.000000;4.043066
2062.000000;4.202039
2061.000000;3.856339
2060.000000;3.687939
2059.000000;3.698121
2058.000000;3.896309
2057.000000;4.032898
2056.000000;3.961051
2055.000000;3.979356
2054.000000;4.070830
2053.000000;3.958984
2052.000000;3.796608
2051.000000;3.788927
2050.000000;3.893896
2049.000000;4.050054
2048.000000;4.450446
2047.000000;3.994701
2046.000000;3.865859
2045.000000;3.957513
2044.000000;4.142636
2043.000000;4.145458
2042.000000;3.721464
2041.000000;3.494217
2040.000000;3.434354
2039.000000;3.487612
2038.000000;3.580379
2037.000000;3.645287
2036.000000;3.718821
2035.000000;3.953576
2034.000000;4.274023
2033.000000;4.203238
2032.000000;4.282136
2031.000000;4.299442
2030.000000;3.968640
2029.000000;3.815131
2028.000000;3.856606
2027.000000;4.430191
2026.000000;4.314671
2025.000000;3.923892
2024.000000;4.015235
2023.000000;4.070474
2022.000000;3.814957
2021.000000;3.769344
2020.000000;4.116588
2019.000000;4.159526
2018.000000;3.736430
2017.000000;3.620425
2016.000000;3.656625
2015.000000;3.784116
2014.000000;3.874813
2013.000000;3.904900
2012.000000;4.034686
2011.000000;4.215046
2010.000000;4.590515
2009.000000;4.610912
2008.000000;3.944514
2007.000000;3.727394
2006.000000;3.702642
2005.000000;3.772748
2004.000000;3.902024
2003.000000;4.192572
2002.000000;4.022949
2001.000000;3.783532
2000.000000;3.696404
1999.000000;3.694285
1998.000000;3.838075
1997.000000;3.825671
1996.000000;3.790364
1995.000000;3.933777
1994.000000;4.261409
1993.000000;4.567839
1992.000000;4.400843
1991.000000;4.107234
1990.000000;3.825942
1989.000000;3.685185
1988.000000;3.643861
1987.000000;3.620634
1986.000000;3.598365
1985.000000;3.579250
1984.000000;3.576324
1983.000000;3.608826
1982.000000;3.637094
1981.000000;3.640671
1980.000000;3.681005
1979.000000;3.772940
1978.000000;3.901753
1977.000000;4.073798
1976.000000;4.160331
1975.000000;4.105231
1974.000000;4.061063
1973.000000;3.960200
1972.000000;3.814867
1971.000000;3.660429
1970.000000;3.543417
1969.000000;3.528224
1968.000000;3.639402
1967.000000;3.859851
1966.000000;4.050857
1965.000000;4.145942
1964.000000;4.357177
1963.000000;4.793111
1962.000000;4.331291
1961.000000;3.951058
1960.000000;3.720774
1959.000000;3.742260
1958.000000;4.033515
1957.000000;4.012022
1956.000000;3.843974
1955.000000;3.743022
1954.000000;3.691373
1953.000000;3.724384
1952.000000;3.698571
1951.000000;3.664669
1950.000000;3.894843
1949.000000;3.965675
1948.000000;3.681975
1947.000000;3.648012
1946.000000;3.687968
1945.000000;3.592420
1944.000000;3.549443
1943.000000;3.665219
1942.000000;3.825912
1941.000000;3.798424
1940.000000;3.748548
1939.000000;3.851174
1938.000000;4.119287
1937.000000;4.125689
1936.000000;4.125362
1935.000000;3.995856
1934.000000;3.708412
1933.000000;3.556240
1932.000000;3.486907
1931.000000;3.487879
1930.000000;3.517348
1929.000000;3.494256
1928.000000;3.433164
1927.000000;3.377093
1926.000000;3.346628
1925.000000;3.378284
1924.000000;3.479164
1923.000000;3.597321
1922.000000;3.727982
1921.000000;3.918076
1920.000000;4.106803
1919.000000;4.032485
1918.000000;3.902056
1917.000000;3.948396
1916.000000;4.056699
1915.000000;3.912963
1914.000000;3.821575
1913.000000;3.795853
1912.000000;3.719296
1911.000000;3.634353
1910.000000;3.633363
1909.000000;3.786273
1908.000000;4.076627
1907.000000;4.338300
1906.000000;4.831601
1905.000000;4.318223
1904.000000;3.897382
1903.000000;3.706717
1902.000000;3.648172
1901.000000;3.684625
1900.000000;3.875516
1899.000000;4.299180
1898.000000;4.384090
1897.000000;4.140868
1896.000000;4.035105
1895.000000;3.967404
1894.000000;3.941784
1893.000000;3.900962
1892.000000;3.825820
1891.000000;3.737474
1890.000000;3.681145
1889.000000;3.723433
1888.000000;3.935676
1887.000000;4.521670
1886.000000;4.548581
1885.000000;4.237783
1884.000000;4.070435
1883.000000;4.057679
1882.000000;4.233341
1881.000000;4.171047
1880.000000;3.961131
1879.000000;3.854903
1878.000000;4.004677
1877.000000;4.143772
1876.000000;3.810073
1875.000000;3.616100
1874.000000;3.548168
1873.000000;3.608847
1872.000000;3.817364
1871.000000;4.125023
1870.000000;4.228126
1869.000000;4.114313
1868.000000;4.090973
1867.000000;4.260336
1866.000000;4.398546
1865.000000;4.060886
1864.000000;3.785605
1863.000000;3.698977
1862.000000;3.811269
1861.000000;4.050621
1860.000000;4.123652
1859.000000;4.210273
1858.000000;4.142168
1857.000000;3.815651
1856.000000;3.626663
1855.000000;3.488570
1854.000000;3.393507
1853.000000;3.380495
1852.000000;3.443236
1851.000000;3.576823
1850.000000;3.720826
1849.000000;3.768638
1848.000000;3.785311
1847.000000;3.722823
1846.000000;3.693098
1845.000000;3.725535
1844.000000;3.760425
1843.000000;3.831103
1842.000000;3.961726
1841.000000;4.295652
1840.000000;4.165121
1839.000000;3.860693
1838.000000;3.909081
1837.000000;4.019962
1836.000000;3.846945
1835.000000;3.763533
1834.000000;3.840289
1833.000000;4.003714
1832.000000;3.907555
1831.000000;3.738060
1830.000000;3.663706
1829.000000;3.591826
1828.000000;3.538029
1827.000000;3.574758
1826.000000;3.695683
1825.000000;3.732374
1824.000000;3.592829
1823.000000;3.470786
1822.000000;3.450353
1821.000000;3.503287
1820.000000;3.551005
1819.000000;3.535433
1818.000000;3.535528
1817.000000;3.633039
1816.000000;3.695147
1815.000000;3.657751
1814.000000;3.703403
1813.000000;3.799932
1812.000000;3.845973
1811.000000;3.838791
1810.000000;3.789779
1809.000000;3.833821
1808.000000;3.917194
1807.000000;3.814255
1806.000000;3.755878
1805.000000;3.786465
1804.000000;3.813155
1803.000000;3.888775
1802.000000;3.957492
1801.000000;3.927529
1800.000000;3.923787
1799.000000;4.064743
1798.000000;4.227452
1797.000000;3.971779
1796.000000;3.876093
1795.000000;3.948263
1794.000000;3.951077
1793.000000;3.886999
1792.000000;3.864098
1791.000000;3.879122
1790.000000;3.868953
1789.000000;3.823942
1788.000000;3.767064
1787.000000;3.760422
1786.000000;3.896458
1785.000000;3.965655
1784.000000;3.891488
1783.000000;3.905742
1782.000000;4.009067
1781.000000;4.569374
1780.000000;4.427869
1779.000000;4.357030
1778.000000;4.358346
1777.000000;4.150372
1776.000000;4.602659
1775.000000;3.926659
1774.000000;3.710986
1773.000000;3.818797
1772.000000;4.023748
1771.000000;3.995591
1770.000000;3.918496
1769.000000;4.065846
1768.000000;4.124228
1767.000000;4.119630
1766.000000;4.252815
1765.000000;3.977375
1764.000000;3.697726
1763.000000;3.619577
1762.000000;3.616785
1761.000000;3.703805
1760.000000;3.908826
1759.000000;4.341823
1758.000000;4.941645
1757.000000;4.891250
1756.000000;4.380536
1755.000000;4.012673
1754.000000;3.832900
1753.000000;3.898855
1752.000000;4.326695
1751.000000;3.871799
1750.000000;3.633395
1749.000000;3.675639
1748.000000;3.990111
1747.000000;4.887708
1746.000000;3.961646
1745.000000;3.810021
1744.000000;3.972268
1743.000000;4.414845
1742.000000;4.246133
1741.000000;3.970738
1740.000000;4.028907
1739.000000;4.030575
1738.000000;3.969972
1737.000000;4.004771
1736.000000;3.924785
1735.000000;3.750189
1734.000000;3.607689
1733.000000;3.743196
1732.000000;4.089029
1731.000000;3.784138
1730.000000;3.699056
1729.000000;3.738947
1728.000000;3.760577
1727.000000;3.837270
1726.000000;3.949210
1725.000000;4.003855
1724.000000;3.901946
1723.000000;3.715406
1722.000000;3.614941
1721.000000;3.657378
1720.000000;3.979274
1719.000000;4.860885
1718.000000;4.091965
1717.000000;3.746273
1716.000000;3.603811
1715.000000;3.730637
1714.000000;4.163676
1713.000000;4.058581
1712.000000;3.811155
1711.000000;3.674826
1710.000000;3.657356
1709.000000;3.767387
1708.000000;3.957447
1707.000000;4.319525
1706.000000;4.579890
1705.000000;4.179865
1704.000000;4.036589
1703.000000;4.125589
1702.000000;4.245362
1701.000000;4.113652
1700.000000;3.898449
1699.000000;3.749260
1698.000000;3.715777
1697.000000;3.744221
1696.000000;3.747625
1695.000000;3.830412
1694.000000;4.189291
1693.000000;4.551858
1692.000000;4.117844
1691.000000;3.930294
1690.000000;3.938097
1689.000000;4.010180
1688.000000;4.059608
1687.000000;4.073313
1686.000000;4.174433
1685.000000;4.074971
1684.000000;3.629694
1683.000000;3.487792
1682.000000;3.672729
1681.000000;4.052252
1680.000000;4.324427
1679.000000;4.597256
1678.000000;4.259215
1677.000000;4.025982
1676.000000;4.432437
1675.000000;4.222138
1674.000000;3.797024
1673.000000;3.677126
1672.000000;3.651552
1671.000000;3.689221
1670.000000;3.749611
1669.000000;3.847419
1668.000000;3.939505
1667.000000;3.880763
1666.000000;3.786033
1665.000000;3.740390
1664.000000;3.726785
1663.000000;3.820202
1662.000000;4.140389
1661.000000;4.205320
1660.000000;4.003435
1659.000000;4.164148
1658.000000;4.196983
1657.000000;3.764311
1656.000000;3.545565
1655.000000;3.517040
1654.000000;3.553341
1653.000000;3.575729
1652.000000;3.627748
1651.000000;3.629474
1650.000000;3.740076
1649.000000;4.082709
1648.000000;4.108576
1647.000000;3.991306
1646.000000;3.915887
1645.000000;3.953086
1644.000000;4.058384
1643.000000;4.029265
1642.000000;3.933790
1641.000000;3.945300
1640.000000;3.967931
1639.000000;3.872564
1638.000000;3.770269
1637.000000;3.733799
1636.000000;3.708223
1635.000000;3.687036
1634.000000;3.793210
1633.000000;4.052074
1632.000000;4.494429
1631.000000;4.779583
1630.000000;4.193140
1629.000000;4.029768
1628.000000;4.041340
1627.000000;4.033444
1626.000000;4.034463
1625.000000;4.071606
1624.000000;4.236915
1623.000000;4.450631
1622.000000;5.201666
1621.000000;4.522563
1620.000000;4.170794
1619.000000;4.467733
1618.000000;4.147954
1617.000000;3.686313
1616.000000;3.668155
1615.000000;3.800785
1614.000000;3.836112
1613.000000;4.115229
1612.000000;4.082685
1611.000000;3.771357
1610.000000;3.655456
1609.000000;3.629548
1608.000000;3.620856
1607.000000;3.633531
1606.000000;3.699506
1605.000000;3.753196
1604.000000;3.760970
1603.000000;3.841425
1602.000000;4.361106
1601.000000;4.612759
1600.000000;3.983061
1599.000000;3.890271
1598.000000;3.816648
1597.000000;3.768919
1596.000000;3.715582
1595.000000;3.572362
1594.000000;3.506662
1593.000000;3.510442
1592.000000;3.545418
1591.000000;3.611651
1590.000000;3.868414
1589.000000;4.330209
1588.000000;4.404424
1587.000000;4.416749
1586.000000;3.851292
1585.000000;3.568543
1584.000000;3.449798
1583.000000;3.435958
1582.000000;3.537474
1581.000000;3.592998
1580.000000;3.606850
1579.000000;3.674647
1578.000000;3.766502
1577.000000;3.794024
1576.000000;3.697788
1575.000000;3.985460
1574.000000;3.685147
1573.000000;3.382779
1572.000000;3.451560
1571.000000;3.542479
1570.000000;3.626133
1569.000000;3.665419
1568.000000;3.752150
1567.000000;4.026491
1566.000000;4.045845
1565.000000;3.778331
1564.000000;3.698674
1563.000000;3.852276
1562.000000;4.184949
1561.000000;4.349643
1560.000000;4.555517
1559.000000;4.315004
1558.000000;3.932951
1557.000000;3.873429
1556.000000;3.976293
1555.000000;4.089275
1554.000000;4.174552
1553.000000;4.278565
1552.000000;4.309537
1551.000000;4.365319
1550.000000;4.553251
1549.000000;4.554300
1548.000000;4.651196
1547.000000;4.761556
1546.000000;4.425508
1545.000000;4.098149
1544.000000;3.931064
1543.000000;3.934237
1542.000000;4.057891
1541.000000;4.159785
1540.000000;4.163524
1539.000000;4.058412
1538.000000;3.972134
1537.000000;3.931329
1536.000000;3.882627
1535.000000;3.897129
1534.000000;4.109561
1533.000000;4.270948
1532.000000;3.909466
1531.000000;3.791669
1530.000000;3.868044
1529.000000;3.941040
1528.000000;3.913728
1527.000000;3.844227
1526.000000;3.821549
1525.000000;3.869406
1524.000000;4.003095
1523.000000;4.065064
1522.000000;3.912048
1521.000000;3.717712
1520.000000;3.671025
1519.000000;3.785303
1518.000000;3.958510
1517.000000;4.027060
1516.000000;3.939135
1515.000000;3.877345
1514.000000;3.948770
1513.000000;4.074307
1512.000000;4.049400
1511.000000;3.889619
1510.000000;3.812571
1509.000000;3.870803
1508.000000;3.987774
1507.000000;4.308042
1506.000000;4.375958
1505.000000;3.955467
1504.000000;3.918780
1503.000000;3.869108
1502.000000;3.830874
1501.000000;3.966865
1500.000000;3.975009
1499.000000;4.044178
1498.000000;4.246460
1497.000000;4.043466
1496.000000;3.820592
1495.000000;3.767797
1494.000000;3.843159
1493.000000;4.015939
1492.000000;4.429884
1491.000000;4.883315
1490.000000;4.386547
1489.000000;4.014471
1488.000000;3.830655
1487.000000;3.794323
1486.000000;3.967677
1485.000000;4.756529
1484.000000;4.536984
1483.000000;4.256787
1482.000000;4.100511
1481.000000;3.929585
1480.000000;3.846210
1479.000000;3.806369
1478.000000;3.910225
1477.000000;3.913050
1476.000000;3.821832
1475.000000;3.843430
1474.000000;3.940524
1473.000000;4.034792
1472.000000;4.080101
1471.000000;4.080311
1470.000000;4.018687
1469.000000;4.038194
1468.000000;4.239028
1467.000000;4.191007
1466.000000;4.059970
1465.000000;4.012533
1464.000000;4.024901
1463.000000;4.241205
1462.000000;4.317373
1461.000000;4.498088
1460.000000;4.447784
1459.000000;3.920335
1458.000000;3.720639
1457.000000;3.681976
1456.000000;3.767770
1455.000000;3.990155
1454.000000;4.298401
1453.000000;4.280160
1452.000000;3.963894
1451.000000;3.779631
1450.000000;3.699066
1449.000000;3.648412
1448.000000;3.586391
1447.000000;3.565242
1446.000000;3.635877
1445.000000;3.770578
1444.000000;3.942414
1443.000000;4.265831
1442.000000;5.006638
1441.000000;5.161020
1440.000000;4.651918
1439.000000;4.150493
1438.000000;3.879711
1437.000000;3.848520
1436.000000;3.803679
1435.000000;3.656472
1434.000000;3.531254
1433.000000;3.453988
1432.000000;3.446964
1431.000000;3.514571
1430.000000;3.635713
1429.000000;3.833095
1428.000000;4.005631
1427.000000;3.919806
1426.000000;3.827605
1425.000000;3.771262
1424.000000;3.694583
1423.000000;3.592921
1422.000000;3.511579
1421.000000;3.463689
1420.000000;3.434449
1419.000000;3.458382
1418.000000;3.506314
1417.000000;3.522658
1416.000000;3.538116
1415.000000;3.588596
1414.000000;3.739680
1413.000000;3.939034
1412.000000;3.856402
1411.000000;3.721238
1410.000000;3.679991
1409.000000;3.799117
1408.000000;4.152260
1407.000000;4.159880
1406.000000;4.065083
1405.000000;4.074494
1404.000000;4.082229
1403.000000;4.157490
1402.000000;4.007763
1401.000000;3.791529
1400.000000;3.659648
1399.000000;3.633364
1398.000000;3.694348
1397.000000;3.721238
1396.000000;3.635704
1395.000000;3.523586
1394.000000;3.481569
1393.000000;3.561202
1392.000000;3.686169
1391.000000;3.687399
1390.000000;3.695586
1389.000000;3.886411
1388.000000;3.995243
1387.000000;3.728568
1386.000000;3.576367
1385.000000;3.545121
1384.000000;3.558073
1383.000000;3.609553
1382.000000;3.731552
1381.000000;3.833572
1380.000000;3.746943
1379.000000;3.605718
1378.000000;3.536431
1377.000000;3.549072
1376.000000;3.614368
1375.000000;3.706567
1374.000000;3.711210
1373.000000;3.636700
1372.000000;3.594398
1371.000000;3.514070
1370.000000;3.388338
1369.000000;3.331017
1368.000000;3.413636
1367.000000;3.657356
1366.000000;3.972067
1365.000000;4.052011
1364.000000;4.006412
1363.000000;3.921197
1362.000000;3.833169
1361.000000;4.036814
1360.000000;4.324679
1359.000000;3.907471
1358.000000;3.762993
1357.000000;3.754919
1356.000000;3.736709
1355.000000;3.743121
1354.000000;3.717897
1353.000000;3.634826
1352.000000;3.547779
1351.000000;3.509509
1350.000000;3.606244
1349.000000;3.888703
1348.000000;4.037011
1347.000000;3.966202
1346.000000;4.033219
1345.000000;4.075527
1344.000000;3.966244
1343.000000;3.795472
1342.000000;3.640751
1341.000000;3.583932
1340.000000;3.636936
1339.000000;3.722666
1338.000000;3.625171
1337.000000;3.514394
1336.000000;3.572531
1335.000000;4.047085
1334.000000;4.250724
1333.000000;3.687807
1332.000000;3.564527
1331.000000;3.539136
1330.000000;3.644596
1329.000000;3.645562
1328.000000;3.578741
1327.000000;3.571273
1326.000000;3.567837
1325.000000;3.647040
1324.000000;3.958288
1323.000000;3.945837
1322.000000;3.578532
1321.000000;3.451355
1320.000000;3.507455
1319.000000;3.591676
1318.000000;3.539343
1317.000000;3.471778
1316.000000;3.437708
1315.000000;3.426338
1314.000000;3.413099
1313.000000;3.386960
1312.000000;3.380043
1311.000000;3.419746
1310.000000;3.513565
1309.000000;3.613812
1308.000000;3.695717
1307.000000;3.805780
1306.000000;3.930402
1305.000000;3.957132
1304.000000;3.970853
1303.000000;4.239524
1302.000000;4.105826
1301.000000;4.025907
1300.000000;3.973358
1299.000000;3.631500
1298.000000;3.521276
1297.000000;3.646143
1296.000000;3.703499
1295.000000;3.651569
1294.000000;3.816429
1293.000000;3.716967
1292.000000;3.494656
1291.000000;3.466189
1290.000000;3.520014
1289.000000;3.457389
1288.000000;3.334040
1287.000000;3.316442
1286.000000;3.458226
1285.000000;3.661539
1284.000000;3.643848
1283.000000;3.618463
1282.000000;3.779758
1281.000000;4.031679
1280.000000;3.818372
1279.000000;3.749796
1278.000000;4.117374
1277.000000;4.367518
1276.000000;4.319341
1275.000000;4.648287
1274.000000;4.672587
1273.000000;4.544430
1272.000000;3.966080
1271.000000;3.674447
1270.000000;3.559279
1269.000000;3.491593
1268.000000;3.448327
1267.000000;3.459499
1266.000000;3.536193
1265.000000;3.605683
1264.000000;3.479012
1263.000000;3.329708
1262.000000;3.313193
1261.000000;3.431523
1260.000000;3.654680
1259.000000;3.620158
1258.000000;3.417927
1257.000000;3.405261
1256.000000;3.596060
1255.000000;3.813814
1254.000000;3.683521
1253.000000;3.625589
1252.000000;3.769622
1251.000000;3.927139
1250.000000;3.923121
1249.000000;4.248200
1248.000000;3.940528
1247.000000;3.599179
1246.000000;3.541193
1245.000000;3.569853
1244.000000;3.623476
1243.000000;3.676980
1242.000000;3.654441
1241.000000;3.485847
1240.000000;3.382955
1239.000000;3.395433
1238.000000;3.383724
1237.000000;3.310243
1236.000000;3.298828
1235.000000;3.403553
1234.000000;3.726353
1233.000000;4.121347
1232.000000;3.725939
1231.000000;3.474947
1230.000000;3.278368
1229.000000;3.181802
1228.000000;3.202380
1227.000000;3.321789
1226.000000;3.434732
1225.000000;3.485968
1224.000000;3.580776
1223.000000;3.746965
1222.000000;3.854043
1221.000000;3.735934
1220.000000;3.683146
1219.000000;4.108343
1218.000000;4.175939
1217.000000;3.885755
1216.000000;3.982372
1215.000000;3.998784
1214.000000;3.874242
1213.000000;3.608325
1212.000000;3.530681
1211.000000;3.647535
1210.000000;3.881294
1209.000000;4.063026
1208.000000;3.868572
1207.000000;3.486807
1206.000000;3.249413
1205.000000;3.165430
1204.000000;3.211138
1203.000000;3.307703
1202.000000;3.345324
1201.000000;3.391290
1200.000000;3.470693
