Criado como novo conjunto de dados;"e2410_daniel_v2.spp","44284.1 Secs"
cm-1;Abs
10000.000000;0.654905
9999.000000;0.654155
9998.000000;0.653405
9997.000000;0.652658
9996.000000;0.651917
9995.000000;0.651231
9994.000000;0.650578
9993.000000;0.650013
9992.000000;0.649693
9991.000000;0.649505
9990.000000;0.649103
9989.000000;0.648371
9988.000000;0.647576
9987.000000;0.646971
9986.000000;0.646538
9985.000000;0.646233
9984.000000;0.646136
9983.000000;0.646190
9982.000000;0.646058
9981.000000;0.645456
9980.000000;0.644485
9979.000000;0.643512
9978.000000;0.642854
9977.000000;0.642644
9976.000000;0.642762
9975.000000;0.642823
9974.000000;0.642447
9973.000000;0.641642
9972.000000;0.640744
9971.000000;0.639970
9970.000000;0.639291
9969.000000;0.638721
9968.000000;0.638372
9967.000000;0.638139
9966.000000;0.637688
9965.000000;0.636922
9964.000000;0.636142
9963.000000;0.635569
9962.000000;0.635048
9961.000000;0.634421
9960.000000;0.633868
9959.000000;0.633586
9958.000000;0.633365
9957.000000;0.632821
9956.000000;0.631913
9955.000000;0.630973
9954.000000;0.630331
9953.000000;0.630112
9952.000000;0.630266
9951.000000;0.630562
9950.000000;0.630625
9949.000000;0.630184
9948.000000;0.629272
9947.000000;0.628124
9946.000000;0.627000
9945.000000;0.626142
9944.000000;0.625690
9943.000000;0.625496
9942.000000;0.625193
9941.000000;0.624582
9940.000000;0.623807
9939.000000;0.623087
9938.000000;0.622478
9937.000000;0.622016
9936.000000;0.621806
9935.000000;0.621792
9934.000000;0.621657
9933.000000;0.621199
9932.000000;0.620615
9931.000000;0.620208
9930.000000;0.619942
9929.000000;0.619523
9928.000000;0.618805
9927.000000;0.617905
9926.000000;0.617007
9925.000000;0.616241
9924.000000;0.615699
9923.000000;0.615399
9922.000000;0.615222
9921.000000;0.614999
9920.000000;0.614616
9919.000000;0.614034
9918.000000;0.613328
9917.000000;0.612733
9916.000000;0.612467
9915.000000;0.612421
9914.000000;0.612207
9913.000000;0.611605
9912.000000;0.610791
9911.000000;0.610031
9910.000000;0.609381
9909.000000;0.608823
9908.000000;0.608452
9907.000000;0.608301
9906.000000;0.608128
9905.000000;0.607637
9904.000000;0.606812
9903.000000;0.605891
9902.000000;0.605085
9901.000000;0.604454
9900.000000;0.603964
9899.000000;0.603499
9898.000000;0.602928
9897.000000;0.602285
9896.000000;0.601770
9895.000000;0.601479
9894.000000;0.601249
9893.000000;0.600875
9892.000000;0.600343
9891.000000;0.599741
9890.000000;0.599107
9889.000000;0.598504
9888.000000;0.598086
9887.000000;0.597903
9886.000000;0.597770
9885.000000;0.597484
9884.000000;0.597050
9883.000000;0.596559
9882.000000;0.595972
9881.000000;0.595203
9880.000000;0.594303
9879.000000;0.593419
9878.000000;0.592655
9877.000000;0.592083
9876.000000;0.591769
9875.000000;0.591638
9874.000000;0.591464
9873.000000;0.591112
9872.000000;0.590691
9871.000000;0.590312
9870.000000;0.589866
9869.000000;0.589200
9868.000000;0.588395
9867.000000;0.587693
9866.000000;0.587227
9865.000000;0.586941
9864.000000;0.586690
9863.000000;0.586278
9862.000000;0.585550
9861.000000;0.584607
9860.000000;0.583812
9859.000000;0.583416
9858.000000;0.583262
9857.000000;0.583028
9856.000000;0.582632
9855.000000;0.582232
9854.000000;0.581918
9853.000000;0.581618
9852.000000;0.581275
9851.000000;0.580894
9850.000000;0.580445
9849.000000;0.579861
9848.000000;0.579160
9847.000000;0.578445
9846.000000;0.577788
9845.000000;0.577190
9844.000000;0.576624
9843.000000;0.576057
9842.000000;0.575467
9841.000000;0.574917
9840.000000;0.574570
9839.000000;0.574524
9838.000000;0.574674
9837.000000;0.574759
9836.000000;0.574515
9835.000000;0.573803
9834.000000;0.572706
9833.000000;0.571556
9832.000000;0.570723
9831.000000;0.570308
9830.000000;0.570111
9829.000000;0.569920
9828.000000;0.569682
9827.000000;0.569354
9826.000000;0.568806
9825.000000;0.568004
9824.000000;0.567145
9823.000000;0.566450
9822.000000;0.565936
9821.000000;0.565489
9820.000000;0.565059
9819.000000;0.564672
9818.000000;0.564330
9817.000000;0.564013
9816.000000;0.563698
9815.000000;0.563298
9814.000000;0.562685
9813.000000;0.561872
9812.000000;0.561088
9811.000000;0.560572
9810.000000;0.560354
9809.000000;0.560280
9808.000000;0.560158
9807.000000;0.559837
9806.000000;0.559277
9805.000000;0.558616
9804.000000;0.558044
9803.000000;0.557586
9802.000000;0.557122
9801.000000;0.556634
9800.000000;0.556238
9799.000000;0.555922
9798.000000;0.555479
9797.000000;0.554803
9796.000000;0.554052
9795.000000;0.553428
9794.000000;0.552972
9793.000000;0.552679
9792.000000;0.552566
9791.000000;0.552479
9790.000000;0.552096
9789.000000;0.551326
9788.000000;0.550501
9787.000000;0.549955
9786.000000;0.549603
9785.000000;0.549149
9784.000000;0.548533
9783.000000;0.547913
9782.000000;0.547339
9781.000000;0.546756
9780.000000;0.546262
9779.000000;0.546051
9778.000000;0.546094
9777.000000;0.546087
9776.000000;0.545750
9775.000000;0.545040
9774.000000;0.544105
9773.000000;0.543172
9772.000000;0.542477
9771.000000;0.542135
9770.000000;0.542043
9769.000000;0.541976
9768.000000;0.541764
9767.000000;0.541331
9766.000000;0.540674
9765.000000;0.539914
9764.000000;0.539287
9763.000000;0.538917
9762.000000;0.538636
9761.000000;0.538159
9760.000000;0.537417
9759.000000;0.536620
9758.000000;0.536023
9757.000000;0.535715
9756.000000;0.535558
9755.000000;0.535271
9754.000000;0.534647
9753.000000;0.533804
9752.000000;0.533140
9751.000000;0.532935
9750.000000;0.533030
9749.000000;0.532989
9748.000000;0.532507
9747.000000;0.531598
9746.000000;0.530503
9745.000000;0.529521
9744.000000;0.528863
9743.000000;0.528504
9742.000000;0.528207
9741.000000;0.527772
9740.000000;0.527219
9739.000000;0.526672
9738.000000;0.526174
9737.000000;0.525694
9736.000000;0.525243
9735.000000;0.524856
9734.000000;0.524516
9733.000000;0.524192
9732.000000;0.523901
9731.000000;0.523647
9730.000000;0.523362
9729.000000;0.522968
9728.000000;0.522449
9727.000000;0.521806
9726.000000;0.521059
9725.000000;0.520337
9724.000000;0.519822
9723.000000;0.519539
9722.000000;0.519295
9721.000000;0.518916
9720.000000;0.518424
9719.000000;0.517915
9718.000000;0.517407
9717.000000;0.516938
9716.000000;0.516626
9715.000000;0.516507
9714.000000;0.516399
9713.000000;0.516104
9712.000000;0.515644
9711.000000;0.515177
9710.000000;0.514774
9709.000000;0.514380
9708.000000;0.513913
9707.000000;0.513298
9706.000000;0.512515
9705.000000;0.511735
9704.000000;0.511258
9703.000000;0.511189
9702.000000;0.511278
9701.000000;0.511231
9700.000000;0.511014
9699.000000;0.510703
9698.000000;0.510201
9697.000000;0.509360
9696.000000;0.508303
9695.000000;0.507357
9694.000000;0.506696
9693.000000;0.506232
9692.000000;0.505822
9691.000000;0.505412
9690.000000;0.504962
9689.000000;0.504439
9688.000000;0.503890
9687.000000;0.503406
9686.000000;0.503020
9685.000000;0.502733
9684.000000;0.502590
9683.000000;0.502581
9682.000000;0.502530
9681.000000;0.502218
9680.000000;0.501630
9679.000000;0.500941
9678.000000;0.500283
9677.000000;0.499666
9676.000000;0.499085
9675.000000;0.498553
9674.000000;0.498019
9673.000000;0.497419
9672.000000;0.496799
9671.000000;0.496294
9670.000000;0.495950
9669.000000;0.495688
9668.000000;0.495444
9667.000000;0.495225
9666.000000;0.495015
9665.000000;0.494732
9664.000000;0.494331
9663.000000;0.493861
9662.000000;0.493396
9661.000000;0.492947
9660.000000;0.492493
9659.000000;0.492023
9658.000000;0.491535
9657.000000;0.491010
9656.000000;0.490434
9655.000000;0.489829
9654.000000;0.489249
9653.000000;0.488754
9652.000000;0.488342
9651.000000;0.487945
9650.000000;0.487512
9649.000000;0.487087
9648.000000;0.486730
9647.000000;0.486378
9646.000000;0.485899
9645.000000;0.485280
9644.000000;0.484657
9643.000000;0.484110
9642.000000;0.483589
9641.000000;0.483075
9640.000000;0.482683
9639.000000;0.482478
9638.000000;0.482331
9637.000000;0.482077
9636.000000;0.481737
9635.000000;0.481418
9634.000000;0.481085
9633.000000;0.480584
9632.000000;0.479886
9631.000000;0.479176
9630.000000;0.478665
9629.000000;0.478397
9628.000000;0.478246
9627.000000;0.478052
9626.000000;0.477743
9625.000000;0.477368
9624.000000;0.476995
9623.000000;0.476614
9622.000000;0.476190
9621.000000;0.475759
9620.000000;0.475371
9619.000000;0.474929
9618.000000;0.474260
9617.000000;0.473390
9616.000000;0.472597
9615.000000;0.472091
9614.000000;0.471783
9613.000000;0.471491
9612.000000;0.471194
9611.000000;0.470946
9610.000000;0.470656
9609.000000;0.470178
9608.000000;0.469566
9607.000000;0.469052
9606.000000;0.468756
9605.000000;0.468569
9604.000000;0.468335
9603.000000;0.468034
9602.000000;0.467759
9601.000000;0.467580
9600.000000;0.467451
9599.000000;0.467209
9598.000000;0.466694
9597.000000;0.465922
9596.000000;0.465100
9595.000000;0.464423
9594.000000;0.463915
9593.000000;0.463514
9592.000000;0.463207
9591.000000;0.462977
9590.000000;0.462718
9589.000000;0.462322
9588.000000;0.461809
9587.000000;0.461283
9586.000000;0.460793
9585.000000;0.460345
9584.000000;0.459969
9583.000000;0.459659
9582.000000;0.459312
9581.000000;0.458856
9580.000000;0.458399
9579.000000;0.458102
9578.000000;0.457928
9577.000000;0.457653
9576.000000;0.457143
9575.000000;0.456515
9574.000000;0.455983
9573.000000;0.455639
9572.000000;0.455417
9571.000000;0.455186
9570.000000;0.454849
9569.000000;0.454395
9568.000000;0.453888
9567.000000;0.453378
9566.000000;0.452846
9565.000000;0.452277
9564.000000;0.451744
9563.000000;0.451351
9562.000000;0.451096
9561.000000;0.450857
9560.000000;0.450541
9559.000000;0.450170
9558.000000;0.449813
9557.000000;0.449475
9556.000000;0.449105
9555.000000;0.448678
9554.000000;0.448233
9553.000000;0.447787
9552.000000;0.447283
9551.000000;0.446665
9550.000000;0.446040
9549.000000;0.445641
9548.000000;0.445560
9547.000000;0.445572
9546.000000;0.445361
9545.000000;0.444870
9544.000000;0.444312
9543.000000;0.443821
9542.000000;0.443302
9541.000000;0.442657
9540.000000;0.441985
9539.000000;0.441448
9538.000000;0.441058
9537.000000;0.440724
9536.000000;0.440430
9535.000000;0.440229
9534.000000;0.440107
9533.000000;0.439954
9532.000000;0.439662
9531.000000;0.439182
9530.000000;0.438547
9529.000000;0.437895
9528.000000;0.437409
9527.000000;0.437155
9526.000000;0.437014
9525.000000;0.436839
9524.000000;0.436624
9523.000000;0.436435
9522.000000;0.436251
9521.000000;0.435969
9520.000000;0.435525
9519.000000;0.434936
9518.000000;0.434245
9517.000000;0.433526
9516.000000;0.432900
9515.000000;0.432433
9514.000000;0.432033
9513.000000;0.431536
9512.000000;0.430914
9511.000000;0.430318
9510.000000;0.429924
9509.000000;0.429759
9508.000000;0.429700
9507.000000;0.429576
9506.000000;0.429283
9505.000000;0.428838
9504.000000;0.428357
9503.000000;0.427966
9502.000000;0.427718
9501.000000;0.427578
9500.000000;0.427447
9499.000000;0.427222
9498.000000;0.426867
9497.000000;0.426442
9496.000000;0.426009
9495.000000;0.425541
9494.000000;0.424956
9493.000000;0.424280
9492.000000;0.423667
9491.000000;0.423257
9490.000000;0.423059
9489.000000;0.422983
9488.000000;0.422905
9487.000000;0.422692
9486.000000;0.422269
9485.000000;0.421712
9484.000000;0.421191
9483.000000;0.420775
9482.000000;0.420376
9481.000000;0.419920
9480.000000;0.419460
9479.000000;0.419060
9478.000000;0.418657
9477.000000;0.418145
9476.000000;0.417547
9475.000000;0.417002
9474.000000;0.416615
9473.000000;0.416387
9472.000000;0.416229
9471.000000;0.415996
9470.000000;0.415565
9469.000000;0.414978
9468.000000;0.414466
9467.000000;0.414245
9466.000000;0.414262
9465.000000;0.414229
9464.000000;0.413888
9463.000000;0.413228
9462.000000;0.412440
9461.000000;0.411724
9460.000000;0.411156
9459.000000;0.410708
9458.000000;0.410360
9457.000000;0.410147
9456.000000;0.410076
9455.000000;0.410026
9454.000000;0.409821
9453.000000;0.409437
9452.000000;0.409050
9451.000000;0.408832
9450.000000;0.408748
9449.000000;0.408607
9448.000000;0.408258
9447.000000;0.407686
9446.000000;0.406971
9445.000000;0.406234
9444.000000;0.405608
9443.000000;0.405191
9442.000000;0.404978
9441.000000;0.404852
9440.000000;0.404666
9439.000000;0.404352
9438.000000;0.403970
9437.000000;0.403628
9436.000000;0.403359
9435.000000;0.403091
9434.000000;0.402749
9433.000000;0.402346
9432.000000;0.401933
9431.000000;0.401502
9430.000000;0.401027
9429.000000;0.400557
9428.000000;0.400186
9427.000000;0.399936
9426.000000;0.399739
9425.000000;0.399533
9424.000000;0.399281
9423.000000;0.398933
9422.000000;0.398453
9421.000000;0.397916
9420.000000;0.397495
9419.000000;0.397279
9418.000000;0.397179
9417.000000;0.396999
9416.000000;0.396598
9415.000000;0.395982
9414.000000;0.395318
9413.000000;0.394835
9412.000000;0.394624
9411.000000;0.394528
9410.000000;0.394298
9409.000000;0.393835
9408.000000;0.393233
9407.000000;0.392625
9406.000000;0.392085
9405.000000;0.391657
9404.000000;0.391350
9403.000000;0.391092
9402.000000;0.390799
9401.000000;0.390477
9400.000000;0.390179
9399.000000;0.389868
9398.000000;0.389471
9397.000000;0.389045
9396.000000;0.388733
9395.000000;0.388550
9394.000000;0.388355
9393.000000;0.388068
9392.000000;0.387767
9391.000000;0.387514
9390.000000;0.387269
9389.000000;0.387029
9388.000000;0.386885
9387.000000;0.386839
9386.000000;0.386685
9385.000000;0.386213
9384.000000;0.385463
9383.000000;0.384704
9382.000000;0.384200
9381.000000;0.384055
9380.000000;0.384174
9379.000000;0.384299
9378.000000;0.384191
9377.000000;0.383835
9376.000000;0.383416
9375.000000;0.383056
9374.000000;0.382695
9373.000000;0.382269
9372.000000;0.381855
9371.000000;0.381547
9370.000000;0.381293
9369.000000;0.380990
9368.000000;0.380639
9367.000000;0.380298
9366.000000;0.379945
9365.000000;0.379534
9364.000000;0.379116
9363.000000;0.378803
9362.000000;0.378618
9361.000000;0.378466
9360.000000;0.378241
9359.000000;0.377880
9358.000000;0.377344
9357.000000;0.376647
9356.000000;0.375915
9355.000000;0.375336
9354.000000;0.375026
9353.000000;0.374942
9352.000000;0.374920
9351.000000;0.374789
9350.000000;0.374490
9349.000000;0.374112
9348.000000;0.373779
9347.000000;0.373499
9346.000000;0.373194
9345.000000;0.372849
9344.000000;0.372565
9343.000000;0.372405
9342.000000;0.372282
9341.000000;0.372043
9340.000000;0.371620
9339.000000;0.371067
9338.000000;0.370487
9337.000000;0.369970
9336.000000;0.369552
9335.000000;0.369227
9334.000000;0.369004
9333.000000;0.368928
9332.000000;0.368965
9331.000000;0.368916
9330.000000;0.368593
9329.000000;0.368066
9328.000000;0.367605
9327.000000;0.367323
9326.000000;0.367053
9325.000000;0.366620
9324.000000;0.366132
9323.000000;0.365858
9322.000000;0.365910
9321.000000;0.366137
9320.000000;0.366266
9319.000000;0.366084
9318.000000;0.365547
9317.000000;0.364799
9316.000000;0.364079
9315.000000;0.363561
9314.000000;0.363273
9313.000000;0.363153
9312.000000;0.363099
9311.000000;0.362961
9310.000000;0.362606
9309.000000;0.362060
9308.000000;0.361508
9307.000000;0.361116
9306.000000;0.360900
9305.000000;0.360774
9304.000000;0.360632
9303.000000;0.360361
9302.000000;0.359900
9301.000000;0.359359
9300.000000;0.358946
9299.000000;0.358723
9298.000000;0.358532
9297.000000;0.358211
9296.000000;0.357789
9295.000000;0.357384
9294.000000;0.357044
9293.000000;0.356766
9292.000000;0.356575
9291.000000;0.356456
9290.000000;0.356292
9289.000000;0.356003
9288.000000;0.355680
9287.000000;0.355464
9286.000000;0.355348
9285.000000;0.355188
9284.000000;0.354900
9283.000000;0.354520
9282.000000;0.354107
9281.000000;0.353675
9280.000000;0.353228
9279.000000;0.352794
9278.000000;0.352422
9277.000000;0.352170
9276.000000;0.352075
9275.000000;0.352082
9274.000000;0.352054
9273.000000;0.351876
9272.000000;0.351526
9271.000000;0.351028
9270.000000;0.350425
9269.000000;0.349828
9268.000000;0.349393
9267.000000;0.349172
9266.000000;0.349039
9265.000000;0.348839
9264.000000;0.348550
9263.000000;0.348230
9262.000000;0.347893
9261.000000;0.347526
9260.000000;0.347192
9259.000000;0.346989
9258.000000;0.346929
9257.000000;0.346924
9256.000000;0.346865
9255.000000;0.346665
9254.000000;0.346281
9253.000000;0.345774
9252.000000;0.345320
9251.000000;0.345068
9250.000000;0.344987
9249.000000;0.344937
9248.000000;0.344840
9247.000000;0.344712
9246.000000;0.344536
9245.000000;0.344244
9244.000000;0.343850
9243.000000;0.343479
9242.000000;0.343210
9241.000000;0.342960
9240.000000;0.342605
9239.000000;0.342182
9238.000000;0.341858
9237.000000;0.341688
9236.000000;0.341511
9235.000000;0.341139
9234.000000;0.340611
9233.000000;0.340149
9232.000000;0.339876
9231.000000;0.339693
9230.000000;0.339455
9229.000000;0.339158
9228.000000;0.338872
9227.000000;0.338572
9226.000000;0.338190
9225.000000;0.337780
9224.000000;0.337501
9223.000000;0.337410
9222.000000;0.337391
9221.000000;0.337312
9220.000000;0.337147
9219.000000;0.336915
9218.000000;0.336596
9217.000000;0.336187
9216.000000;0.335745
9215.000000;0.335346
9214.000000;0.335037
9213.000000;0.334851
9212.000000;0.334810
9211.000000;0.334852
9210.000000;0.334815
9209.000000;0.334564
9208.000000;0.334111
9207.000000;0.333604
9206.000000;0.333208
9205.000000;0.332997
9204.000000;0.332893
9203.000000;0.332713
9202.000000;0.332338
9201.000000;0.331823
9200.000000;0.331323
9199.000000;0.330934
9198.000000;0.330684
9197.000000;0.330607
9196.000000;0.330688
9195.000000;0.330754
9194.000000;0.330579
9193.000000;0.330154
9192.000000;0.329696
9191.000000;0.329362
9190.000000;0.329073
9189.000000;0.328711
9188.000000;0.328345
9187.000000;0.328133
9186.000000;0.328100
9185.000000;0.328123
9184.000000;0.328091
9183.000000;0.327974
9182.000000;0.327781
9181.000000;0.327528
9180.000000;0.327260
9179.000000;0.327007
9178.000000;0.326747
9177.000000;0.326444
9176.000000;0.326103
9175.000000;0.325758
9174.000000;0.325439
9173.000000;0.325175
9172.000000;0.324986
9171.000000;0.324840
9170.000000;0.324653
9169.000000;0.324376
9168.000000;0.324056
9167.000000;0.323772
9166.000000;0.323564
9165.000000;0.323421
9164.000000;0.323307
9163.000000;0.323160
9162.000000;0.322930
9161.000000;0.322637
9160.000000;0.322354
9159.000000;0.322100
9158.000000;0.321812
9157.000000;0.321426
9156.000000;0.320964
9155.000000;0.320513
9154.000000;0.320178
9153.000000;0.320033
9152.000000;0.320041
9151.000000;0.320027
9150.000000;0.319809
9149.000000;0.319403
9148.000000;0.319030
9147.000000;0.318889
9146.000000;0.318965
9145.000000;0.319098
9144.000000;0.319126
9143.000000;0.318958
9142.000000;0.318579
9141.000000;0.318083
9140.000000;0.317631
9139.000000;0.317315
9138.000000;0.317084
9137.000000;0.316845
9136.000000;0.316583
9135.000000;0.316342
9134.000000;0.316140
9133.000000;0.315959
9132.000000;0.315780
9131.000000;0.315597
9130.000000;0.315411
9129.000000;0.315250
9128.000000;0.315133
9127.000000;0.315024
9126.000000;0.314847
9125.000000;0.314573
9124.000000;0.314256
9123.000000;0.313966
9122.000000;0.313728
9121.000000;0.313539
9120.000000;0.313391
9119.000000;0.313253
9118.000000;0.313086
9117.000000;0.312882
9116.000000;0.312663
9115.000000;0.312425
9114.000000;0.312153
9113.000000;0.311860
9112.000000;0.311560
9111.000000;0.311205
9110.000000;0.310751
9109.000000;0.310274
9108.000000;0.309918
9107.000000;0.309729
9106.000000;0.309623
9105.000000;0.309544
9104.000000;0.309520
9103.000000;0.309547
9102.000000;0.309515
9101.000000;0.309338
9100.000000;0.309050
9099.000000;0.308721
9098.000000;0.308363
9097.000000;0.307984
9096.000000;0.307667
9095.000000;0.307495
9094.000000;0.307456
9093.000000;0.307454
9092.000000;0.307389
9091.000000;0.307198
9090.000000;0.306893
9089.000000;0.306595
9088.000000;0.306459
9087.000000;0.306488
9086.000000;0.306505
9085.000000;0.306354
9084.000000;0.306056
9083.000000;0.305718
9082.000000;0.305377
9081.000000;0.305019
9080.000000;0.304698
9079.000000;0.304492
9078.000000;0.304383
9077.000000;0.304265
9076.000000;0.304078
9075.000000;0.303880
9074.000000;0.303752
9073.000000;0.303701
9072.000000;0.303646
9071.000000;0.303490
9070.000000;0.303183
9069.000000;0.302771
9068.000000;0.302355
9067.000000;0.302005
9066.000000;0.301727
9065.000000;0.301512
9064.000000;0.301370
9063.000000;0.301295
9062.000000;0.301235
9061.000000;0.301129
9060.000000;0.300973
9059.000000;0.300814
9058.000000;0.300690
9057.000000;0.300589
9056.000000;0.300441
9055.000000;0.300168
9054.000000;0.299764
9053.000000;0.299316
9052.000000;0.298932
9051.000000;0.298658
9050.000000;0.298474
9049.000000;0.298346
9048.000000;0.298226
9047.000000;0.298047
9046.000000;0.297788
9045.000000;0.297528
9044.000000;0.297364
9043.000000;0.297284
9042.000000;0.297188
9041.000000;0.297008
9040.000000;0.296756
9039.000000;0.296453
9038.000000;0.296105
9037.000000;0.295759
9036.000000;0.295503
9035.000000;0.295381
9034.000000;0.295361
9033.000000;0.295385
9032.000000;0.295391
9031.000000;0.295318
9030.000000;0.295145
9029.000000;0.294926
9028.000000;0.294721
9027.000000;0.294504
9026.000000;0.294231
9025.000000;0.293954
9024.000000;0.293769
9023.000000;0.293650
9022.000000;0.293487
9021.000000;0.293264
9020.000000;0.293082
9019.000000;0.292966
9018.000000;0.292796
9017.000000;0.292502
9016.000000;0.292190
9015.000000;0.292001
9014.000000;0.291937
9013.000000;0.291907
9012.000000;0.291862
9011.000000;0.291790
9010.000000;0.291666
9009.000000;0.291484
9008.000000;0.291297
9007.000000;0.291135
9006.000000;0.290933
9005.000000;0.290627
9004.000000;0.290275
9003.000000;0.290016
9002.000000;0.289914
9001.000000;0.289896
9000.000000;0.289829
8999.000000;0.289620
8998.000000;0.289255
8997.000000;0.288791
8996.000000;0.288315
8995.000000;0.287908
8994.000000;0.287627
8993.000000;0.287495
8992.000000;0.287464
8991.000000;0.287403
8990.000000;0.287214
8989.000000;0.286943
8988.000000;0.286740
8987.000000;0.286692
8986.000000;0.286740
8985.000000;0.286755
8984.000000;0.286628
8983.000000;0.286321
8982.000000;0.285895
8981.000000;0.285509
8980.000000;0.285292
8979.000000;0.285204
8978.000000;0.285090
8977.000000;0.284876
8976.000000;0.284648
8975.000000;0.284506
8974.000000;0.284430
8973.000000;0.284331
8972.000000;0.284171
8971.000000;0.283983
8970.000000;0.283826
8969.000000;0.283733
8968.000000;0.283689
8967.000000;0.283643
8966.000000;0.283569
8965.000000;0.283470
8964.000000;0.283313
8963.000000;0.283011
8962.000000;0.282574
8961.000000;0.282207
8960.000000;0.282126
8959.000000;0.282299
8958.000000;0.282488
8957.000000;0.282527
8956.000000;0.282428
8955.000000;0.282220
8954.000000;0.281888
8953.000000;0.281506
8952.000000;0.281248
8951.000000;0.281185
8950.000000;0.281166
8949.000000;0.281014
8948.000000;0.280724
8947.000000;0.280403
8946.000000;0.280108
8945.000000;0.279862
8944.000000;0.279714
8943.000000;0.279681
8942.000000;0.279677
8941.000000;0.279595
8940.000000;0.279435
8939.000000;0.279285
8938.000000;0.279195
8937.000000;0.279141
8936.000000;0.279072
8935.000000;0.278944
8934.000000;0.278737
8933.000000;0.278468
8932.000000;0.278180
8931.000000;0.277889
8930.000000;0.277604
8929.000000;0.277387
8928.000000;0.277325
8927.000000;0.277398
8926.000000;0.277457
8925.000000;0.277371
8924.000000;0.277136
8923.000000;0.276824
8922.000000;0.276500
8921.000000;0.276236
8920.000000;0.276096
8919.000000;0.276046
8918.000000;0.275957
8917.000000;0.275766
8916.000000;0.275570
8915.000000;0.275492
8914.000000;0.275527
8913.000000;0.275569
8912.000000;0.275552
8911.000000;0.275488
8910.000000;0.275411
8909.000000;0.275337
8908.000000;0.275259
8907.000000;0.275128
8906.000000;0.274887
8905.000000;0.274544
8904.000000;0.274179
8903.000000;0.273860
8902.000000;0.273608
8901.000000;0.273463
8900.000000;0.273487
8899.000000;0.273641
8898.000000;0.273729
8897.000000;0.273570
8896.000000;0.273192
8895.000000;0.272789
8894.000000;0.272526
8893.000000;0.272429
8892.000000;0.272428
8891.000000;0.272416
8890.000000;0.272304
8889.000000;0.272104
8888.000000;0.271941
8887.000000;0.271946
8886.000000;0.272106
8885.000000;0.272264
8884.000000;0.272257
8883.000000;0.272053
8882.000000;0.271757
8881.000000;0.271506
8880.000000;0.271365
8879.000000;0.271292
8878.000000;0.271215
8877.000000;0.271088
8876.000000;0.270897
8875.000000;0.270638
8874.000000;0.270361
8873.000000;0.270181
8872.000000;0.270168
8871.000000;0.270235
8870.000000;0.270223
8869.000000;0.270094
8868.000000;0.269958
8867.000000;0.269890
8866.000000;0.269827
8865.000000;0.269681
8864.000000;0.269488
8863.000000;0.269353
8862.000000;0.269313
8861.000000;0.269310
8860.000000;0.269274
8859.000000;0.269198
8858.000000;0.269128
8857.000000;0.269105
8856.000000;0.269104
8855.000000;0.269047
8854.000000;0.268898
8853.000000;0.268721
8852.000000;0.268585
8851.000000;0.268471
8850.000000;0.268327
8849.000000;0.268189
8848.000000;0.268131
8847.000000;0.268136
8846.000000;0.268120
8845.000000;0.268096
8844.000000;0.268158
8843.000000;0.268293
8842.000000;0.268326
8841.000000;0.268126
8840.000000;0.267771
8839.000000;0.267439
8838.000000;0.267223
8837.000000;0.267111
8836.000000;0.267065
8835.000000;0.267054
8834.000000;0.267068
8833.000000;0.267144
8832.000000;0.267335
8831.000000;0.267582
8830.000000;0.267722
8829.000000;0.267656
8828.000000;0.267466
8827.000000;0.267287
8826.000000;0.267159
8825.000000;0.267069
8824.000000;0.267055
8823.000000;0.267155
8822.000000;0.267309
8821.000000;0.267409
8820.000000;0.267427
8819.000000;0.267416
8818.000000;0.267393
8817.000000;0.267330
8816.000000;0.267261
8815.000000;0.267315
8814.000000;0.267598
8813.000000;0.268055
8812.000000;0.268480
8811.000000;0.268658
8810.000000;0.268507
8809.000000;0.268119
8808.000000;0.267678
8807.000000;0.267341
8806.000000;0.267202
8805.000000;0.267299
8804.000000;0.267592
8803.000000;0.267933
8802.000000;0.268134
8801.000000;0.268117
8800.000000;0.267972
8799.000000;0.267835
8798.000000;0.267761
8797.000000;0.267714
8796.000000;0.267655
8795.000000;0.267598
8794.000000;0.267594
8793.000000;0.267692
8792.000000;0.267894
8791.000000;0.268139
8790.000000;0.268331
8789.000000;0.268395
8788.000000;0.268305
8787.000000;0.268104
8786.000000;0.267915
8785.000000;0.267886
8784.000000;0.268071
8783.000000;0.268374
8782.000000;0.268654
8781.000000;0.268854
8780.000000;0.268979
8779.000000;0.269010
8778.000000;0.268946
8777.000000;0.268899
8776.000000;0.269027
8775.000000;0.269337
8774.000000;0.269653
8773.000000;0.269811
8772.000000;0.269808
8771.000000;0.269747
8770.000000;0.269713
8769.000000;0.269736
8768.000000;0.269828
8767.000000;0.269987
8766.000000;0.270191
8765.000000;0.270399
8764.000000;0.270547
8763.000000;0.270586
8762.000000;0.270561
8761.000000;0.270616
8760.000000;0.270841
8759.000000;0.271136
8758.000000;0.271300
8757.000000;0.271249
8756.000000;0.271065
8755.000000;0.270862
8754.000000;0.270720
8753.000000;0.270722
8752.000000;0.270937
8751.000000;0.271324
8750.000000;0.271742
8749.000000;0.272085
8748.000000;0.272334
8747.000000;0.272476
8746.000000;0.272492
8745.000000;0.272451
8744.000000;0.272493
8743.000000;0.272678
8742.000000;0.272933
8741.000000;0.273172
8740.000000;0.273368
8739.000000;0.273483
8738.000000;0.273453
8737.000000;0.273297
8736.000000;0.273156
8735.000000;0.273158
8734.000000;0.273315
8733.000000;0.273579
8732.000000;0.273902
8731.000000;0.274206
8730.000000;0.274389
8729.000000;0.274444
8728.000000;0.274475
8727.000000;0.274540
8726.000000;0.274572
8725.000000;0.274536
8724.000000;0.274558
8723.000000;0.274769
8722.000000;0.275114
8721.000000;0.275397
8720.000000;0.275500
8719.000000;0.275469
8718.000000;0.275410
8717.000000;0.275392
8716.000000;0.275424
8715.000000;0.275458
8714.000000;0.275429
8713.000000;0.275355
8712.000000;0.275353
8711.000000;0.275498
8710.000000;0.275709
8709.000000;0.275839
8708.000000;0.275845
8707.000000;0.275811
8706.000000;0.275811
8705.000000;0.275833
8704.000000;0.275844
8703.000000;0.275845
8702.000000;0.275865
8701.000000;0.275933
8700.000000;0.276068
8699.000000;0.276276
8698.000000;0.276517
8697.000000;0.276709
8696.000000;0.276784
8695.000000;0.276747
8694.000000;0.276695
8693.000000;0.276753
8692.000000;0.276961
8691.000000;0.277231
8690.000000;0.277425
8689.000000;0.277470
8688.000000;0.277404
8687.000000;0.277310
8686.000000;0.277244
8685.000000;0.277204
8684.000000;0.277146
8683.000000;0.277037
8682.000000;0.276918
8681.000000;0.276890
8680.000000;0.277002
8679.000000;0.277169
8678.000000;0.277262
8677.000000;0.277257
8676.000000;0.277241
8675.000000;0.277277
8674.000000;0.277333
8673.000000;0.277329
8672.000000;0.277213
8671.000000;0.276980
8670.000000;0.276697
8669.000000;0.276488
8668.000000;0.276449
8667.000000;0.276562
8666.000000;0.276744
8665.000000;0.276929
8664.000000;0.277060
8663.000000;0.277048
8662.000000;0.276841
8661.000000;0.276530
8660.000000;0.276281
8659.000000;0.276152
8658.000000;0.276074
8657.000000;0.275997
8656.000000;0.275955
8655.000000;0.275961
8654.000000;0.275951
8653.000000;0.275878
8652.000000;0.275785
8651.000000;0.275727
8650.000000;0.275698
8649.000000;0.275665
8648.000000;0.275616
8647.000000;0.275558
8646.000000;0.275505
8645.000000;0.275504
8644.000000;0.275586
8643.000000;0.275684
8642.000000;0.275658
8641.000000;0.275439
8640.000000;0.275103
8639.000000;0.274800
8638.000000;0.274626
8637.000000;0.274580
8636.000000;0.274589
8635.000000;0.274572
8634.000000;0.274527
8633.000000;0.274526
8632.000000;0.274600
8631.000000;0.274639
8630.000000;0.274520
8629.000000;0.274271
8628.000000;0.274025
8627.000000;0.273827
8626.000000;0.273605
8625.000000;0.273325
8624.000000;0.273066
8623.000000;0.272900
8622.000000;0.272829
8621.000000;0.272836
8620.000000;0.272916
8619.000000;0.273005
8618.000000;0.272989
8617.000000;0.272816
8616.000000;0.272542
8615.000000;0.272246
8614.000000;0.271983
8613.000000;0.271830
8612.000000;0.271850
8611.000000;0.271975
8610.000000;0.272028
8609.000000;0.271902
8608.000000;0.271644
8607.000000;0.271338
8606.000000;0.271032
8605.000000;0.270785
8604.000000;0.270668
8603.000000;0.270638
8602.000000;0.270535
8601.000000;0.270281
8600.000000;0.269988
8599.000000;0.269787
8598.000000;0.269640
8597.000000;0.269435
8596.000000;0.269183
8595.000000;0.269017
8594.000000;0.269025
8593.000000;0.269155
8592.000000;0.269263
8591.000000;0.269218
8590.000000;0.268990
8589.000000;0.268677
8588.000000;0.268417
8587.000000;0.268249
8586.000000;0.268093
8585.000000;0.267877
8584.000000;0.267620
8583.000000;0.267349
8582.000000;0.267044
8581.000000;0.266706
8580.000000;0.266416
8579.000000;0.266259
8578.000000;0.266233
8577.000000;0.266288
8576.000000;0.266380
8575.000000;0.266448
8574.000000;0.266404
8573.000000;0.266229
8572.000000;0.266043
8571.000000;0.265978
8570.000000;0.266009
8569.000000;0.265966
8568.000000;0.265713
8567.000000;0.265276
8566.000000;0.264813
8565.000000;0.264474
8564.000000;0.264289
8563.000000;0.264165
8562.000000;0.264016
8561.000000;0.263881
8560.000000;0.263866
8559.000000;0.263971
8558.000000;0.264043
8557.000000;0.263942
8556.000000;0.263688
8555.000000;0.263402
8554.000000;0.263161
8553.000000;0.262971
8552.000000;0.262814
8551.000000;0.262680
8550.000000;0.262541
8549.000000;0.262366
8548.000000;0.262152
8547.000000;0.261927
8546.000000;0.261749
8545.000000;0.261690
8544.000000;0.261785
8543.000000;0.261952
8542.000000;0.262031
8541.000000;0.261922
8540.000000;0.261670
8539.000000;0.261377
8538.000000;0.261090
8537.000000;0.260809
8536.000000;0.260561
8535.000000;0.260395
8534.000000;0.260294
8533.000000;0.260163
8532.000000;0.259931
8531.000000;0.259634
8530.000000;0.259380
8529.000000;0.259215
8528.000000;0.259077
8527.000000;0.258892
8526.000000;0.258697
8525.000000;0.258600
8524.000000;0.258612
8523.000000;0.258602
8522.000000;0.258463
8521.000000;0.258239
8520.000000;0.258020
8519.000000;0.257772
8518.000000;0.257405
8517.000000;0.256974
8516.000000;0.256676
8515.000000;0.256626
8514.000000;0.256725
8513.000000;0.256794
8512.000000;0.256748
8511.000000;0.256597
8510.000000;0.256362
8509.000000;0.256060
8508.000000;0.255735
8507.000000;0.255457
8506.000000;0.255284
8505.000000;0.255222
8504.000000;0.255198
8503.000000;0.255111
8502.000000;0.254941
8501.000000;0.254800
8500.000000;0.254788
8499.000000;0.254849
8498.000000;0.254846
8497.000000;0.254746
8496.000000;0.254636
8495.000000;0.254547
8494.000000;0.254396
8493.000000;0.254127
8492.000000;0.253797
8491.000000;0.253481
8490.000000;0.253172
8489.000000;0.252847
8488.000000;0.252551
8487.000000;0.252345
8486.000000;0.252226
8485.000000;0.252149
8484.000000;0.252080
8483.000000;0.252016
8482.000000;0.251967
8481.000000;0.251947
8480.000000;0.251958
8479.000000;0.251956
8478.000000;0.251889
8477.000000;0.251766
8476.000000;0.251625
8475.000000;0.251450
8474.000000;0.251185
8473.000000;0.250836
8472.000000;0.250486
8471.000000;0.250182
8470.000000;0.249900
8469.000000;0.249644
8468.000000;0.249479
8467.000000;0.249423
8466.000000;0.249385
8465.000000;0.249259
8464.000000;0.249050
8463.000000;0.248843
8462.000000;0.248699
8461.000000;0.248619
8460.000000;0.248572
8459.000000;0.248518
8458.000000;0.248420
8457.000000;0.248287
8456.000000;0.248161
8455.000000;0.248054
8454.000000;0.247924
8453.000000;0.247755
8452.000000;0.247603
8451.000000;0.247552
8450.000000;0.247627
8449.000000;0.247754
8448.000000;0.247782
8447.000000;0.247568
8446.000000;0.247103
8445.000000;0.246571
8444.000000;0.246216
8443.000000;0.246125
8442.000000;0.246175
8441.000000;0.246189
8440.000000;0.246093
8439.000000;0.245922
8438.000000;0.245743
8437.000000;0.245606
8436.000000;0.245522
8435.000000;0.245446
8434.000000;0.245312
8433.000000;0.245093
8432.000000;0.244819
8431.000000;0.244538
8430.000000;0.244291
8429.000000;0.244118
8428.000000;0.244020
8427.000000;0.243925
8426.000000;0.243748
8425.000000;0.243499
8424.000000;0.243272
8423.000000;0.243125
8422.000000;0.243022
8421.000000;0.242896
8420.000000;0.242719
8419.000000;0.242512
8418.000000;0.242327
8417.000000;0.242229
8416.000000;0.242227
8415.000000;0.242239
8414.000000;0.242163
8413.000000;0.242014
8412.000000;0.241908
8411.000000;0.241918
8410.000000;0.241990
8409.000000;0.242014
8408.000000;0.241921
8407.000000;0.241715
8406.000000;0.241456
8405.000000;0.241234
8404.000000;0.241099
8403.000000;0.241007
8402.000000;0.240876
8401.000000;0.240677
8400.000000;0.240444
8399.000000;0.240207
8398.000000;0.239976
8397.000000;0.239782
8396.000000;0.239644
8395.000000;0.239521
8394.000000;0.239358
8393.000000;0.239178
8392.000000;0.239054
8391.000000;0.239001
8390.000000;0.238978
8389.000000;0.238958
8388.000000;0.238920
8387.000000;0.238802
8386.000000;0.238554
8385.000000;0.238247
8384.000000;0.238022
8383.000000;0.237923
8382.000000;0.237873
8381.000000;0.237810
8380.000000;0.237735
8379.000000;0.237628
8378.000000;0.237441
8377.000000;0.237207
8376.000000;0.237021
8375.000000;0.236898
8374.000000;0.236737
8373.000000;0.236484
8372.000000;0.236202
8371.000000;0.235947
8370.000000;0.235680
8369.000000;0.235376
8368.000000;0.235108
8367.000000;0.234949
8366.000000;0.234868
8365.000000;0.234781
8364.000000;0.234638
8363.000000;0.234427
8362.000000;0.234152
8361.000000;0.233876
8360.000000;0.233706
8359.000000;0.233681
8358.000000;0.233720
8357.000000;0.233722
8356.000000;0.233651
8355.000000;0.233496
8354.000000;0.233248
8353.000000;0.232957
8352.000000;0.232739
8351.000000;0.232626
8350.000000;0.232513
8349.000000;0.232309
8348.000000;0.232080
8347.000000;0.231943
8346.000000;0.231889
8345.000000;0.231808
8344.000000;0.231659
8343.000000;0.231513
8342.000000;0.231431
8341.000000;0.231375
8340.000000;0.231270
8339.000000;0.231081
8338.000000;0.230834
8337.000000;0.230581
8336.000000;0.230349
8335.000000;0.230127
8334.000000;0.229890
8333.000000;0.229640
8332.000000;0.229402
8331.000000;0.229187
8330.000000;0.228993
8329.000000;0.228832
8328.000000;0.228706
8327.000000;0.228571
8326.000000;0.228381
8325.000000;0.228169
8324.000000;0.228021
8323.000000;0.227949
8322.000000;0.227864
8321.000000;0.227700
8320.000000;0.227494
8319.000000;0.227298
8318.000000;0.227103
8317.000000;0.226885
8316.000000;0.226684
8315.000000;0.226550
8314.000000;0.226460
8313.000000;0.226342
8312.000000;0.226180
8311.000000;0.226023
8310.000000;0.225920
8309.000000;0.225855
8308.000000;0.225758
8307.000000;0.225557
8306.000000;0.225242
8305.000000;0.224876
8304.000000;0.224549
8303.000000;0.224298
8302.000000;0.224113
8301.000000;0.223989
8300.000000;0.223924
8299.000000;0.223869
8298.000000;0.223746
8297.000000;0.223520
8296.000000;0.223232
8295.000000;0.222934
8294.000000;0.222662
8293.000000;0.222448
8292.000000;0.222302
8291.000000;0.222154
8290.000000;0.221896
8289.000000;0.221530
8288.000000;0.221206
8287.000000;0.221070
8286.000000;0.221105
8285.000000;0.221164
8284.000000;0.221121
8283.000000;0.220965
8282.000000;0.220770
8281.000000;0.220607
8280.000000;0.220466
8279.000000;0.220258
8278.000000;0.219925
8277.000000;0.219534
8276.000000;0.219228
8275.000000;0.219082
8274.000000;0.219052
8273.000000;0.219060
8272.000000;0.219071
8271.000000;0.219059
8270.000000;0.218976
8269.000000;0.218784
8268.000000;0.218502
8267.000000;0.218180
8266.000000;0.217862
8265.000000;0.217580
8264.000000;0.217343
8263.000000;0.217130
8262.000000;0.216920
8261.000000;0.216735
8260.000000;0.216605
8259.000000;0.216495
8258.000000;0.216338
8257.000000;0.216135
8256.000000;0.215966
8255.000000;0.215884
8254.000000;0.215851
8253.000000;0.215790
8252.000000;0.215660
8251.000000;0.215452
8250.000000;0.215178
8249.000000;0.214892
8248.000000;0.214665
8247.000000;0.214511
8246.000000;0.214373
8245.000000;0.214205
8244.000000;0.214016
8243.000000;0.213833
8242.000000;0.213648
8241.000000;0.213441
8240.000000;0.213191
8239.000000;0.212887
8238.000000;0.212546
8237.000000;0.212256
8236.000000;0.212117
8235.000000;0.212124
8234.000000;0.212157
8233.000000;0.212098
8232.000000;0.211925
8231.000000;0.211669
8230.000000;0.211364
8229.000000;0.211059
8228.000000;0.210813
8227.000000;0.210642
8226.000000;0.210508
8225.000000;0.210371
8224.000000;0.210224
8223.000000;0.210061
8222.000000;0.209859
8221.000000;0.209622
8220.000000;0.209389
8219.000000;0.209177
8218.000000;0.208971
8217.000000;0.208766
8216.000000;0.208592
8215.000000;0.208462
8214.000000;0.208353
8213.000000;0.208245
8212.000000;0.208148
8211.000000;0.208060
8210.000000;0.207949
8209.000000;0.207782
8208.000000;0.207554
8207.000000;0.207259
8206.000000;0.206902
8205.000000;0.206538
8204.000000;0.206259
8203.000000;0.206106
8202.000000;0.206027
8201.000000;0.205938
8200.000000;0.205791
8199.000000;0.205582
8198.000000;0.205329
8197.000000;0.205066
8196.000000;0.204818
8195.000000;0.204587
8194.000000;0.204378
8193.000000;0.204221
8192.000000;0.204127
8191.000000;0.204030
8190.000000;0.203850
8189.000000;0.203589
8188.000000;0.203324
8187.000000;0.203099
8186.000000;0.202904
8185.000000;0.202737
8184.000000;0.202607
8183.000000;0.202477
8182.000000;0.202293
8181.000000;0.202078
8180.000000;0.201913
8179.000000;0.201804
8178.000000;0.201665
8177.000000;0.201459
8176.000000;0.201254
8175.000000;0.201105
8174.000000;0.200952
8173.000000;0.200726
8172.000000;0.200466
8171.000000;0.200263
8170.000000;0.200124
8169.000000;0.199970
8168.000000;0.199745
8167.000000;0.199480
8166.000000;0.199250
8165.000000;0.199104
8164.000000;0.199031
8163.000000;0.198974
8162.000000;0.198880
8161.000000;0.198745
8160.000000;0.198586
8159.000000;0.198388
8158.000000;0.198125
8157.000000;0.197836
8156.000000;0.197605
8155.000000;0.197461
8154.000000;0.197346
8153.000000;0.197207
8152.000000;0.197041
8151.000000;0.196855
8150.000000;0.196634
8149.000000;0.196385
8148.000000;0.196155
8147.000000;0.195961
8146.000000;0.195757
8145.000000;0.195512
8144.000000;0.195267
8143.000000;0.195086
8142.000000;0.194979
8141.000000;0.194905
8140.000000;0.194813
8139.000000;0.194659
8138.000000;0.194428
8137.000000;0.194161
8136.000000;0.193920
8135.000000;0.193707
8134.000000;0.193469
8133.000000;0.193199
8132.000000;0.192969
8131.000000;0.192822
8130.000000;0.192702
8129.000000;0.192535
8128.000000;0.192326
8127.000000;0.192121
8126.000000;0.191923
8125.000000;0.191698
8124.000000;0.191450
8123.000000;0.191224
8122.000000;0.191036
8121.000000;0.190861
8120.000000;0.190674
8119.000000;0.190482
8118.000000;0.190306
8117.000000;0.190154
8116.000000;0.190018
8115.000000;0.189883
8114.000000;0.189734
8113.000000;0.189559
8112.000000;0.189343
8111.000000;0.189078
8110.000000;0.188794
8109.000000;0.188561
8108.000000;0.188422
8107.000000;0.188343
8106.000000;0.188247
8105.000000;0.188095
8104.000000;0.187893
8103.000000;0.187659
8102.000000;0.187420
8101.000000;0.187236
8100.000000;0.187144
8099.000000;0.187079
8098.000000;0.186916
8097.000000;0.186618
8096.000000;0.186290
8095.000000;0.186055
8094.000000;0.185916
8093.000000;0.185786
8092.000000;0.185593
8091.000000;0.185333
8090.000000;0.185051
8089.000000;0.184794
8088.000000;0.184575
8087.000000;0.184375
8086.000000;0.184173
8085.000000;0.183987
8084.000000;0.183832
8083.000000;0.183682
8082.000000;0.183498
8081.000000;0.183289
8080.000000;0.183102
8079.000000;0.182942
8078.000000;0.182775
8077.000000;0.182592
8076.000000;0.182431
8075.000000;0.182303
8074.000000;0.182158
8073.000000;0.181955
8072.000000;0.181722
8071.000000;0.181510
8070.000000;0.181335
8069.000000;0.181164
8068.000000;0.180964
8067.000000;0.180727
8066.000000;0.180489
8065.000000;0.180294
8064.000000;0.180147
8063.000000;0.179993
8062.000000;0.179781
8061.000000;0.179528
8060.000000;0.179274
8059.000000;0.179002
8058.000000;0.178677
8057.000000;0.178345
8056.000000;0.178122
8055.000000;0.178051
8054.000000;0.178045
8053.000000;0.177982
8052.000000;0.177820
8051.000000;0.177590
8050.000000;0.177354
8049.000000;0.177174
8048.000000;0.177076
8047.000000;0.177003
8046.000000;0.176847
8045.000000;0.176565
8044.000000;0.176237
8043.000000;0.175975
8042.000000;0.175821
8041.000000;0.175736
8040.000000;0.175661
8039.000000;0.175551
8038.000000;0.175386
8037.000000;0.175175
8036.000000;0.174939
8035.000000;0.174693
8034.000000;0.174441
8033.000000;0.174212
8032.000000;0.174043
8031.000000;0.173928
8030.000000;0.173809
8029.000000;0.173624
8028.000000;0.173348
8027.000000;0.173007
8026.000000;0.172652
8025.000000;0.172336
8024.000000;0.172066
8023.000000;0.171805
8022.000000;0.171536
8021.000000;0.171293
8020.000000;0.171102
8019.000000;0.170926
8018.000000;0.170725
8017.000000;0.170533
8016.000000;0.170404
8015.000000;0.170310
8014.000000;0.170181
8013.000000;0.170026
8012.000000;0.169914
8011.000000;0.169833
8010.000000;0.169684
8009.000000;0.169410
8008.000000;0.169076
8007.000000;0.168769
8006.000000;0.168518
8005.000000;0.168327
8004.000000;0.168201
8003.000000;0.168112
8002.000000;0.167979
8001.000000;0.167754
8000.000000;0.167471
7999.000000;0.167196
7998.000000;0.166966
7997.000000;0.166790
7996.000000;0.166656
7995.000000;0.166505
7994.000000;0.166281
7993.000000;0.166013
7992.000000;0.165801
7991.000000;0.165682
7990.000000;0.165576
7989.000000;0.165402
7988.000000;0.165178
7987.000000;0.164977
7986.000000;0.164821
7985.000000;0.164668
7984.000000;0.164484
7983.000000;0.164260
7982.000000;0.164001
7981.000000;0.163731
7980.000000;0.163479
7979.000000;0.163251
7978.000000;0.163030
7977.000000;0.162830
7976.000000;0.162683
7975.000000;0.162574
7974.000000;0.162428
7973.000000;0.162201
7972.000000;0.161950
7971.000000;0.161751
7970.000000;0.161609
7969.000000;0.161469
7968.000000;0.161289
7967.000000;0.161064
7966.000000;0.160808
7965.000000;0.160560
7964.000000;0.160374
7963.000000;0.160263
7962.000000;0.160171
7961.000000;0.160026
7960.000000;0.159804
7959.000000;0.159522
7958.000000;0.159196
7957.000000;0.158839
7956.000000;0.158485
7955.000000;0.158180
7954.000000;0.157951
7953.000000;0.157792
7952.000000;0.157680
7951.000000;0.157599
7950.000000;0.157541
7949.000000;0.157490
7948.000000;0.157399
7947.000000;0.157197
7946.000000;0.156864
7945.000000;0.156482
7944.000000;0.156175
7943.000000;0.155995
7942.000000;0.155898
7941.000000;0.155817
7940.000000;0.155715
7939.000000;0.155563
7938.000000;0.155336
7937.000000;0.155054
7936.000000;0.154786
7935.000000;0.154583
7934.000000;0.154443
7933.000000;0.154334
7932.000000;0.154214
7931.000000;0.154044
7930.000000;0.153803
7929.000000;0.153537
7928.000000;0.153331
7927.000000;0.153224
7926.000000;0.153171
7925.000000;0.153089
7924.000000;0.152918
7923.000000;0.152635
7922.000000;0.152280
7921.000000;0.151957
7920.000000;0.151768
7919.000000;0.151695
7918.000000;0.151614
7917.000000;0.151428
7916.000000;0.151165
7915.000000;0.150908
7914.000000;0.150699
7913.000000;0.150531
7912.000000;0.150409
7911.000000;0.150346
7910.000000;0.150318
7909.000000;0.150250
7908.000000;0.150072
7907.000000;0.149777
7906.000000;0.149430
7905.000000;0.149123
7904.000000;0.148889
7903.000000;0.148685
7902.000000;0.148465
7901.000000;0.148252
7900.000000;0.148103
7899.000000;0.148001
7898.000000;0.147853
7897.000000;0.147607
7896.000000;0.147312
7895.000000;0.147047
7894.000000;0.146831
7893.000000;0.146643
7892.000000;0.146467
7891.000000;0.146297
7890.000000;0.146111
7889.000000;0.145896
7888.000000;0.145666
7887.000000;0.145452
7886.000000;0.145280
7885.000000;0.145165
7884.000000;0.145111
7883.000000;0.145085
7882.000000;0.145031
7881.000000;0.144920
7880.000000;0.144776
7879.000000;0.144623
7878.000000;0.144451
7877.000000;0.144237
7876.000000;0.143980
7875.000000;0.143705
7874.000000;0.143438
7873.000000;0.143203
7872.000000;0.143019
7871.000000;0.142886
7870.000000;0.142783
7869.000000;0.142672
7868.000000;0.142515
7867.000000;0.142299
7866.000000;0.142046
7865.000000;0.141810
7864.000000;0.141631
7863.000000;0.141497
7862.000000;0.141359
7861.000000;0.141193
7860.000000;0.141003
7859.000000;0.140804
7858.000000;0.140609
7857.000000;0.140433
7856.000000;0.140276
7855.000000;0.140116
7854.000000;0.139946
7853.000000;0.139799
7852.000000;0.139704
7851.000000;0.139617
7850.000000;0.139452
7849.000000;0.139182
7848.000000;0.138865
7847.000000;0.138578
7846.000000;0.138363
7845.000000;0.138225
7844.000000;0.138150
7843.000000;0.138109
7842.000000;0.138071
7841.000000;0.138014
7840.000000;0.137923
7839.000000;0.137774
7838.000000;0.137575
7837.000000;0.137384
7836.000000;0.137250
7835.000000;0.137137
7834.000000;0.136959
7833.000000;0.136690
7832.000000;0.136392
7831.000000;0.136129
7830.000000;0.135918
7829.000000;0.135748
7828.000000;0.135613
7827.000000;0.135495
7826.000000;0.135363
7825.000000;0.135221
7824.000000;0.135101
7823.000000;0.134999
7822.000000;0.134862
7821.000000;0.134647
7820.000000;0.134382
7819.000000;0.134139
7818.000000;0.133967
7817.000000;0.133865
7816.000000;0.133793
7815.000000;0.133709
7814.000000;0.133610
7813.000000;0.133520
7812.000000;0.133435
7811.000000;0.133295
7810.000000;0.133060
7809.000000;0.132773
7808.000000;0.132512
7807.000000;0.132295
7806.000000;0.132091
7805.000000;0.131906
7804.000000;0.131787
7803.000000;0.131737
7802.000000;0.131702
7801.000000;0.131641
7800.000000;0.131558
7799.000000;0.131460
7798.000000;0.131324
7797.000000;0.131149
7796.000000;0.130977
7795.000000;0.130834
7794.000000;0.130693
7793.000000;0.130523
7792.000000;0.130332
7791.000000;0.130140
7790.000000;0.129940
7789.000000;0.129723
7788.000000;0.129511
7787.000000;0.129344
7786.000000;0.129236
7785.000000;0.129160
7784.000000;0.129066
7783.000000;0.128927
7782.000000;0.128764
7781.000000;0.128634
7780.000000;0.128568
7779.000000;0.128536
7778.000000;0.128488
7777.000000;0.128418
7776.000000;0.128339
7775.000000;0.128223
7774.000000;0.128034
7773.000000;0.127800
7772.000000;0.127595
7771.000000;0.127445
7770.000000;0.127299
7769.000000;0.127119
7768.000000;0.126939
7767.000000;0.126815
7766.000000;0.126744
7765.000000;0.126677
7764.000000;0.126573
7763.000000;0.126429
7762.000000;0.126277
7761.000000;0.126164
7760.000000;0.126110
7759.000000;0.126083
7758.000000;0.126029
7757.000000;0.125935
7756.000000;0.125830
7755.000000;0.125730
7754.000000;0.125618
7753.000000;0.125478
7752.000000;0.125308
7751.000000;0.125115
7750.000000;0.124916
7749.000000;0.124749
7748.000000;0.124643
7747.000000;0.124572
7746.000000;0.124491
7745.000000;0.124397
7744.000000;0.124323
7743.000000;0.124264
7742.000000;0.124168
7741.000000;0.124004
7740.000000;0.123808
7739.000000;0.123628
7738.000000;0.123484
7737.000000;0.123381
7736.000000;0.123323
7735.000000;0.123298
7734.000000;0.123275
7733.000000;0.123231
7732.000000;0.123160
7731.000000;0.123054
7730.000000;0.122908
7729.000000;0.122757
7728.000000;0.122653
7727.000000;0.122605
7726.000000;0.122567
7725.000000;0.122504
7724.000000;0.122413
7723.000000;0.122305
7722.000000;0.122183
7721.000000;0.122071
7720.000000;0.122001
7719.000000;0.121966
7718.000000;0.121914
7717.000000;0.121814
7716.000000;0.121691
7715.000000;0.121576
7714.000000;0.121471
7713.000000;0.121369
7712.000000;0.121287
7711.000000;0.121241
7710.000000;0.121214
7709.000000;0.121175
7708.000000;0.121102
7707.000000;0.120987
7706.000000;0.120840
7705.000000;0.120698
7704.000000;0.120604
7703.000000;0.120550
7702.000000;0.120486
7701.000000;0.120373
7700.000000;0.120224
7699.000000;0.120075
7698.000000;0.119960
7697.000000;0.119897
7696.000000;0.119874
7695.000000;0.119845
7694.000000;0.119778
7693.000000;0.119699
7692.000000;0.119659
7691.000000;0.119648
7690.000000;0.119605
7689.000000;0.119505
7688.000000;0.119392
7687.000000;0.119317
7686.000000;0.119284
7685.000000;0.119275
7684.000000;0.119287
7683.000000;0.119319
7682.000000;0.119341
7681.000000;0.119318
7680.000000;0.119229
7679.000000;0.119087
7678.000000;0.118942
7677.000000;0.118865
7676.000000;0.118893
7675.000000;0.118976
7674.000000;0.119020
7673.000000;0.118979
7672.000000;0.118887
7671.000000;0.118793
7670.000000;0.118727
7669.000000;0.118697
7668.000000;0.118687
7667.000000;0.118647
7666.000000;0.118544
7665.000000;0.118418
7664.000000;0.118340
7663.000000;0.118302
7662.000000;0.118230
7661.000000;0.118104
7660.000000;0.118000
7659.000000;0.117986
7658.000000;0.118028
7657.000000;0.118053
7656.000000;0.118045
7655.000000;0.118031
7654.000000;0.118025
7653.000000;0.118020
7652.000000;0.118027
7651.000000;0.118053
7650.000000;0.118081
7649.000000;0.118079
7648.000000;0.118044
7647.000000;0.117987
7646.000000;0.117919
7645.000000;0.117849
7644.000000;0.117808
7643.000000;0.117816
7642.000000;0.117868
7641.000000;0.117947
7640.000000;0.118035
7639.000000;0.118099
7638.000000;0.118105
7637.000000;0.118062
7636.000000;0.118030
7635.000000;0.118050
7634.000000;0.118096
7633.000000;0.118122
7632.000000;0.118126
7631.000000;0.118137
7630.000000;0.118164
7629.000000;0.118195
7628.000000;0.118230
7627.000000;0.118279
7626.000000;0.118326
7625.000000;0.118346
7624.000000;0.118344
7623.000000;0.118358
7622.000000;0.118408
7621.000000;0.118470
7620.000000;0.118503
7619.000000;0.118496
7618.000000;0.118476
7617.000000;0.118487
7616.000000;0.118554
7615.000000;0.118662
7614.000000;0.118773
7613.000000;0.118856
7612.000000;0.118900
7611.000000;0.118908
7610.000000;0.118896
7609.000000;0.118894
7608.000000;0.118940
7607.000000;0.119043
7606.000000;0.119175
7605.000000;0.119292
7604.000000;0.119376
7603.000000;0.119440
7602.000000;0.119503
7601.000000;0.119570
7600.000000;0.119623
7599.000000;0.119639
7598.000000;0.119619
7597.000000;0.119608
7596.000000;0.119658
7595.000000;0.119772
7594.000000;0.119907
7593.000000;0.120022
7592.000000;0.120112
7591.000000;0.120187
7590.000000;0.120246
7589.000000;0.120279
7588.000000;0.120297
7587.000000;0.120322
7586.000000;0.120373
7585.000000;0.120459
7584.000000;0.120576
7583.000000;0.120699
7582.000000;0.120787
7581.000000;0.120816
7580.000000;0.120813
7579.000000;0.120833
7578.000000;0.120917
7577.000000;0.121062
7576.000000;0.121235
7575.000000;0.121407
7574.000000;0.121569
7573.000000;0.121719
7572.000000;0.121842
7571.000000;0.121927
7570.000000;0.121991
7569.000000;0.122072
7568.000000;0.122184
7567.000000;0.122309
7566.000000;0.122424
7565.000000;0.122530
7564.000000;0.122638
7563.000000;0.122746
7562.000000;0.122851
7561.000000;0.122962
7560.000000;0.123091
7559.000000;0.123231
7558.000000;0.123358
7557.000000;0.123464
7556.000000;0.123563
7555.000000;0.123684
7554.000000;0.123852
7553.000000;0.124066
7552.000000;0.124291
7551.000000;0.124479
7550.000000;0.124625
7549.000000;0.124777
7548.000000;0.124965
7547.000000;0.125149
7546.000000;0.125268
7545.000000;0.125326
7544.000000;0.125398
7543.000000;0.125549
7542.000000;0.125772
7541.000000;0.126015
7540.000000;0.126222
7539.000000;0.126358
7538.000000;0.126425
7537.000000;0.126466
7536.000000;0.126553
7535.000000;0.126738
7534.000000;0.127014
7533.000000;0.127311
7532.000000;0.127553
7531.000000;0.127705
7530.000000;0.127807
7529.000000;0.127934
7528.000000;0.128123
7527.000000;0.128351
7526.000000;0.128575
7525.000000;0.128782
7524.000000;0.128978
7523.000000;0.129156
7522.000000;0.129308
7521.000000;0.129447
7520.000000;0.129604
7519.000000;0.129791
7518.000000;0.130000
7517.000000;0.130223
7516.000000;0.130466
7515.000000;0.130719
7514.000000;0.130951
7513.000000;0.131142
7512.000000;0.131311
7511.000000;0.131507
7510.000000;0.131760
7509.000000;0.132052
7508.000000;0.132324
7507.000000;0.132523
7506.000000;0.132655
7505.000000;0.132782
7504.000000;0.132952
7503.000000;0.133159
7502.000000;0.133365
7501.000000;0.133546
7500.000000;0.133711
7499.000000;0.133891
7498.000000;0.134095
7497.000000;0.134346
7496.000000;0.134583
7495.000000;0.134755
7494.000000;0.134958
7493.000000;0.135149
7492.000000;0.135401
7491.000000;0.135714
7490.000000;0.136045
7489.000000;0.136334
7488.000000;0.136566
7487.000000;0.136767
7486.000000;0.136970
7485.000000;0.137176
7484.000000;0.137360
7483.000000;0.137523
7482.000000;0.137717
7481.000000;0.137999
7480.000000;0.138346
7479.000000;0.138667
7478.000000;0.138894
7477.000000;0.139052
7476.000000;0.139202
7475.000000;0.139363
7474.000000;0.139519
7473.000000;0.139689
7472.000000;0.139937
7471.000000;0.140298
7470.000000;0.140717
7469.000000;0.141076
7468.000000;0.141286
7467.000000;0.141357
7466.000000;0.141383
7465.000000;0.141478
7464.000000;0.141690
7463.000000;0.141978
7462.000000;0.142261
7461.000000;0.142488
7460.000000;0.142677
7459.000000;0.142886
7458.000000;0.143154
7457.000000;0.143475
7456.000000;0.143803
7455.000000;0.144094
7454.000000;0.144317
7453.000000;0.144476
7452.000000;0.144610
7451.000000;0.144779
7450.000000;0.145009
7449.000000;0.145270
7448.000000;0.145521
7447.000000;0.145764
7446.000000;0.146012
7445.000000;0.146243
7444.000000;0.146414
7443.000000;0.146554
7442.000000;0.146751
7441.000000;0.147046
7440.000000;0.147376
7439.000000;0.147661
7438.000000;0.147892
7437.000000;0.148105
7436.000000;0.148299
7435.000000;0.148452
7434.000000;0.148600
7433.000000;0.148811
7432.000000;0.149098
7431.000000;0.149396
7430.000000;0.149638
7429.000000;0.149819
7428.000000;0.149981
7427.000000;0.150157
7426.000000;0.150341
7425.000000;0.150487
7424.000000;0.150567
7423.000000;0.150646
7422.000000;0.150866
7421.000000;0.151283
7420.000000;0.151756
7419.000000;0.152047
7418.000000;0.152066
7417.000000;0.151968
7416.000000;0.151996
7415.000000;0.152249
7414.000000;0.152635
7413.000000;0.152989
7412.000000;0.153227
7411.000000;0.153361
7410.000000;0.153439
7409.000000;0.153506
7408.000000;0.153613
7407.000000;0.153816
7406.000000;0.154088
7405.000000;0.154278
7404.000000;0.154246
7403.000000;0.154082
7402.000000;0.154083
7401.000000;0.154499
7400.000000;0.155295
7399.000000;0.156127
7398.000000;0.156570
7397.000000;0.156461
7396.000000;0.156030
7395.000000;0.155672
7394.000000;0.155553
7393.000000;0.155489
7392.000000;0.155336
7391.000000;0.155313
7390.000000;0.155676
7389.000000;0.156263
7388.000000;0.156682
7387.000000;0.156857
7386.000000;0.157074
7385.000000;0.157462
7384.000000;0.157836
7383.000000;0.158138
7382.000000;0.158526
7381.000000;0.158833
7380.000000;0.158512
7379.000000;0.157539
7378.000000;0.156958
7377.000000;0.157916
7376.000000;0.160166
7375.000000;0.162057
7374.000000;0.162225
7373.000000;0.160976
7372.000000;0.159854
7371.000000;0.160093
7370.000000;0.161559
7369.000000;0.163035
7368.000000;0.163374
7367.000000;0.162474
7366.000000;0.161261
7365.000000;0.160777
7364.000000;0.161303
7363.000000;0.162447
7362.000000;0.163662
7361.000000;0.164368
7360.000000;0.164085
7359.000000;0.163045
7358.000000;0.162421
7357.000000;0.163327
7356.000000;0.165444
7355.000000;0.167080
7354.000000;0.166913
7353.000000;0.165367
7352.000000;0.164077
7351.000000;0.164309
7350.000000;0.166004
7349.000000;0.167887
7348.000000;0.168416
7347.000000;0.167132
7346.000000;0.165210
7345.000000;0.164325
7344.000000;0.164940
7343.000000;0.166244
7342.000000;0.167678
7341.000000;0.169542
7340.000000;0.171740
7339.000000;0.173053
7338.000000;0.172628
7337.000000;0.171445
7336.000000;0.171270
7335.000000;0.172557
7334.000000;0.174120
7333.000000;0.174569
7332.000000;0.173612
7331.000000;0.172166
7330.000000;0.171650
7329.000000;0.172824
7328.000000;0.174744
7327.000000;0.175426
7326.000000;0.174247
7325.000000;0.173085
7324.000000;0.174106
7323.000000;0.176953
7322.000000;0.179256
7321.000000;0.179700
7320.000000;0.179285
7319.000000;0.179531
7318.000000;0.180668
7317.000000;0.181828
7316.000000;0.182194
7315.000000;0.181700
7314.000000;0.181157
7313.000000;0.181590
7312.000000;0.183000
7311.000000;0.184066
7310.000000;0.183768
7309.000000;0.183117
7308.000000;0.184099
7307.000000;0.186829
7306.000000;0.189048
7305.000000;0.188949
7304.000000;0.187420
7303.000000;0.186736
7302.000000;0.187975
7301.000000;0.190439
7300.000000;0.192686
7299.000000;0.193447
7298.000000;0.192412
7297.000000;0.190915
7296.000000;0.191222
7295.000000;0.194179
7294.000000;0.197859
7293.000000;0.199511
7292.000000;0.198751
7291.000000;0.197908
7290.000000;0.199163
7289.000000;0.202233
7288.000000;0.205107
7287.000000;0.206302
7286.000000;0.206021
7285.000000;0.205524
7284.000000;0.205863
7283.000000;0.207119
7282.000000;0.208591
7281.000000;0.209675
7280.000000;0.210407
7279.000000;0.211162
7278.000000;0.212173
7277.000000;0.213418
7276.000000;0.214808
7275.000000;0.216317
7274.000000;0.217858
7273.000000;0.219238
7272.000000;0.220331
7271.000000;0.221233
7270.000000;0.222277
7269.000000;0.223825
7268.000000;0.225851
7267.000000;0.227809
7266.000000;0.229211
7265.000000;0.230313
7264.000000;0.231875
7263.000000;0.234172
7262.000000;0.236570
7261.000000;0.238299
7260.000000;0.239377
7259.000000;0.240448
7258.000000;0.241938
7257.000000;0.243767
7256.000000;0.245771
7255.000000;0.247999
7254.000000;0.250440
7253.000000;0.252757
7252.000000;0.254533
7251.000000;0.255759
7250.000000;0.257001
7249.000000;0.258816
7248.000000;0.260987
7247.000000;0.262795
7246.000000;0.264164
7245.000000;0.266153
7244.000000;0.269800
7243.000000;0.274400
7242.000000;0.277802
7241.000000;0.278941
7240.000000;0.279334
7239.000000;0.281308
7238.000000;0.285182
7237.000000;0.289058
7236.000000;0.291312
7235.000000;0.292522
7234.000000;0.294561
7233.000000;0.298228
7232.000000;0.302146
7231.000000;0.304280
7230.000000;0.304592
7229.000000;0.305459
7228.000000;0.309152
7227.000000;0.315355
7226.000000;0.321416
7225.000000;0.325020
7224.000000;0.326316
7223.000000;0.327284
7222.000000;0.329634
7221.000000;0.333519
7220.000000;0.337785
7219.000000;0.341131
7218.000000;0.343282
7217.000000;0.345296
7216.000000;0.348512
7215.000000;0.353127
7214.000000;0.358059
7213.000000;0.362276
7212.000000;0.365783
7211.000000;0.369176
7210.000000;0.372785
7209.000000;0.376597
7208.000000;0.380658
7207.000000;0.385165
7206.000000;0.390107
7205.000000;0.395071
7204.000000;0.399507
7203.000000;0.403168
7202.000000;0.406412
7201.000000;0.410048
7200.000000;0.414627
7199.000000;0.419847
7198.000000;0.424923
7197.000000;0.429565
7196.000000;0.434177
7195.000000;0.439039
7194.000000;0.443813
7193.000000;0.448165
7192.000000;0.452410
7191.000000;0.457111
7190.000000;0.462298
7189.000000;0.467521
7188.000000;0.472485
7187.000000;0.477184
7186.000000;0.481586
7185.000000;0.485791
7184.000000;0.490412
7183.000000;0.496169
7182.000000;0.502897
7181.000000;0.509372
7180.000000;0.514615
7179.000000;0.519130
7178.000000;0.524378
7177.000000;0.531101
7176.000000;0.538557
7175.000000;0.545357
7174.000000;0.550748
7173.000000;0.555127
7172.000000;0.559549
7171.000000;0.564854
7170.000000;0.571118
7169.000000;0.577747
7168.000000;0.584060
7167.000000;0.589757
7166.000000;0.594902
7165.000000;0.599776
7164.000000;0.604876
7163.000000;0.610855
7162.000000;0.617966
7161.000000;0.625374
7160.000000;0.631686
7159.000000;0.636607
7158.000000;0.641577
7157.000000;0.648193
7156.000000;0.656291
7155.000000;0.664221
7154.000000;0.670806
7153.000000;0.676394
7152.000000;0.681923
7151.000000;0.687627
7150.000000;0.693147
7149.000000;0.698490
7148.000000;0.704179
7147.000000;0.710603
7146.000000;0.717570
7145.000000;0.724403
7144.000000;0.730395
7143.000000;0.735496
7142.000000;0.740668
7141.000000;0.747131
7140.000000;0.754862
7139.000000;0.762207
7138.000000;0.767694
7137.000000;0.772008
7136.000000;0.777261
7135.000000;0.784409
7134.000000;0.792268
7133.000000;0.799215
7132.000000;0.804993
7131.000000;0.810384
7130.000000;0.815938
7129.000000;0.821695
7128.000000;0.827564
7127.000000;0.833429
7126.000000;0.839130
7125.000000;0.844757
7124.000000;0.850675
7123.000000;0.856832
7122.000000;0.862479
7121.000000;0.867144
7120.000000;0.871568
7119.000000;0.876975
7118.000000;0.883436
7117.000000;0.889632
7116.000000;0.894503
7115.000000;0.898666
7114.000000;0.903736
7113.000000;0.910459
7112.000000;0.917886
7111.000000;0.924447
7110.000000;0.929555
7109.000000;0.933903
7108.000000;0.938368
7107.000000;0.943051
7106.000000;0.947518
7105.000000;0.951659
7104.000000;0.955869
7103.000000;0.960488
7102.000000;0.965529
7101.000000;0.970792
7100.000000;0.975855
7099.000000;0.980262
7098.000000;0.984069
7097.000000;0.987994
7096.000000;0.992583
7095.000000;0.997363
7094.000000;1.001438
7093.000000;1.004877
7092.000000;1.008725
7091.000000;1.013596
7090.000000;1.018996
7089.000000;1.024170
7088.000000;1.028926
7087.000000;1.033363
7086.000000;1.037435
7085.000000;1.041125
7084.000000;1.044564
7083.000000;1.047757
7082.000000;1.050662
7081.000000;1.053604
7080.000000;1.056996
7079.000000;1.060632
7078.000000;1.063885
7077.000000;1.066652
7076.000000;1.069446
7075.000000;1.072481
7074.000000;1.075411
7073.000000;1.078169
7072.000000;1.081214
7071.000000;1.084666
7070.000000;1.087989
7069.000000;1.090858
7068.000000;1.093624
7067.000000;1.096604
7066.000000;1.099621
7065.000000;1.102557
7064.000000;1.105629
7063.000000;1.108761
7062.000000;1.111392
7061.000000;1.113350
7060.000000;1.115243
7059.000000;1.117615
7058.000000;1.120285
7057.000000;1.122852
7056.000000;1.125300
7055.000000;1.127706
7054.000000;1.129836
7053.000000;1.131465
7052.000000;1.132803
7051.000000;1.134317
7050.000000;1.136429
7049.000000;1.139358
7048.000000;1.142748
7047.000000;1.145553
7046.000000;1.146980
7045.000000;1.147549
7044.000000;1.148536
7043.000000;1.150383
7042.000000;1.152426
7041.000000;1.154157
7040.000000;1.155777
7039.000000;1.157410
7038.000000;1.158721
7037.000000;1.159631
7036.000000;1.160560
7035.000000;1.161658
7034.000000;1.162558
7033.000000;1.163208
7032.000000;1.164163
7031.000000;1.165718
7030.000000;1.167432
7029.000000;1.168830
7028.000000;1.169942
7027.000000;1.170923
7026.000000;1.171861
7025.000000;1.173122
7024.000000;1.175102
7023.000000;1.177383
7022.000000;1.178905
7021.000000;1.179275
7020.000000;1.179197
7019.000000;1.179375
7018.000000;1.179834
7017.000000;1.180525
7016.000000;1.181694
7015.000000;1.183234
7014.000000;1.184501
7013.000000;1.185258
7012.000000;1.186094
7011.000000;1.187399
7010.000000;1.188614
7009.000000;1.189074
7008.000000;1.189050
7007.000000;1.189382
7006.000000;1.190402
7005.000000;1.191646
7004.000000;1.192420
7003.000000;1.192407
7002.000000;1.191925
7001.000000;1.191636
7000.000000;1.191804
6999.000000;1.191989
6998.000000;1.191810
6997.000000;1.191725
6996.000000;1.192403
6995.000000;1.193581
6994.000000;1.194304
6993.000000;1.194274
6992.000000;1.194165
6991.000000;1.194576
6990.000000;1.195343
6989.000000;1.195958
6988.000000;1.196041
6987.000000;1.195442
6986.000000;1.194526
6985.000000;1.194207
6984.000000;1.194972
6983.000000;1.196050
6982.000000;1.196294
6981.000000;1.195713
6980.000000;1.195263
6979.000000;1.195344
6978.000000;1.195495
6977.000000;1.195474
6976.000000;1.195547
6975.000000;1.195711
6974.000000;1.195687
6973.000000;1.195684
6972.000000;1.196148
6971.000000;1.196717
6970.000000;1.196510
6969.000000;1.195563
6968.000000;1.194833
6967.000000;1.194650
6966.000000;1.194336
6965.000000;1.193583
6964.000000;1.193016
6963.000000;1.193016
6962.000000;1.193092
6961.000000;1.192817
6960.000000;1.192425
6959.000000;1.192052
6958.000000;1.191328
6957.000000;1.190151
6956.000000;1.189005
6955.000000;1.188102
6954.000000;1.187082
6953.000000;1.185910
6952.000000;1.185198
6951.000000;1.185227
6950.000000;1.185472
6949.000000;1.185507
6948.000000;1.185564
6947.000000;1.185803
6946.000000;1.185817
6945.000000;1.185319
6944.000000;1.184621
6943.000000;1.183961
6942.000000;1.183067
6941.000000;1.181837
6940.000000;1.180776
6939.000000;1.180311
6938.000000;1.180199
6937.000000;1.179986
6936.000000;1.179574
6935.000000;1.179001
6934.000000;1.178190
6933.000000;1.177221
6932.000000;1.176371
6931.000000;1.175689
6930.000000;1.174965
6929.000000;1.174221
6928.000000;1.173668
6927.000000;1.173091
6926.000000;1.171944
6925.000000;1.170191
6924.000000;1.168475
6923.000000;1.167252
6922.000000;1.166403
6921.000000;1.165827
6920.000000;1.165708
6919.000000;1.165992
6918.000000;1.166234
6917.000000;1.166163
6916.000000;1.165864
6915.000000;1.165264
6914.000000;1.164075
6913.000000;1.162445
6912.000000;1.161040
6911.000000;1.160273
6910.000000;1.159931
6909.000000;1.159664
6908.000000;1.159304
6907.000000;1.158673
6906.000000;1.157665
6905.000000;1.156584
6904.000000;1.155812
6903.000000;1.155125
6902.000000;1.153989
6901.000000;1.152541
6900.000000;1.151507
6899.000000;1.151096
6898.000000;1.150691
6897.000000;1.149789
6896.000000;1.148534
6895.000000;1.147196
6894.000000;1.145827
6893.000000;1.144643
6892.000000;1.144021
6891.000000;1.143891
6890.000000;1.143718
6889.000000;1.143257
6888.000000;1.142727
6887.000000;1.142078
6886.000000;1.140827
6885.000000;1.138884
6884.000000;1.136934
6883.000000;1.135674
6882.000000;1.135134
6881.000000;1.134936
6880.000000;1.134737
6879.000000;1.134286
6878.000000;1.133550
6877.000000;1.132886
6876.000000;1.132626
6875.000000;1.132482
6874.000000;1.131865
6873.000000;1.130813
6872.000000;1.129926
6871.000000;1.129347
6870.000000;1.128495
6869.000000;1.126987
6868.000000;1.125165
6867.000000;1.123532
6866.000000;1.122190
6865.000000;1.121026
6864.000000;1.119938
6863.000000;1.118769
6862.000000;1.117449
6861.000000;1.116255
6860.000000;1.115458
6859.000000;1.114794
6858.000000;1.113794
6857.000000;1.112507
6856.000000;1.111298
6855.000000;1.110069
6854.000000;1.108370
6853.000000;1.106263
6852.000000;1.104349
6851.000000;1.102923
6850.000000;1.101766
6849.000000;1.100727
6848.000000;1.099818
6847.000000;1.098738
6846.000000;1.097063
6845.000000;1.094981
6844.000000;1.093126
6843.000000;1.091605
6842.000000;1.089937
6841.000000;1.087983
6840.000000;1.086199
6839.000000;1.084822
6838.000000;1.083542
6837.000000;1.082168
6836.000000;1.080906
6835.000000;1.079766
6834.000000;1.078313
6833.000000;1.076269
6832.000000;1.073870
6831.000000;1.071453
6830.000000;1.069159
6829.000000;1.067105
6828.000000;1.065328
6827.000000;1.063502
6826.000000;1.061243
6825.000000;1.058750
6824.000000;1.056615
6823.000000;1.054995
6822.000000;1.053470
6821.000000;1.051696
6820.000000;1.049641
6819.000000;1.047237
6818.000000;1.044448
6817.000000;1.041642
6816.000000;1.039254
6815.000000;1.037091
6814.000000;1.034584
6813.000000;1.031724
6812.000000;1.029074
6811.000000;1.026864
6810.000000;1.024764
6809.000000;1.022620
6808.000000;1.020655
6807.000000;1.018839
6806.000000;1.016740
6805.000000;1.014186
6804.000000;1.011454
6803.000000;1.008688
6802.000000;1.005747
6801.000000;1.002724
6800.000000;0.999962
6799.000000;0.997404
6798.000000;0.994571
6797.000000;0.991374
6796.000000;0.988347
6795.000000;0.985850
6794.000000;0.983617
6793.000000;0.981289
6792.000000;0.978850
6791.000000;0.976314
6790.000000;0.973493
6789.000000;0.970372
6788.000000;0.967300
6787.000000;0.964566
6786.000000;0.962085
6785.000000;0.959624
6784.000000;0.957015
6783.000000;0.954129
6782.000000;0.951014
6781.000000;0.948056
6780.000000;0.945571
6779.000000;0.943253
6778.000000;0.940499
6777.000000;0.937266
6776.000000;0.934090
6775.000000;0.931254
6774.000000;0.928500
6773.000000;0.925629
6772.000000;0.922790
6771.000000;0.920038
6770.000000;0.917153
6769.000000;0.914087
6768.000000;0.911145
6767.000000;0.908506
6766.000000;0.905969
6765.000000;0.903306
6764.000000;0.900479
6763.000000;0.897456
6762.000000;0.894217
6761.000000;0.891037
6760.000000;0.888282
6759.000000;0.885832
6758.000000;0.883152
6757.000000;0.880048
6756.000000;0.876920
6755.000000;0.874106
6754.000000;0.871475
6753.000000;0.868802
6752.000000;0.866105
6751.000000;0.863386
6750.000000;0.860466
6749.000000;0.857295
6748.000000;0.854134
6747.000000;0.851210
6746.000000;0.848468
6745.000000;0.845766
6744.000000;0.843025
6743.000000;0.840121
6742.000000;0.836973
6741.000000;0.833797
6740.000000;0.830936
6739.000000;0.828360
6738.000000;0.825678
6737.000000;0.822696
6736.000000;0.819604
6735.000000;0.816570
6734.000000;0.813562
6733.000000;0.810637
6732.000000;0.807966
6731.000000;0.805463
6730.000000;0.802789
6729.000000;0.799847
6728.000000;0.796894
6727.000000;0.794061
6726.000000;0.791163
6725.000000;0.788136
6724.000000;0.785213
6723.000000;0.782505
6722.000000;0.779780
6721.000000;0.776860
6720.000000;0.773908
6719.000000;0.771111
6718.000000;0.768415
6717.000000;0.765775
6716.000000;0.763316
6715.000000;0.761041
6714.000000;0.758643
6713.000000;0.755889
6712.000000;0.752886
6711.000000;0.749856
6710.000000;0.746832
6709.000000;0.743781
6708.000000;0.740853
6707.000000;0.738176
6706.000000;0.735643
6705.000000;0.733029
6704.000000;0.730265
6703.000000;0.727311
6702.000000;0.724406
6701.000000;0.721597
6700.000000;0.718865
6699.000000;0.716313
6698.000000;0.713638
6697.000000;0.710810
6696.000000;0.708019
6695.000000;0.705434
6694.000000;0.702939
6693.000000;0.700380
6692.000000;0.697766
6691.000000;0.695135
6690.000000;0.692417
6689.000000;0.689573
6688.000000;0.686722
6687.000000;0.683998
6686.000000;0.681389
6685.000000;0.678798
6684.000000;0.676147
6683.000000;0.673375
6682.000000;0.670502
6681.000000;0.667697
6680.000000;0.665128
6679.000000;0.662701
6678.000000;0.660177
6677.000000;0.657542
6676.000000;0.655035
6675.000000;0.652750
6674.000000;0.650472
6673.000000;0.647992
6672.000000;0.645359
6671.000000;0.642702
6670.000000;0.640030
6669.000000;0.637342
6668.000000;0.634723
6667.000000;0.632204
6666.000000;0.629673
6665.000000;0.627058
6664.000000;0.624441
6663.000000;0.621905
6662.000000;0.619419
6661.000000;0.616950
6660.000000;0.614551
6659.000000;0.612227
6658.000000;0.609870
6657.000000;0.607414
6656.000000;0.604936
6655.000000;0.602512
6654.000000;0.600107
6653.000000;0.597679
6652.000000;0.595258
6651.000000;0.592839
6650.000000;0.590331
6649.000000;0.587702
6648.000000;0.585065
6647.000000;0.582545
6646.000000;0.580158
6645.000000;0.577849
6644.000000;0.575552
6643.000000;0.573193
6642.000000;0.570749
6641.000000;0.568341
6640.000000;0.566120
6639.000000;0.564045
6638.000000;0.561902
6637.000000;0.559587
6636.000000;0.557202
6635.000000;0.554849
6634.000000;0.552486
6633.000000;0.550056
6632.000000;0.547601
6631.000000;0.545174
6630.000000;0.542772
6629.000000;0.540403
6628.000000;0.538105
6627.000000;0.535852
6626.000000;0.533566
6625.000000;0.531264
6624.000000;0.529055
6623.000000;0.526955
6622.000000;0.524840
6621.000000;0.522636
6620.000000;0.520414
6619.000000;0.518238
6618.000000;0.516064
6617.000000;0.513852
6616.000000;0.511646
6615.000000;0.509473
6614.000000;0.507271
6613.000000;0.505014
6612.000000;0.502787
6611.000000;0.500664
6610.000000;0.498589
6609.000000;0.496451
6608.000000;0.494212
6607.000000;0.491918
6606.000000;0.489632
6605.000000;0.487416
6604.000000;0.485300
6603.000000;0.483235
6602.000000;0.481139
6601.000000;0.478988
6600.000000;0.476817
6599.000000;0.474637
6598.000000;0.472450
6597.000000;0.470313
6596.000000;0.468296
6595.000000;0.466371
6594.000000;0.464440
6593.000000;0.462466
6592.000000;0.460474
6591.000000;0.458443
6590.000000;0.456318
6589.000000;0.454143
6588.000000;0.452041
6587.000000;0.450050
6586.000000;0.448085
6585.000000;0.446091
6584.000000;0.444102
6583.000000;0.442141
6582.000000;0.440160
6581.000000;0.438126
6580.000000;0.436070
6579.000000;0.434016
6578.000000;0.431961
6577.000000;0.429943
6576.000000;0.428029
6575.000000;0.426219
6574.000000;0.424432
6573.000000;0.422605
6572.000000;0.420717
6571.000000;0.418747
6570.000000;0.416704
6569.000000;0.414697
6568.000000;0.412840
6567.000000;0.411080
6566.000000;0.409239
6565.000000;0.407248
6564.000000;0.405218
6563.000000;0.403273
6562.000000;0.401427
6561.000000;0.399635
6560.000000;0.397858
6559.000000;0.396036
6558.000000;0.394117
6557.000000;0.392149
6556.000000;0.390242
6555.000000;0.388435
6554.000000;0.386653
6553.000000;0.384841
6552.000000;0.383026
6551.000000;0.381240
6550.000000;0.379482
6549.000000;0.377753
6548.000000;0.376044
6547.000000;0.374286
6546.000000;0.372409
6545.000000;0.370475
6544.000000;0.368631
6543.000000;0.366923
6542.000000;0.365251
6541.000000;0.363523
6540.000000;0.361759
6539.000000;0.360020
6538.000000;0.358338
6537.000000;0.356727
6536.000000;0.355170
6535.000000;0.353584
6534.000000;0.351871
6533.000000;0.350061
6532.000000;0.348287
6531.000000;0.346623
6530.000000;0.345014
6529.000000;0.343388
6528.000000;0.341729
6527.000000;0.340043
6526.000000;0.338329
6525.000000;0.336626
6524.000000;0.334983
6523.000000;0.333388
6522.000000;0.331786
6521.000000;0.330176
6520.000000;0.328592
6519.000000;0.327009
6518.000000;0.325362
6517.000000;0.323673
6516.000000;0.322033
6515.000000;0.320455
6514.000000;0.318852
6513.000000;0.317181
6512.000000;0.315511
6511.000000;0.313915
6510.000000;0.312395
6509.000000;0.310920
6508.000000;0.309467
6507.000000;0.307980
6506.000000;0.306395
6505.000000;0.304729
6504.000000;0.303067
6503.000000;0.301457
6502.000000;0.299889
6501.000000;0.298382
6500.000000;0.296983
6499.000000;0.295653
6498.000000;0.294261
6497.000000;0.292737
6496.000000;0.291141
6495.000000;0.289558
6494.000000;0.288019
6493.000000;0.286533
6492.000000;0.285109
6491.000000;0.283706
6490.000000;0.282242
6489.000000;0.280697
6488.000000;0.279135
6487.000000;0.277611
6486.000000;0.276118
6485.000000;0.274646
6484.000000;0.273211
6483.000000;0.271808
6482.000000;0.270388
6481.000000;0.268937
6480.000000;0.267511
6479.000000;0.266155
6478.000000;0.264859
6477.000000;0.263581
6476.000000;0.262278
6475.000000;0.260909
6474.000000;0.259465
6473.000000;0.258003
6472.000000;0.256586
6471.000000;0.255207
6470.000000;0.253811
6469.000000;0.252403
6468.000000;0.251033
6467.000000;0.249703
6466.000000;0.248357
6465.000000;0.246979
6464.000000;0.245603
6463.000000;0.244235
6462.000000;0.242855
6461.000000;0.241492
6460.000000;0.240217
6459.000000;0.239035
6458.000000;0.237865
6457.000000;0.236659
6456.000000;0.235430
6455.000000;0.234173
6454.000000;0.232836
6453.000000;0.231415
6452.000000;0.229982
6451.000000;0.228604
6450.000000;0.227283
6449.000000;0.226004
6448.000000;0.224776
6447.000000;0.223582
6446.000000;0.222373
6445.000000;0.221130
6444.000000;0.219884
6443.000000;0.218652
6442.000000;0.217420
6441.000000;0.216185
6440.000000;0.214972
6439.000000;0.213777
6438.000000;0.212573
6437.000000;0.211361
6436.000000;0.210174
6435.000000;0.209010
6434.000000;0.207829
6433.000000;0.206614
6432.000000;0.205372
6431.000000;0.204101
6430.000000;0.202801
6429.000000;0.201519
6428.000000;0.200311
6427.000000;0.199160
6426.000000;0.198016
6425.000000;0.196896
6424.000000;0.195861
6423.000000;0.194891
6422.000000;0.193873
6421.000000;0.192742
6420.000000;0.191537
6419.000000;0.190321
6418.000000;0.189106
6417.000000;0.187897
6416.000000;0.186722
6415.000000;0.185581
6414.000000;0.184439
6413.000000;0.183285
6412.000000;0.182161
6411.000000;0.181084
6410.000000;0.180007
6409.000000;0.178890
6408.000000;0.177744
6407.000000;0.176618
6406.000000;0.175551
6405.000000;0.174549
6404.000000;0.173571
6403.000000;0.172540
6402.000000;0.171434
6401.000000;0.170316
6400.000000;0.169253
6399.000000;0.168211
6398.000000;0.167105
6397.000000;0.165940
6396.000000;0.164796
6395.000000;0.163721
6394.000000;0.162693
6393.000000;0.161706
6392.000000;0.160772
6391.000000;0.159861
6390.000000;0.158907
6389.000000;0.157896
6388.000000;0.156865
6387.000000;0.155825
6386.000000;0.154753
6385.000000;0.153665
6384.000000;0.152608
6383.000000;0.151584
6382.000000;0.150561
6381.000000;0.149554
6380.000000;0.148601
6379.000000;0.147673
6378.000000;0.146693
6377.000000;0.145659
6376.000000;0.144651
6375.000000;0.143703
6374.000000;0.142763
6373.000000;0.141798
6372.000000;0.140845
6371.000000;0.139916
6370.000000;0.138965
6369.000000;0.137965
6368.000000;0.136964
6367.000000;0.136001
6366.000000;0.135063
6365.000000;0.134140
6364.000000;0.133253
6363.000000;0.132399
6362.000000;0.131535
6361.000000;0.130653
6360.000000;0.129788
6359.000000;0.128943
6358.000000;0.128060
6357.000000;0.127099
6356.000000;0.126098
6355.000000;0.125104
6354.000000;0.124128
6353.000000;0.123176
6352.000000;0.122274
6351.000000;0.121418
6350.000000;0.120561
6349.000000;0.119677
6348.000000;0.118790
6347.000000;0.117914
6346.000000;0.117040
6345.000000;0.116175
6344.000000;0.115350
6343.000000;0.114548
6342.000000;0.113707
6341.000000;0.112812
6340.000000;0.111910
6339.000000;0.111030
6338.000000;0.110145
6337.000000;0.109245
6336.000000;0.108375
6335.000000;0.107562
6334.000000;0.106772
6333.000000;0.105969
6332.000000;0.105162
6331.000000;0.104354
6330.000000;0.103507
6329.000000;0.102607
6328.000000;0.101700
6327.000000;0.100836
6326.000000;0.100014
6325.000000;0.099219
6324.000000;0.098459
6323.000000;0.097727
6322.000000;0.096971
6321.000000;0.096151
6320.000000;0.095283
6319.000000;0.094421
6318.000000;0.093597
6317.000000;0.092823
6316.000000;0.092098
6315.000000;0.091394
6314.000000;0.090669
6313.000000;0.089906
6312.000000;0.089125
6311.000000;0.088348
6310.000000;0.087577
6309.000000;0.086816
6308.000000;0.086065
6307.000000;0.085305
6306.000000;0.084520
6305.000000;0.083732
6304.000000;0.082977
6303.000000;0.082242
6302.000000;0.081484
6301.000000;0.080706
6300.000000;0.079944
6299.000000;0.079205
6298.000000;0.078464
6297.000000;0.077734
6296.000000;0.077058
6295.000000;0.076428
6294.000000;0.075782
6293.000000;0.075080
6292.000000;0.074338
6291.000000;0.073565
6290.000000;0.072746
6289.000000;0.071904
6288.000000;0.071109
6287.000000;0.070398
6286.000000;0.069739
6285.000000;0.069084
6284.000000;0.068425
6283.000000;0.067757
6282.000000;0.067069
6281.000000;0.066373
6280.000000;0.065703
6279.000000;0.065055
6278.000000;0.064381
6277.000000;0.063663
6276.000000;0.062946
6275.000000;0.062265
6274.000000;0.061598
6273.000000;0.060905
6272.000000;0.060175
6271.000000;0.059424
6270.000000;0.058682
6269.000000;0.057988
6268.000000;0.057355
6267.000000;0.056739
6266.000000;0.056081
6265.000000;0.055384
6264.000000;0.054706
6263.000000;0.054073
6262.000000;0.053456
6261.000000;0.052838
6260.000000;0.052239
6259.000000;0.051647
6258.000000;0.051014
6257.000000;0.050318
6256.000000;0.049597
6255.000000;0.048895
6254.000000;0.048233
6253.000000;0.047625
6252.000000;0.047071
6251.000000;0.046521
6250.000000;0.045900
6249.000000;0.045207
6248.000000;0.044521
6247.000000;0.043900
6246.000000;0.043321
6245.000000;0.042749
6244.000000;0.042180
6243.000000;0.041609
6242.000000;0.041016
6241.000000;0.040399
6240.000000;0.039786
6239.000000;0.039171
6238.000000;0.038520
6237.000000;0.037842
6236.000000;0.037201
6235.000000;0.036628
6234.000000;0.036072
6233.000000;0.035476
6232.000000;0.034847
6231.000000;0.034216
6230.000000;0.033591
6229.000000;0.032972
6228.000000;0.032382
6227.000000;0.031830
6226.000000;0.031282
6225.000000;0.030705
6224.000000;0.030101
6223.000000;0.029494
6222.000000;0.028893
6221.000000;0.028303
6220.000000;0.027733
6219.000000;0.027175
6218.000000;0.026616
6217.000000;0.026071
6216.000000;0.025567
6215.000000;0.025083
6214.000000;0.024568
6213.000000;0.024009
6212.000000;0.023448
6211.000000;0.022912
6210.000000;0.022382
6209.000000;0.021844
6208.000000;0.021313
6207.000000;0.020792
6206.000000;0.020259
6205.000000;0.019716
6204.000000;0.019191
6203.000000;0.018675
6202.000000;0.018113
6201.000000;0.017493
6200.000000;0.016881
6199.000000;0.016340
6198.000000;0.015851
6197.000000;0.015355
6196.000000;0.014827
6195.000000;0.014274
6194.000000;0.013705
6193.000000;0.013137
6192.000000;0.012602
6191.000000;0.012108
6190.000000;0.011613
6189.000000;0.011077
6188.000000;0.010504
6187.000000;0.009920
6186.000000;0.009345
6185.000000;0.008795
6184.000000;0.008284
6183.000000;0.007796
6182.000000;0.007293
6181.000000;0.006764
6180.000000;0.006243
6179.000000;0.005757
6178.000000;0.005281
6177.000000;0.004780
6176.000000;0.004256
6175.000000;0.003740
6174.000000;0.003255
6173.000000;0.002805
6172.000000;0.002377
6171.000000;0.001949
6170.000000;0.001500
6169.000000;0.001029
6168.000000;0.000547
6167.000000;0.000051
6166.000000;-0.000462
6165.000000;-0.000974
6164.000000;-0.001461
6163.000000;-0.001937
6162.000000;-0.002435
6161.000000;-0.002950
6160.000000;-0.003442
6159.000000;-0.003895
6158.000000;-0.004333
6157.000000;-0.004778
6156.000000;-0.005224
6155.000000;-0.005671
6154.000000;-0.006134
6153.000000;-0.006610
6152.000000;-0.007079
6151.000000;-0.007548
6150.000000;-0.008049
6149.000000;-0.008581
6148.000000;-0.009103
6147.000000;-0.009590
6146.000000;-0.010051
6145.000000;-0.010492
6144.000000;-0.010904
6143.000000;-0.011301
6142.000000;-0.011728
6141.000000;-0.012204
6140.000000;-0.012703
6139.000000;-0.013188
6138.000000;-0.013645
6137.000000;-0.014072
6136.000000;-0.014469
6135.000000;-0.014857
6134.000000;-0.015269
6133.000000;-0.015707
6132.000000;-0.016140
6131.000000;-0.016558
6130.000000;-0.016981
6129.000000;-0.017418
6128.000000;-0.017847
6127.000000;-0.018250
6126.000000;-0.018636
6125.000000;-0.019015
6124.000000;-0.019387
6123.000000;-0.019769
6122.000000;-0.020189
6121.000000;-0.020644
6120.000000;-0.021105
6119.000000;-0.021563
6118.000000;-0.022043
6117.000000;-0.022541
6116.000000;-0.023010
6115.000000;-0.023418
6114.000000;-0.023797
6113.000000;-0.024193
6112.000000;-0.024618
6111.000000;-0.025056
6110.000000;-0.025485
6109.000000;-0.025883
6108.000000;-0.026244
6107.000000;-0.026600
6106.000000;-0.026984
6105.000000;-0.027386
6104.000000;-0.027761
6103.000000;-0.028096
6102.000000;-0.028427
6101.000000;-0.028785
6100.000000;-0.029170
6099.000000;-0.029576
6098.000000;-0.029998
6097.000000;-0.030411
6096.000000;-0.030780
6095.000000;-0.031116
6094.000000;-0.031462
6093.000000;-0.031835
6092.000000;-0.032209
6091.000000;-0.032572
6090.000000;-0.032950
6089.000000;-0.033353
6088.000000;-0.033754
6087.000000;-0.034133
6086.000000;-0.034511
6085.000000;-0.034915
6084.000000;-0.035338
6083.000000;-0.035755
6082.000000;-0.036153
6081.000000;-0.036525
6080.000000;-0.036865
6079.000000;-0.037192
6078.000000;-0.037531
6077.000000;-0.037884
6076.000000;-0.038232
6075.000000;-0.038574
6074.000000;-0.038930
6073.000000;-0.039292
6072.000000;-0.039637
6071.000000;-0.039965
6070.000000;-0.040305
6069.000000;-0.040657
6068.000000;-0.040989
6067.000000;-0.041300
6066.000000;-0.041631
6065.000000;-0.042005
6064.000000;-0.042393
6063.000000;-0.042764
6062.000000;-0.043122
6061.000000;-0.043469
6060.000000;-0.043780
6059.000000;-0.044048
6058.000000;-0.044310
6057.000000;-0.044606
6056.000000;-0.044934
6055.000000;-0.045270
6054.000000;-0.045614
6053.000000;-0.045977
6052.000000;-0.046344
6051.000000;-0.046695
6050.000000;-0.047025
6049.000000;-0.047345
6048.000000;-0.047657
6047.000000;-0.047958
6046.000000;-0.048244
6045.000000;-0.048507
6044.000000;-0.048748
6043.000000;-0.048993
6042.000000;-0.049284
6041.000000;-0.049631
6040.000000;-0.050005
6039.000000;-0.050376
6038.000000;-0.050741
6037.000000;-0.051103
6036.000000;-0.051444
6035.000000;-0.051747
6034.000000;-0.052010
6033.000000;-0.052247
6032.000000;-0.052484
6031.000000;-0.052745
6030.000000;-0.053035
6029.000000;-0.053338
6028.000000;-0.053641
6027.000000;-0.053946
6026.000000;-0.054247
6025.000000;-0.054512
6024.000000;-0.054728
6023.000000;-0.054934
6022.000000;-0.055174
6021.000000;-0.055441
6020.000000;-0.055699
6019.000000;-0.055944
6018.000000;-0.056201
6017.000000;-0.056477
6016.000000;-0.056753
6015.000000;-0.057028
6014.000000;-0.057318
6013.000000;-0.057618
6012.000000;-0.057906
6011.000000;-0.058183
6010.000000;-0.058461
6009.000000;-0.058729
6008.000000;-0.058963
6007.000000;-0.059179
6006.000000;-0.059415
6005.000000;-0.059677
6004.000000;-0.059943
6003.000000;-0.060206
6002.000000;-0.060478
6001.000000;-0.060743
6000.000000;-0.060976
5999.000000;-0.061191
5998.000000;-0.061431
5997.000000;-0.061692
5996.000000;-0.061927
5995.000000;-0.062114
5994.000000;-0.062284
5993.000000;-0.062463
5992.000000;-0.062649
5991.000000;-0.062843
5990.000000;-0.063057
5989.000000;-0.063276
5988.000000;-0.063470
5987.000000;-0.063646
5986.000000;-0.063852
5985.000000;-0.064104
5984.000000;-0.064366
5983.000000;-0.064610
5982.000000;-0.064849
5981.000000;-0.065093
5980.000000;-0.065328
5979.000000;-0.065545
5978.000000;-0.065756
5977.000000;-0.065962
5976.000000;-0.066140
5975.000000;-0.066285
5974.000000;-0.066426
5973.000000;-0.066585
5972.000000;-0.066760
5971.000000;-0.066947
5970.000000;-0.067150
5969.000000;-0.067356
5968.000000;-0.067539
5967.000000;-0.067709
5966.000000;-0.067896
5965.000000;-0.068101
5964.000000;-0.068292
5963.000000;-0.068465
5962.000000;-0.068644
5961.000000;-0.068828
5960.000000;-0.068978
5959.000000;-0.069090
5958.000000;-0.069210
5957.000000;-0.069374
5956.000000;-0.069563
5955.000000;-0.069739
5954.000000;-0.069885
5953.000000;-0.069993
5952.000000;-0.070056
5951.000000;-0.070106
5950.000000;-0.070209
5949.000000;-0.070401
5948.000000;-0.070646
5947.000000;-0.070885
5946.000000;-0.071089
5945.000000;-0.071256
5944.000000;-0.071392
5943.000000;-0.071509
5942.000000;-0.071613
5941.000000;-0.071694
5940.000000;-0.071749
5939.000000;-0.071824
5938.000000;-0.071973
5937.000000;-0.072180
5936.000000;-0.072371
5935.000000;-0.072503
5934.000000;-0.072603
5933.000000;-0.072706
5932.000000;-0.072811
5931.000000;-0.072916
5930.000000;-0.073035
5929.000000;-0.073170
5928.000000;-0.073296
5927.000000;-0.073405
5926.000000;-0.073521
5925.000000;-0.073659
5924.000000;-0.073797
5923.000000;-0.073912
5922.000000;-0.074002
5921.000000;-0.074060
5920.000000;-0.074078
5919.000000;-0.074076
5918.000000;-0.074108
5917.000000;-0.074196
5916.000000;-0.074311
5915.000000;-0.074428
5914.000000;-0.074551
5913.000000;-0.074678
5912.000000;-0.074786
5911.000000;-0.074874
5910.000000;-0.074971
5909.000000;-0.075090
5908.000000;-0.075207
5907.000000;-0.075308
5906.000000;-0.075416
5905.000000;-0.075560
5904.000000;-0.075720
5903.000000;-0.075855
5902.000000;-0.075942
5901.000000;-0.075979
5900.000000;-0.075981
5899.000000;-0.075984
5898.000000;-0.076019
5897.000000;-0.076082
5896.000000;-0.076141
5895.000000;-0.076182
5894.000000;-0.076225
5893.000000;-0.076286
5892.000000;-0.076364
5891.000000;-0.076453
5890.000000;-0.076550
5889.000000;-0.076637
5888.000000;-0.076693
5887.000000;-0.076731
5886.000000;-0.076774
5885.000000;-0.076811
5884.000000;-0.076810
5883.000000;-0.076789
5882.000000;-0.076805
5881.000000;-0.076876
5880.000000;-0.076959
5879.000000;-0.077015
5878.000000;-0.077055
5877.000000;-0.077086
5876.000000;-0.077099
5875.000000;-0.077102
5874.000000;-0.077124
5873.000000;-0.077159
5872.000000;-0.077157
5871.000000;-0.077100
5870.000000;-0.077038
5869.000000;-0.077013
5868.000000;-0.077005
5867.000000;-0.076978
5866.000000;-0.076931
5865.000000;-0.076890
5864.000000;-0.076862
5863.000000;-0.076851
5862.000000;-0.076868
5861.000000;-0.076906
5860.000000;-0.076926
5859.000000;-0.076896
5858.000000;-0.076834
5857.000000;-0.076766
5856.000000;-0.076695
5855.000000;-0.076614
5854.000000;-0.076531
5853.000000;-0.076453
5852.000000;-0.076378
5851.000000;-0.076315
5850.000000;-0.076279
5849.000000;-0.076255
5848.000000;-0.076202
5847.000000;-0.076105
5846.000000;-0.075992
5845.000000;-0.075894
5844.000000;-0.075810
5843.000000;-0.075739
5842.000000;-0.075697
5841.000000;-0.075680
5840.000000;-0.075654
5839.000000;-0.075596
5838.000000;-0.075511
5837.000000;-0.075403
5836.000000;-0.075255
5835.000000;-0.075071
5834.000000;-0.074885
5833.000000;-0.074725
5832.000000;-0.074575
5831.000000;-0.074416
5830.000000;-0.074260
5829.000000;-0.074130
5828.000000;-0.074027
5827.000000;-0.073940
5826.000000;-0.073852
5825.000000;-0.073739
5824.000000;-0.073579
5823.000000;-0.073381
5822.000000;-0.073180
5821.000000;-0.072995
5820.000000;-0.072822
5819.000000;-0.072659
5818.000000;-0.072518
5817.000000;-0.072386
5816.000000;-0.072229
5815.000000;-0.072041
5814.000000;-0.071852
5813.000000;-0.071683
5812.000000;-0.071519
5811.000000;-0.071348
5810.000000;-0.071178
5809.000000;-0.071008
5808.000000;-0.070811
5807.000000;-0.070578
5806.000000;-0.070324
5805.000000;-0.070061
5804.000000;-0.069784
5803.000000;-0.069513
5802.000000;-0.069285
5801.000000;-0.069108
5800.000000;-0.068936
5799.000000;-0.068731
5798.000000;-0.068505
5797.000000;-0.068285
5796.000000;-0.068069
5795.000000;-0.067846
5794.000000;-0.067621
5793.000000;-0.067398
5792.000000;-0.067159
5791.000000;-0.066896
5790.000000;-0.066619
5789.000000;-0.066344
5788.000000;-0.066076
5787.000000;-0.065814
5786.000000;-0.065553
5785.000000;-0.065272
5784.000000;-0.064951
5783.000000;-0.064609
5782.000000;-0.064290
5781.000000;-0.064005
5780.000000;-0.063730
5779.000000;-0.063443
5778.000000;-0.063142
5777.000000;-0.062817
5776.000000;-0.062450
5775.000000;-0.062059
5774.000000;-0.061699
5773.000000;-0.061392
5772.000000;-0.061107
5771.000000;-0.060805
5770.000000;-0.060474
5769.000000;-0.060118
5768.000000;-0.059746
5767.000000;-0.059385
5766.000000;-0.059065
5765.000000;-0.058769
5764.000000;-0.058444
5763.000000;-0.058068
5762.000000;-0.057674
5761.000000;-0.057291
5760.000000;-0.056917
5759.000000;-0.056537
5758.000000;-0.056151
5757.000000;-0.055758
5756.000000;-0.055347
5755.000000;-0.054932
5754.000000;-0.054544
5753.000000;-0.054181
5752.000000;-0.053805
5751.000000;-0.053391
5750.000000;-0.052947
5749.000000;-0.052485
5748.000000;-0.052006
5747.000000;-0.051521
5746.000000;-0.051053
5745.000000;-0.050609
5744.000000;-0.050173
5743.000000;-0.049727
5742.000000;-0.049260
5741.000000;-0.048751
5740.000000;-0.048199
5739.000000;-0.047646
5738.000000;-0.047138
5737.000000;-0.046667
5736.000000;-0.046184
5735.000000;-0.045678
5734.000000;-0.045175
5733.000000;-0.044678
5732.000000;-0.044166
5731.000000;-0.043657
5730.000000;-0.043186
5729.000000;-0.042727
5728.000000;-0.042204
5727.000000;-0.041596
5726.000000;-0.040972
5725.000000;-0.040388
5724.000000;-0.039828
5723.000000;-0.039256
5722.000000;-0.038685
5721.000000;-0.038150
5720.000000;-0.037660
5719.000000;-0.037199
5718.000000;-0.036743
5717.000000;-0.036249
5716.000000;-0.035671
5715.000000;-0.035020
5714.000000;-0.034357
5713.000000;-0.033719
5712.000000;-0.033086
5711.000000;-0.032435
5710.000000;-0.031781
5709.000000;-0.031156
5708.000000;-0.030581
5707.000000;-0.030062
5706.000000;-0.029573
5705.000000;-0.029033
5704.000000;-0.028380
5703.000000;-0.027663
5702.000000;-0.026999
5701.000000;-0.026436
5700.000000;-0.025896
5699.000000;-0.025312
5698.000000;-0.024650
5697.000000;-0.023996
5696.000000;-0.023272
5695.000000;-0.022476
5694.000000;-0.021711
5693.000000;-0.020998
5692.000000;-0.020346
5691.000000;-0.019745
5690.000000;-0.019207
5689.000000;-0.018693
5688.000000;-0.018118
5687.000000;-0.017450
5686.000000;-0.016751
5685.000000;-0.016091
5684.000000;-0.015471
5683.000000;-0.014863
5682.000000;-0.014253
5681.000000;-0.013627
5680.000000;-0.012946
5679.000000;-0.012207
5678.000000;-0.011473
5677.000000;-0.010796
5676.000000;-0.010161
5675.000000;-0.009525
5674.000000;-0.008879
5673.000000;-0.008229
5672.000000;-0.007554
5671.000000;-0.006843
5670.000000;-0.006123
5669.000000;-0.005429
5668.000000;-0.004764
5667.000000;-0.004106
5666.000000;-0.003443
5665.000000;-0.002766
5664.000000;-0.002087
5663.000000;-0.001457
5662.000000;-0.000918
5661.000000;-0.000433
5660.000000;0.000093
5659.000000;0.000698
5658.000000;0.001329
5657.000000;0.001938
5656.000000;0.002534
5655.000000;0.003135
5654.000000;0.003723
5653.000000;0.004294
5652.000000;0.004882
5651.000000;0.005501
5650.000000;0.006124
5649.000000;0.006739
5648.000000;0.007365
5647.000000;0.007997
5646.000000;0.008583
5645.000000;0.009108
5644.000000;0.009618
5643.000000;0.010156
5642.000000;0.010704
5641.000000;0.011242
5640.000000;0.011791
5639.000000;0.012359
5638.000000;0.012914
5637.000000;0.013421
5636.000000;0.013887
5635.000000;0.014327
5634.000000;0.014743
5633.000000;0.015162
5632.000000;0.015640
5631.000000;0.016176
5630.000000;0.016701
5629.000000;0.017165
5628.000000;0.017597
5627.000000;0.018040
5626.000000;0.018492
5625.000000;0.018939
5624.000000;0.019378
5623.000000;0.019788
5622.000000;0.020133
5621.000000;0.020441
5620.000000;0.020800
5619.000000;0.021240
5618.000000;0.021681
5617.000000;0.022043
5616.000000;0.022336
5615.000000;0.022618
5614.000000;0.022900
5613.000000;0.023176
5612.000000;0.023469
5611.000000;0.023798
5610.000000;0.024140
5609.000000;0.024466
5608.000000;0.024785
5607.000000;0.025096
5606.000000;0.025367
5605.000000;0.025592
5604.000000;0.025811
5603.000000;0.026044
5602.000000;0.026258
5601.000000;0.026435
5600.000000;0.026611
5599.000000;0.026808
5598.000000;0.027004
5597.000000;0.027198
5596.000000;0.027425
5595.000000;0.027672
5594.000000;0.027861
5593.000000;0.027972
5592.000000;0.028087
5591.000000;0.028266
5590.000000;0.028446
5589.000000;0.028550
5588.000000;0.028609
5587.000000;0.028692
5586.000000;0.028791
5585.000000;0.028859
5584.000000;0.028893
5583.000000;0.028920
5582.000000;0.028939
5581.000000;0.028946
5580.000000;0.028979
5579.000000;0.029061
5578.000000;0.029153
5577.000000;0.029215
5576.000000;0.029264
5575.000000;0.029312
5574.000000;0.029317
5573.000000;0.029256
5572.000000;0.029197
5571.000000;0.029207
5570.000000;0.029248
5569.000000;0.029234
5568.000000;0.029166
5567.000000;0.029118
5566.000000;0.029118
5565.000000;0.029126
5564.000000;0.029127
5563.000000;0.029147
5562.000000;0.029185
5561.000000;0.029196
5560.000000;0.029151
5559.000000;0.029068
5558.000000;0.028972
5557.000000;0.028866
5556.000000;0.028730
5555.000000;0.028556
5554.000000;0.028363
5553.000000;0.028185
5552.000000;0.028030
5551.000000;0.027882
5550.000000;0.027767
5549.000000;0.027750
5548.000000;0.027829
5547.000000;0.027876
5546.000000;0.027777
5545.000000;0.027614
5544.000000;0.027571
5543.000000;0.027678
5542.000000;0.027749
5541.000000;0.027621
5540.000000;0.027343
5539.000000;0.027082
5538.000000;0.026904
5537.000000;0.026723
5536.000000;0.026457
5535.000000;0.026175
5534.000000;0.026047
5533.000000;0.026162
5532.000000;0.026408
5531.000000;0.026578
5530.000000;0.026580
5529.000000;0.026484
5528.000000;0.026379
5527.000000;0.026238
5526.000000;0.026002
5525.000000;0.025731
5524.000000;0.025555
5523.000000;0.025475
5522.000000;0.025324
5521.000000;0.024993
5520.000000;0.024621
5519.000000;0.024485
5518.000000;0.024688
5517.000000;0.025025
5516.000000;0.025190
5515.000000;0.025096
5514.000000;0.024937
5513.000000;0.024903
5512.000000;0.024935
5511.000000;0.024855
5510.000000;0.024674
5509.000000;0.024534
5508.000000;0.024392
5507.000000;0.024040
5506.000000;0.023553
5505.000000;0.023410
5504.000000;0.023895
5503.000000;0.024607
5502.000000;0.024929
5501.000000;0.024818
5500.000000;0.024748
5499.000000;0.024903
5498.000000;0.024857
5497.000000;0.024280
5496.000000;0.023623
5495.000000;0.023643
5494.000000;0.024277
5493.000000;0.024576
5492.000000;0.023954
5491.000000;0.023112
5490.000000;0.023221
5489.000000;0.024411
5488.000000;0.025651
5487.000000;0.026093
5486.000000;0.025993
5485.000000;0.026122
5484.000000;0.026695
5483.000000;0.027292
5482.000000;0.027601
5481.000000;0.027636
5480.000000;0.027316
5479.000000;0.026574
5478.000000;0.025973
5477.000000;0.026366
5476.000000;0.027608
5475.000000;0.028394
5474.000000;0.027936
5473.000000;0.027233
5472.000000;0.027740
5471.000000;0.029366
5470.000000;0.030696
5469.000000;0.030823
5468.000000;0.030187
5467.000000;0.029698
5466.000000;0.029708
5465.000000;0.030039
5464.000000;0.030568
5463.000000;0.031353
5462.000000;0.032328
5461.000000;0.033175
5460.000000;0.033577
5459.000000;0.033643
5458.000000;0.033999
5457.000000;0.035104
5456.000000;0.036530
5455.000000;0.037324
5454.000000;0.037134
5453.000000;0.036727
5452.000000;0.037108
5451.000000;0.038251
5450.000000;0.039092
5449.000000;0.038959
5448.000000;0.038624
5447.000000;0.039341
5446.000000;0.041005
5445.000000;0.042175
5444.000000;0.042314
5443.000000;0.042790
5442.000000;0.044839
5441.000000;0.047523
5440.000000;0.048788
5439.000000;0.048243
5438.000000;0.047785
5437.000000;0.049187
5436.000000;0.051959
5435.000000;0.054031
5434.000000;0.054085
5433.000000;0.052943
5432.000000;0.052699
5431.000000;0.054602
5430.000000;0.057818
5429.000000;0.060306
5428.000000;0.061011
5427.000000;0.060975
5426.000000;0.061989
5425.000000;0.064522
5424.000000;0.067475
5423.000000;0.069583
5422.000000;0.070626
5421.000000;0.071406
5420.000000;0.072640
5419.000000;0.074028
5418.000000;0.074830
5417.000000;0.075273
5416.000000;0.076543
5415.000000;0.079058
5414.000000;0.081682
5413.000000;0.083375
5412.000000;0.084961
5411.000000;0.088006
5410.000000;0.092359
5409.000000;0.096227
5408.000000;0.098608
5407.000000;0.100352
5406.000000;0.102610
5405.000000;0.105304
5404.000000;0.107708
5403.000000;0.109753
5402.000000;0.111928
5401.000000;0.114438
5400.000000;0.117208
5399.000000;0.120208
5398.000000;0.123207
5397.000000;0.125937
5396.000000;0.128808
5395.000000;0.132594
5394.000000;0.137207
5393.000000;0.141597
5392.000000;0.145199
5391.000000;0.148654
5390.000000;0.152635
5389.000000;0.156966
5388.000000;0.161258
5387.000000;0.165604
5386.000000;0.170154
5385.000000;0.174551
5384.000000;0.178646
5383.000000;0.183135
5382.000000;0.188450
5381.000000;0.193765
5380.000000;0.198355
5379.000000;0.203032
5378.000000;0.208931
5377.000000;0.215606
5376.000000;0.221717
5375.000000;0.227240
5374.000000;0.233449
5373.000000;0.240791
5372.000000;0.248305
5371.000000;0.255236
5370.000000;0.261921
5369.000000;0.268865
5368.000000;0.275931
5367.000000;0.282951
5366.000000;0.290371
5365.000000;0.298557
5364.000000;0.307104
5363.000000;0.315520
5362.000000;0.324053
5361.000000;0.333276
5360.000000;0.343236
5359.000000;0.353391
5358.000000;0.363180
5357.000000;0.372644
5356.000000;0.382500
5355.000000;0.393488
5354.000000;0.405459
5353.000000;0.417349
5352.000000;0.428657
5351.000000;0.440480
5350.000000;0.453972
5349.000000;0.468274
5348.000000;0.481600
5347.000000;0.494134
5346.000000;0.508034
5345.000000;0.524133
5344.000000;0.540340
5343.000000;0.554638
5342.000000;0.568318
5341.000000;0.584233
5340.000000;0.602880
5339.000000;0.622071
5338.000000;0.639941
5337.000000;0.656910
5336.000000;0.674506
5335.000000;0.693544
5334.000000;0.713949
5333.000000;0.735064
5332.000000;0.755766
5331.000000;0.775486
5330.000000;0.795372
5329.000000;0.817162
5328.000000;0.840909
5327.000000;0.864927
5326.000000;0.888150
5325.000000;0.911418
5324.000000;0.935851
5323.000000;0.961218
5322.000000;0.986734
5321.000000;1.012319
5320.000000;1.038182
5319.000000;1.064276
5318.000000;1.090808
5317.000000;1.118298
5316.000000;1.146528
5315.000000;1.174443
5314.000000;1.201717
5313.000000;1.229235
5312.000000;1.257477
5311.000000;1.285797
5310.000000;1.313816
5309.000000;1.341834
5308.000000;1.369360
5307.000000;1.395194
5306.000000;1.419715
5305.000000;1.444996
5304.000000;1.471729
5303.000000;1.498090
5302.000000;1.522464
5301.000000;1.545214
5300.000000;1.566914
5299.000000;1.587111
5298.000000;1.605889
5297.000000;1.624306
5296.000000;1.642050
5295.000000;1.657053
5294.000000;1.668809
5293.000000;1.679676
5292.000000;1.691591
5291.000000;1.703885
5290.000000;1.715398
5289.000000;1.726445
5288.000000;1.737580
5287.000000;1.748533
5286.000000;1.759026
5285.000000;1.768457
5284.000000;1.774640
5283.000000;1.775696
5282.000000;1.773498
5281.000000;1.772180
5280.000000;1.773383
5279.000000;1.775840
5278.000000;1.778847
5277.000000;1.782808
5276.000000;1.786570
5275.000000;1.787737
5274.000000;1.786259
5273.000000;1.784595
5272.000000;1.784025
5271.000000;1.783827
5270.000000;1.783896
5269.000000;1.784822
5268.000000;1.785534
5267.000000;1.784585
5266.000000;1.783554
5265.000000;1.785370
5264.000000;1.789222
5263.000000;1.790880
5262.000000;1.788984
5261.000000;1.786928
5260.000000;1.787262
5259.000000;1.788731
5258.000000;1.789825
5257.000000;1.791151
5256.000000;1.792780
5255.000000;1.792651
5254.000000;1.789837
5253.000000;1.786527
5252.000000;1.784782
5251.000000;1.784251
5250.000000;1.784163
5249.000000;1.784724
5248.000000;1.785554
5247.000000;1.785701
5246.000000;1.786058
5245.000000;1.788621
5244.000000;1.792678
5243.000000;1.794768
5242.000000;1.793553
5241.000000;1.791705
5240.000000;1.791458
5239.000000;1.791488
5238.000000;1.789865
5237.000000;1.787142
5236.000000;1.784704
5235.000000;1.782837
5234.000000;1.782192
5233.000000;1.784304
5232.000000;1.788651
5231.000000;1.791687
5230.000000;1.791049
5229.000000;1.788789
5228.000000;1.788160
5227.000000;1.789183
5226.000000;1.789477
5225.000000;1.788046
5224.000000;1.786202
5223.000000;1.785515
5222.000000;1.786577
5221.000000;1.789051
5220.000000;1.791659
5219.000000;1.792963
5218.000000;1.793246
5217.000000;1.794473
5216.000000;1.797372
5215.000000;1.799912
5214.000000;1.799701
5213.000000;1.796793
5212.000000;1.793199
5211.000000;1.790681
5210.000000;1.789890
5209.000000;1.790677
5208.000000;1.792122
5207.000000;1.792946
5206.000000;1.792857
5205.000000;1.792811
5204.000000;1.793594
5203.000000;1.795066
5202.000000;1.796678
5201.000000;1.797668
5200.000000;1.797000
5199.000000;1.794582
5198.000000;1.792287
5197.000000;1.791985
5196.000000;1.792811
5195.000000;1.792369
5194.000000;1.790479
5193.000000;1.789512
5192.000000;1.791109
5191.000000;1.794567
5190.000000;1.798242
5189.000000;1.800644
5188.000000;1.800172
5187.000000;1.796195
5186.000000;1.790829
5185.000000;1.787366
5184.000000;1.786804
5183.000000;1.787640
5182.000000;1.788558
5181.000000;1.789099
5180.000000;1.788184
5179.000000;1.785133
5178.000000;1.782192
5177.000000;1.782633
5176.000000;1.785936
5175.000000;1.787914
5174.000000;1.786439
5173.000000;1.783806
5172.000000;1.782396
5171.000000;1.781888
5170.000000;1.782155
5169.000000;1.785064
5168.000000;1.791100
5167.000000;1.797044
5166.000000;1.799433
5165.000000;1.798359
5164.000000;1.795860
5163.000000;1.793027
5162.000000;1.790626
5161.000000;1.789877
5160.000000;1.790702
5159.000000;1.791381
5158.000000;1.791454
5157.000000;1.792615
5156.000000;1.795152
5155.000000;1.796259
5154.000000;1.794001
5153.000000;1.790236
5152.000000;1.787172
5151.000000;1.783989
5150.000000;1.779272
5149.000000;1.774298
5148.000000;1.771402
5147.000000;1.771214
5146.000000;1.773536
5145.000000;1.778800
5144.000000;1.786162
5143.000000;1.791942
5142.000000;1.793088
5141.000000;1.791258
5140.000000;1.790557
5139.000000;1.792284
5138.000000;1.794177
5137.000000;1.793840
5136.000000;1.791004
5135.000000;1.787104
5134.000000;1.784383
5133.000000;1.784777
5132.000000;1.788129
5131.000000;1.791868
5130.000000;1.793491
5129.000000;1.792841
5128.000000;1.791254
5127.000000;1.789833
5126.000000;1.789387
5125.000000;1.790437
5124.000000;1.792234
5123.000000;1.793238
5122.000000;1.793411
5121.000000;1.794330
5120.000000;1.796356
5119.000000;1.797771
5118.000000;1.797572
5117.000000;1.796804
5116.000000;1.795961
5115.000000;1.793648
5114.000000;1.789379
5113.000000;1.785259
5112.000000;1.783274
5111.000000;1.783148
5110.000000;1.784115
5109.000000;1.786382
5108.000000;1.789230
5107.000000;1.790113
5106.000000;1.787886
5105.000000;1.784827
5104.000000;1.783500
5103.000000;1.783918
5102.000000;1.785418
5101.000000;1.788718
5100.000000;1.793720
5099.000000;1.797429
5098.000000;1.797045
5097.000000;1.793833
5096.000000;1.791099
5095.000000;1.789832
5094.000000;1.788906
5093.000000;1.788034
5092.000000;1.787929
5091.000000;1.788390
5090.000000;1.788445
5089.000000;1.787865
5088.000000;1.786991
5087.000000;1.785851
5086.000000;1.784915
5085.000000;1.785542
5084.000000;1.788080
5083.000000;1.790588
5082.000000;1.790996
5081.000000;1.789624
5080.000000;1.788230
5079.000000;1.787819
5078.000000;1.788603
5077.000000;1.790574
5076.000000;1.792772
5075.000000;1.793467
5074.000000;1.792441
5073.000000;1.791478
5072.000000;1.791400
5071.000000;1.790571
5070.000000;1.787817
5069.000000;1.784826
5068.000000;1.783718
5067.000000;1.783973
5066.000000;1.783700
5065.000000;1.782573
5064.000000;1.781552
5063.000000;1.780940
5062.000000;1.780496
5061.000000;1.780385
5060.000000;1.780604
5059.000000;1.780421
5058.000000;1.779561
5057.000000;1.778947
5056.000000;1.779335
5055.000000;1.780343
5054.000000;1.781447
5053.000000;1.782471
5052.000000;1.782584
5051.000000;1.780753
5050.000000;1.777979
5049.000000;1.776834
5048.000000;1.777891
5047.000000;1.778805
5046.000000;1.777923
5045.000000;1.776537
5044.000000;1.776281
5043.000000;1.776556
5042.000000;1.775857
5041.000000;1.773704
5040.000000;1.770185
5039.000000;1.765727
5038.000000;1.762296
5037.000000;1.762209
5036.000000;1.764448
5035.000000;1.764653
5034.000000;1.760740
5033.000000;1.756054
5032.000000;1.754772
5031.000000;1.756810
5030.000000;1.759036
5029.000000;1.759396
5028.000000;1.757745
5027.000000;1.754407
5026.000000;1.750406
5025.000000;1.747747
5024.000000;1.747405
5023.000000;1.748057
5022.000000;1.748057
5021.000000;1.747328
5020.000000;1.746137
5019.000000;1.743919
5018.000000;1.740775
5017.000000;1.738136
5016.000000;1.736415
5015.000000;1.733964
5014.000000;1.729890
5013.000000;1.725985
5012.000000;1.724214
5011.000000;1.724059
5010.000000;1.723725
5009.000000;1.722387
5008.000000;1.720048
5007.000000;1.716965
5006.000000;1.714553
5005.000000;1.714724
5004.000000;1.716848
5003.000000;1.717424
5002.000000;1.714480
5001.000000;1.710355
5000.000000;1.708152
4999.000000;1.708123
4998.000000;1.708729
4997.000000;1.709008
4996.000000;1.707997
4995.000000;1.704240
4994.000000;1.698095
4993.000000;1.692437
4992.000000;1.689274
4991.000000;1.687379
4990.000000;1.684677
4989.000000;1.681039
4988.000000;1.676915
4987.000000;1.671332
4986.000000;1.663756
4985.000000;1.656340
4984.000000;1.651903
4983.000000;1.650744
4982.000000;1.651004
4981.000000;1.651043
4980.000000;1.649982
4979.000000;1.647204
4978.000000;1.643156
4977.000000;1.639588
4976.000000;1.637391
4975.000000;1.635230
4974.000000;1.631635
4973.000000;1.627224
4972.000000;1.623438
4971.000000;1.620473
4970.000000;1.617873
4969.000000;1.615821
4968.000000;1.614339
4967.000000;1.612278
4966.000000;1.608617
4965.000000;1.603899
4964.000000;1.599248
4963.000000;1.594960
4962.000000;1.590907
4961.000000;1.587039
4960.000000;1.582656
4959.000000;1.576771
4958.000000;1.570073
4957.000000;1.564908
4956.000000;1.562321
4955.000000;1.560560
4954.000000;1.557472
4953.000000;1.552939
4952.000000;1.547806
4951.000000;1.542199
4950.000000;1.536423
4949.000000;1.531823
4948.000000;1.529125
4947.000000;1.527063
4946.000000;1.524001
4945.000000;1.519884
4944.000000;1.515505
4943.000000;1.511201
4942.000000;1.507357
4941.000000;1.504675
4940.000000;1.502684
4939.000000;1.499422
4938.000000;1.493984
4937.000000;1.487986
4936.000000;1.483097
4935.000000;1.478720
4934.000000;1.473546
4933.000000;1.467931
4932.000000;1.463079
4931.000000;1.458971
4930.000000;1.454763
4929.000000;1.450347
4928.000000;1.446097
4927.000000;1.441833
4926.000000;1.437344
4925.000000;1.433163
4924.000000;1.429606
4923.000000;1.425795
4922.000000;1.420789
4921.000000;1.415006
4920.000000;1.409507
4919.000000;1.404659
4918.000000;1.400350
4917.000000;1.396540
4916.000000;1.392752
4915.000000;1.388066
4914.000000;1.382558
4913.000000;1.377683
4912.000000;1.374291
4911.000000;1.371368
4910.000000;1.367607
4909.000000;1.363023
4908.000000;1.358037
4907.000000;1.352345
4906.000000;1.346078
4905.000000;1.340770
4904.000000;1.337579
4903.000000;1.335385
4902.000000;1.332081
4901.000000;1.327098
4900.000000;1.321356
4899.000000;1.315488
4898.000000;1.309651
4897.000000;1.304450
4896.000000;1.300453
4895.000000;1.297097
4894.000000;1.293315
4893.000000;1.288941
4892.000000;1.284427
4891.000000;1.279631
4890.000000;1.274133
4889.000000;1.268401
4888.000000;1.263418
4887.000000;1.259339
4886.000000;1.255506
4885.000000;1.251575
4884.000000;1.247706
4883.000000;1.243838
4882.000000;1.239733
4881.000000;1.235621
4880.000000;1.231903
4879.000000;1.228300
4878.000000;1.224040
4877.000000;1.218893
4876.000000;1.213402
4875.000000;1.208208
4874.000000;1.203614
4873.000000;1.199623
4872.000000;1.195901
4871.000000;1.191883
4870.000000;1.187322
4869.000000;1.182544
4868.000000;1.177909
4867.000000;1.173455
4866.000000;1.169275
4865.000000;1.165614
4864.000000;1.162194
4863.000000;1.158109
4862.000000;1.152949
4861.000000;1.147476
4860.000000;1.142636
4859.000000;1.138483
4858.000000;1.134596
4857.000000;1.130872
4856.000000;1.127232
4855.000000;1.123156
4854.000000;1.118359
4853.000000;1.113501
4852.000000;1.109471
4851.000000;1.106242
4850.000000;1.103075
4849.000000;1.099525
4848.000000;1.095645
4847.000000;1.091468
4846.000000;1.086974
4845.000000;1.082394
4844.000000;1.078003
4843.000000;1.073772
4842.000000;1.069573
4841.000000;1.065455
4840.000000;1.061383
4839.000000;1.057087
4838.000000;1.052561
4837.000000;1.048299
4836.000000;1.044614
4835.000000;1.041128
4834.000000;1.037363
4833.000000;1.033422
4832.000000;1.029624
4831.000000;1.025894
4830.000000;1.022011
4829.000000;1.018088
4828.000000;1.014314
4827.000000;1.010565
4826.000000;1.006728
4825.000000;1.003040
4824.000000;0.999660
4823.000000;0.996274
4822.000000;0.992599
4821.000000;0.988896
4820.000000;0.985477
4819.000000;0.982087
4818.000000;0.978318
4817.000000;0.974306
4816.000000;0.970457
4815.000000;0.966775
4814.000000;0.962974
4813.000000;0.959024
4812.000000;0.955094
4811.000000;0.951208
4810.000000;0.947401
4809.000000;0.943920
4808.000000;0.940815
4807.000000;0.937613
4806.000000;0.933899
4805.000000;0.929944
4804.000000;0.926272
4803.000000;0.922880
4802.000000;0.919371
4801.000000;0.915652
4800.000000;0.912000
4799.000000;0.908561
4798.000000;0.905273
4797.000000;0.902115
4796.000000;0.899020
4795.000000;0.895723
4794.000000;0.892065
4793.000000;0.888294
4792.000000;0.884732
4791.000000;0.881325
4790.000000;0.877908
4789.000000;0.874636
4788.000000;0.871754
4787.000000;0.869117
4786.000000;0.866337
4785.000000;0.863255
4784.000000;0.859917
4783.000000;0.856307
4782.000000;0.852492
4781.000000;0.848832
4780.000000;0.845640
4779.000000;0.842778
4778.000000;0.839930
4777.000000;0.837057
4776.000000;0.834244
4775.000000;0.831341
4774.000000;0.828170
4773.000000;0.824920
4772.000000;0.821879
4771.000000;0.818917
4770.000000;0.815663
4769.000000;0.812122
4768.000000;0.808689
4767.000000;0.805625
4766.000000;0.802848
4765.000000;0.800190
4764.000000;0.797533
4763.000000;0.794740
4762.000000;0.791777
4761.000000;0.788829
4760.000000;0.786072
4759.000000;0.783400
4758.000000;0.780615
4757.000000;0.777764
4756.000000;0.775014
4755.000000;0.772322
4754.000000;0.769514
4753.000000;0.766603
4752.000000;0.763770
4751.000000;0.761092
4750.000000;0.758514
4749.000000;0.756000
4748.000000;0.753485
4747.000000;0.750818
4746.000000;0.747948
4745.000000;0.745066
4744.000000;0.742364
4743.000000;0.739811
4742.000000;0.737320
4741.000000;0.734942
4740.000000;0.732689
4739.000000;0.730361
4738.000000;0.727801
4737.000000;0.725145
4736.000000;0.722582
4735.000000;0.720074
4734.000000;0.717549
4733.000000;0.715143
4732.000000;0.712957
4731.000000;0.710778
4730.000000;0.708359
4729.000000;0.705820
4728.000000;0.703479
4727.000000;0.701391
4726.000000;0.699357
4725.000000;0.697238
4724.000000;0.695004
4723.000000;0.692625
4722.000000;0.690164
4721.000000;0.687857
4720.000000;0.685811
4719.000000;0.683803
4718.000000;0.681621
4717.000000;0.679443
4716.000000;0.677542
4715.000000;0.675801
4714.000000;0.673864
4713.000000;0.671673
4712.000000;0.669473
4711.000000;0.667383
4710.000000;0.665293
4709.000000;0.663162
4708.000000;0.661095
4707.000000;0.659127
4706.000000;0.657197
4705.000000;0.655335
4704.000000;0.653631
4703.000000;0.652037
4702.000000;0.650408
4701.000000;0.648712
4700.000000;0.647001
4699.000000;0.645256
4698.000000;0.643439
4697.000000;0.641649
4696.000000;0.640001
4695.000000;0.638407
4694.000000;0.636701
4693.000000;0.634896
4692.000000;0.633140
4691.000000;0.631468
4690.000000;0.629821
4689.000000;0.628221
4688.000000;0.626715
4687.000000;0.625215
4686.000000;0.623619
4685.000000;0.622015
4684.000000;0.620560
4683.000000;0.619211
4682.000000;0.617779
4681.000000;0.616219
4680.000000;0.614643
4679.000000;0.613120
4678.000000;0.611635
4677.000000;0.610198
4676.000000;0.608808
4675.000000;0.607351
4674.000000;0.605731
4673.000000;0.604069
4672.000000;0.602585
4671.000000;0.601338
4670.000000;0.600200
4669.000000;0.599055
4668.000000;0.597865
4667.000000;0.596625
4666.000000;0.595422
4665.000000;0.594431
4664.000000;0.593709
4663.000000;0.593047
4662.000000;0.592168
4661.000000;0.590988
4660.000000;0.589579
4659.000000;0.588015
4658.000000;0.586438
4657.000000;0.585127
4656.000000;0.584254
4655.000000;0.583633
4654.000000;0.582927
4653.000000;0.582017
4652.000000;0.581023
4651.000000;0.580045
4650.000000;0.579105
4649.000000;0.578251
4648.000000;0.577500
4647.000000;0.576715
4646.000000;0.575745
4645.000000;0.574637
4644.000000;0.573559
4643.000000;0.572570
4642.000000;0.571634
4641.000000;0.570782
4640.000000;0.570055
4639.000000;0.569350
4638.000000;0.568504
4637.000000;0.567509
4636.000000;0.566509
4635.000000;0.565616
4634.000000;0.564858
4633.000000;0.564238
4632.000000;0.563699
4631.000000;0.563104
4630.000000;0.562382
4629.000000;0.561652
4628.000000;0.561060
4627.000000;0.560579
4626.000000;0.560079
4625.000000;0.559500
4624.000000;0.558834
4623.000000;0.558052
4622.000000;0.557195
4621.000000;0.556428
4620.000000;0.555852
4619.000000;0.555380
4618.000000;0.554933
4617.000000;0.554599
4616.000000;0.554438
4615.000000;0.554260
4614.000000;0.553830
4613.000000;0.553181
4612.000000;0.552544
4611.000000;0.552050
4610.000000;0.551679
4609.000000;0.551388
4608.000000;0.551120
4607.000000;0.550752
4606.000000;0.550236
4605.000000;0.549695
4604.000000;0.549253
4603.000000;0.548872
4602.000000;0.548504
4601.000000;0.548250
4600.000000;0.548176
4599.000000;0.548114
4598.000000;0.547865
4597.000000;0.547498
4596.000000;0.547214
4595.000000;0.547047
4594.000000;0.546911
4593.000000;0.546845
4592.000000;0.546940
4591.000000;0.547087
4590.000000;0.547074
4589.000000;0.546886
4588.000000;0.546707
4587.000000;0.546644
4586.000000;0.546661
4585.000000;0.546731
4584.000000;0.546862
4583.000000;0.546981
4582.000000;0.547002
4581.000000;0.546976
4580.000000;0.547025
4579.000000;0.547139
4578.000000;0.547217
4577.000000;0.547262
4576.000000;0.547367
4575.000000;0.547557
4574.000000;0.547785
4573.000000;0.548073
4572.000000;0.548476
4571.000000;0.548943
4570.000000;0.549373
4569.000000;0.549760
4568.000000;0.550181
4567.000000;0.550656
4566.000000;0.551147
4565.000000;0.551621
4564.000000;0.552030
4563.000000;0.552320
4562.000000;0.552568
4561.000000;0.552983
4560.000000;0.553643
4559.000000;0.554355
4558.000000;0.554907
4557.000000;0.555339
4556.000000;0.555808
4555.000000;0.556364
4554.000000;0.557016
4553.000000;0.557864
4552.000000;0.558922
4551.000000;0.559953
4550.000000;0.560716
4549.000000;0.561285
4548.000000;0.561914
4547.000000;0.562665
4546.000000;0.563419
4545.000000;0.564144
4544.000000;0.564925
4543.000000;0.565769
4542.000000;0.566610
4541.000000;0.567459
4540.000000;0.568349
4539.000000;0.569208
4538.000000;0.569964
4537.000000;0.570721
4536.000000;0.571638
4535.000000;0.572690
4534.000000;0.573746
4533.000000;0.574783
4532.000000;0.575838
4531.000000;0.576819
4530.000000;0.577617
4529.000000;0.578325
4528.000000;0.579148
4527.000000;0.580120
4526.000000;0.581110
4525.000000;0.582037
4524.000000;0.582898
4523.000000;0.583668
4522.000000;0.584356
4521.000000;0.585103
4520.000000;0.586012
4519.000000;0.586971
4518.000000;0.587830
4517.000000;0.588669
4516.000000;0.589678
4515.000000;0.590830
4514.000000;0.591909
4513.000000;0.592823
4512.000000;0.593689
4511.000000;0.594621
4510.000000;0.595613
4509.000000;0.596609
4508.000000;0.597554
4507.000000;0.598402
4506.000000;0.599219
4505.000000;0.600178
4504.000000;0.601349
4503.000000;0.602580
4502.000000;0.603723
4501.000000;0.604847
4500.000000;0.606064
4499.000000;0.607290
4498.000000;0.608391
4497.000000;0.609444
4496.000000;0.610627
4495.000000;0.611936
4494.000000;0.613218
4493.000000;0.614416
4492.000000;0.615599
4491.000000;0.616830
4490.000000;0.618176
4489.000000;0.619749
4488.000000;0.621545
4487.000000;0.623342
4486.000000;0.624925
4485.000000;0.626323
4484.000000;0.627674
4483.000000;0.629016
4482.000000;0.630371
4481.000000;0.631871
4480.000000;0.633583
4479.000000;0.635337
4478.000000;0.636953
4477.000000;0.638500
4476.000000;0.640142
4475.000000;0.641866
4474.000000;0.643583
4473.000000;0.645332
4472.000000;0.647171
4471.000000;0.649003
4470.000000;0.650749
4469.000000;0.652549
4468.000000;0.654538
4467.000000;0.656589
4466.000000;0.658529
4465.000000;0.660439
4464.000000;0.662480
4463.000000;0.664572
4462.000000;0.666528
4461.000000;0.668386
4460.000000;0.670321
4459.000000;0.672331
4458.000000;0.674289
4457.000000;0.676191
4456.000000;0.678097
4455.000000;0.679954
4454.000000;0.681750
4453.000000;0.683717
4452.000000;0.686086
4451.000000;0.688734
4450.000000;0.691325
4449.000000;0.693694
4448.000000;0.695853
4447.000000;0.697801
4446.000000;0.699613
4445.000000;0.701586
4444.000000;0.703969
4443.000000;0.706641
4442.000000;0.709326
4441.000000;0.711983
4440.000000;0.714715
4439.000000;0.717444
4438.000000;0.720014
4437.000000;0.722491
4436.000000;0.725053
4435.000000;0.727684
4434.000000;0.730269
4433.000000;0.732854
4432.000000;0.735514
4431.000000;0.738117
4430.000000;0.740532
4429.000000;0.742953
4428.000000;0.745673
4427.000000;0.748659
4426.000000;0.751672
4425.000000;0.754668
4424.000000;0.757747
4423.000000;0.760810
4422.000000;0.763645
4421.000000;0.766289
4420.000000;0.768982
4419.000000;0.771807
4418.000000;0.774667
4417.000000;0.777510
4416.000000;0.780317
4415.000000;0.782994
4414.000000;0.785565
4413.000000;0.788323
4412.000000;0.791510
4411.000000;0.794993
4410.000000;0.798516
4409.000000;0.802060
4408.000000;0.805661
4407.000000;0.809126
4406.000000;0.812288
4405.000000;0.815342
4404.000000;0.818548
4403.000000;0.821838
4402.000000;0.825067
4401.000000;0.828398
4400.000000;0.831994
4399.000000;0.835559
4398.000000;0.838712
4397.000000;0.841624
4396.000000;0.844820
4395.000000;0.848441
4394.000000;0.852161
4393.000000;0.855691
4392.000000;0.858948
4391.000000;0.861894
4390.000000;0.864690
4389.000000;0.867863
4388.000000;0.871843
4387.000000;0.876400
4386.000000;0.880913
4385.000000;0.885055
4384.000000;0.888842
4383.000000;0.892220
4382.000000;0.895128
4381.000000;0.897835
4380.000000;0.900760
4379.000000;0.904056
4378.000000;0.907733
4377.000000;0.911918
4376.000000;0.916570
4375.000000;0.921161
4374.000000;0.925206
4373.000000;0.928901
4372.000000;0.932773
4371.000000;0.936905
4370.000000;0.941032
4369.000000;0.945155
4368.000000;0.949477
4367.000000;0.953899
4366.000000;0.958162
4365.000000;0.962315
4364.000000;0.966541
4363.000000;0.970723
4362.000000;0.974765
4361.000000;0.979065
4360.000000;0.984013
4359.000000;0.989183
4358.000000;0.993733
4357.000000;0.997506
4356.000000;1.001120
4355.000000;1.005060
4354.000000;1.009318
4353.000000;1.013833
4352.000000;1.018646
4351.000000;1.023606
4350.000000;1.028458
4349.000000;1.033205
4348.000000;1.037970
4347.000000;1.042647
4346.000000;1.047125
4345.000000;1.051608
4344.000000;1.056236
4343.000000;1.060714
4342.000000;1.064857
4341.000000;1.069147
4340.000000;1.074106
4339.000000;1.079480
4338.000000;1.084705
4337.000000;1.089862
4336.000000;1.095396
4335.000000;1.101153
4334.000000;1.106523
4333.000000;1.111401
4332.000000;1.116286
4331.000000;1.121489
4330.000000;1.126909
4329.000000;1.132417
4328.000000;1.137872
4327.000000;1.142963
4326.000000;1.147615
4325.000000;1.152350
4324.000000;1.157710
4323.000000;1.163619
4322.000000;1.169751
4321.000000;1.175982
4320.000000;1.181957
4319.000000;1.186923
4318.000000;1.190841
4317.000000;1.194989
4316.000000;1.200562
4315.000000;1.207201
4314.000000;1.213671
4313.000000;1.219442
4312.000000;1.224772
4311.000000;1.229903
4310.000000;1.235187
4309.000000;1.241299
4308.000000;1.248262
4307.000000;1.254885
4306.000000;1.260294
4305.000000;1.265325
4304.000000;1.271200
4303.000000;1.277561
4302.000000;1.283166
4301.000000;1.287965
4300.000000;1.293076
4299.000000;1.299112
4298.000000;1.305813
4297.000000;1.312859
4296.000000;1.319862
4295.000000;1.326103
4294.000000;1.331508
4293.000000;1.337251
4292.000000;1.344144
4291.000000;1.351196
4290.000000;1.357094
4289.000000;1.362242
4288.000000;1.367796
4287.000000;1.373639
4286.000000;1.379102
4285.000000;1.384807
4284.000000;1.391761
4283.000000;1.399240
4282.000000;1.405610
4281.000000;1.410949
4280.000000;1.416883
4279.000000;1.424117
4278.000000;1.431894
4277.000000;1.439517
4276.000000;1.446766
4275.000000;1.453318
4274.000000;1.459407
4273.000000;1.466389
4272.000000;1.474861
4271.000000;1.482990
4270.000000;1.488727
4269.000000;1.492980
4268.000000;1.498406
4267.000000;1.505828
4266.000000;1.513988
4265.000000;1.521884
4264.000000;1.529053
4263.000000;1.534435
4262.000000;1.537710
4261.000000;1.541214
4260.000000;1.547832
4259.000000;1.557260
4258.000000;1.566478
4257.000000;1.573629
4256.000000;1.579346
4255.000000;1.584717
4254.000000;1.590299
4253.000000;1.596760
4252.000000;1.604338
4251.000000;1.612135
4250.000000;1.619732
4249.000000;1.628433
4248.000000;1.638906
4247.000000;1.649183
4246.000000;1.657478
4245.000000;1.665392
4244.000000;1.674763
4243.000000;1.683376
4242.000000;1.687853
4241.000000;1.689716
4240.000000;1.693919
4239.000000;1.702304
4238.000000;1.712475
4237.000000;1.722051
4236.000000;1.730279
4235.000000;1.736174
4234.000000;1.739320
4233.000000;1.742310
4232.000000;1.748492
4231.000000;1.757621
4230.000000;1.767110
4229.000000;1.776577
4228.000000;1.787295
4227.000000;1.798209
4226.000000;1.806701
4225.000000;1.813150
4224.000000;1.820545
4223.000000;1.829718
4222.000000;1.838971
4221.000000;1.847867
4220.000000;1.857242
4219.000000;1.865975
4218.000000;1.872236
4217.000000;1.877553
4216.000000;1.885227
4215.000000;1.895231
4214.000000;1.904865
4213.000000;1.913622
4212.000000;1.922834
4211.000000;1.931510
4210.000000;1.937140
4209.000000;1.939954
4208.000000;1.942352
4207.000000;1.945246
4206.000000;1.948877
4205.000000;1.955225
4204.000000;1.965198
4203.000000;1.975324
4202.000000;1.981687
4201.000000;1.985429
4200.000000;1.989753
4199.000000;1.994312
4198.000000;1.997722
4197.000000;2.002693
4196.000000;2.012746
4195.000000;2.026145
4194.000000;2.038578
4193.000000;2.049996
4192.000000;2.062704
4191.000000;2.075064
4190.000000;2.083763
4189.000000;2.089523
4188.000000;2.094555
4187.000000;2.097996
4186.000000;2.100419
4185.000000;2.107913
4184.000000;2.123520
4183.000000;2.139178
4182.000000;2.145212
4181.000000;2.144952
4180.000000;2.148049
4179.000000;2.154700
4178.000000;2.158483
4177.000000;2.160132
4176.000000;2.167210
4175.000000;2.181633
4174.000000;2.197272
4173.000000;2.210394
4172.000000;2.223897
4171.000000;2.240687
4170.000000;2.261393
4169.000000;2.286258
4168.000000;2.309330
4167.000000;2.314717
4166.000000;2.294812
4165.000000;2.267077
4164.000000;2.254066
4163.000000;2.260393
4162.000000;2.277176
4161.000000;2.296849
4160.000000;2.316055
4159.000000;2.329410
4158.000000;2.332682
4157.000000;2.330549
4156.000000;2.329985
4155.000000;2.331426
4154.000000;2.336223
4153.000000;2.353637
4152.000000;2.388467
4151.000000;2.426139
4150.000000;2.443740
4149.000000;2.441037
4148.000000;2.437608
4147.000000;2.443395
4146.000000;2.454729
4145.000000;2.467026
4144.000000;2.474521
4143.000000;2.468087
4142.000000;2.449284
4141.000000;2.433005
4140.000000;2.432026
4139.000000;2.441631
4138.000000;2.448096
4137.000000;2.452036
4136.000000;2.460108
4135.000000;2.466075
4134.000000;2.462977
4133.000000;2.460972
4132.000000;2.472111
4131.000000;2.489313
4130.000000;2.499180
4129.000000;2.506144
4128.000000;2.522999
4127.000000;2.546466
4126.000000;2.563351
4125.000000;2.576125
4124.000000;2.592721
4123.000000;2.600541
4122.000000;2.582948
4121.000000;2.555084
4120.000000;2.545804
4119.000000;2.560149
4118.000000;2.581721
4117.000000;2.600808
4116.000000;2.622547
4115.000000;2.644348
4114.000000;2.652901
4113.000000;2.646779
4112.000000;2.639156
4111.000000;2.638851
4110.000000;2.645635
4109.000000;2.661156
4108.000000;2.683177
4107.000000;2.692484
4106.000000;2.675943
4105.000000;2.657813
4104.000000;2.663648
4103.000000;2.685039
4102.000000;2.699502
4101.000000;2.707716
4100.000000;2.724530
4099.000000;2.742460
4098.000000;2.745652
4097.000000;2.746078
4096.000000;2.760868
4095.000000;2.773354
4094.000000;2.756495
4093.000000;2.724272
4092.000000;2.707679
4091.000000;2.708045
4090.000000;2.709445
4089.000000;2.713541
4088.000000;2.731770
4087.000000;2.756831
4086.000000;2.768113
4085.000000;2.764845
4084.000000;2.772685
4083.000000;2.794599
4082.000000;2.804693
4081.000000;2.802622
4080.000000;2.807738
4079.000000;2.815677
4078.000000;2.812400
4077.000000;2.809001
4076.000000;2.820194
4075.000000;2.829083
4074.000000;2.814207
4073.000000;2.794098
4072.000000;2.796911
4071.000000;2.816350
4070.000000;2.828812
4069.000000;2.837636
4068.000000;2.858227
4067.000000;2.872263
4066.000000;2.852417
4065.000000;2.818588
4064.000000;2.807145
4063.000000;2.820969
4062.000000;2.843016
4061.000000;2.870384
4060.000000;2.901395
4059.000000;2.902809
4058.000000;2.865173
4057.000000;2.840784
4056.000000;2.866277
4055.000000;2.926493
4054.000000;2.966286
4053.000000;2.954005
4052.000000;2.918063
4051.000000;2.869911
4050.000000;2.805226
4049.000000;2.751367
4048.000000;2.734132
4047.000000;2.746389
4046.000000;2.765707
4045.000000;2.798699
4044.000000;2.869051
4043.000000;2.956867
4042.000000;2.976001
4041.000000;2.911183
4040.000000;2.855463
4039.000000;2.852113
4038.000000;2.893532
4037.000000;2.969857
4036.000000;3.069694
4035.000000;3.141183
4034.000000;3.130106
4033.000000;3.079486
4032.000000;3.044838
4031.000000;3.021333
4030.000000;2.989473
4029.000000;2.963930
4028.000000;2.970091
4027.000000;2.976425
4026.000000;2.936383
4025.000000;2.890632
4024.000000;2.892027
4023.000000;2.937297
4022.000000;2.989384
4021.000000;3.025109
4020.000000;3.040013
4019.000000;3.011764
4018.000000;2.949994
4017.000000;2.913250
4016.000000;2.934376
4015.000000;2.997062
4014.000000;3.070587
4013.000000;3.134783
4012.000000;3.194031
4011.000000;3.223830
4010.000000;3.172242
4009.000000;3.104429
4008.000000;3.072455
4007.000000;3.054011
4006.000000;3.019994
4005.000000;2.989363
4004.000000;2.979344
4003.000000;2.970261
4002.000000;2.951445
4001.000000;2.951803
4000.000000;2.996955
3999.000000;3.051893
3998.000000;3.055483
3997.000000;3.050700
3996.000000;3.112787
3995.000000;3.227771
3994.000000;3.285656
3993.000000;3.254422
3992.000000;3.219153
3991.000000;3.189716
3990.000000;3.134997
3989.000000;3.079946
3988.000000;3.060110
3987.000000;3.059860
3986.000000;3.043483
3985.000000;3.021751
3984.000000;3.030535
3983.000000;3.045096
3982.000000;3.023767
3981.000000;2.999543
3980.000000;3.002663
3979.000000;3.008189
3978.000000;2.989186
3977.000000;2.970749
3976.000000;3.000273
3975.000000;3.093555
3974.000000;3.215849
3973.000000;3.319114
3972.000000;3.422783
3971.000000;3.519531
3970.000000;3.530109
3969.000000;3.437994
3968.000000;3.332030
3967.000000;3.261460
3966.000000;3.239799
3965.000000;3.279869
3964.000000;3.352767
3963.000000;3.392136
3962.000000;3.392410
3961.000000;3.433840
3960.000000;3.505490
3959.000000;3.468277
3958.000000;3.329834
3957.000000;3.203765
3956.000000;3.133454
3955.000000;3.106468
3954.000000;3.103561
3953.000000;3.140473
3952.000000;3.232827
3951.000000;3.318044
3950.000000;3.307683
3949.000000;3.276315
3948.000000;3.331990
3947.000000;3.445483
3946.000000;3.519500
3945.000000;3.636181
3944.000000;3.809949
3943.000000;3.834486
3942.000000;3.694070
3941.000000;3.634853
3940.000000;3.746602
3939.000000;3.851506
3938.000000;3.741347
3937.000000;3.579139
3936.000000;3.481241
3935.000000;3.430575
3934.000000;3.335164
3933.000000;3.223556
3932.000000;3.202209
3931.000000;3.276474
3930.000000;3.364570
3929.000000;3.361206
3928.000000;3.326594
3927.000000;3.320702
3926.000000;3.272295
3925.000000;3.223031
3924.000000;3.256401
3923.000000;3.366154
3922.000000;3.463486
3921.000000;3.507424
3920.000000;3.536130
3919.000000;3.543159
3918.000000;3.511446
3917.000000;3.490293
3916.000000;3.382952
3915.000000;3.198629
3914.000000;3.093963
3913.000000;3.065243
3912.000000;3.107984
3911.000000;3.227937
3910.000000;3.403241
3909.000000;3.601660
3908.000000;3.800470
3907.000000;3.956002
3906.000000;3.865263
3905.000000;3.664192
3904.000000;3.514580
3903.000000;3.384182
3902.000000;3.279984
3901.000000;3.261520
3900.000000;3.361566
3899.000000;3.473065
3898.000000;3.418670
3897.000000;3.331890
3896.000000;3.369662
3895.000000;3.418264
3894.000000;3.366863
3893.000000;3.296543
3892.000000;3.228382
3891.000000;3.173931
3890.000000;3.203915
3889.000000;3.356963
3888.000000;3.901027
3887.000000;4.118125
3886.000000;3.591770
3885.000000;3.525172
3884.000000;3.826764
3883.000000;4.069033
3882.000000;3.785361
3881.000000;3.699187
3880.000000;3.637153
3879.000000;3.618701
3878.000000;3.731605
3877.000000;4.063015
3876.000000;4.200819
3875.000000;3.766637
3874.000000;3.649995
3873.000000;3.698997
3872.000000;3.857922
3871.000000;3.571421
3870.000000;3.316282
3869.000000;3.229461
3868.000000;3.327967
3867.000000;3.484910
3866.000000;3.657717
3865.000000;3.957037
3864.000000;4.092503
3863.000000;3.886116
3862.000000;3.792468
3861.000000;3.636345
3860.000000;3.540700
3859.000000;3.595238
3858.000000;3.643222
3857.000000;3.650962
3856.000000;3.669881
3855.000000;3.635762
3854.000000;3.488371
3853.000000;3.372521
3852.000000;3.200907
3851.000000;2.995599
3850.000000;3.027560
3849.000000;3.179013
3848.000000;3.373558
3847.000000;3.612628
3846.000000;3.904430
3845.000000;4.156400
3844.000000;4.776194
3843.000000;3.912350
3842.000000;3.969501
3841.000000;4.216315
3840.000000;3.971517
3839.000000;3.825104
3838.000000;3.771680
3837.000000;3.860273
3836.000000;4.024581
3835.000000;3.955007
3834.000000;3.942337
3833.000000;4.102595
3832.000000;4.841451
3831.000000;4.392351
3830.000000;3.815832
3829.000000;3.649758
3828.000000;3.570609
3827.000000;3.529950
3826.000000;3.546397
3825.000000;3.594150
3824.000000;3.630612
3823.000000;3.722745
3822.000000;4.402915
3821.000000;3.707538
3820.000000;3.404243
3819.000000;3.434772
3818.000000;3.604895
3817.000000;3.679164
3816.000000;3.598993
3815.000000;3.531610
3814.000000;3.478083
3813.000000;3.467296
3812.000000;3.591107
3811.000000;3.845497
3810.000000;3.855651
3809.000000;4.111424
3808.000000;4.033274
3807.000000;3.523668
3806.000000;3.464981
3805.000000;3.568540
3804.000000;3.656828
3803.000000;3.720676
3802.000000;3.973182
3801.000000;4.341645
3800.000000;3.883674
3799.000000;3.659557
3798.000000;3.692210
3797.000000;3.934090
3796.000000;4.215085
3795.000000;3.789566
3794.000000;3.609158
3793.000000;3.615467
3792.000000;3.681956
3791.000000;3.632794
3790.000000;3.654919
3789.000000;3.852809
3788.000000;3.801440
3787.000000;3.578768
3786.000000;3.566249
3785.000000;3.816794
3784.000000;3.801724
3783.000000;3.476200
3782.000000;3.434698
3781.000000;3.451520
3780.000000;3.429619
3779.000000;3.427999
3778.000000;3.699928
3777.000000;3.777300
3776.000000;3.609066
3775.000000;3.557337
3774.000000;3.538038
3773.000000;3.756123
3772.000000;3.725153
3771.000000;3.541916
3770.000000;3.496981
3769.000000;3.461430
3768.000000;3.352039
3767.000000;3.281664
3766.000000;3.299837
3765.000000;3.318064
3764.000000;3.260016
3763.000000;3.236569
3762.000000;3.347948
3761.000000;3.571140
3760.000000;3.751206
3759.000000;3.786673
3758.000000;3.727452
3757.000000;3.826235
3756.000000;4.125159
3755.000000;3.772920
3754.000000;3.561706
3753.000000;3.436697
3752.000000;3.314891
3751.000000;3.258032
3750.000000;3.346224
3749.000000;3.871139
3748.000000;3.839598
3747.000000;3.597680
3746.000000;3.556813
3745.000000;3.400027
3744.000000;3.155819
3743.000000;3.050500
3742.000000;3.299511
3741.000000;4.228311
3740.000000;3.857961
3739.000000;3.726721
3738.000000;3.770070
3737.000000;4.009043
3736.000000;4.275276
3735.000000;4.031293
3734.000000;4.103952
3733.000000;4.034376
3732.000000;3.616346
3731.000000;3.428198
3730.000000;3.512260
3729.000000;3.975125
3728.000000;4.776978
3727.000000;4.372124
3726.000000;4.073211
3725.000000;4.105592
3724.000000;3.949263
3723.000000;3.726755
3722.000000;3.640099
3721.000000;4.057782
3720.000000;3.862442
3719.000000;3.521904
3718.000000;3.595330
3717.000000;3.773969
3716.000000;3.729268
3715.000000;3.708380
3714.000000;3.825425
3713.000000;3.944960
3712.000000;4.057096
3711.000000;3.692232
3710.000000;3.395350
3709.000000;3.297194
3708.000000;3.330494
3707.000000;3.502090
3706.000000;3.574248
3705.000000;3.671944
3704.000000;3.986921
3703.000000;3.603270
3702.000000;3.554797
3701.000000;3.614929
3700.000000;3.347662
3699.000000;3.193422
3698.000000;3.192490
3697.000000;3.304229
3696.000000;3.579849
3695.000000;3.905093
3694.000000;4.101537
3693.000000;3.987353
3692.000000;3.743483
3691.000000;3.631773
3690.000000;3.682392
3689.000000;3.953333
3688.000000;4.151326
3687.000000;3.750432
3686.000000;3.613284
3685.000000;3.792763
3684.000000;4.003418
3683.000000;3.667723
3682.000000;3.535511
3681.000000;3.386127
3680.000000;3.339584
3679.000000;3.452735
3678.000000;3.670871
3677.000000;3.923434
3676.000000;4.188590
3675.000000;3.794688
3674.000000;3.429986
3673.000000;3.341452
3672.000000;3.423910
3671.000000;3.579240
3670.000000;3.688101
3669.000000;3.627748
3668.000000;3.450683
3667.000000;3.374124
3666.000000;3.414973
3665.000000;3.446784
3664.000000;3.467181
3663.000000;3.525965
3662.000000;3.622479
3661.000000;3.874094
3660.000000;4.094789
3659.000000;3.592446
3658.000000;3.430093
3657.000000;3.284507
3656.000000;3.139014
3655.000000;3.132963
3654.000000;3.381396
3653.000000;3.690997
3652.000000;3.538362
3651.000000;3.466044
3650.000000;3.431692
3649.000000;3.700175
3648.000000;4.060131
3647.000000;3.498794
3646.000000;3.558327
3645.000000;3.758541
3644.000000;3.591195
3643.000000;3.519672
3642.000000;3.514081
3641.000000;3.495794
3640.000000;3.460182
3639.000000;3.464644
3638.000000;3.589568
3637.000000;3.727467
3636.000000;3.558398
3635.000000;3.390836
3634.000000;3.352453
3633.000000;3.458062
3632.000000;3.644127
3631.000000;3.668489
3630.000000;3.536036
3629.000000;3.416182
3628.000000;3.484127
3627.000000;3.839259
3626.000000;3.829638
3625.000000;3.671231
3624.000000;3.420682
3623.000000;3.279141
3622.000000;3.315262
3621.000000;3.558381
3620.000000;4.018635
3619.000000;3.889823
3618.000000;3.713551
3617.000000;3.947530
3616.000000;3.818350
3615.000000;3.694600
3614.000000;3.697448
3613.000000;3.597930
3612.000000;3.590797
3611.000000;3.650903
3610.000000;3.805628
3609.000000;4.291976
3608.000000;3.913105
3607.000000;3.690029
3606.000000;3.580584
3605.000000;3.515878
3604.000000;3.530781
3603.000000;3.585869
3602.000000;3.654679
3601.000000;3.622603
3600.000000;3.646229
3599.000000;3.741322
3598.000000;3.711691
3597.000000;3.641007
3596.000000;3.709273
3595.000000;3.913907
3594.000000;3.884604
3593.000000;3.686361
3592.000000;3.620139
3591.000000;3.658336
3590.000000;3.618568
3589.000000;3.533748
3588.000000;3.548313
3587.000000;3.627403
3586.000000;3.618967
3585.000000;3.817327
3584.000000;3.771781
3583.000000;3.424535
3582.000000;3.374209
3581.000000;3.540881
3580.000000;3.995813
3579.000000;3.941911
3578.000000;3.593617
3577.000000;3.491148
3576.000000;3.487641
3575.000000;3.595716
3574.000000;3.654595
3573.000000;3.584957
3572.000000;3.783061
3571.000000;3.954913
3570.000000;3.855840
3569.000000;3.643059
3568.000000;3.488127
3567.000000;3.582542
3566.000000;4.064434
3565.000000;3.952589
3564.000000;3.572183
3563.000000;3.480235
3562.000000;3.482490
3561.000000;3.527030
3560.000000;3.499863
3559.000000;3.504982
3558.000000;3.656888
3557.000000;4.304824
3556.000000;3.641593
3555.000000;3.297793
3554.000000;3.216274
3553.000000;3.254943
3552.000000;3.338995
3551.000000;3.375354
3550.000000;3.399067
3549.000000;3.527966
3548.000000;3.844896
3547.000000;3.973923
3546.000000;3.908558
3545.000000;3.614767
3544.000000;3.466725
3543.000000;3.473752
3542.000000;3.398070
3541.000000;3.289267
3540.000000;3.305985
3539.000000;3.585657
3538.000000;3.721500
3537.000000;3.387759
3536.000000;3.280241
3535.000000;3.293029
3534.000000;3.330383
3533.000000;3.238996
3532.000000;3.109179
3531.000000;3.094821
3530.000000;3.232228
3529.000000;3.791363
3528.000000;3.734180
3527.000000;3.422589
3526.000000;3.430479
3525.000000;3.610836
3524.000000;3.661383
3523.000000;3.354201
3522.000000;3.221820
3521.000000;3.200670
3520.000000;3.234755
3519.000000;3.237856
3518.000000;3.207517
3517.000000;3.246781
3516.000000;3.288296
3515.000000;3.276341
3514.000000;3.279136
3513.000000;3.291751
3512.000000;3.328199
3511.000000;3.442770
3510.000000;3.935647
3509.000000;4.339771
3508.000000;4.266213
3507.000000;4.422856
3506.000000;4.124240
3505.000000;4.112915
3504.000000;4.077155
3503.000000;3.874155
3502.000000;3.587723
3501.000000;3.363259
3500.000000;3.241232
3499.000000;3.309720
3498.000000;3.864161
3497.000000;3.535708
3496.000000;3.299423
3495.000000;3.288880
3494.000000;3.245795
3493.000000;3.184893
3492.000000;3.253373
3491.000000;3.482821
3490.000000;3.566755
3489.000000;3.532294
3488.000000;3.623791
3487.000000;3.529869
3486.000000;3.373242
3485.000000;3.329422
3484.000000;3.374945
3483.000000;3.796174
3482.000000;3.891760
3481.000000;3.446917
3480.000000;3.469508
3479.000000;3.545203
3478.000000;3.347534
3477.000000;3.220599
3476.000000;3.209172
3475.000000;3.277101
3474.000000;3.480921
3473.000000;3.706392
3472.000000;3.574142
3471.000000;3.415330
3470.000000;3.365709
3469.000000;3.367559
3468.000000;3.335153
3467.000000;3.269801
3466.000000;3.222949
3465.000000;3.268727
3464.000000;3.461421
3463.000000;3.721513
3462.000000;4.038843
3461.000000;3.947396
3460.000000;3.660793
3459.000000;3.612965
3458.000000;3.560990
3457.000000;3.660694
3456.000000;3.653124
3455.000000;3.454115
3454.000000;3.287232
3453.000000;3.189989
3452.000000;3.201675
3451.000000;3.224461
3450.000000;3.215158
3449.000000;3.291832
3448.000000;3.529632
3447.000000;3.811172
3446.000000;3.762648
3445.000000;3.533512
3444.000000;3.378853
3443.000000;3.305743
3442.000000;3.314227
3441.000000;3.388052
3440.000000;3.553546
3439.000000;3.875552
3438.000000;3.817098
3437.000000;3.864309
3436.000000;3.712542
3435.000000;3.318358
3434.000000;3.204825
3433.000000;3.216848
3432.000000;3.293384
3431.000000;3.375572
3430.000000;3.549251
3429.000000;3.784104
3428.000000;3.763367
3427.000000;3.770183
3426.000000;3.977649
3425.000000;4.250994
3424.000000;3.789638
3423.000000;3.527411
3422.000000;3.484540
3421.000000;3.425868
3420.000000;3.341508
3419.000000;3.382210
3418.000000;3.701337
3417.000000;4.465170
3416.000000;3.985023
3415.000000;3.837919
3414.000000;3.662369
3413.000000;3.533630
3412.000000;3.456663
3411.000000;3.411491
3410.000000;3.437078
3409.000000;3.486756
3408.000000;3.618341
3407.000000;3.871568
3406.000000;4.216119
3405.000000;3.759833
3404.000000;3.394048
3403.000000;3.432629
3402.000000;3.493523
3401.000000;3.299700
3400.000000;3.224845
3399.000000;3.328011
3398.000000;3.541530
3397.000000;3.776647
3396.000000;3.868235
3395.000000;3.709413
3394.000000;3.557321
3393.000000;3.442353
3392.000000;3.327915
3391.000000;3.318298
3390.000000;3.492607
3389.000000;3.779418
3388.000000;3.848792
3387.000000;3.810731
3386.000000;3.743613
3385.000000;3.491450
3384.000000;3.398874
3383.000000;3.459771
3382.000000;3.516662
3381.000000;3.485492
3380.000000;3.318389
3379.000000;3.129819
3378.000000;3.072282
3377.000000;3.169643
3376.000000;3.419800
3375.000000;3.918184
3374.000000;3.820408
3373.000000;3.458697
3372.000000;3.435209
3371.000000;3.582925
3370.000000;3.895623
3369.000000;4.138906
3368.000000;3.515642
3367.000000;3.263931
3366.000000;3.250810
3365.000000;3.330313
3364.000000;3.363356
3363.000000;3.371778
3362.000000;3.561072
3361.000000;3.669717
3360.000000;3.408915
3359.000000;3.329182
3358.000000;3.305818
3357.000000;3.312835
3356.000000;3.284161
3355.000000;3.211335
3354.000000;3.229316
3353.000000;3.381953
3352.000000;3.827686
3351.000000;4.100559
3350.000000;3.784050
3349.000000;3.881658
3348.000000;4.031675
3347.000000;3.797173
3346.000000;3.445835
3345.000000;3.306327
3344.000000;3.416751
3343.000000;3.776761
3342.000000;3.712229
3341.000000;3.560499
3340.000000;3.478373
3339.000000;3.415874
3338.000000;3.440973
3337.000000;3.445048
3336.000000;3.432729
3335.000000;3.384642
3334.000000;3.363778
3333.000000;3.379490
3332.000000;3.304425
3331.000000;3.226187
3330.000000;3.202697
3329.000000;3.220732
3328.000000;3.228086
3327.000000;3.229540
3326.000000;3.297238
3325.000000;3.423023
3324.000000;3.520577
3323.000000;3.583424
3322.000000;3.672487
3321.000000;3.861719
3320.000000;3.955303
3319.000000;3.556121
3318.000000;3.308369
3317.000000;3.230522
3316.000000;3.226396
3315.000000;3.277779
3314.000000;3.399900
3313.000000;3.436720
3312.000000;3.291924
3311.000000;3.211143
3310.000000;3.306197
3309.000000;3.604160
3308.000000;3.997234
3307.000000;4.075415
3306.000000;3.706566
3305.000000;3.413115
3304.000000;3.335589
3303.000000;3.339941
3302.000000;3.336872
3301.000000;3.362858
3300.000000;3.448657
3299.000000;3.693711
3298.000000;3.768376
3297.000000;3.362876
3296.000000;3.122306
3295.000000;3.034422
3294.000000;3.081363
3293.000000;3.256390
3292.000000;3.466236
3291.000000;3.640031
3290.000000;3.657399
3289.000000;3.582423
3288.000000;3.988581
3287.000000;3.833172
3286.000000;3.519121
3285.000000;3.487580
3284.000000;3.435763
3283.000000;3.355544
3282.000000;3.300824
3281.000000;3.268773
3280.000000;3.296870
3279.000000;3.406929
3278.000000;3.510470
3277.000000;3.564843
3276.000000;3.672262
3275.000000;3.823617
3274.000000;3.830877
3273.000000;3.876342
3272.000000;4.035784
3271.000000;4.012883
3270.000000;3.866853
3269.000000;3.572808
3268.000000;3.385157
3267.000000;3.278072
3266.000000;3.251857
3265.000000;3.327700
3264.000000;3.423162
3263.000000;3.505640
3262.000000;3.533257
3261.000000;3.564952
3260.000000;3.655068
3259.000000;3.692791
3258.000000;4.118837
3257.000000;3.831936
3256.000000;3.552579
3255.000000;3.501004
3254.000000;3.427892
3253.000000;3.388090
3252.000000;3.443512
3251.000000;3.541708
3250.000000;3.465044
3249.000000;3.318842
3248.000000;3.265937
3247.000000;3.281333
3246.000000;3.312554
3245.000000;3.395739
3244.000000;3.568987
3243.000000;3.533470
3242.000000;3.348909
3241.000000;3.260468
3240.000000;3.225480
3239.000000;3.284417
3238.000000;3.529587
3237.000000;3.924997
3236.000000;4.286953
3235.000000;3.877849
3234.000000;3.574250
3233.000000;3.494255
3232.000000;3.494657
3231.000000;3.529321
3230.000000;3.677265
3229.000000;3.618834
3228.000000;3.602141
3227.000000;3.874857
3226.000000;3.786317
3225.000000;3.605725
3224.000000;3.534658
3223.000000;3.541919
3222.000000;3.557857
3221.000000;3.502966
3220.000000;3.617036
3219.000000;3.822870
3218.000000;3.851630
3217.000000;4.191537
3216.000000;4.527923
3215.000000;3.936813
3214.000000;3.695383
3213.000000;3.546119
3212.000000;3.484108
3211.000000;3.498823
3210.000000;3.538287
3209.000000;3.725370
3208.000000;3.522861
3207.000000;3.208695
3206.000000;3.085709
3205.000000;3.071900
3204.000000;3.125940
3203.000000;3.254729
3202.000000;3.478356
3201.000000;3.639210
3200.000000;3.844404
3199.000000;4.073805
3198.000000;3.625409
3197.000000;3.442812
3196.000000;3.389954
3195.000000;3.484259
3194.000000;3.912858
3193.000000;3.946938
3192.000000;3.595530
3191.000000;3.614826
3190.000000;3.720195
3189.000000;3.748616
3188.000000;3.469177
3187.000000;3.308182
3186.000000;3.386167
3185.000000;3.581646
3184.000000;3.647251
3183.000000;3.681798
3182.000000;3.963012
3181.000000;3.797529
3180.000000;3.569568
3179.000000;3.450787
3178.000000;3.463142
3177.000000;3.839183
3176.000000;3.927564
3175.000000;3.504271
3174.000000;3.393544
3173.000000;3.581752
3172.000000;3.960661
3171.000000;3.394838
3170.000000;3.275740
3169.000000;3.319328
3168.000000;3.328446
3167.000000;3.331588
3166.000000;3.374246
3165.000000;3.593503
3164.000000;3.672368
3163.000000;3.416684
3162.000000;3.366540
3161.000000;3.475287
3160.000000;3.584745
3159.000000;3.780115
3158.000000;3.937109
3157.000000;3.548591
3156.000000;3.441012
3155.000000;3.568397
3154.000000;3.727834
3153.000000;3.735301
3152.000000;3.448646
3151.000000;3.290250
3150.000000;3.371730
3149.000000;3.590344
3148.000000;3.424158
3147.000000;3.212636
3146.000000;3.147805
3145.000000;3.197741
3144.000000;3.274943
3143.000000;3.209706
3142.000000;3.112747
3141.000000;3.099466
3140.000000;3.150449
3139.000000;3.255220
3138.000000;3.487509
3137.000000;3.821350
3136.000000;3.651584
3135.000000;3.350831
3134.000000;3.240563
3133.000000;3.275403
3132.000000;3.387207
3131.000000;3.702150
3130.000000;3.972380
3129.000000;3.692904
3128.000000;3.871531
3127.000000;3.732537
3126.000000;3.484881
3125.000000;3.462442
3124.000000;3.436349
3123.000000;3.442726
3122.000000;3.476421
3121.000000;3.525220
3120.000000;3.609907
3119.000000;3.424624
3118.000000;3.290843
3117.000000;3.268018
3116.000000;3.260300
3115.000000;3.259379
3114.000000;3.306309
3113.000000;3.425843
3112.000000;3.476380
3111.000000;3.450063
3110.000000;3.543312
3109.000000;3.907167
3108.000000;4.061653
3107.000000;3.650090
3106.000000;3.468567
3105.000000;3.427151
3104.000000;3.459180
3103.000000;3.412704
3102.000000;3.263969
3101.000000;3.156512
3100.000000;3.140211
3099.000000;3.251704
3098.000000;3.657244
3097.000000;3.899692
3096.000000;3.424811
3095.000000;3.218556
3094.000000;3.155768
3093.000000;3.165635
3092.000000;3.191535
3091.000000;3.331267
3090.000000;3.735967
3089.000000;3.736601
3088.000000;3.599090
3087.000000;3.771330
3086.000000;4.078272
3085.000000;3.679580
3084.000000;3.366002
3083.000000;3.381137
3082.000000;3.446580
3081.000000;3.307186
3080.000000;3.198248
3079.000000;3.213945
3078.000000;3.358869
3077.000000;3.617871
3076.000000;3.509655
3075.000000;3.276399
3074.000000;3.212847
3073.000000;3.302823
3072.000000;3.488163
3071.000000;3.655563
3070.000000;4.071320
3069.000000;4.103551
3068.000000;3.906724
3067.000000;3.945423
3066.000000;3.783854
3065.000000;3.573578
3064.000000;3.377928
3063.000000;3.293364
3062.000000;3.300018
3061.000000;3.259851
3060.000000;3.211219
3059.000000;3.259258
3058.000000;3.339926
3057.000000;3.395753
3056.000000;3.701560
3055.000000;4.064901
3054.000000;3.803791
3053.000000;4.101772
3052.000000;4.240103
3051.000000;3.720997
3050.000000;3.440249
3049.000000;3.294876
3048.000000;3.315710
3047.000000;3.447475
3046.000000;3.537963
3045.000000;3.644288
3044.000000;3.646999
3043.000000;3.734343
3042.000000;4.397130
3041.000000;3.684965
3040.000000;3.538684
3039.000000;3.539137
3038.000000;3.537931
3037.000000;3.630806
3036.000000;3.496114
3035.000000;3.255502
3034.000000;3.130031
3033.000000;3.114533
3032.000000;3.156598
3031.000000;3.267334
3030.000000;3.409476
3029.000000;3.372299
3028.000000;3.357651
3027.000000;3.520552
3026.000000;3.530425
3025.000000;3.398004
3024.000000;3.340399
3023.000000;3.434940
3022.000000;3.678911
3021.000000;3.541996
3020.000000;3.521458
3019.000000;3.691560
3018.000000;3.512682
3017.000000;3.398365
3016.000000;3.482441
3015.000000;3.498476
3014.000000;3.410678
3013.000000;3.438750
3012.000000;3.733473
3011.000000;4.158332
3010.000000;3.598503
3009.000000;3.442549
3008.000000;3.401113
3007.000000;3.471888
3006.000000;3.887718
3005.000000;3.830175
3004.000000;3.514109
3003.000000;3.418723
3002.000000;3.203195
3001.000000;3.045020
3000.000000;3.015366
2999.000000;3.115838
2998.000000;3.363337
2997.000000;3.609734
2996.000000;3.757682
2995.000000;3.969478
2994.000000;4.282379
2993.000000;4.319553
2992.000000;3.687155
2991.000000;3.360317
2990.000000;3.242042
2989.000000;3.221443
2988.000000;3.256506
2987.000000;3.344865
2986.000000;3.458396
2985.000000;3.486919
2984.000000;3.406730
2983.000000;3.353525
2982.000000;3.629434
2981.000000;4.246342
2980.000000;3.732450
2979.000000;3.616140
2978.000000;3.571720
2977.000000;3.686366
2976.000000;3.783284
2975.000000;3.661554
2974.000000;3.542785
2973.000000;3.405430
2972.000000;3.273611
2971.000000;3.138097
2970.000000;3.026309
2969.000000;3.000305
2968.000000;3.112624
2967.000000;3.371164
2966.000000;3.622877
2965.000000;3.711491
2964.000000;3.792833
2963.000000;3.619705
2962.000000;3.346801
2961.000000;3.220906
2960.000000;3.256494
2959.000000;3.393268
2958.000000;3.503435
2957.000000;3.542965
2956.000000;3.687631
2955.000000;3.879352
2954.000000;4.058528
2953.000000;4.102330
2952.000000;3.786865
2951.000000;3.604627
2950.000000;3.480116
2949.000000;3.506665
2948.000000;3.585431
2947.000000;3.600835
2946.000000;3.601955
2945.000000;3.539375
2944.000000;3.506385
2943.000000;3.434772
2942.000000;3.332209
2941.000000;3.290485
2940.000000;3.317788
2939.000000;3.475488
2938.000000;3.454741
2937.000000;3.232281
2936.000000;3.149863
2935.000000;3.118837
2934.000000;3.077672
2933.000000;3.097293
2932.000000;3.224947
2931.000000;3.602500
2930.000000;3.761547
2929.000000;3.291865
2928.000000;3.159086
2927.000000;3.135204
2926.000000;3.180504
2925.000000;3.292039
2924.000000;3.387988
2923.000000;3.459632
2922.000000;3.515928
2921.000000;3.543623
2920.000000;3.455565
2919.000000;3.373476
2918.000000;3.338541
2917.000000;3.337387
2916.000000;3.460801
2915.000000;3.633104
2914.000000;3.603603
2913.000000;3.528024
2912.000000;3.546313
2911.000000;3.832017
2910.000000;4.314186
2909.000000;3.971603
2908.000000;3.767331
2907.000000;3.893360
2906.000000;3.822466
2905.000000;3.467336
2904.000000;3.456189
2903.000000;3.451044
2902.000000;3.352160
2901.000000;3.284789
2900.000000;3.236102
2899.000000;3.285131
2898.000000;3.452726
2897.000000;3.545432
2896.000000;3.370832
2895.000000;3.288993
2894.000000;3.350106
2893.000000;3.443962
2892.000000;3.443965
2891.000000;3.444518
2890.000000;3.510553
2889.000000;3.480614
2888.000000;3.354198
2887.000000;3.262518
2886.000000;3.288228
2885.000000;3.394913
2884.000000;3.419729
2883.000000;3.415021
2882.000000;3.424008
2881.000000;3.343876
2880.000000;3.340429
2879.000000;3.430015
2878.000000;3.446323
2877.000000;3.395314
2876.000000;3.287267
2875.000000;3.168316
2874.000000;3.153829
2873.000000;3.255229
2872.000000;3.554428
2871.000000;3.957339
2870.000000;3.499158
2869.000000;3.335557
2868.000000;3.453929
2867.000000;3.750168
2866.000000;4.180281
2865.000000;3.897592
2864.000000;3.818272
2863.000000;3.804138
2862.000000;3.468992
2861.000000;3.323371
2860.000000;3.298546
2859.000000;3.376596
2858.000000;3.691340
2857.000000;3.638655
2856.000000;3.326738
2855.000000;3.250292
2854.000000;3.336294
2853.000000;3.567677
2852.000000;3.875226
2851.000000;3.674068
2850.000000;3.781950
2849.000000;4.184124
2848.000000;3.524455
2847.000000;3.274144
2846.000000;3.188744
2845.000000;3.134942
2844.000000;3.092271
2843.000000;3.103386
2842.000000;3.226622
2841.000000;3.513422
2840.000000;3.737214
2839.000000;3.715136
2838.000000;3.710273
2837.000000;3.827280
2836.000000;3.889388
2835.000000;3.544130
2834.000000;3.457167
2833.000000;3.566308
2832.000000;3.707787
2831.000000;3.773641
2830.000000;3.869089
2829.000000;3.801911
2828.000000;3.667886
2827.000000;3.850785
2826.000000;4.231555
2825.000000;3.864402
2824.000000;3.479907
2823.000000;3.292029
2822.000000;3.282902
2821.000000;3.413233
2820.000000;3.602411
2819.000000;3.823345
2818.000000;4.317444
2817.000000;4.684405
2816.000000;3.871874
2815.000000;3.853573
2814.000000;4.020047
2813.000000;3.687020
2812.000000;3.606442
2811.000000;3.681501
2810.000000;3.602353
2809.000000;3.437298
2808.000000;3.339624
2807.000000;3.422176
2806.000000;3.668749
2805.000000;3.792137
2804.000000;3.622634
2803.000000;3.544175
2802.000000;3.743816
2801.000000;3.819164
2800.000000;3.669156
2799.000000;3.434263
2798.000000;3.206650
2797.000000;3.096408
2796.000000;3.072373
2795.000000;3.130768
2794.000000;3.289844
2793.000000;3.504636
2792.000000;3.520705
2791.000000;3.352929
2790.000000;3.232260
2789.000000;3.256298
2788.000000;3.423554
2787.000000;3.407924
2786.000000;3.412665
2785.000000;3.808865
2784.000000;3.924282
2783.000000;3.722116
2782.000000;3.636000
2781.000000;3.460475
2780.000000;3.348852
2779.000000;3.370710
2778.000000;3.615608
2777.000000;3.895408
2776.000000;3.616935
2775.000000;3.320734
2774.000000;3.210915
2773.000000;3.249095
2772.000000;3.311138
2771.000000;3.391179
2770.000000;3.563150
2769.000000;3.473103
2768.000000;3.381431
2767.000000;3.505350
2766.000000;3.682302
2765.000000;3.931461
2764.000000;4.002486
2763.000000;3.700826
2762.000000;3.619212
2761.000000;3.603308
2760.000000;3.475456
2759.000000;3.363064
2758.000000;3.359758
2757.000000;3.419110
2756.000000;3.607512
2755.000000;3.996806
2754.000000;3.629206
2753.000000;3.461378
2752.000000;3.696057
2751.000000;3.595802
2750.000000;3.407997
2749.000000;3.408701
2748.000000;3.404888
2747.000000;3.395666
2746.000000;3.395315
2745.000000;3.332661
2744.000000;3.214220
2743.000000;3.167486
2742.000000;3.263085
2741.000000;3.603920
2740.000000;3.925803
2739.000000;3.492383
2738.000000;3.382186
2737.000000;3.451373
2736.000000;3.457668
2735.000000;3.371158
2734.000000;3.278459
2733.000000;3.196040
2732.000000;3.201531
2731.000000;3.307148
2730.000000;3.496258
2729.000000;3.947055
2728.000000;4.045635
2727.000000;3.600606
2726.000000;3.594284
2725.000000;4.150990
2724.000000;3.601196
2723.000000;3.268816
2722.000000;3.269123
2721.000000;3.397287
2720.000000;3.569330
2719.000000;3.618513
2718.000000;3.568637
2717.000000;3.452778
2716.000000;3.369525
2715.000000;3.410118
2714.000000;3.716591
2713.000000;3.939601
2712.000000;3.626105
2711.000000;3.514932
2710.000000;3.492699
2709.000000;3.763966
2708.000000;4.038126
2707.000000;3.834017
2706.000000;3.743602
2705.000000;3.470392
2704.000000;3.381355
2703.000000;3.472718
2702.000000;3.494483
2701.000000;3.410931
2700.000000;3.409190
2699.000000;3.434613
2698.000000;3.562312
2697.000000;3.696169
2696.000000;3.418455
2695.000000;3.204254
2694.000000;3.146075
2693.000000;3.186691
2692.000000;3.247900
2691.000000;3.310711
2690.000000;3.475904
2689.000000;3.825599
2688.000000;4.162328
2687.000000;3.964877
2686.000000;3.707773
2685.000000;3.568567
2684.000000;3.528496
2683.000000;3.885199
2682.000000;4.030336
2681.000000;3.593071
2680.000000;3.621414
2679.000000;3.595097
2678.000000;3.434149
2677.000000;3.356317
2676.000000;3.699218
2675.000000;3.781811
2674.000000;3.377874
2673.000000;3.406775
2672.000000;3.505200
2671.000000;3.591849
2670.000000;3.839161
2669.000000;4.285890
2668.000000;3.806679
2667.000000;3.365036
2666.000000;3.206426
2665.000000;3.203714
2664.000000;3.259116
2663.000000;3.287996
2662.000000;3.315500
2661.000000;3.360544
2660.000000;3.407409
2659.000000;3.478508
2658.000000;3.674778
2657.000000;3.742776
2656.000000;3.467326
2655.000000;3.410871
2654.000000;3.703059
2653.000000;4.438882
2652.000000;4.056313
2651.000000;3.646978
2650.000000;3.467321
2649.000000;3.368152
2648.000000;3.339940
2647.000000;3.379429
2646.000000;3.437912
2645.000000;3.600819
2644.000000;3.748596
2643.000000;3.727744
2642.000000;3.973335
2641.000000;4.362024
2640.000000;3.929412
2639.000000;3.606810
2638.000000;3.583631
2637.000000;3.660412
2636.000000;3.623910
2635.000000;3.592284
2634.000000;3.717855
2633.000000;3.706048
2632.000000;3.547944
2631.000000;3.586009
2630.000000;3.644520
2629.000000;3.533830
2628.000000;3.740610
2627.000000;4.342031
2626.000000;3.976038
2625.000000;4.389015
2624.000000;4.004319
2623.000000;3.457738
2622.000000;3.350178
2621.000000;3.365809
2620.000000;3.377929
2619.000000;3.359523
2618.000000;3.309501
2617.000000;3.174600
2616.000000;3.061504
2615.000000;3.048781
2614.000000;3.141566
2613.000000;3.483098
2612.000000;3.841974
2611.000000;3.563418
2610.000000;3.834440
2609.000000;3.821854
2608.000000;3.737014
2607.000000;4.005283
2606.000000;3.402980
2605.000000;3.183049
2604.000000;3.117886
2603.000000;3.117859
2602.000000;3.190640
2601.000000;3.420140
2600.000000;3.807986
2599.000000;3.476944
2598.000000;3.259128
2597.000000;3.267628
2596.000000;3.446183
2595.000000;3.734898
2594.000000;3.644168
2593.000000;3.484367
2592.000000;3.550382
2591.000000;3.630118
2590.000000;3.730688
2589.000000;4.214410
2588.000000;3.930171
2587.000000;3.632906
2586.000000;3.576606
2585.000000;3.500215
2584.000000;3.391781
2583.000000;3.265471
2582.000000;3.191255
2581.000000;3.139787
2580.000000;3.063466
2579.000000;3.030110
2578.000000;3.110642
2577.000000;3.286638
2576.000000;3.393594
2575.000000;3.354941
2574.000000;3.307840
2573.000000;3.299615
2572.000000;3.301384
2571.000000;3.356902
2570.000000;3.581320
2569.000000;3.715498
2568.000000;3.521500
2567.000000;3.536743
2566.000000;3.615712
2565.000000;3.612498
2564.000000;3.780937
2563.000000;3.594742
2562.000000;3.388931
2561.000000;3.383653
2560.000000;3.423718
2559.000000;3.512240
2558.000000;3.733755
2557.000000;4.011061
2556.000000;3.759572
2555.000000;3.507216
2554.000000;3.495271
2553.000000;3.587159
2552.000000;3.597626
2551.000000;3.592978
2550.000000;3.681980
2549.000000;3.693143
2548.000000;3.460217
2547.000000;3.274434
2546.000000;3.188664
2545.000000;3.167939
2544.000000;3.239462
2543.000000;3.358629
2542.000000;3.418561
2541.000000;3.427961
2540.000000;3.354854
2539.000000;3.285200
2538.000000;3.269982
2537.000000;3.311904
2536.000000;3.325534
2535.000000;3.454122
2534.000000;3.943922
2533.000000;3.962407
2532.000000;3.947905
2531.000000;3.944841
2530.000000;3.880782
2529.000000;3.762057
2528.000000;3.657386
2527.000000;3.616926
2526.000000;3.454014
2525.000000;3.377020
2524.000000;3.625678
2523.000000;4.246393
2522.000000;3.833946
2521.000000;3.617369
2520.000000;3.470781
2519.000000;3.440826
2518.000000;3.454222
2517.000000;3.413074
2516.000000;3.386385
2515.000000;3.515090
2514.000000;3.836818
2513.000000;3.639308
2512.000000;3.578556
2511.000000;3.842533
2510.000000;3.762484
2509.000000;3.439772
2508.000000;3.303223
2507.000000;3.334269
2506.000000;3.424591
2505.000000;3.457369
2504.000000;3.367722
2503.000000;3.291235
2502.000000;3.334332
2501.000000;3.446007
2500.000000;3.510992
2499.000000;3.453563
2498.000000;3.325573
2497.000000;3.261237
2496.000000;3.319990
2495.000000;3.421356
2494.000000;3.374683
2493.000000;3.360954
2492.000000;3.763016
2491.000000;3.716911
2490.000000;3.294245
2489.000000;3.288271
2488.000000;3.316345
2487.000000;3.291357
2486.000000;3.493216
2485.000000;3.823024
2484.000000;3.482424
2483.000000;3.250982
2482.000000;3.183861
2481.000000;3.196695
2480.000000;3.382887
2479.000000;3.783755
2478.000000;3.886251
2477.000000;3.965447
2476.000000;4.192240
2475.000000;3.640533
2474.000000;3.340057
2473.000000;3.244681
2472.000000;3.387565
2471.000000;3.727635
2470.000000;3.759626
2469.000000;3.816220
2468.000000;4.248295
2467.000000;8.000000
2466.000000;4.210713
2465.000000;3.661930
2464.000000;3.465727
2463.000000;3.404134
2462.000000;3.427860
2461.000000;3.596067
2460.000000;3.640480
2459.000000;3.470222
2458.000000;3.433634
2457.000000;3.425678
2456.000000;3.559124
2455.000000;3.668301
2454.000000;3.433185
2453.000000;3.342969
2452.000000;3.375307
2451.000000;3.490445
2450.000000;3.661113
2449.000000;3.709722
2448.000000;3.798676
2447.000000;3.900738
2446.000000;3.903634
2445.000000;3.929886
2444.000000;3.625819
2443.000000;3.408031
2442.000000;3.390779
2441.000000;3.339177
2440.000000;3.233244
2439.000000;3.250056
2438.000000;3.424612
2437.000000;3.523937
2436.000000;3.475193
2435.000000;3.464400
2434.000000;3.620905
2433.000000;4.197624
2432.000000;4.322608
2431.000000;4.183584
2430.000000;3.881275
2429.000000;3.481460
2428.000000;3.357974
2427.000000;3.413367
2426.000000;3.619391
2425.000000;3.833755
2424.000000;3.700410
2423.000000;3.606456
2422.000000;3.679328
2421.000000;3.879389
2420.000000;3.770367
2419.000000;3.443242
2418.000000;3.411858
2417.000000;3.603381
2416.000000;3.888301
2415.000000;3.829610
2414.000000;3.540988
2413.000000;3.356534
2412.000000;3.230964
2411.000000;3.138540
2410.000000;3.117052
2409.000000;3.193923
2408.000000;3.346181
2407.000000;3.644604
2406.000000;3.572412
2405.000000;3.268688
2404.000000;3.203003
2403.000000;3.236613
2402.000000;3.257587
2401.000000;3.257687
2400.000000;3.329938
2399.000000;3.525038
2398.000000;3.837065
2397.000000;4.149147
2396.000000;3.802170
2395.000000;3.438161
2394.000000;3.230467
2393.000000;3.184713
2392.000000;3.346628
2391.000000;3.576571
2390.000000;3.657706
2389.000000;3.921437
2388.000000;4.190689
2387.000000;4.274120
2386.000000;4.143430
2385.000000;3.838846
2384.000000;3.754861
2383.000000;3.928631
2382.000000;4.122012
2381.000000;3.769781
2380.000000;3.681207
2379.000000;3.899031
2378.000000;4.386879
2377.000000;4.048695
2376.000000;3.623971
2375.000000;3.463509
2374.000000;3.427114
2373.000000;3.496516
2372.000000;3.595814
2371.000000;3.651609
2370.000000;3.753994
2369.000000;3.874626
2368.000000;3.920568
2367.000000;3.910953
2366.000000;3.959736
2365.000000;4.091310
2364.000000;3.896875
2363.000000;3.639762
2362.000000;3.511334
2361.000000;3.459528
2360.000000;3.458311
2359.000000;3.529423
2358.000000;3.700215
2357.000000;3.817948
2356.000000;3.746367
2355.000000;3.662520
2354.000000;3.623742
2353.000000;3.635973
2352.000000;3.653586
2351.000000;3.581533
2350.000000;3.589523
2349.000000;3.774748
2348.000000;3.807675
2347.000000;3.620683
2346.000000;3.539955
2345.000000;3.557745
2344.000000;3.807307
2343.000000;4.127284
2342.000000;3.638312
2341.000000;3.418904
2340.000000;3.408773
2339.000000;3.485409
2338.000000;3.556394
2337.000000;3.594725
2336.000000;3.673652
2335.000000;3.711104
2334.000000;3.708941
2333.000000;3.702224
2332.000000;3.711730
2331.000000;3.782001
2330.000000;3.931519
2329.000000;4.155528
2328.000000;4.040184
2327.000000;3.836230
2326.000000;3.717916
2325.000000;3.543615
2324.000000;3.487039
2323.000000;3.549815
2322.000000;3.714919
2321.000000;4.158347
2320.000000;4.053662
2319.000000;3.808119
2318.000000;3.891749
2317.000000;4.087604
2316.000000;4.085298
2315.000000;4.032962
2314.000000;4.170742
2313.000000;3.999449
2312.000000;3.809213
2311.000000;3.754512
2310.000000;3.816899
2309.000000;4.009724
2308.000000;3.753735
2307.000000;3.410705
2306.000000;3.286495
2305.000000;3.281384
2304.000000;3.282479
2303.000000;3.291478
2302.000000;3.417439
2301.000000;3.643216
2300.000000;3.602879
2299.000000;3.478894
2298.000000;3.500877
2297.000000;3.493222
2296.000000;3.594829
2295.000000;3.699795
2294.000000;3.664954
2293.000000;4.045113
2292.000000;3.784026
2291.000000;3.542911
2290.000000;3.607791
2289.000000;3.424526
2288.000000;3.233263
2287.000000;3.173207
2286.000000;3.256370
2285.000000;3.475035
2284.000000;3.618842
2283.000000;3.587500
2282.000000;3.451957
2281.000000;3.262311
2280.000000;3.195519
2279.000000;3.237326
2278.000000;3.270727
2277.000000;3.278728
2276.000000;3.313096
2275.000000;3.363276
2274.000000;3.334470
2273.000000;3.283750
2272.000000;3.294780
2271.000000;3.391201
2270.000000;3.595291
2269.000000;3.564899
2268.000000;3.405750
2267.000000;3.389181
2266.000000;3.281439
2265.000000;3.120949
2264.000000;3.081027
2263.000000;3.184688
2262.000000;3.324814
2261.000000;3.537290
2260.000000;3.788052
2259.000000;3.787124
2258.000000;4.100213
2257.000000;3.817473
2256.000000;3.589899
2255.000000;3.562275
2254.000000;3.434882
2253.000000;3.361765
2252.000000;3.306987
2251.000000;3.293411
2250.000000;3.355513
2249.000000;3.496849
2248.000000;3.556275
2247.000000;3.543579
2246.000000;3.436901
2245.000000;3.430165
2244.000000;4.053342
2243.000000;3.710715
2242.000000;3.251392
2241.000000;3.137950
2240.000000;3.075583
2239.000000;3.127648
2238.000000;3.337339
2237.000000;3.726100
2236.000000;3.827721
2235.000000;3.599777
2234.000000;3.477448
2233.000000;3.445503
2232.000000;3.427687
2231.000000;3.591461
2230.000000;3.972003
2229.000000;3.782500
2228.000000;3.851320
2227.000000;4.010974
2226.000000;3.977325
2225.000000;3.879696
2224.000000;3.759320
2223.000000;3.709951
2222.000000;3.516305
2221.000000;3.374702
2220.000000;3.402967
2219.000000;3.640881
2218.000000;3.655022
2217.000000;3.401069
2216.000000;3.253008
2215.000000;3.184388
2214.000000;3.211223
2213.000000;3.246782
2212.000000;3.209178
2211.000000;3.171779
2210.000000;3.246007
2209.000000;3.450102
2208.000000;3.537882
2207.000000;3.455986
2206.000000;3.437276
2205.000000;3.455847
2204.000000;3.309840
2203.000000;3.135141
2202.000000;3.067275
2201.000000;3.055071
2200.000000;3.031479
2199.000000;3.024440
2198.000000;3.070164
2197.000000;3.123673
2196.000000;3.127058
2195.000000;3.135196
2194.000000;3.177601
2193.000000;3.327664
2192.000000;3.736880
2191.000000;3.642493
2190.000000;3.462529
2189.000000;3.606517
2188.000000;3.624834
2187.000000;3.548337
2186.000000;3.566678
2185.000000;3.622668
2184.000000;3.589018
2183.000000;3.524201
2182.000000;3.457306
2181.000000;3.419825
2180.000000;3.630312
2179.000000;3.984915
2178.000000;3.829510
2177.000000;3.634253
2176.000000;3.513986
2175.000000;3.521708
2174.000000;3.701188
2173.000000;3.822712
2172.000000;3.658718
2171.000000;3.645918
2170.000000;3.637658
2169.000000;3.533412
2168.000000;3.393265
2167.000000;3.237797
2166.000000;3.218556
2165.000000;3.296072
2164.000000;3.395687
2163.000000;3.506612
2162.000000;3.608332
2161.000000;3.612338
2160.000000;3.544637
2159.000000;3.569550
2158.000000;3.740623
2157.000000;3.971722
2156.000000;3.686994
2155.000000;3.506898
2154.000000;3.784987
2153.000000;4.058140
2152.000000;3.792268
2151.000000;3.902771
2150.000000;3.875835
2149.000000;3.775754
2148.000000;3.812621
2147.000000;3.666099
2146.000000;3.494182
2145.000000;3.392678
2144.000000;3.737998
2143.000000;4.261138
2142.000000;3.558399
2141.000000;3.726025
2140.000000;3.777817
2139.000000;3.511977
2138.000000;3.774608
2137.000000;3.802002
2136.000000;3.472181
2135.000000;3.370296
2134.000000;3.372042
2133.000000;3.455797
2132.000000;3.614453
2131.000000;3.658026
2130.000000;3.653212
2129.000000;3.713737
2128.000000;3.437890
2127.000000;3.247536
2126.000000;3.328047
2125.000000;3.471995
2124.000000;3.363991
2123.000000;3.294796
2122.000000;3.461383
2121.000000;3.876131
2120.000000;4.229555
2119.000000;3.956043
2118.000000;3.887932
2117.000000;3.936104
2116.000000;3.458946
2115.000000;3.126856
2114.000000;2.989579
2113.000000;2.989156
2112.000000;3.086120
2111.000000;3.288488
2110.000000;3.868491
2109.000000;4.199453
2108.000000;3.795564
2107.000000;3.750359
2106.000000;3.669074
2105.000000;3.536344
2104.000000;3.242907
2103.000000;3.093796
2102.000000;3.142812
2101.000000;3.279413
2100.000000;3.370324
2099.000000;3.380466
2098.000000;3.402635
2097.000000;3.429915
2096.000000;3.590866
2095.000000;3.905198
2094.000000;3.762007
2093.000000;3.631150
2092.000000;3.630896
2091.000000;3.653804
2090.000000;3.872962
2089.000000;4.114686
2088.000000;3.606263
2087.000000;3.362575
2086.000000;3.351696
2085.000000;3.371981
2084.000000;3.474799
2083.000000;3.791219
2082.000000;3.771808
2081.000000;3.623069
2080.000000;3.688457
2079.000000;3.513693
2078.000000;3.324216
2077.000000;3.297075
2076.000000;3.386450
2075.000000;3.429218
2074.000000;3.406503
2073.000000;3.400842
2072.000000;3.324969
2071.000000;3.326590
2070.000000;3.411096
2069.000000;3.492574
2068.000000;3.596146
2067.000000;3.691392
2066.000000;3.968984
2065.000000;3.754502
2064.000000;3.363676
2063.000000;3.194773
2062.000000;3.119710
2061.000000;3.151327
2060.000000;3.265238
2059.000000;3.425904
2058.000000;3.620828
2057.000000;3.643218
2056.000000;3.613947
2055.000000;3.718580
2054.000000;3.661337
2053.000000;3.569780
2052.000000;3.682732
2051.000000;3.799785
2050.000000;3.593523
2049.000000;3.698875
2048.000000;3.984113
2047.000000;3.384957
2046.000000;3.195742
2045.000000;3.295105
2044.000000;3.510766
2043.000000;3.539964
2042.000000;3.547117
2041.000000;3.886585
2040.000000;3.625639
2039.000000;3.313028
2038.000000;3.388390
2037.000000;3.785852
2036.000000;4.072780
2035.000000;3.750391
2034.000000;3.434499
2033.000000;3.253545
2032.000000;3.268536
2031.000000;3.390626
2030.000000;3.364464
2029.000000;3.283609
2028.000000;3.338958
2027.000000;3.482349
2026.000000;3.579707
2025.000000;3.592397
2024.000000;3.378835
2023.000000;3.202887
2022.000000;3.219721
2021.000000;3.392459
2020.000000;3.550249
2019.000000;3.549000
2018.000000;3.574583
2017.000000;3.550509
2016.000000;3.525988
2015.000000;3.579509
2014.000000;3.582720
2013.000000;3.515617
2012.000000;3.393271
2011.000000;3.386771
2010.000000;3.454036
2009.000000;3.376804
2008.000000;3.261051
2007.000000;3.259328
2006.000000;3.457093
2005.000000;3.717957
2004.000000;3.616452
2003.000000;3.496730
2002.000000;3.396246
2001.000000;3.379544
2000.000000;3.544777
1999.000000;3.610865
1998.000000;3.561581
1997.000000;3.612065
1996.000000;3.592191
1995.000000;3.570141
1994.000000;3.561862
1993.000000;3.532904
1992.000000;3.587215
1991.000000;3.633652
1990.000000;3.643460
1989.000000;3.674905
1988.000000;3.591610
1987.000000;3.622358
1986.000000;3.889846
1985.000000;4.005443
1984.000000;4.110793
1983.000000;4.864315
1982.000000;4.343658
1981.000000;3.729748
1980.000000;3.826452
1979.000000;3.893330
1978.000000;3.438921
1977.000000;3.202247
1976.000000;3.108302
1975.000000;3.164087
1974.000000;3.327540
1973.000000;3.425071
1972.000000;3.406753
1971.000000;3.452258
1970.000000;3.472361
1969.000000;3.382119
1968.000000;3.395333
1967.000000;3.474989
1966.000000;3.565025
1965.000000;3.665428
1964.000000;3.614587
1963.000000;3.637954
1962.000000;3.899790
1961.000000;4.120583
1960.000000;3.640439
1959.000000;3.265237
1958.000000;3.135324
1957.000000;3.107062
1956.000000;3.092261
1955.000000;3.121569
1954.000000;3.298039
1953.000000;3.460596
1952.000000;3.329013
1951.000000;3.249321
1950.000000;3.236694
1949.000000;3.276357
1948.000000;3.445736
1947.000000;3.810317
1946.000000;4.012062
1945.000000;3.735260
1944.000000;3.485476
1943.000000;3.327702
1942.000000;3.304637
1941.000000;3.400434
1940.000000;3.591190
1939.000000;3.625067
1938.000000;3.525321
1937.000000;3.529620
1936.000000;3.376340
1935.000000;3.208689
1934.000000;3.199546
1933.000000;3.223865
1932.000000;3.131614
1931.000000;3.026851
1930.000000;3.046648
1929.000000;3.221979
1928.000000;3.541857
1927.000000;3.851743
1926.000000;3.967270
1925.000000;3.822393
1924.000000;3.654372
1923.000000;3.685112
1922.000000;3.651576
1921.000000;3.810409
1920.000000;3.995947
1919.000000;3.586766
1918.000000;3.473983
1917.000000;3.449298
1916.000000;3.393266
1915.000000;3.397601
1914.000000;3.408044
1913.000000;3.443176
1912.000000;3.580722
1911.000000;3.701858
1910.000000;3.632842
1909.000000;3.620370
1908.000000;3.652097
1907.000000;3.901394
1906.000000;3.866957
1905.000000;3.488794
1904.000000;3.652679
1903.000000;4.153291
1902.000000;3.754510
1901.000000;3.487051
1900.000000;3.397913
1899.000000;3.363312
1898.000000;3.220481
1897.000000;3.095227
1896.000000;3.099129
1895.000000;3.200648
1894.000000;3.296045
1893.000000;3.300360
1892.000000;3.382880
1891.000000;3.489173
1890.000000;3.478322
1889.000000;3.726752
1888.000000;3.796654
1887.000000;3.385332
1886.000000;3.248088
1885.000000;3.284231
1884.000000;3.567434
1883.000000;4.312144
1882.000000;3.737200
1881.000000;3.567598
1880.000000;3.607717
1879.000000;3.379085
1878.000000;3.304440
1877.000000;3.430109
1876.000000;3.554258
1875.000000;3.623184
1874.000000;3.686994
1873.000000;3.578038
1872.000000;3.506715
1871.000000;3.570768
1870.000000;3.748987
1869.000000;3.877606
1868.000000;3.582765
1867.000000;3.329758
1866.000000;3.179679
1865.000000;3.096476
1864.000000;3.120704
1863.000000;3.216711
1862.000000;3.399052
1861.000000;3.688842
1860.000000;3.650434
1859.000000;3.493258
1858.000000;3.568533
1857.000000;3.680277
1856.000000;3.317152
1855.000000;3.054266
1854.000000;2.970640
1853.000000;2.996831
1852.000000;3.126899
1851.000000;3.376428
1850.000000;3.499181
1849.000000;3.272297
1848.000000;3.088893
1847.000000;2.996620
1846.000000;3.009022
1845.000000;3.079056
1844.000000;3.116451
1843.000000;3.169687
1842.000000;3.298802
1841.000000;3.473777
1840.000000;3.514139
1839.000000;3.545723
1838.000000;3.714741
1837.000000;3.784325
1836.000000;3.534716
1835.000000;3.544677
1834.000000;4.050057
1833.000000;3.639256
1832.000000;3.300170
1831.000000;3.174075
1830.000000;3.178355
1829.000000;3.324858
1828.000000;3.424437
1827.000000;3.421164
1826.000000;3.370278
1825.000000;3.375101
1824.000000;3.398429
1823.000000;3.380829
1822.000000;3.386574
1821.000000;3.394438
1820.000000;3.438880
1819.000000;3.612788
1818.000000;4.038591
1817.000000;4.003550
1816.000000;3.492724
1815.000000;3.301447
1814.000000;3.340896
1813.000000;3.496933
1812.000000;3.471484
1811.000000;3.317484
1810.000000;3.301311
1809.000000;3.360146
1808.000000;3.433206
1807.000000;3.615944
1806.000000;3.636185
1805.000000;3.541898
1804.000000;3.504570
1803.000000;3.460658
1802.000000;3.516270
1801.000000;3.554879
1800.000000;3.569083
1799.000000;3.720184
1798.000000;3.750368
1797.000000;3.611727
1796.000000;3.904714
1795.000000;4.126916
1794.000000;3.771022
1793.000000;3.726662
1792.000000;3.475939
1791.000000;3.441706
1790.000000;3.541358
1789.000000;3.439874
1788.000000;3.473396
1787.000000;3.589936
1786.000000;3.521905
1785.000000;3.321246
1784.000000;3.171174
1783.000000;3.156488
1782.000000;3.244228
1781.000000;3.399793
1780.000000;3.423241
1779.000000;3.354671
1778.000000;3.351800
1777.000000;3.508494
1776.000000;3.659616
1775.000000;3.399025
1774.000000;3.349626
1773.000000;3.446261
1772.000000;3.589740
1771.000000;3.659802
1770.000000;3.391453
1769.000000;3.275221
1768.000000;3.319703
1767.000000;3.514102
1766.000000;3.589321
1765.000000;3.343098
1764.000000;3.279991
1763.000000;3.542750
1762.000000;3.876141
1761.000000;3.453275
1760.000000;3.224873
1759.000000;3.261173
1758.000000;3.509276
1757.000000;3.406359
1756.000000;3.108479
1755.000000;2.979705
1754.000000;2.986916
1753.000000;3.105121
1752.000000;3.278293
1751.000000;3.463620
1750.000000;3.487648
1749.000000;3.333073
1748.000000;3.213945
1747.000000;3.183720
1746.000000;3.431378
1745.000000;4.101982
1744.000000;3.473940
1743.000000;3.164216
1742.000000;3.148992
1741.000000;3.314641
1740.000000;3.579238
1739.000000;3.699270
1738.000000;3.603543
1737.000000;3.426331
1736.000000;3.286130
1735.000000;3.230852
1734.000000;3.291988
1733.000000;3.527042
1732.000000;3.761244
1731.000000;3.783114
1730.000000;4.014220
1729.000000;3.940709
1728.000000;3.645915
1727.000000;3.469308
1726.000000;3.320585
1725.000000;3.336748
1724.000000;3.508241
1723.000000;3.262074
1722.000000;3.079364
1721.000000;3.099391
1720.000000;3.371754
1719.000000;4.131268
1718.000000;3.577898
1717.000000;3.384971
1716.000000;3.435135
1715.000000;3.498574
1714.000000;3.465720
1713.000000;3.339350
1712.000000;3.223816
1711.000000;3.148972
1710.000000;3.213134
1709.000000;3.385300
1708.000000;3.493520
1707.000000;3.615814
1706.000000;3.666058
1705.000000;3.481591
1704.000000;3.515558
1703.000000;3.566616
1702.000000;3.500268
1701.000000;3.542516
1700.000000;3.554248
1699.000000;3.584836
1698.000000;3.685641
1697.000000;3.622867
1696.000000;3.441006
1695.000000;3.636533
1694.000000;4.333707
1693.000000;3.735075
1692.000000;3.778441
1691.000000;3.744244
1690.000000;3.545243
1689.000000;3.592394
1688.000000;3.482455
1687.000000;3.413684
1686.000000;3.481132
1685.000000;3.755705
1684.000000;3.784756
1683.000000;3.301432
1682.000000;3.141880
1681.000000;3.167237
1680.000000;3.334847
1679.000000;3.585452
1678.000000;3.427102
1677.000000;3.297568
1676.000000;3.321812
1675.000000;3.388770
1674.000000;3.418668
1673.000000;3.551109
1672.000000;3.932603
1671.000000;3.669432
1670.000000;3.441439
1669.000000;3.309455
1668.000000;3.204630
1667.000000;3.202864
1666.000000;3.283078
1665.000000;3.410050
1664.000000;3.501241
1663.000000;3.493449
1662.000000;3.430494
1661.000000;3.476347
1660.000000;3.428297
1659.000000;3.331556
1658.000000;3.497842
1657.000000;3.762915
1656.000000;3.669164
1655.000000;3.577165
1654.000000;3.556933
1653.000000;3.580025
1652.000000;3.608458
1651.000000;3.544935
1650.000000;3.439266
1649.000000;3.346956
1648.000000;3.268640
1647.000000;3.235294
1646.000000;3.317328
1645.000000;3.394690
1644.000000;3.344365
1643.000000;3.339804
1642.000000;3.431826
1641.000000;3.454314
1640.000000;3.330402
1639.000000;3.282979
1638.000000;3.360456
1637.000000;3.426664
1636.000000;3.353593
1635.000000;3.308092
1634.000000;3.390439
1633.000000;3.464194
1632.000000;3.394174
1631.000000;3.386736
1630.000000;3.544913
1629.000000;3.490543
1628.000000;3.257743
1627.000000;3.210796
1626.000000;3.309623
1625.000000;3.509779
1624.000000;3.670530
1623.000000;3.551212
1622.000000;3.347543
1621.000000;3.275176
1620.000000;3.293286
1619.000000;3.503515
1618.000000;4.471916
1617.000000;3.686479
1616.000000;3.425161
1615.000000;3.722774
1614.000000;3.785326
1613.000000;3.379858
1612.000000;3.333475
1611.000000;3.386548
1610.000000;3.350112
1609.000000;3.276605
1608.000000;3.392640
1607.000000;3.729806
1606.000000;3.584418
1605.000000;3.516346
1604.000000;3.566680
1603.000000;3.475880
1602.000000;3.394706
1601.000000;3.500026
1600.000000;3.618104
1599.000000;3.474672
1598.000000;3.449075
1597.000000;3.406382
1596.000000;3.319469
1595.000000;3.358533
1594.000000;3.403032
1593.000000;3.425284
1592.000000;3.414184
1591.000000;3.546538
1590.000000;3.753676
1589.000000;3.589170
1588.000000;3.369492
1587.000000;3.153484
1586.000000;3.149148
1585.000000;3.465620
1584.000000;4.163126
1583.000000;3.844935
1582.000000;4.044167
1581.000000;4.414361
1580.000000;3.500110
1579.000000;3.374898
1578.000000;3.558798
1577.000000;3.742385
1576.000000;3.621778
1575.000000;3.521954
1574.000000;3.379780
1573.000000;3.281891
1572.000000;3.277274
1571.000000;3.389357
1570.000000;3.542863
1569.000000;3.464865
1568.000000;3.527568
1567.000000;3.705591
1566.000000;3.515177
1565.000000;3.301780
1564.000000;3.212378
1563.000000;3.215730
1562.000000;3.243971
1561.000000;3.262179
1560.000000;3.292443
1559.000000;3.339524
1558.000000;3.617485
1557.000000;3.801800
1556.000000;3.463324
1555.000000;3.306360
1554.000000;3.195187
1553.000000;3.157386
1552.000000;3.196962
1551.000000;3.227775
1550.000000;3.299416
1549.000000;3.268085
1548.000000;3.113144
1547.000000;3.064515
1546.000000;3.186870
1545.000000;3.637753
1544.000000;3.644344
1543.000000;3.320535
1542.000000;3.284088
1541.000000;3.295421
1540.000000;3.303518
1539.000000;3.316394
1538.000000;3.525432
1537.000000;3.738463
1536.000000;3.617470
1535.000000;3.807267
1534.000000;3.638491
1533.000000;3.253661
1532.000000;3.089392
1531.000000;3.013480
1530.000000;2.999554
1529.000000;3.003718
1528.000000;3.001095
1527.000000;3.045713
1526.000000;3.167632
1525.000000;3.322870
1524.000000;3.444931
1523.000000;3.465688
1522.000000;3.420380
1521.000000;3.522891
1520.000000;3.407043
1519.000000;3.214588
1518.000000;3.198466
1517.000000;3.209640
1516.000000;3.169795
1515.000000;3.166037
1514.000000;3.224930
1513.000000;3.189638
1512.000000;3.074876
1511.000000;3.024833
1510.000000;3.051102
1509.000000;3.085197
1508.000000;3.056837
1507.000000;2.970762
1506.000000;3.051949
1505.000000;3.310662
1504.000000;3.504150
1503.000000;3.457776
1502.000000;3.608068
1501.000000;3.979121
1500.000000;3.379153
1499.000000;3.177594
1498.000000;3.195444
1497.000000;3.241043
1496.000000;3.265341
1495.000000;3.342678
1494.000000;3.190821
1493.000000;2.992822
1492.000000;3.027988
1491.000000;3.207338
1490.000000;3.342110
1489.000000;3.264637
1488.000000;3.130310
1487.000000;3.093396
1486.000000;3.165956
1485.000000;3.302036
1484.000000;3.399023
1483.000000;3.298855
1482.000000;3.096727
1481.000000;3.003223
1480.000000;2.983525
1479.000000;2.964995
1478.000000;3.024836
1477.000000;3.257063
1476.000000;3.721862
1475.000000;3.802292
1474.000000;3.638048
1473.000000;3.658834
1472.000000;3.422568
1471.000000;3.190953
1470.000000;3.115141
1469.000000;3.169909
1468.000000;3.322900
1467.000000;3.398283
1466.000000;3.270909
1465.000000;3.179489
1464.000000;3.195208
1463.000000;3.271455
1462.000000;3.372809
1461.000000;3.487169
1460.000000;3.544668
1459.000000;3.420591
1458.000000;3.257287
1457.000000;3.141946
1456.000000;3.105732
1455.000000;3.181946
1454.000000;3.525457
1453.000000;3.621947
1452.000000;3.234865
1451.000000;3.157909
1450.000000;3.172820
1449.000000;3.198263
1448.000000;3.227773
1447.000000;3.203150
1446.000000;3.256101
1445.000000;3.305388
1444.000000;3.112134
1443.000000;2.978207
1442.000000;2.994530
1441.000000;3.103048
1440.000000;3.284377
1439.000000;3.394324
1438.000000;3.369110
1437.000000;3.404918
1436.000000;3.609583
1435.000000;3.630243
1434.000000;3.251454
1433.000000;3.044136
1432.000000;3.072066
1431.000000;3.207962
1430.000000;3.116531
1429.000000;2.984583
1428.000000;2.972497
1427.000000;3.012447
1426.000000;3.041661
1425.000000;3.104328
1424.000000;3.126235
1423.000000;3.113049
1422.000000;3.178862
1421.000000;3.123520
1420.000000;3.004174
1419.000000;2.921380
1418.000000;2.883924
1417.000000;2.933621
1416.000000;3.058357
1415.000000;3.154521
1414.000000;3.158999
1413.000000;3.388917
1412.000000;3.748633
1411.000000;3.344460
1410.000000;3.237136
1409.000000;3.172964
1408.000000;2.972906
1407.000000;2.895178
1406.000000;2.987729
1405.000000;3.238878
1404.000000;3.435139
1403.000000;3.375879
1402.000000;3.408528
1401.000000;3.393912
1400.000000;3.293309
1399.000000;3.277072
1398.000000;3.185083
1397.000000;3.105514
1396.000000;3.077332
1395.000000;3.116599
1394.000000;3.285274
1393.000000;3.241739
1392.000000;3.110743
1391.000000;3.171764
1390.000000;3.350918
1389.000000;3.426450
1388.000000;3.256745
1387.000000;3.151314
1386.000000;3.189414
1385.000000;3.284973
1384.000000;3.278134
1383.000000;3.285053
1382.000000;3.364061
1381.000000;3.348656
1380.000000;3.622354
1379.000000;3.550659
1378.000000;3.093388
1377.000000;2.941351
1376.000000;2.917912
1375.000000;2.942913
1374.000000;3.008425
1373.000000;3.163726
1372.000000;3.414743
1371.000000;3.482392
1370.000000;3.347886
1369.000000;3.287428
1368.000000;3.481970
1367.000000;3.620653
1366.000000;3.445234
1365.000000;3.454526
1364.000000;3.503656
1363.000000;3.581206
1362.000000;3.643511
1361.000000;3.616625
1360.000000;3.459650
1359.000000;3.351493
1358.000000;3.269627
1357.000000;3.241757
1356.000000;3.594474
1355.000000;3.693232
1354.000000;3.336563
1353.000000;3.350015
1352.000000;3.577324
1351.000000;3.636240
1350.000000;3.424378
1349.000000;3.425149
1348.000000;3.562280
1347.000000;3.393796
1346.000000;3.293609
1345.000000;3.128196
1344.000000;2.883576
1343.000000;2.784875
1342.000000;2.822931
1341.000000;2.952158
1340.000000;3.114226
1339.000000;3.175971
1338.000000;3.115212
1337.000000;3.107694
1336.000000;3.301537
1335.000000;3.539902
1334.000000;3.254525
1333.000000;3.038303
1332.000000;2.944101
1331.000000;2.883317
1330.000000;3.064119
1329.000000;3.448259
1328.000000;3.061375
1327.000000;2.859558
1326.000000;2.906634
1325.000000;3.021385
1324.000000;3.252291
1323.000000;4.063716
1322.000000;3.479829
1321.000000;3.080210
1320.000000;2.919471
1319.000000;2.854431
1318.000000;2.933063
1317.000000;3.075293
1316.000000;3.115085
1315.000000;3.066351
1314.000000;3.047495
1313.000000;3.108633
1312.000000;3.220811
1311.000000;3.312489
1310.000000;3.272778
1309.000000;3.228874
1308.000000;3.385187
1307.000000;3.396019
1306.000000;3.216185
1305.000000;3.182548
1304.000000;3.178075
1303.000000;3.248804
1302.000000;3.594693
1301.000000;3.523423
1300.000000;3.329342
1299.000000;3.568646
1298.000000;3.482221
1297.000000;3.185334
1296.000000;3.099262
1295.000000;3.257396
1294.000000;3.593300
1293.000000;3.631231
1292.000000;3.605262
1291.000000;3.220512
1290.000000;3.054901
1289.000000;3.015217
1288.000000;2.968406
1287.000000;2.958301
1286.000000;3.109534
1285.000000;3.614920
1284.000000;3.990979
1283.000000;3.918347
1282.000000;4.322622
1281.000000;3.717159
1280.000000;3.355555
1279.000000;3.210362
1278.000000;3.322566
1277.000000;3.708875
1276.000000;3.573041
1275.000000;3.230027
1274.000000;3.081939
1273.000000;3.019269
1272.000000;2.975480
1271.000000;2.988329
1270.000000;3.054489
1269.000000;3.119525
1268.000000;3.153575
1267.000000;3.306463
1266.000000;3.574870
1265.000000;3.277745
1264.000000;3.306907
1263.000000;3.382592
1262.000000;3.180098
1261.000000;3.160788
1260.000000;3.133546
1259.000000;3.182950
1258.000000;3.367379
1257.000000;3.211098
1256.000000;3.110805
1255.000000;3.346790
1254.000000;3.628931
1253.000000;3.478653
1252.000000;3.433314
1251.000000;3.399323
1250.000000;3.299473
1249.000000;3.245172
1248.000000;3.268502
1247.000000;3.250896
1246.000000;3.159356
1245.000000;3.158905
1244.000000;3.114701
1243.000000;3.000761
1242.000000;3.010623
1241.000000;3.204745
1240.000000;3.758849
1239.000000;3.433030
1238.000000;3.040514
1237.000000;2.936920
1236.000000;2.952074
1235.000000;2.944052
1234.000000;2.834273
1233.000000;2.766098
1232.000000;2.822289
1231.000000;3.000598
1230.000000;3.223885
1229.000000;3.384633
1228.000000;3.484098
1227.000000;3.466607
1226.000000;3.392450
1225.000000;3.359155
1224.000000;3.392632
1223.000000;3.366482
1222.000000;3.171124
1221.000000;2.987926
1220.000000;3.021145
1219.000000;3.413917
1218.000000;3.250568
1217.000000;2.978992
1216.000000;2.935499
1215.000000;2.930018
1214.000000;2.956144
1213.000000;3.064341
1212.000000;3.234211
1211.000000;3.488333
1210.000000;4.026135
1209.000000;3.345336
1208.000000;3.075957
1207.000000;2.995338
1206.000000;2.989404
1205.000000;3.010224
1204.000000;3.049256
1203.000000;3.207571
1202.000000;3.544551
1201.000000;3.601901
1200.000000;3.294024
