Criado como novo conjunto de dados;"e2410_daniel_v2.spp","106567.6 Secs"
cm-1;Abs
10000.000000;0.145355
9999.000000;0.146026
9998.000000;0.146805
9997.000000;0.147701
9996.000000;0.148637
9995.000000;0.149496
9994.000000;0.150201
9993.000000;0.150751
9992.000000;0.151196
9991.000000;0.151633
9990.000000;0.152168
9989.000000;0.152834
9988.000000;0.153534
9987.000000;0.154131
9986.000000;0.154591
9985.000000;0.155032
9984.000000;0.155621
9983.000000;0.156433
9982.000000;0.157377
9981.000000;0.158246
9980.000000;0.158881
9979.000000;0.159328
9978.000000;0.159820
9977.000000;0.160540
9976.000000;0.161429
9975.000000;0.162249
9974.000000;0.162860
9973.000000;0.163352
9972.000000;0.163919
9971.000000;0.164665
9970.000000;0.165563
9969.000000;0.166530
9968.000000;0.167477
9967.000000;0.168322
9966.000000;0.169035
9965.000000;0.169668
9964.000000;0.170292
9963.000000;0.170934
9962.000000;0.171613
9961.000000;0.172382
9960.000000;0.173260
9959.000000;0.174112
9958.000000;0.174720
9957.000000;0.175013
9956.000000;0.175166
9955.000000;0.175431
9954.000000;0.175910
9953.000000;0.176560
9952.000000;0.177323
9951.000000;0.178176
9950.000000;0.179047
9949.000000;0.179792
9948.000000;0.180305
9947.000000;0.180636
9946.000000;0.180983
9945.000000;0.181552
9944.000000;0.182406
9943.000000;0.183414
9942.000000;0.184367
9941.000000;0.185153
9940.000000;0.185828
9939.000000;0.186514
9938.000000;0.187268
9937.000000;0.188060
9936.000000;0.188846
9935.000000;0.189612
9934.000000;0.190358
9933.000000;0.191067
9932.000000;0.191713
9931.000000;0.192305
9930.000000;0.192934
9929.000000;0.193737
9928.000000;0.194773
9927.000000;0.195921
9926.000000;0.196955
9925.000000;0.197748
9924.000000;0.198360
9923.000000;0.198930
9922.000000;0.199563
9921.000000;0.200327
9920.000000;0.201240
9919.000000;0.202195
9918.000000;0.203000
9917.000000;0.203575
9916.000000;0.204044
9915.000000;0.204557
9914.000000;0.205122
9913.000000;0.205720
9912.000000;0.206447
9911.000000;0.207380
9910.000000;0.208386
9909.000000;0.209270
9908.000000;0.210072
9907.000000;0.210991
9906.000000;0.212007
9905.000000;0.212842
9904.000000;0.213336
9903.000000;0.213678
9902.000000;0.214147
9901.000000;0.214813
9900.000000;0.215608
9899.000000;0.216515
9898.000000;0.217508
9897.000000;0.218437
9896.000000;0.219128
9895.000000;0.219571
9894.000000;0.219885
9893.000000;0.220174
9892.000000;0.220542
9891.000000;0.221144
9890.000000;0.222079
9889.000000;0.223251
9888.000000;0.224469
9887.000000;0.225616
9886.000000;0.226618
9885.000000;0.227329
9884.000000;0.227672
9883.000000;0.227875
9882.000000;0.228372
9881.000000;0.229378
9880.000000;0.230692
9879.000000;0.231945
9878.000000;0.232931
9877.000000;0.233655
9876.000000;0.234209
9875.000000;0.234732
9874.000000;0.235392
9873.000000;0.236279
9872.000000;0.237298
9871.000000;0.238250
9870.000000;0.239025
9869.000000;0.239687
9868.000000;0.240370
9867.000000;0.241126
9866.000000;0.241900
9865.000000;0.242626
9864.000000;0.243336
9863.000000;0.244154
9862.000000;0.245194
9861.000000;0.246433
9860.000000;0.247705
9859.000000;0.248801
9858.000000;0.249596
9857.000000;0.250116
9856.000000;0.250512
9855.000000;0.250962
9854.000000;0.251550
9853.000000;0.252241
9852.000000;0.252962
9851.000000;0.253694
9850.000000;0.254506
9849.000000;0.255489
9848.000000;0.256672
9847.000000;0.257957
9846.000000;0.259163
9845.000000;0.260182
9844.000000;0.261087
9843.000000;0.262038
9842.000000;0.263086
9841.000000;0.264113
9840.000000;0.264986
9839.000000;0.265691
9838.000000;0.266283
9837.000000;0.266786
9836.000000;0.267228
9835.000000;0.267718
9834.000000;0.268406
9833.000000;0.269344
9832.000000;0.270447
9831.000000;0.271585
9830.000000;0.272684
9829.000000;0.273722
9828.000000;0.274672
9827.000000;0.275480
9826.000000;0.276132
9825.000000;0.276730
9824.000000;0.277456
9823.000000;0.278405
9822.000000;0.279451
9821.000000;0.280334
9820.000000;0.280912
9819.000000;0.281295
9818.000000;0.281751
9817.000000;0.282516
9816.000000;0.283672
9815.000000;0.285131
9814.000000;0.286697
9813.000000;0.288170
9812.000000;0.289413
9811.000000;0.290335
9810.000000;0.290908
9809.000000;0.291277
9808.000000;0.291730
9807.000000;0.292420
9806.000000;0.293184
9805.000000;0.293823
9804.000000;0.294481
9803.000000;0.295502
9802.000000;0.296900
9801.000000;0.298276
9800.000000;0.299358
9799.000000;0.300305
9798.000000;0.301322
9797.000000;0.302257
9796.000000;0.302869
9795.000000;0.303288
9794.000000;0.303897
9793.000000;0.304821
9792.000000;0.305856
9791.000000;0.306842
9790.000000;0.307861
9789.000000;0.309013
9788.000000;0.310219
9787.000000;0.311288
9786.000000;0.312059
9785.000000;0.312502
9784.000000;0.312836
9783.000000;0.313465
9782.000000;0.314596
9781.000000;0.315961
9780.000000;0.317133
9779.000000;0.318081
9778.000000;0.319139
9777.000000;0.320427
9776.000000;0.321610
9775.000000;0.322354
9774.000000;0.322768
9773.000000;0.323218
9772.000000;0.323846
9771.000000;0.324497
9770.000000;0.325050
9769.000000;0.325627
9768.000000;0.326464
9767.000000;0.327655
9766.000000;0.329061
9765.000000;0.330444
9764.000000;0.331666
9763.000000;0.332735
9762.000000;0.333677
9761.000000;0.334487
9760.000000;0.335258
9759.000000;0.336195
9758.000000;0.337359
9757.000000;0.338511
9756.000000;0.339402
9755.000000;0.340123
9754.000000;0.340933
9753.000000;0.341830
9752.000000;0.342582
9751.000000;0.343177
9750.000000;0.343913
9749.000000;0.344951
9748.000000;0.346062
9747.000000;0.346954
9746.000000;0.347635
9745.000000;0.348322
9744.000000;0.349183
9743.000000;0.350288
9742.000000;0.351607
9741.000000;0.352910
9740.000000;0.353889
9739.000000;0.354554
9738.000000;0.355337
9737.000000;0.356605
9736.000000;0.358227
9735.000000;0.359786
9734.000000;0.361057
9733.000000;0.362077
9732.000000;0.362923
9731.000000;0.363698
9730.000000;0.364616
9729.000000;0.365792
9728.000000;0.366970
9727.000000;0.367743
9726.000000;0.368080
9725.000000;0.368393
9724.000000;0.369077
9723.000000;0.370176
9722.000000;0.371529
9721.000000;0.373005
9720.000000;0.374478
9719.000000;0.375737
9718.000000;0.376608
9717.000000;0.377131
9716.000000;0.377559
9715.000000;0.378197
9714.000000;0.379203
9713.000000;0.380477
9712.000000;0.381727
9711.000000;0.382735
9710.000000;0.383537
9709.000000;0.384313
9708.000000;0.385122
9707.000000;0.385880
9706.000000;0.386569
9705.000000;0.387321
9704.000000;0.388249
9703.000000;0.389288
9702.000000;0.390256
9701.000000;0.390998
9700.000000;0.391502
9699.000000;0.391960
9698.000000;0.392695
9697.000000;0.393884
9696.000000;0.395347
9695.000000;0.396726
9694.000000;0.397917
9693.000000;0.399140
9692.000000;0.400531
9691.000000;0.401858
9690.000000;0.402799
9689.000000;0.403400
9688.000000;0.404043
9687.000000;0.404966
9686.000000;0.406010
9685.000000;0.406875
9684.000000;0.407524
9683.000000;0.408250
9682.000000;0.409398
9681.000000;0.411022
9680.000000;0.412773
9679.000000;0.414163
9678.000000;0.415019
9677.000000;0.415702
9676.000000;0.416740
9675.000000;0.418200
9674.000000;0.419534
9673.000000;0.420150
9672.000000;0.420053
9671.000000;0.419800
9670.000000;0.419905
9669.000000;0.420474
9668.000000;0.421362
9667.000000;0.422432
9666.000000;0.423581
9665.000000;0.424699
9664.000000;0.425800
9663.000000;0.427038
9662.000000;0.428426
9661.000000;0.429636
9660.000000;0.430319
9659.000000;0.430605
9658.000000;0.431077
9657.000000;0.432181
9656.000000;0.433800
9655.000000;0.435433
9654.000000;0.436644
9653.000000;0.437323
9652.000000;0.437668
9651.000000;0.438045
9650.000000;0.438781
9649.000000;0.439975
9648.000000;0.441479
9647.000000;0.443050
9646.000000;0.444467
9645.000000;0.445557
9644.000000;0.446304
9643.000000;0.446936
9642.000000;0.447733
9641.000000;0.448692
9640.000000;0.449491
9639.000000;0.449883
9638.000000;0.449994
9637.000000;0.450153
9636.000000;0.450570
9635.000000;0.451292
9634.000000;0.452344
9633.000000;0.453731
9632.000000;0.455344
9631.000000;0.456959
9630.000000;0.458322
9629.000000;0.459253
9628.000000;0.459765
9627.000000;0.460166
9626.000000;0.460857
9625.000000;0.461964
9624.000000;0.463262
9623.000000;0.464531
9622.000000;0.465766
9621.000000;0.466909
9620.000000;0.467644
9619.000000;0.467753
9618.000000;0.467548
9617.000000;0.467642
9616.000000;0.468342
9615.000000;0.469465
9614.000000;0.470680
9613.000000;0.471752
9612.000000;0.472539
9611.000000;0.473039
9610.000000;0.473485
9609.000000;0.474158
9608.000000;0.475052
9607.000000;0.475930
9606.000000;0.476699
9605.000000;0.477484
9604.000000;0.478316
9603.000000;0.479056
9602.000000;0.479729
9601.000000;0.480642
9600.000000;0.482002
9599.000000;0.483615
9598.000000;0.485114
9597.000000;0.486308
9596.000000;0.487183
9595.000000;0.487763
9594.000000;0.488162
9593.000000;0.488662
9592.000000;0.489526
9591.000000;0.490781
9590.000000;0.492245
9589.000000;0.493643
9588.000000;0.494639
9587.000000;0.494984
9586.000000;0.494805
9585.000000;0.494643
9584.000000;0.494967
9583.000000;0.495738
9582.000000;0.496577
9581.000000;0.497277
9580.000000;0.497959
9579.000000;0.498759
9578.000000;0.499569
9577.000000;0.500167
9576.000000;0.500520
9575.000000;0.500914
9574.000000;0.501739
9573.000000;0.503080
9572.000000;0.504517
9571.000000;0.505504
9570.000000;0.505998
9569.000000;0.506540
9568.000000;0.507568
9567.000000;0.508806
9566.000000;0.509544
9565.000000;0.509450
9564.000000;0.508918
9563.000000;0.508636
9562.000000;0.509011
9561.000000;0.509949
9560.000000;0.511035
9559.000000;0.511910
9558.000000;0.512615
9557.000000;0.513505
9556.000000;0.514755
9555.000000;0.516022
9554.000000;0.516777
9553.000000;0.516885
9552.000000;0.516711
9551.000000;0.516715
9550.000000;0.517154
9549.000000;0.518071
9548.000000;0.519267
9547.000000;0.520253
9546.000000;0.520537
9545.000000;0.520137
9544.000000;0.519669
9543.000000;0.519792
9542.000000;0.520655
9541.000000;0.521869
9540.000000;0.522881
9539.000000;0.523343
9538.000000;0.523281
9537.000000;0.523045
9536.000000;0.523025
9535.000000;0.523355
9534.000000;0.523867
9533.000000;0.524321
9532.000000;0.524580
9531.000000;0.524642
9530.000000;0.524630
9529.000000;0.524738
9528.000000;0.525072
9527.000000;0.525539
9526.000000;0.526010
9525.000000;0.526554
9524.000000;0.527345
9523.000000;0.528371
9522.000000;0.529418
9521.000000;0.530331
9520.000000;0.531061
9519.000000;0.531475
9518.000000;0.531426
9517.000000;0.531096
9516.000000;0.530993
9515.000000;0.531405
9514.000000;0.532067
9513.000000;0.532515
9512.000000;0.532605
9511.000000;0.532527
9510.000000;0.532525
9509.000000;0.532784
9508.000000;0.533398
9507.000000;0.534167
9506.000000;0.534604
9505.000000;0.534421
9504.000000;0.533924
9503.000000;0.533726
9502.000000;0.534115
9501.000000;0.534869
9500.000000;0.535555
9499.000000;0.535802
9498.000000;0.535413
9497.000000;0.534550
9496.000000;0.533783
9495.000000;0.533592
9494.000000;0.533825
9493.000000;0.533943
9492.000000;0.533866
9491.000000;0.534145
9490.000000;0.535123
9489.000000;0.536275
9488.000000;0.536748
9487.000000;0.536352
9486.000000;0.535695
9485.000000;0.535400
9484.000000;0.535573
9483.000000;0.536001
9482.000000;0.536495
9481.000000;0.536894
9480.000000;0.537008
9479.000000;0.536794
9478.000000;0.536495
9477.000000;0.536407
9476.000000;0.536566
9475.000000;0.536777
9474.000000;0.536885
9473.000000;0.536879
9472.000000;0.536780
9471.000000;0.536598
9470.000000;0.536417
9469.000000;0.536357
9468.000000;0.536403
9467.000000;0.536417
9466.000000;0.536397
9465.000000;0.536564
9464.000000;0.537068
9463.000000;0.537701
9462.000000;0.538063
9461.000000;0.537970
9460.000000;0.537537
9459.000000;0.536932
9458.000000;0.536237
9457.000000;0.535587
9456.000000;0.535224
9455.000000;0.535283
9454.000000;0.535619
9453.000000;0.535928
9452.000000;0.535987
9451.000000;0.535750
9450.000000;0.535319
9449.000000;0.534856
9448.000000;0.534457
9447.000000;0.534043
9446.000000;0.533487
9445.000000;0.532898
9444.000000;0.532682
9443.000000;0.533167
9442.000000;0.534205
9441.000000;0.535241
9440.000000;0.535739
9439.000000;0.535522
9438.000000;0.534799
9437.000000;0.533969
9436.000000;0.533316
9435.000000;0.532806
9434.000000;0.532194
9433.000000;0.531415
9432.000000;0.530724
9431.000000;0.530352
9430.000000;0.530150
9429.000000;0.529771
9428.000000;0.529123
9427.000000;0.528441
9426.000000;0.527928
9425.000000;0.527555
9424.000000;0.527255
9423.000000;0.527089
9422.000000;0.527110
9421.000000;0.527193
9420.000000;0.527124
9419.000000;0.526794
9418.000000;0.526241
9417.000000;0.525578
9416.000000;0.524938
9415.000000;0.524428
9414.000000;0.524065
9413.000000;0.523786
9412.000000;0.523547
9411.000000;0.523342
9410.000000;0.523170
9409.000000;0.523046
9408.000000;0.523033
9407.000000;0.523100
9406.000000;0.522951
9405.000000;0.522190
9404.000000;0.520783
9403.000000;0.519238
9402.000000;0.518169
9401.000000;0.517737
9400.000000;0.517602
9399.000000;0.517345
9398.000000;0.516842
9397.000000;0.516272
9396.000000;0.515889
9395.000000;0.515794
9394.000000;0.515839
9393.000000;0.515724
9392.000000;0.515241
9391.000000;0.514432
9390.000000;0.513481
9389.000000;0.512513
9388.000000;0.511607
9387.000000;0.510946
9386.000000;0.510771
9385.000000;0.511089
9384.000000;0.511515
9383.000000;0.511517
9382.000000;0.510852
9381.000000;0.509738
9380.000000;0.508622
9379.000000;0.507809
9378.000000;0.507286
9377.000000;0.506809
9376.000000;0.506136
9375.000000;0.505264
9374.000000;0.504461
9373.000000;0.504046
9372.000000;0.504078
9371.000000;0.504278
9370.000000;0.504245
9369.000000;0.503761
9368.000000;0.502864
9367.000000;0.501744
9366.000000;0.500630
9365.000000;0.499697
9364.000000;0.498936
9363.000000;0.498119
9362.000000;0.497065
9361.000000;0.495928
9360.000000;0.495075
9359.000000;0.494634
9358.000000;0.494335
9357.000000;0.493884
9356.000000;0.493278
9355.000000;0.492640
9354.000000;0.491942
9353.000000;0.491128
9352.000000;0.490358
9351.000000;0.489854
9350.000000;0.489583
9349.000000;0.489333
9348.000000;0.489038
9347.000000;0.488724
9346.000000;0.488159
9345.000000;0.486991
9344.000000;0.485350
9343.000000;0.483947
9342.000000;0.483328
9341.000000;0.483266
9340.000000;0.483118
9339.000000;0.482534
9338.000000;0.481584
9337.000000;0.480434
9336.000000;0.479289
9335.000000;0.478536
9334.000000;0.478495
9333.000000;0.478940
9332.000000;0.479144
9331.000000;0.478553
9330.000000;0.477256
9329.000000;0.475747
9328.000000;0.474413
9327.000000;0.473358
9326.000000;0.472535
9325.000000;0.471873
9324.000000;0.471351
9323.000000;0.471055
9322.000000;0.471091
9321.000000;0.471388
9320.000000;0.471619
9319.000000;0.471380
9318.000000;0.470444
9317.000000;0.468891
9316.000000;0.467090
9315.000000;0.465543
9314.000000;0.464555
9313.000000;0.463978
9312.000000;0.463381
9311.000000;0.462557
9310.000000;0.461748
9309.000000;0.461305
9308.000000;0.461229
9307.000000;0.461186
9306.000000;0.460883
9305.000000;0.460318
9304.000000;0.459667
9303.000000;0.459056
9302.000000;0.458429
9301.000000;0.457602
9300.000000;0.456448
9299.000000;0.455120
9298.000000;0.454004
9297.000000;0.453348
9296.000000;0.452963
9295.000000;0.452422
9294.000000;0.451590
9293.000000;0.450803
9292.000000;0.450448
9291.000000;0.450453
9290.000000;0.450325
9289.000000;0.449690
9288.000000;0.448676
9287.000000;0.447729
9286.000000;0.447110
9285.000000;0.446661
9284.000000;0.446059
9283.000000;0.445189
9282.000000;0.444196
9281.000000;0.443214
9280.000000;0.442187
9279.000000;0.441037
9278.000000;0.439905
9277.000000;0.439093
9276.000000;0.438717
9275.000000;0.438543
9274.000000;0.438247
9273.000000;0.437755
9272.000000;0.437210
9271.000000;0.436633
9270.000000;0.435817
9269.000000;0.434649
9268.000000;0.433379
9267.000000;0.432392
9266.000000;0.431760
9265.000000;0.431204
9264.000000;0.430501
9263.000000;0.429721
9262.000000;0.429017
9261.000000;0.428378
9260.000000;0.427731
9259.000000;0.427141
9258.000000;0.426711
9257.000000;0.426348
9256.000000;0.425805
9255.000000;0.424961
9254.000000;0.423935
9253.000000;0.422918
9252.000000;0.422048
9251.000000;0.421425
9250.000000;0.421062
9249.000000;0.420733
9248.000000;0.420046
9247.000000;0.418808
9246.000000;0.417269
9245.000000;0.415907
9244.000000;0.415014
9243.000000;0.414525
9242.000000;0.414171
9241.000000;0.413687
9240.000000;0.412913
9239.000000;0.411868
9238.000000;0.410779
9237.000000;0.409933
9236.000000;0.409412
9235.000000;0.408996
9234.000000;0.408386
9233.000000;0.407525
9232.000000;0.406641
9231.000000;0.405964
9230.000000;0.405486
9229.000000;0.405025
9228.000000;0.404468
9227.000000;0.403858
9226.000000;0.403275
9225.000000;0.402740
9224.000000;0.402248
9223.000000;0.401760
9222.000000;0.401165
9221.000000;0.400371
9220.000000;0.399487
9219.000000;0.398751
9218.000000;0.398184
9217.000000;0.397494
9216.000000;0.396479
9215.000000;0.395374
9214.000000;0.394573
9213.000000;0.394098
9212.000000;0.393626
9211.000000;0.393019
9210.000000;0.392514
9209.000000;0.392326
9208.000000;0.392294
9207.000000;0.392090
9206.000000;0.391611
9205.000000;0.390994
9204.000000;0.390346
9203.000000;0.389601
9202.000000;0.388589
9201.000000;0.387211
9200.000000;0.385628
9199.000000;0.384273
9198.000000;0.383538
9197.000000;0.383349
9196.000000;0.383171
9195.000000;0.382552
9194.000000;0.381558
9193.000000;0.380566
9192.000000;0.379805
9191.000000;0.379257
9190.000000;0.378901
9189.000000;0.378758
9188.000000;0.378692
9187.000000;0.378369
9186.000000;0.377539
9185.000000;0.376334
9184.000000;0.375208
9183.000000;0.374562
9182.000000;0.374372
9181.000000;0.374163
9180.000000;0.373460
9179.000000;0.372298
9178.000000;0.371210
9177.000000;0.370660
9176.000000;0.370600
9175.000000;0.370637
9174.000000;0.370454
9173.000000;0.369943
9172.000000;0.369079
9171.000000;0.367962
9170.000000;0.366935
9169.000000;0.366388
9168.000000;0.366341
9167.000000;0.366354
9166.000000;0.365937
9165.000000;0.364981
9164.000000;0.363783
9163.000000;0.362751
9162.000000;0.362085
9161.000000;0.361641
9160.000000;0.361062
9159.000000;0.360140
9158.000000;0.359043
9157.000000;0.358110
9156.000000;0.357450
9155.000000;0.356870
9154.000000;0.356183
9153.000000;0.355461
9152.000000;0.354927
9151.000000;0.354701
9150.000000;0.354687
9149.000000;0.354647
9148.000000;0.354378
9147.000000;0.353850
9146.000000;0.353220
9145.000000;0.352650
9144.000000;0.352146
9143.000000;0.351619
9142.000000;0.351023
9141.000000;0.350337
9140.000000;0.349493
9139.000000;0.348521
9138.000000;0.347689
9137.000000;0.347260
9136.000000;0.347079
9135.000000;0.346626
9134.000000;0.345590
9133.000000;0.344237
9132.000000;0.343080
9131.000000;0.342312
9130.000000;0.341711
9129.000000;0.341008
9128.000000;0.340203
9127.000000;0.339535
9126.000000;0.339204
9125.000000;0.339143
9124.000000;0.339071
9123.000000;0.338778
9122.000000;0.338343
9121.000000;0.337975
9120.000000;0.337671
9119.000000;0.337179
9118.000000;0.336338
9117.000000;0.335327
9116.000000;0.334525
9115.000000;0.334166
9114.000000;0.334165
9113.000000;0.334177
9112.000000;0.333828
9111.000000;0.333048
9110.000000;0.332197
9109.000000;0.331715
9108.000000;0.331623
9107.000000;0.331504
9106.000000;0.331040
9105.000000;0.330352
9104.000000;0.329724
9103.000000;0.329212
9102.000000;0.328708
9101.000000;0.328193
9100.000000;0.327693
9099.000000;0.327105
9098.000000;0.326313
9097.000000;0.325430
9096.000000;0.324706
9095.000000;0.324191
9094.000000;0.323715
9093.000000;0.323162
9092.000000;0.322558
9091.000000;0.321869
9090.000000;0.320946
9089.000000;0.319769
9088.000000;0.318606
9087.000000;0.317782
9086.000000;0.317417
9085.000000;0.317437
9084.000000;0.317720
9083.000000;0.318094
9082.000000;0.318261
9081.000000;0.317932
9080.000000;0.317099
9079.000000;0.316079
9078.000000;0.315224
9077.000000;0.314632
9076.000000;0.314134
9075.000000;0.313530
9074.000000;0.312750
9073.000000;0.311832
9072.000000;0.310854
9071.000000;0.309967
9070.000000;0.309408
9069.000000;0.309324
9068.000000;0.309555
9067.000000;0.309716
9066.000000;0.309528
9065.000000;0.309001
9064.000000;0.308278
9063.000000;0.307447
9062.000000;0.306570
9061.000000;0.305753
9060.000000;0.305038
9059.000000;0.304338
9058.000000;0.303616
9057.000000;0.303053
9056.000000;0.302877
9055.000000;0.303017
9054.000000;0.303100
9053.000000;0.302834
9052.000000;0.302243
9051.000000;0.301524
9050.000000;0.300807
9049.000000;0.300141
9048.000000;0.299601
9047.000000;0.299274
9046.000000;0.299124
9045.000000;0.298958
9044.000000;0.298545
9043.000000;0.297816
9042.000000;0.296975
9041.000000;0.296380
9040.000000;0.296236
9039.000000;0.296399
9038.000000;0.296498
9037.000000;0.296251
9036.000000;0.295613
9035.000000;0.294675
9034.000000;0.293565
9033.000000;0.292475
9032.000000;0.291664
9031.000000;0.291284
9030.000000;0.291232
9029.000000;0.291233
9028.000000;0.291090
9027.000000;0.290821
9026.000000;0.290552
9025.000000;0.290337
9024.000000;0.290130
9023.000000;0.289907
9022.000000;0.289720
9021.000000;0.289565
9020.000000;0.289270
9019.000000;0.288645
9018.000000;0.287765
9017.000000;0.286933
9016.000000;0.286321
9015.000000;0.285788
9014.000000;0.285154
9013.000000;0.284513
9012.000000;0.284075
9011.000000;0.283816
9010.000000;0.283491
9009.000000;0.283016
9008.000000;0.282601
9007.000000;0.282452
9006.000000;0.282494
9005.000000;0.282457
9004.000000;0.282120
9003.000000;0.281451
9002.000000;0.280627
9001.000000;0.279967
9000.000000;0.279672
8999.000000;0.279568
8998.000000;0.279257
8997.000000;0.278590
8996.000000;0.277858
8995.000000;0.277384
8994.000000;0.277107
8993.000000;0.276734
8992.000000;0.276170
8991.000000;0.275584
8990.000000;0.275106
8989.000000;0.274709
8988.000000;0.274393
8987.000000;0.274264
8986.000000;0.274344
8985.000000;0.274441
8984.000000;0.274326
8983.000000;0.273972
8982.000000;0.273530
8981.000000;0.273126
8980.000000;0.272750
8979.000000;0.272313
8978.000000;0.271746
8977.000000;0.271068
8976.000000;0.270402
8975.000000;0.269916
8974.000000;0.269654
8973.000000;0.269448
8972.000000;0.269072
8971.000000;0.268500
8970.000000;0.267941
8969.000000;0.267600
8968.000000;0.267453
8967.000000;0.267320
8966.000000;0.267071
8965.000000;0.266684
8964.000000;0.266163
8963.000000;0.265568
8962.000000;0.265100
8961.000000;0.264957
8960.000000;0.265030
8959.000000;0.264931
8958.000000;0.264465
8957.000000;0.263923
8956.000000;0.263719
8955.000000;0.263834
8954.000000;0.263841
8953.000000;0.263451
8952.000000;0.262771
8951.000000;0.262035
8950.000000;0.261359
8949.000000;0.260812
8948.000000;0.260478
8947.000000;0.260331
8946.000000;0.260245
8945.000000;0.260240
8944.000000;0.260469
8943.000000;0.260833
8942.000000;0.260843
8941.000000;0.260155
8940.000000;0.259065
8939.000000;0.258194
8938.000000;0.257781
8937.000000;0.257557
8936.000000;0.257239
8935.000000;0.256841
8934.000000;0.256456
8933.000000;0.256023
8932.000000;0.255449
8931.000000;0.254799
8930.000000;0.254252
8929.000000;0.253969
8928.000000;0.254016
8927.000000;0.254284
8926.000000;0.254464
8925.000000;0.254259
8924.000000;0.253694
8923.000000;0.253101
8922.000000;0.252756
8921.000000;0.252643
8920.000000;0.252587
8919.000000;0.252452
8918.000000;0.252155
8917.000000;0.251667
8916.000000;0.251116
8915.000000;0.250749
8914.000000;0.250660
8913.000000;0.250645
8912.000000;0.250424
8911.000000;0.249954
8910.000000;0.249407
8909.000000;0.248925
8908.000000;0.248517
8907.000000;0.248145
8906.000000;0.247780
8905.000000;0.247394
8904.000000;0.246985
8903.000000;0.246620
8902.000000;0.246375
8901.000000;0.246244
8900.000000;0.246166
8899.000000;0.246092
8898.000000;0.245969
8897.000000;0.245722
8896.000000;0.245327
8895.000000;0.244902
8894.000000;0.244604
8893.000000;0.244436
8892.000000;0.244231
8891.000000;0.243844
8890.000000;0.243306
8889.000000;0.242780
8888.000000;0.242422
8887.000000;0.242286
8886.000000;0.242295
8885.000000;0.242287
8884.000000;0.242103
8883.000000;0.241680
8882.000000;0.241098
8881.000000;0.240547
8880.000000;0.240221
8879.000000;0.240139
8878.000000;0.240073
8877.000000;0.239724
8876.000000;0.239033
8875.000000;0.238274
8874.000000;0.237774
8873.000000;0.237606
8872.000000;0.237600
8871.000000;0.237603
8870.000000;0.237608
8869.000000;0.237663
8868.000000;0.237728
8867.000000;0.237661
8866.000000;0.237313
8865.000000;0.236670
8864.000000;0.235903
8863.000000;0.235271
8862.000000;0.234912
8861.000000;0.234774
8860.000000;0.234767
8859.000000;0.234900
8858.000000;0.235174
8857.000000;0.235424
8856.000000;0.235404
8855.000000;0.235051
8854.000000;0.234567
8853.000000;0.234205
8852.000000;0.234044
8851.000000;0.233977
8850.000000;0.233831
8849.000000;0.233495
8848.000000;0.233007
8847.000000;0.232532
8846.000000;0.232218
8845.000000;0.232041
8844.000000;0.231844
8843.000000;0.231498
8842.000000;0.230984
8841.000000;0.230347
8840.000000;0.229695
8839.000000;0.229208
8838.000000;0.229013
8837.000000;0.228998
8836.000000;0.228886
8835.000000;0.228534
8834.000000;0.228073
8833.000000;0.227686
8832.000000;0.227395
8831.000000;0.227152
8830.000000;0.227027
8829.000000;0.227122
8828.000000;0.227349
8827.000000;0.227460
8826.000000;0.227300
8825.000000;0.226932
8824.000000;0.226500
8823.000000;0.226078
8822.000000;0.225700
8821.000000;0.225400
8820.000000;0.225160
8819.000000;0.224884
8818.000000;0.224507
8817.000000;0.224134
8816.000000;0.223995
8815.000000;0.224271
8814.000000;0.224921
8813.000000;0.225644
8812.000000;0.226019
8811.000000;0.225766
8810.000000;0.224970
8809.000000;0.224018
8808.000000;0.223278
8807.000000;0.222834
8806.000000;0.222564
8805.000000;0.222380
8804.000000;0.222293
8803.000000;0.222279
8802.000000;0.222228
8801.000000;0.222079
8800.000000;0.221889
8799.000000;0.221691
8798.000000;0.221365
8797.000000;0.220793
8796.000000;0.220096
8795.000000;0.219581
8794.000000;0.219387
8793.000000;0.219301
8792.000000;0.219008
8791.000000;0.218462
8790.000000;0.217909
8789.000000;0.217578
8788.000000;0.217467
8787.000000;0.217436
8786.000000;0.217444
8785.000000;0.217598
8784.000000;0.217973
8783.000000;0.218428
8782.000000;0.218651
8781.000000;0.218427
8780.000000;0.217856
8779.000000;0.217262
8778.000000;0.216871
8777.000000;0.216618
8776.000000;0.216314
8775.000000;0.215926
8774.000000;0.215616
8773.000000;0.215508
8772.000000;0.215537
8771.000000;0.215522
8770.000000;0.215347
8769.000000;0.215040
8768.000000;0.214742
8767.000000;0.214624
8766.000000;0.214744
8765.000000;0.214955
8764.000000;0.215002
8763.000000;0.214769
8762.000000;0.214393
8761.000000;0.214077
8760.000000;0.213871
8759.000000;0.213690
8758.000000;0.213511
8757.000000;0.213423
8756.000000;0.213489
8755.000000;0.213639
8754.000000;0.213729
8753.000000;0.213623
8752.000000;0.213237
8751.000000;0.212596
8750.000000;0.211911
8749.000000;0.211494
8748.000000;0.211477
8747.000000;0.211669
8746.000000;0.211764
8745.000000;0.211676
8744.000000;0.211560
8743.000000;0.211513
8742.000000;0.211412
8741.000000;0.211113
8740.000000;0.210705
8739.000000;0.210420
8738.000000;0.210332
8737.000000;0.210280
8736.000000;0.210108
8735.000000;0.209864
8734.000000;0.209699
8733.000000;0.209618
8732.000000;0.209451
8731.000000;0.209055
8730.000000;0.208458
8729.000000;0.207817
8728.000000;0.207275
8727.000000;0.206913
8726.000000;0.206776
8725.000000;0.206877
8724.000000;0.207143
8723.000000;0.207397
8722.000000;0.207447
8721.000000;0.207222
8720.000000;0.206836
8719.000000;0.206513
8718.000000;0.206437
8717.000000;0.206647
8716.000000;0.207003
8715.000000;0.207253
8714.000000;0.207170
8713.000000;0.206722
8712.000000;0.206125
8711.000000;0.205668
8710.000000;0.205466
8709.000000;0.205407
8708.000000;0.205343
8707.000000;0.205258
8706.000000;0.205197
8705.000000;0.205112
8704.000000;0.204857
8703.000000;0.204357
8702.000000;0.203707
8701.000000;0.203113
8700.000000;0.202772
8699.000000;0.202783
8698.000000;0.203074
8697.000000;0.203406
8696.000000;0.203533
8695.000000;0.203411
8694.000000;0.203203
8693.000000;0.203066
8692.000000;0.202978
8691.000000;0.202824
8690.000000;0.202557
8689.000000;0.202224
8688.000000;0.201860
8687.000000;0.201460
8686.000000;0.201042
8685.000000;0.200667
8684.000000;0.200375
8683.000000;0.200163
8682.000000;0.200047
8681.000000;0.200072
8680.000000;0.200224
8679.000000;0.200385
8678.000000;0.200434
8677.000000;0.200368
8676.000000;0.200271
8675.000000;0.200185
8674.000000;0.200055
8673.000000;0.199819
8672.000000;0.199492
8671.000000;0.199139
8670.000000;0.198806
8669.000000;0.198513
8668.000000;0.198298
8667.000000;0.198226
8666.000000;0.198342
8665.000000;0.198628
8664.000000;0.198999
8663.000000;0.199314
8662.000000;0.199405
8661.000000;0.199160
8660.000000;0.198624
8659.000000;0.197998
8658.000000;0.197500
8657.000000;0.197224
8656.000000;0.197155
8655.000000;0.197233
8654.000000;0.197364
8653.000000;0.197380
8652.000000;0.197122
8651.000000;0.196622
8650.000000;0.196145
8649.000000;0.195941
8648.000000;0.195996
8647.000000;0.196074
8646.000000;0.195996
8645.000000;0.195805
8644.000000;0.195641
8643.000000;0.195546
8642.000000;0.195460
8641.000000;0.195327
8640.000000;0.195144
8639.000000;0.194908
8638.000000;0.194598
8637.000000;0.194225
8636.000000;0.193867
8635.000000;0.193621
8634.000000;0.193555
8633.000000;0.193676
8632.000000;0.193915
8631.000000;0.194134
8630.000000;0.194222
8629.000000;0.194191
8628.000000;0.194148
8627.000000;0.194135
8626.000000;0.194057
8625.000000;0.193804
8624.000000;0.193423
8623.000000;0.193090
8622.000000;0.192935
8621.000000;0.192928
8620.000000;0.192943
8619.000000;0.192882
8618.000000;0.192749
8617.000000;0.192619
8616.000000;0.192567
8615.000000;0.192580
8614.000000;0.192550
8613.000000;0.192378
8612.000000;0.192085
8611.000000;0.191798
8610.000000;0.191605
8609.000000;0.191478
8608.000000;0.191355
8607.000000;0.191243
8606.000000;0.191207
8605.000000;0.191265
8604.000000;0.191352
8603.000000;0.191395
8602.000000;0.191374
8601.000000;0.191310
8600.000000;0.191215
8599.000000;0.191088
8598.000000;0.190942
8597.000000;0.190786
8596.000000;0.190583
8595.000000;0.190272
8594.000000;0.189862
8593.000000;0.189463
8592.000000;0.189198
8591.000000;0.189087
8590.000000;0.189071
8589.000000;0.189129
8588.000000;0.189291
8587.000000;0.189518
8586.000000;0.189652
8585.000000;0.189556
8584.000000;0.189271
8583.000000;0.188981
8582.000000;0.188826
8581.000000;0.188815
8580.000000;0.188872
8579.000000;0.188906
8578.000000;0.188832
8577.000000;0.188602
8576.000000;0.188266
8575.000000;0.187938
8574.000000;0.187695
8573.000000;0.187533
8572.000000;0.187436
8571.000000;0.187423
8570.000000;0.187479
8569.000000;0.187514
8568.000000;0.187451
8567.000000;0.187331
8566.000000;0.187272
8565.000000;0.187326
8564.000000;0.187404
8563.000000;0.187374
8562.000000;0.187194
8561.000000;0.186954
8560.000000;0.186801
8559.000000;0.186810
8558.000000;0.186906
8557.000000;0.186902
8556.000000;0.186639
8555.000000;0.186130
8554.000000;0.185600
8553.000000;0.185330
8552.000000;0.185428
8551.000000;0.185720
8550.000000;0.185885
8549.000000;0.185724
8548.000000;0.185313
8547.000000;0.184887
8546.000000;0.184630
8545.000000;0.184555
8544.000000;0.184553
8543.000000;0.184509
8542.000000;0.184404
8541.000000;0.184321
8540.000000;0.184322
8539.000000;0.184328
8538.000000;0.184185
8537.000000;0.183886
8536.000000;0.183632
8535.000000;0.183572
8534.000000;0.183568
8533.000000;0.183350
8532.000000;0.182884
8531.000000;0.182429
8530.000000;0.182228
8529.000000;0.182258
8528.000000;0.182352
8527.000000;0.182414
8526.000000;0.182444
8525.000000;0.182437
8524.000000;0.182376
8523.000000;0.182264
8522.000000;0.182126
8521.000000;0.181989
8520.000000;0.181911
8519.000000;0.181965
8518.000000;0.182142
8517.000000;0.182329
8516.000000;0.182409
8515.000000;0.182343
8514.000000;0.182104
8513.000000;0.181663
8512.000000;0.181105
8511.000000;0.180683
8510.000000;0.180607
8509.000000;0.180808
8508.000000;0.181002
8507.000000;0.180995
8506.000000;0.180815
8505.000000;0.180583
8504.000000;0.180373
8503.000000;0.180231
8502.000000;0.180210
8501.000000;0.180310
8500.000000;0.180416
8499.000000;0.180373
8498.000000;0.180126
8497.000000;0.179781
8496.000000;0.179516
8495.000000;0.179435
8494.000000;0.179494
8493.000000;0.179568
8492.000000;0.179566
8491.000000;0.179463
8490.000000;0.179258
8489.000000;0.178972
8488.000000;0.178692
8487.000000;0.178519
8486.000000;0.178450
8485.000000;0.178370
8484.000000;0.178236
8483.000000;0.178157
8482.000000;0.178220
8481.000000;0.178313
8480.000000;0.178246
8479.000000;0.178005
8478.000000;0.177771
8477.000000;0.177670
8476.000000;0.177648
8475.000000;0.177591
8474.000000;0.177471
8473.000000;0.177344
8472.000000;0.177292
8471.000000;0.177377
8470.000000;0.177581
8469.000000;0.177753
8468.000000;0.177700
8467.000000;0.177393
8466.000000;0.177009
8465.000000;0.176723
8464.000000;0.176522
8463.000000;0.176295
8462.000000;0.176040
8461.000000;0.175892
8460.000000;0.175935
8459.000000;0.176098
8458.000000;0.176230
8457.000000;0.176256
8456.000000;0.176222
8455.000000;0.176208
8454.000000;0.176224
8453.000000;0.176178
8452.000000;0.175955
8451.000000;0.175549
8450.000000;0.175110
8449.000000;0.174842
8448.000000;0.174813
8447.000000;0.174883
8446.000000;0.174841
8445.000000;0.174622
8444.000000;0.174366
8443.000000;0.174253
8442.000000;0.174291
8441.000000;0.174323
8440.000000;0.174217
8439.000000;0.174005
8438.000000;0.173820
8437.000000;0.173725
8436.000000;0.173640
8435.000000;0.173431
8434.000000;0.173074
8433.000000;0.172723
8432.000000;0.172603
8431.000000;0.172799
8430.000000;0.173136
8429.000000;0.173306
8428.000000;0.173116
8427.000000;0.172619
8426.000000;0.172030
8425.000000;0.171572
8424.000000;0.171390
8423.000000;0.171494
8422.000000;0.171749
8421.000000;0.171973
8420.000000;0.172098
8419.000000;0.172200
8418.000000;0.172366
8417.000000;0.172572
8416.000000;0.172723
8415.000000;0.172752
8414.000000;0.172616
8413.000000;0.172281
8412.000000;0.171788
8411.000000;0.171294
8410.000000;0.170961
8409.000000;0.170830
8408.000000;0.170836
8407.000000;0.170921
8406.000000;0.171031
8405.000000;0.171069
8404.000000;0.170953
8403.000000;0.170730
8402.000000;0.170537
8401.000000;0.170435
8400.000000;0.170357
8399.000000;0.170244
8398.000000;0.170131
8397.000000;0.170066
8396.000000;0.169993
8395.000000;0.169787
8394.000000;0.169387
8393.000000;0.168888
8392.000000;0.168491
8391.000000;0.168368
8390.000000;0.168525
8389.000000;0.168800
8388.000000;0.168994
8387.000000;0.169019
8386.000000;0.168897
8385.000000;0.168668
8384.000000;0.168347
8383.000000;0.167974
8382.000000;0.167643
8381.000000;0.167457
8380.000000;0.167446
8379.000000;0.167537
8378.000000;0.167601
8377.000000;0.167543
8376.000000;0.167374
8375.000000;0.167185
8374.000000;0.167058
8373.000000;0.167010
8372.000000;0.167022
8371.000000;0.167070
8370.000000;0.167105
8369.000000;0.167058
8368.000000;0.166898
8367.000000;0.166670
8366.000000;0.166424
8365.000000;0.166170
8364.000000;0.165919
8363.000000;0.165741
8362.000000;0.165695
8361.000000;0.165745
8360.000000;0.165791
8359.000000;0.165776
8358.000000;0.165697
8357.000000;0.165550
8356.000000;0.165330
8355.000000;0.165071
8354.000000;0.164837
8353.000000;0.164667
8352.000000;0.164568
8351.000000;0.164538
8350.000000;0.164536
8349.000000;0.164481
8348.000000;0.164338
8347.000000;0.164174
8346.000000;0.164061
8345.000000;0.163972
8344.000000;0.163859
8343.000000;0.163796
8342.000000;0.163895
8341.000000;0.164083
8340.000000;0.164119
8339.000000;0.163896
8338.000000;0.163610
8337.000000;0.163524
8336.000000;0.163635
8335.000000;0.163682
8334.000000;0.163455
8333.000000;0.163001
8332.000000;0.162555
8331.000000;0.162310
8330.000000;0.162291
8329.000000;0.162378
8328.000000;0.162423
8327.000000;0.162351
8326.000000;0.162169
8325.000000;0.161926
8324.000000;0.161673
8323.000000;0.161455
8322.000000;0.161296
8321.000000;0.161178
8320.000000;0.161065
8319.000000;0.160948
8318.000000;0.160858
8317.000000;0.160831
8316.000000;0.160873
8315.000000;0.160944
8314.000000;0.160961
8313.000000;0.160833
8312.000000;0.160538
8311.000000;0.160153
8310.000000;0.159791
8309.000000;0.159533
8308.000000;0.159413
8307.000000;0.159409
8306.000000;0.159410
8305.000000;0.159258
8304.000000;0.158902
8303.000000;0.158514
8302.000000;0.158352
8301.000000;0.158507
8300.000000;0.158800
8299.000000;0.158952
8298.000000;0.158815
8297.000000;0.158471
8296.000000;0.158147
8295.000000;0.158021
8294.000000;0.158051
8293.000000;0.158007
8292.000000;0.157724
8291.000000;0.157299
8290.000000;0.156974
8289.000000;0.156861
8288.000000;0.156866
8287.000000;0.156863
8286.000000;0.156823
8285.000000;0.156739
8284.000000;0.156550
8283.000000;0.156211
8282.000000;0.155804
8281.000000;0.155478
8280.000000;0.155311
8279.000000;0.155265
8278.000000;0.155261
8277.000000;0.155242
8276.000000;0.155188
8275.000000;0.155110
8274.000000;0.155034
8273.000000;0.154968
8272.000000;0.154869
8271.000000;0.154644
8270.000000;0.154244
8269.000000;0.153746
8268.000000;0.153340
8267.000000;0.153168
8266.000000;0.153181
8265.000000;0.153204
8264.000000;0.153153
8263.000000;0.153111
8262.000000;0.153162
8261.000000;0.153233
8260.000000;0.153177
8259.000000;0.152961
8258.000000;0.152690
8257.000000;0.152461
8256.000000;0.152287
8255.000000;0.152129
8254.000000;0.151938
8253.000000;0.151658
8252.000000;0.151289
8251.000000;0.150930
8250.000000;0.150706
8249.000000;0.150644
8248.000000;0.150684
8247.000000;0.150775
8246.000000;0.150875
8245.000000;0.150906
8244.000000;0.150810
8243.000000;0.150665
8242.000000;0.150613
8241.000000;0.150654
8240.000000;0.150619
8239.000000;0.150410
8238.000000;0.150143
8237.000000;0.149988
8236.000000;0.149955
8235.000000;0.149906
8234.000000;0.149739
8233.000000;0.149473
8232.000000;0.149194
8231.000000;0.148976
8230.000000;0.148851
8229.000000;0.148790
8228.000000;0.148728
8227.000000;0.148629
8226.000000;0.148519
8225.000000;0.148432
8224.000000;0.148354
8223.000000;0.148227
8222.000000;0.147981
8221.000000;0.147583
8220.000000;0.147085
8219.000000;0.146638
8218.000000;0.146388
8217.000000;0.146342
8216.000000;0.146369
8215.000000;0.146341
8214.000000;0.146247
8213.000000;0.146136
8212.000000;0.146007
8211.000000;0.145804
8210.000000;0.145495
8209.000000;0.145135
8208.000000;0.144856
8207.000000;0.144766
8206.000000;0.144833
8205.000000;0.144886
8204.000000;0.144782
8203.000000;0.144547
8202.000000;0.144303
8201.000000;0.144077
8200.000000;0.143794
8199.000000;0.143451
8198.000000;0.143203
8197.000000;0.143184
8196.000000;0.143336
8195.000000;0.143473
8194.000000;0.143475
8193.000000;0.143360
8192.000000;0.143198
8191.000000;0.143017
8190.000000;0.142797
8189.000000;0.142509
8188.000000;0.142154
8187.000000;0.141766
8186.000000;0.141383
8185.000000;0.141023
8184.000000;0.140729
8183.000000;0.140600
8182.000000;0.140709
8181.000000;0.140976
8180.000000;0.141177
8179.000000;0.141131
8178.000000;0.140843
8177.000000;0.140457
8176.000000;0.140124
8175.000000;0.139921
8174.000000;0.139854
8173.000000;0.139855
8172.000000;0.139827
8171.000000;0.139715
8170.000000;0.139534
8169.000000;0.139324
8168.000000;0.139094
8167.000000;0.138825
8166.000000;0.138514
8165.000000;0.138186
8164.000000;0.137899
8163.000000;0.137720
8162.000000;0.137645
8161.000000;0.137555
8160.000000;0.137304
8159.000000;0.136871
8158.000000;0.136385
8157.000000;0.136008
8156.000000;0.135822
8155.000000;0.135807
8154.000000;0.135859
8153.000000;0.135836
8152.000000;0.135664
8151.000000;0.135421
8150.000000;0.135254
8149.000000;0.135184
8148.000000;0.135075
8147.000000;0.134808
8146.000000;0.134432
8145.000000;0.134099
8144.000000;0.133925
8143.000000;0.133924
8142.000000;0.134029
8141.000000;0.134106
8140.000000;0.134030
8139.000000;0.133783
8138.000000;0.133461
8137.000000;0.133153
8136.000000;0.132885
8135.000000;0.132667
8134.000000;0.132516
8133.000000;0.132401
8132.000000;0.132243
8131.000000;0.132032
8130.000000;0.131845
8129.000000;0.131697
8128.000000;0.131473
8127.000000;0.131101
8126.000000;0.130728
8125.000000;0.130562
8124.000000;0.130596
8123.000000;0.130589
8122.000000;0.130359
8121.000000;0.129983
8120.000000;0.129680
8119.000000;0.129560
8118.000000;0.129525
8117.000000;0.129384
8116.000000;0.129036
8115.000000;0.128561
8114.000000;0.128145
8113.000000;0.127912
8112.000000;0.127822
8111.000000;0.127746
8110.000000;0.127620
8109.000000;0.127500
8108.000000;0.127490
8107.000000;0.127615
8106.000000;0.127767
8105.000000;0.127775
8104.000000;0.127550
8103.000000;0.127184
8102.000000;0.126862
8101.000000;0.126663
8100.000000;0.126493
8099.000000;0.126238
8098.000000;0.125909
8097.000000;0.125609
8096.000000;0.125392
8095.000000;0.125210
8094.000000;0.124987
8093.000000;0.124705
8092.000000;0.124418
8091.000000;0.124215
8090.000000;0.124133
8089.000000;0.124102
8088.000000;0.124000
8087.000000;0.123795
8086.000000;0.123574
8085.000000;0.123419
8084.000000;0.123301
8083.000000;0.123131
8082.000000;0.122857
8081.000000;0.122476
8080.000000;0.122005
8079.000000;0.121511
8078.000000;0.121124
8077.000000;0.120929
8076.000000;0.120877
8075.000000;0.120845
8074.000000;0.120784
8073.000000;0.120740
8072.000000;0.120745
8071.000000;0.120764
8070.000000;0.120729
8069.000000;0.120589
8068.000000;0.120327
8067.000000;0.119978
8066.000000;0.119609
8065.000000;0.119241
8064.000000;0.118808
8063.000000;0.118278
8062.000000;0.117760
8061.000000;0.117414
8060.000000;0.117258
8059.000000;0.117155
8058.000000;0.116996
8057.000000;0.116815
8056.000000;0.116683
8055.000000;0.116585
8054.000000;0.116468
8053.000000;0.116345
8052.000000;0.116270
8051.000000;0.116225
8050.000000;0.116125
8049.000000;0.115908
8048.000000;0.115592
8047.000000;0.115206
8046.000000;0.114757
8045.000000;0.114290
8044.000000;0.113944
8043.000000;0.113857
8042.000000;0.113999
8041.000000;0.114153
8040.000000;0.114092
8039.000000;0.113787
8038.000000;0.113390
8037.000000;0.113054
8036.000000;0.112813
8035.000000;0.112621
8034.000000;0.112448
8033.000000;0.112283
8032.000000;0.112102
8031.000000;0.111885
8030.000000;0.111639
8029.000000;0.111384
8028.000000;0.111115
8027.000000;0.110808
8026.000000;0.110470
8025.000000;0.110143
8024.000000;0.109872
8023.000000;0.109679
8022.000000;0.109547
8021.000000;0.109429
8020.000000;0.109288
8019.000000;0.109123
8018.000000;0.108937
8017.000000;0.108684
8016.000000;0.108296
8015.000000;0.107787
8014.000000;0.107265
8013.000000;0.106830
8012.000000;0.106501
8011.000000;0.106278
8010.000000;0.106213
8009.000000;0.106328
8008.000000;0.106515
8007.000000;0.106578
8006.000000;0.106407
8005.000000;0.106047
8004.000000;0.105607
8003.000000;0.105165
8002.000000;0.104772
8001.000000;0.104463
8000.000000;0.104237
7999.000000;0.104053
7998.000000;0.103856
7997.000000;0.103605
7996.000000;0.103274
7995.000000;0.102879
7994.000000;0.102495
7993.000000;0.102199
7992.000000;0.101991
7991.000000;0.101803
7990.000000;0.101590
7989.000000;0.101363
7988.000000;0.101127
7987.000000;0.100859
7986.000000;0.100573
7985.000000;0.100352
7984.000000;0.100255
7983.000000;0.100212
7982.000000;0.100077
7981.000000;0.099770
7980.000000;0.099338
7979.000000;0.098888
7978.000000;0.098509
7977.000000;0.098244
7976.000000;0.098074
7975.000000;0.097922
7974.000000;0.097712
7973.000000;0.097435
7972.000000;0.097151
7971.000000;0.096913
7970.000000;0.096719
7969.000000;0.096532
7968.000000;0.096332
7967.000000;0.096121
7966.000000;0.095914
7965.000000;0.095721
7964.000000;0.095515
7963.000000;0.095225
7962.000000;0.094796
7961.000000;0.094297
7960.000000;0.093902
7959.000000;0.093718
7958.000000;0.093653
7957.000000;0.093506
7956.000000;0.093207
7955.000000;0.092896
7954.000000;0.092748
7953.000000;0.092754
7952.000000;0.092728
7951.000000;0.092499
7950.000000;0.092061
7949.000000;0.091550
7948.000000;0.091108
7947.000000;0.090797
7946.000000;0.090599
7945.000000;0.090466
7944.000000;0.090354
7943.000000;0.090224
7942.000000;0.090027
7941.000000;0.089719
7940.000000;0.089305
7939.000000;0.088853
7938.000000;0.088458
7937.000000;0.088172
7936.000000;0.087974
7935.000000;0.087789
7934.000000;0.087540
7933.000000;0.087201
7932.000000;0.086807
7931.000000;0.086443
7930.000000;0.086196
7929.000000;0.086103
7928.000000;0.086104
7927.000000;0.086036
7926.000000;0.085746
7925.000000;0.085236
7924.000000;0.084687
7923.000000;0.084264
7922.000000;0.083944
7921.000000;0.083596
7920.000000;0.083216
7919.000000;0.082957
7918.000000;0.082903
7917.000000;0.082916
7916.000000;0.082792
7915.000000;0.082506
7914.000000;0.082196
7913.000000;0.081955
7912.000000;0.081744
7911.000000;0.081491
7910.000000;0.081175
7909.000000;0.080810
7908.000000;0.080424
7907.000000;0.080065
7906.000000;0.079760
7905.000000;0.079457
7904.000000;0.079076
7903.000000;0.078641
7902.000000;0.078287
7901.000000;0.078095
7900.000000;0.077999
7899.000000;0.077888
7898.000000;0.077738
7897.000000;0.077577
7896.000000;0.077388
7895.000000;0.077115
7894.000000;0.076761
7893.000000;0.076403
7892.000000;0.076112
7891.000000;0.075896
7890.000000;0.075724
7889.000000;0.075556
7888.000000;0.075359
7887.000000;0.075111
7886.000000;0.074824
7885.000000;0.074523
7884.000000;0.074232
7883.000000;0.073968
7882.000000;0.073750
7881.000000;0.073573
7880.000000;0.073391
7879.000000;0.073146
7878.000000;0.072835
7877.000000;0.072526
7876.000000;0.072283
7875.000000;0.072091
7874.000000;0.071859
7873.000000;0.071513
7872.000000;0.071087
7871.000000;0.070696
7870.000000;0.070425
7869.000000;0.070248
7868.000000;0.070043
7867.000000;0.069704
7866.000000;0.069217
7865.000000;0.068662
7864.000000;0.068162
7863.000000;0.067819
7862.000000;0.067659
7861.000000;0.067615
7860.000000;0.067579
7859.000000;0.067472
7858.000000;0.067272
7857.000000;0.066992
7856.000000;0.066654
7855.000000;0.066285
7854.000000;0.065908
7853.000000;0.065531
7852.000000;0.065157
7851.000000;0.064816
7850.000000;0.064546
7849.000000;0.064333
7848.000000;0.064100
7847.000000;0.063780
7846.000000;0.063405
7845.000000;0.063082
7844.000000;0.062883
7843.000000;0.062759
7842.000000;0.062577
7841.000000;0.062254
7840.000000;0.061836
7839.000000;0.061451
7838.000000;0.061175
7837.000000;0.060975
7836.000000;0.060775
7835.000000;0.060536
7834.000000;0.060259
7833.000000;0.059944
7832.000000;0.059591
7831.000000;0.059235
7830.000000;0.058941
7829.000000;0.058739
7828.000000;0.058605
7827.000000;0.058492
7826.000000;0.058363
7825.000000;0.058201
7824.000000;0.058003
7823.000000;0.057774
7822.000000;0.057498
7821.000000;0.057134
7820.000000;0.056675
7819.000000;0.056199
7818.000000;0.055827
7817.000000;0.055591
7816.000000;0.055399
7815.000000;0.055147
7814.000000;0.054839
7813.000000;0.054566
7812.000000;0.054381
7811.000000;0.054224
7810.000000;0.053980
7809.000000;0.053600
7808.000000;0.053166
7807.000000;0.052826
7806.000000;0.052649
7805.000000;0.052546
7804.000000;0.052351
7803.000000;0.051994
7802.000000;0.051569
7801.000000;0.051225
7800.000000;0.051033
7799.000000;0.050953
7798.000000;0.050907
7797.000000;0.050836
7796.000000;0.050706
7795.000000;0.050495
7794.000000;0.050199
7793.000000;0.049838
7792.000000;0.049445
7791.000000;0.049063
7790.000000;0.048730
7789.000000;0.048451
7788.000000;0.048179
7787.000000;0.047849
7786.000000;0.047444
7785.000000;0.047019
7784.000000;0.046654
7783.000000;0.046384
7782.000000;0.046197
7781.000000;0.046079
7780.000000;0.046012
7779.000000;0.045926
7778.000000;0.045689
7777.000000;0.045220
7776.000000;0.044616
7775.000000;0.044101
7774.000000;0.043836
7773.000000;0.043778
7772.000000;0.043759
7771.000000;0.043648
7770.000000;0.043423
7769.000000;0.043128
7768.000000;0.042813
7767.000000;0.042512
7766.000000;0.042245
7765.000000;0.042008
7764.000000;0.041763
7763.000000;0.041464
7762.000000;0.041096
7761.000000;0.040700
7760.000000;0.040367
7759.000000;0.040154
7758.000000;0.040018
7757.000000;0.039847
7756.000000;0.039581
7755.000000;0.039274
7754.000000;0.039008
7753.000000;0.038784
7752.000000;0.038532
7751.000000;0.038200
7750.000000;0.037817
7749.000000;0.037469
7748.000000;0.037214
7747.000000;0.037020
7746.000000;0.036789
7745.000000;0.036467
7744.000000;0.036122
7743.000000;0.035862
7742.000000;0.035666
7741.000000;0.035382
7740.000000;0.034934
7739.000000;0.034447
7738.000000;0.034103
7737.000000;0.033924
7736.000000;0.033794
7735.000000;0.033647
7734.000000;0.033531
7733.000000;0.033476
7732.000000;0.033418
7731.000000;0.033273
7730.000000;0.033042
7729.000000;0.032786
7728.000000;0.032543
7727.000000;0.032298
7726.000000;0.032019
7725.000000;0.031692
7724.000000;0.031334
7723.000000;0.030984
7722.000000;0.030673
7721.000000;0.030403
7720.000000;0.030162
7719.000000;0.029942
7718.000000;0.029724
7717.000000;0.029481
7716.000000;0.029197
7715.000000;0.028891
7714.000000;0.028589
7713.000000;0.028300
7712.000000;0.028042
7711.000000;0.027854
7710.000000;0.027734
7709.000000;0.027606
7708.000000;0.027392
7707.000000;0.027089
7706.000000;0.026753
7705.000000;0.026416
7704.000000;0.026081
7703.000000;0.025767
7702.000000;0.025500
7701.000000;0.025281
7700.000000;0.025098
7699.000000;0.024947
7698.000000;0.024797
7697.000000;0.024562
7696.000000;0.024178
7695.000000;0.023690
7694.000000;0.023219
7693.000000;0.022840
7692.000000;0.022548
7691.000000;0.022314
7690.000000;0.022108
7689.000000;0.021885
7688.000000;0.021621
7687.000000;0.021361
7686.000000;0.021162
7685.000000;0.021004
7684.000000;0.020823
7683.000000;0.020609
7682.000000;0.020403
7681.000000;0.020194
7680.000000;0.019921
7679.000000;0.019589
7678.000000;0.019313
7677.000000;0.019188
7676.000000;0.019184
7675.000000;0.019183
7674.000000;0.019076
7673.000000;0.018817
7672.000000;0.018439
7671.000000;0.018049
7670.000000;0.017740
7669.000000;0.017493
7668.000000;0.017211
7667.000000;0.016862
7666.000000;0.016521
7665.000000;0.016260
7664.000000;0.016059
7663.000000;0.015865
7662.000000;0.015668
7661.000000;0.015492
7660.000000;0.015339
7659.000000;0.015190
7658.000000;0.015018
7657.000000;0.014779
7656.000000;0.014443
7655.000000;0.014049
7654.000000;0.013699
7653.000000;0.013450
7652.000000;0.013252
7651.000000;0.013012
7650.000000;0.012710
7649.000000;0.012405
7648.000000;0.012160
7647.000000;0.011973
7646.000000;0.011778
7645.000000;0.011512
7644.000000;0.011195
7643.000000;0.010922
7642.000000;0.010761
7641.000000;0.010676
7640.000000;0.010581
7639.000000;0.010439
7638.000000;0.010272
7637.000000;0.010086
7636.000000;0.009867
7635.000000;0.009625
7634.000000;0.009379
7633.000000;0.009105
7632.000000;0.008755
7631.000000;0.008348
7630.000000;0.007951
7629.000000;0.007598
7628.000000;0.007266
7627.000000;0.006954
7626.000000;0.006701
7625.000000;0.006509
7624.000000;0.006339
7623.000000;0.006195
7622.000000;0.006119
7621.000000;0.006077
7620.000000;0.005945
7619.000000;0.005655
7618.000000;0.005291
7617.000000;0.004986
7616.000000;0.004778
7615.000000;0.004621
7614.000000;0.004472
7613.000000;0.004306
7612.000000;0.004094
7611.000000;0.003811
7610.000000;0.003467
7609.000000;0.003094
7608.000000;0.002737
7607.000000;0.002460
7606.000000;0.002307
7605.000000;0.002236
7604.000000;0.002139
7603.000000;0.001967
7602.000000;0.001759
7601.000000;0.001540
7600.000000;0.001254
7599.000000;0.000869
7598.000000;0.000477
7597.000000;0.000198
7596.000000;0.000033
7595.000000;-0.000126
7594.000000;-0.000347
7593.000000;-0.000592
7592.000000;-0.000791
7591.000000;-0.000939
7590.000000;-0.001096
7589.000000;-0.001330
7588.000000;-0.001642
7587.000000;-0.001943
7586.000000;-0.002120
7585.000000;-0.002137
7584.000000;-0.002085
7583.000000;-0.002107
7582.000000;-0.002291
7581.000000;-0.002621
7580.000000;-0.003001
7579.000000;-0.003327
7578.000000;-0.003557
7577.000000;-0.003736
7576.000000;-0.003930
7575.000000;-0.004148
7574.000000;-0.004361
7573.000000;-0.004573
7572.000000;-0.004816
7571.000000;-0.005087
7570.000000;-0.005339
7569.000000;-0.005560
7568.000000;-0.005799
7567.000000;-0.006103
7566.000000;-0.006457
7565.000000;-0.006816
7564.000000;-0.007138
7563.000000;-0.007399
7562.000000;-0.007601
7561.000000;-0.007786
7560.000000;-0.007995
7559.000000;-0.008198
7558.000000;-0.008331
7557.000000;-0.008396
7556.000000;-0.008465
7555.000000;-0.008586
7554.000000;-0.008742
7553.000000;-0.008917
7552.000000;-0.009144
7551.000000;-0.009446
7550.000000;-0.009791
7549.000000;-0.010128
7548.000000;-0.010425
7547.000000;-0.010663
7546.000000;-0.010836
7545.000000;-0.010963
7544.000000;-0.011077
7543.000000;-0.011189
7542.000000;-0.011319
7541.000000;-0.011533
7540.000000;-0.011884
7539.000000;-0.012315
7538.000000;-0.012702
7537.000000;-0.012999
7536.000000;-0.013267
7535.000000;-0.013542
7534.000000;-0.013768
7533.000000;-0.013889
7532.000000;-0.013936
7531.000000;-0.013985
7530.000000;-0.014086
7529.000000;-0.014264
7528.000000;-0.014520
7527.000000;-0.014807
7526.000000;-0.015053
7525.000000;-0.015240
7524.000000;-0.015408
7523.000000;-0.015586
7522.000000;-0.015778
7521.000000;-0.016015
7520.000000;-0.016341
7519.000000;-0.016714
7518.000000;-0.017024
7517.000000;-0.017225
7516.000000;-0.017381
7515.000000;-0.017551
7514.000000;-0.017712
7513.000000;-0.017844
7512.000000;-0.017990
7511.000000;-0.018185
7510.000000;-0.018408
7509.000000;-0.018645
7508.000000;-0.018918
7507.000000;-0.019217
7506.000000;-0.019462
7505.000000;-0.019617
7504.000000;-0.019758
7503.000000;-0.019988
7502.000000;-0.020315
7501.000000;-0.020649
7500.000000;-0.020896
7499.000000;-0.021013
7498.000000;-0.021044
7497.000000;-0.021190
7496.000000;-0.021425
7495.000000;-0.021799
7494.000000;-0.022184
7493.000000;-0.022471
7492.000000;-0.022642
7491.000000;-0.022715
7490.000000;-0.022723
7489.000000;-0.022759
7488.000000;-0.022921
7487.000000;-0.023188
7486.000000;-0.023462
7485.000000;-0.023724
7484.000000;-0.024041
7483.000000;-0.024395
7482.000000;-0.024648
7481.000000;-0.024750
7480.000000;-0.024839
7479.000000;-0.025065
7478.000000;-0.025414
7477.000000;-0.025776
7476.000000;-0.026108
7475.000000;-0.026425
7474.000000;-0.026720
7473.000000;-0.026971
7472.000000;-0.027177
7471.000000;-0.027325
7470.000000;-0.027393
7469.000000;-0.027418
7468.000000;-0.027507
7467.000000;-0.027711
7466.000000;-0.027974
7465.000000;-0.028227
7464.000000;-0.028461
7463.000000;-0.028679
7462.000000;-0.028856
7461.000000;-0.029001
7460.000000;-0.029166
7459.000000;-0.029370
7458.000000;-0.029582
7457.000000;-0.029794
7456.000000;-0.030034
7455.000000;-0.030295
7454.000000;-0.030537
7453.000000;-0.030773
7452.000000;-0.031045
7451.000000;-0.031313
7450.000000;-0.031503
7449.000000;-0.031655
7448.000000;-0.031884
7447.000000;-0.032169
7446.000000;-0.032347
7445.000000;-0.032380
7444.000000;-0.032432
7443.000000;-0.032635
7442.000000;-0.032942
7441.000000;-0.033276
7440.000000;-0.033642
7439.000000;-0.033994
7438.000000;-0.034205
7437.000000;-0.034264
7436.000000;-0.034346
7435.000000;-0.034578
7434.000000;-0.034865
7433.000000;-0.035081
7432.000000;-0.035262
7431.000000;-0.035487
7430.000000;-0.035725
7429.000000;-0.035919
7428.000000;-0.036111
7427.000000;-0.036341
7426.000000;-0.036545
7425.000000;-0.036700
7424.000000;-0.036902
7423.000000;-0.037144
7422.000000;-0.037210
7421.000000;-0.036976
7420.000000;-0.036705
7419.000000;-0.036774
7418.000000;-0.037200
7417.000000;-0.037655
7416.000000;-0.037892
7415.000000;-0.037976
7414.000000;-0.038109
7413.000000;-0.038382
7412.000000;-0.038741
7411.000000;-0.039096
7410.000000;-0.039436
7409.000000;-0.039808
7408.000000;-0.040163
7407.000000;-0.040316
7406.000000;-0.040192
7405.000000;-0.040061
7404.000000;-0.040288
7403.000000;-0.040862
7402.000000;-0.041386
7401.000000;-0.041531
7400.000000;-0.041305
7399.000000;-0.040970
7398.000000;-0.040833
7397.000000;-0.041029
7396.000000;-0.041366
7395.000000;-0.041532
7394.000000;-0.041578
7393.000000;-0.041955
7392.000000;-0.042862
7391.000000;-0.043827
7390.000000;-0.044261
7389.000000;-0.044209
7388.000000;-0.044122
7387.000000;-0.044113
7386.000000;-0.043975
7385.000000;-0.043817
7384.000000;-0.043916
7383.000000;-0.043936
7382.000000;-0.043194
7381.000000;-0.042002
7380.000000;-0.041774
7379.000000;-0.043086
7378.000000;-0.044505
7377.000000;-0.044317
7376.000000;-0.042767
7375.000000;-0.041727
7374.000000;-0.042417
7373.000000;-0.044282
7372.000000;-0.045984
7371.000000;-0.046649
7370.000000;-0.046220
7369.000000;-0.045379
7368.000000;-0.045109
7367.000000;-0.045756
7366.000000;-0.046646
7365.000000;-0.047063
7364.000000;-0.047153
7363.000000;-0.047327
7362.000000;-0.047409
7361.000000;-0.047198
7360.000000;-0.047320
7359.000000;-0.048279
7358.000000;-0.049152
7357.000000;-0.048616
7356.000000;-0.046989
7355.000000;-0.046032
7354.000000;-0.046661
7353.000000;-0.048108
7352.000000;-0.049311
7351.000000;-0.049807
7350.000000;-0.049336
7349.000000;-0.048059
7348.000000;-0.047171
7347.000000;-0.047745
7346.000000;-0.049030
7345.000000;-0.049377
7344.000000;-0.048640
7343.000000;-0.047874
7342.000000;-0.046958
7341.000000;-0.044777
7340.000000;-0.042154
7339.000000;-0.042062
7338.000000;-0.045557
7337.000000;-0.049950
7336.000000;-0.052346
7335.000000;-0.052740
7334.000000;-0.052658
7333.000000;-0.052776
7332.000000;-0.053059
7331.000000;-0.053441
7330.000000;-0.053158
7329.000000;-0.051131
7328.000000;-0.048232
7327.000000;-0.047346
7326.000000;-0.049587
7325.000000;-0.052418
7324.000000;-0.053272
7323.000000;-0.052928
7322.000000;-0.053659
7321.000000;-0.055614
7320.000000;-0.056965
7319.000000;-0.056847
7318.000000;-0.056021
7317.000000;-0.055221
7316.000000;-0.054704
7315.000000;-0.054889
7314.000000;-0.055665
7313.000000;-0.055630
7312.000000;-0.053917
7311.000000;-0.052144
7310.000000;-0.052426
7309.000000;-0.054052
7308.000000;-0.054536
7307.000000;-0.053551
7306.000000;-0.053422
7305.000000;-0.055434
7304.000000;-0.058006
7303.000000;-0.059359
7302.000000;-0.059581
7301.000000;-0.059344
7300.000000;-0.058713
7299.000000;-0.058159
7298.000000;-0.058848
7297.000000;-0.060535
7296.000000;-0.061035
7295.000000;-0.059151
7294.000000;-0.056781
7293.000000;-0.056611
7292.000000;-0.058489
7291.000000;-0.059946
7290.000000;-0.059584
7289.000000;-0.058192
7288.000000;-0.057163
7287.000000;-0.057132
7286.000000;-0.058049
7285.000000;-0.059520
7284.000000;-0.060858
7283.000000;-0.061521
7282.000000;-0.061662
7281.000000;-0.061825
7280.000000;-0.062147
7279.000000;-0.062317
7278.000000;-0.062237
7277.000000;-0.062114
7276.000000;-0.061985
7275.000000;-0.061631
7274.000000;-0.061032
7273.000000;-0.060574
7272.000000;-0.060664
7271.000000;-0.061273
7270.000000;-0.061949
7269.000000;-0.062225
7268.000000;-0.062051
7267.000000;-0.061858
7266.000000;-0.062009
7265.000000;-0.062178
7264.000000;-0.061647
7263.000000;-0.060360
7262.000000;-0.059309
7261.000000;-0.059480
7260.000000;-0.060684
7259.000000;-0.061904
7258.000000;-0.062539
7257.000000;-0.062725
7256.000000;-0.062561
7255.000000;-0.061780
7254.000000;-0.060423
7253.000000;-0.059237
7252.000000;-0.059089
7251.000000;-0.060059
7250.000000;-0.061272
7249.000000;-0.061747
7248.000000;-0.061420
7247.000000;-0.061098
7246.000000;-0.061069
7245.000000;-0.060256
7244.000000;-0.057559
7243.000000;-0.053965
7242.000000;-0.052262
7241.000000;-0.053932
7240.000000;-0.057251
7239.000000;-0.059493
7238.000000;-0.059970
7237.000000;-0.060017
7236.000000;-0.060533
7235.000000;-0.060534
7234.000000;-0.058496
7233.000000;-0.054680
7232.000000;-0.051733
7231.000000;-0.052363
7230.000000;-0.056249
7229.000000;-0.060196
7228.000000;-0.061525
7227.000000;-0.060507
7226.000000;-0.059435
7225.000000;-0.060041
7224.000000;-0.062086
7223.000000;-0.064074
7222.000000;-0.064767
7221.000000;-0.064067
7220.000000;-0.062977
7219.000000;-0.062767
7218.000000;-0.063803
7217.000000;-0.065252
7216.000000;-0.066113
7215.000000;-0.066326
7214.000000;-0.066609
7213.000000;-0.067310
7212.000000;-0.067948
7211.000000;-0.068064
7210.000000;-0.067941
7209.000000;-0.068047
7208.000000;-0.068156
7207.000000;-0.067565
7206.000000;-0.066034
7205.000000;-0.064254
7204.000000;-0.063397
7203.000000;-0.064152
7202.000000;-0.066127
7201.000000;-0.068193
7200.000000;-0.069491
7199.000000;-0.070113
7198.000000;-0.070666
7197.000000;-0.071290
7196.000000;-0.071521
7195.000000;-0.071225
7194.000000;-0.071077
7193.000000;-0.071642
7192.000000;-0.072497
7191.000000;-0.072892
7190.000000;-0.072875
7189.000000;-0.072987
7188.000000;-0.073196
7187.000000;-0.073108
7186.000000;-0.072992
7185.000000;-0.073483
7184.000000;-0.074197
7183.000000;-0.073881
7182.000000;-0.072359
7181.000000;-0.071242
7180.000000;-0.071942
7179.000000;-0.073782
7178.000000;-0.075092
7177.000000;-0.075353
7176.000000;-0.075267
7175.000000;-0.075433
7174.000000;-0.075843
7173.000000;-0.076332
7172.000000;-0.076660
7171.000000;-0.076292
7170.000000;-0.074979
7169.000000;-0.073409
7168.000000;-0.072580
7167.000000;-0.072761
7166.000000;-0.073651
7165.000000;-0.075098
7164.000000;-0.076762
7163.000000;-0.077668
7162.000000;-0.077184
7161.000000;-0.076253
7160.000000;-0.076561
7159.000000;-0.078292
7158.000000;-0.079878
7157.000000;-0.080249
7156.000000;-0.080066
7155.000000;-0.080409
7154.000000;-0.081286
7153.000000;-0.081976
7152.000000;-0.082179
7151.000000;-0.082207
7150.000000;-0.082415
7149.000000;-0.082814
7148.000000;-0.083115
7147.000000;-0.082944
7146.000000;-0.082142
7145.000000;-0.081108
7144.000000;-0.080638
7143.000000;-0.081062
7142.000000;-0.081613
7141.000000;-0.081250
7140.000000;-0.080120
7139.000000;-0.079645
7138.000000;-0.080753
7137.000000;-0.082607
7136.000000;-0.083738
7135.000000;-0.083901
7134.000000;-0.084086
7133.000000;-0.084944
7132.000000;-0.086006
7131.000000;-0.086620
7130.000000;-0.086865
7129.000000;-0.087147
7128.000000;-0.087454
7127.000000;-0.087592
7126.000000;-0.087711
7125.000000;-0.087940
7124.000000;-0.087922
7123.000000;-0.087413
7122.000000;-0.087020
7121.000000;-0.087475
7120.000000;-0.088293
7119.000000;-0.088171
7118.000000;-0.086923
7117.000000;-0.086098
7116.000000;-0.086980
7115.000000;-0.088809
7114.000000;-0.089938
7113.000000;-0.089987
7112.000000;-0.089879
7111.000000;-0.090239
7110.000000;-0.090714
7109.000000;-0.090798
7108.000000;-0.090515
7107.000000;-0.090140
7106.000000;-0.089939
7105.000000;-0.090230
7104.000000;-0.091176
7103.000000;-0.092389
7102.000000;-0.093186
7101.000000;-0.093329
7100.000000;-0.093283
7099.000000;-0.093601
7098.000000;-0.094209
7097.000000;-0.094537
7096.000000;-0.094313
7095.000000;-0.093926
7094.000000;-0.093931
7093.000000;-0.094407
7092.000000;-0.094987
7091.000000;-0.095386
7090.000000;-0.095700
7089.000000;-0.096154
7088.000000;-0.096726
7087.000000;-0.097154
7086.000000;-0.097322
7085.000000;-0.097450
7084.000000;-0.097800
7083.000000;-0.098323
7082.000000;-0.098747
7081.000000;-0.098961
7080.000000;-0.099169
7079.000000;-0.099529
7078.000000;-0.099833
7077.000000;-0.099792
7076.000000;-0.099555
7075.000000;-0.099570
7074.000000;-0.099930
7073.000000;-0.100240
7072.000000;-0.100199
7071.000000;-0.100011
7070.000000;-0.100054
7069.000000;-0.100385
7068.000000;-0.100796
7067.000000;-0.101177
7066.000000;-0.101580
7065.000000;-0.101997
7064.000000;-0.102322
7063.000000;-0.102552
7062.000000;-0.102824
7061.000000;-0.103185
7060.000000;-0.103544
7059.000000;-0.103869
7058.000000;-0.104247
7057.000000;-0.104691
7056.000000;-0.105072
7055.000000;-0.105270
7054.000000;-0.105314
7053.000000;-0.105377
7052.000000;-0.105644
7051.000000;-0.106139
7050.000000;-0.106670
7049.000000;-0.106967
7048.000000;-0.106957
7047.000000;-0.106867
7046.000000;-0.106968
7045.000000;-0.107260
7044.000000;-0.107524
7043.000000;-0.107685
7042.000000;-0.107900
7041.000000;-0.108284
7040.000000;-0.108728
7039.000000;-0.109088
7038.000000;-0.109382
7037.000000;-0.109701
7036.000000;-0.110051
7035.000000;-0.110380
7034.000000;-0.110675
7033.000000;-0.110958
7032.000000;-0.111226
7031.000000;-0.111468
7030.000000;-0.111694
7029.000000;-0.111905
7028.000000;-0.112096
7027.000000;-0.112306
7026.000000;-0.112569
7025.000000;-0.112801
7024.000000;-0.112882
7023.000000;-0.112878
7022.000000;-0.113048
7021.000000;-0.113520
7020.000000;-0.114111
7019.000000;-0.114550
7018.000000;-0.114795
7017.000000;-0.114989
7016.000000;-0.115221
7015.000000;-0.115474
7014.000000;-0.115774
7013.000000;-0.116190
7012.000000;-0.116692
7011.000000;-0.117157
7010.000000;-0.117510
7009.000000;-0.117750
7008.000000;-0.117872
7007.000000;-0.117898
7006.000000;-0.117949
7005.000000;-0.118160
7004.000000;-0.118509
7003.000000;-0.118843
7002.000000;-0.119068
7001.000000;-0.119231
7000.000000;-0.119404
6999.000000;-0.119619
6998.000000;-0.119920
6997.000000;-0.120352
6996.000000;-0.120848
6995.000000;-0.121252
6994.000000;-0.121499
6993.000000;-0.121687
6992.000000;-0.121930
6991.000000;-0.122208
6990.000000;-0.122444
6989.000000;-0.122635
6988.000000;-0.122829
6987.000000;-0.123025
6986.000000;-0.123208
6985.000000;-0.123418
6984.000000;-0.123684
6983.000000;-0.123947
6982.000000;-0.124147
6981.000000;-0.124363
6980.000000;-0.124754
6979.000000;-0.125324
6978.000000;-0.125860
6977.000000;-0.126162
6976.000000;-0.126285
6975.000000;-0.126416
6974.000000;-0.126590
6973.000000;-0.126687
6972.000000;-0.126708
6971.000000;-0.126845
6970.000000;-0.127216
6969.000000;-0.127676
6968.000000;-0.128018
6967.000000;-0.128243
6966.000000;-0.128493
6965.000000;-0.128807
6964.000000;-0.129103
6963.000000;-0.129393
6962.000000;-0.129783
6961.000000;-0.130261
6960.000000;-0.130658
6959.000000;-0.130876
6958.000000;-0.130975
6957.000000;-0.131019
6956.000000;-0.131023
6955.000000;-0.131081
6954.000000;-0.131368
6953.000000;-0.131912
6952.000000;-0.132514
6951.000000;-0.132980
6950.000000;-0.133306
6949.000000;-0.133549
6948.000000;-0.133696
6947.000000;-0.133770
6946.000000;-0.133923
6945.000000;-0.134247
6944.000000;-0.134599
6943.000000;-0.134800
6942.000000;-0.134914
6941.000000;-0.135145
6940.000000;-0.135488
6939.000000;-0.135751
6938.000000;-0.135869
6937.000000;-0.136016
6936.000000;-0.136340
6935.000000;-0.136784
6934.000000;-0.137206
6933.000000;-0.137536
6932.000000;-0.137760
6931.000000;-0.137897
6930.000000;-0.138031
6929.000000;-0.138285
6928.000000;-0.138692
6927.000000;-0.139146
6926.000000;-0.139544
6925.000000;-0.139897
6924.000000;-0.140245
6923.000000;-0.140570
6922.000000;-0.140857
6921.000000;-0.141126
6920.000000;-0.141315
6919.000000;-0.141295
6918.000000;-0.141088
6917.000000;-0.140976
6916.000000;-0.141242
6915.000000;-0.141855
6914.000000;-0.142521
6913.000000;-0.143001
6912.000000;-0.143298
6911.000000;-0.143537
6910.000000;-0.143786
6909.000000;-0.144044
6908.000000;-0.144309
6907.000000;-0.144595
6906.000000;-0.144903
6905.000000;-0.145220
6904.000000;-0.145531
6903.000000;-0.145818
6902.000000;-0.146076
6901.000000;-0.146308
6900.000000;-0.146520
6899.000000;-0.146725
6898.000000;-0.146954
6897.000000;-0.147202
6896.000000;-0.147400
6895.000000;-0.147492
6894.000000;-0.147534
6893.000000;-0.147654
6892.000000;-0.147934
6891.000000;-0.148356
6890.000000;-0.148864
6889.000000;-0.149387
6888.000000;-0.149824
6887.000000;-0.150105
6886.000000;-0.150276
6885.000000;-0.150466
6884.000000;-0.150741
6883.000000;-0.151055
6882.000000;-0.151363
6881.000000;-0.151697
6880.000000;-0.152083
6879.000000;-0.152460
6878.000000;-0.152745
6877.000000;-0.152940
6876.000000;-0.153129
6875.000000;-0.153369
6874.000000;-0.153622
6873.000000;-0.153825
6872.000000;-0.153991
6871.000000;-0.154213
6870.000000;-0.154553
6869.000000;-0.154959
6868.000000;-0.155313
6867.000000;-0.155569
6866.000000;-0.155780
6865.000000;-0.156020
6864.000000;-0.156290
6863.000000;-0.156546
6862.000000;-0.156769
6861.000000;-0.156979
6860.000000;-0.157199
6859.000000;-0.157439
6858.000000;-0.157715
6857.000000;-0.158045
6856.000000;-0.158432
6855.000000;-0.158845
6854.000000;-0.159230
6853.000000;-0.159540
6852.000000;-0.159767
6851.000000;-0.159945
6850.000000;-0.160107
6849.000000;-0.160262
6848.000000;-0.160433
6847.000000;-0.160684
6846.000000;-0.161060
6845.000000;-0.161503
6844.000000;-0.161878
6843.000000;-0.162124
6842.000000;-0.162325
6841.000000;-0.162580
6840.000000;-0.162879
6839.000000;-0.163158
6838.000000;-0.163422
6837.000000;-0.163709
6836.000000;-0.163988
6835.000000;-0.164190
6834.000000;-0.164338
6833.000000;-0.164546
6832.000000;-0.164861
6831.000000;-0.165205
6830.000000;-0.165501
6829.000000;-0.165774
6828.000000;-0.166062
6827.000000;-0.166318
6826.000000;-0.166486
6825.000000;-0.166624
6824.000000;-0.166844
6823.000000;-0.167165
6822.000000;-0.167503
6821.000000;-0.167796
6820.000000;-0.168064
6819.000000;-0.168338
6818.000000;-0.168597
6817.000000;-0.168815
6816.000000;-0.169010
6815.000000;-0.169222
6814.000000;-0.169483
6813.000000;-0.169815
6812.000000;-0.170237
6811.000000;-0.170711
6810.000000;-0.171141
6809.000000;-0.171455
6808.000000;-0.171660
6807.000000;-0.171797
6806.000000;-0.171888
6805.000000;-0.171961
6804.000000;-0.172102
6803.000000;-0.172379
6802.000000;-0.172739
6801.000000;-0.173055
6800.000000;-0.173300
6799.000000;-0.173587
6798.000000;-0.173998
6797.000000;-0.174461
6796.000000;-0.174835
6795.000000;-0.175060
6794.000000;-0.175165
6793.000000;-0.175197
6792.000000;-0.175226
6791.000000;-0.175371
6790.000000;-0.175718
6789.000000;-0.176199
6788.000000;-0.176645
6787.000000;-0.176982
6786.000000;-0.177290
6785.000000;-0.177655
6784.000000;-0.178040
6783.000000;-0.178351
6782.000000;-0.178565
6781.000000;-0.178738
6780.000000;-0.178924
6779.000000;-0.179144
6778.000000;-0.179391
6777.000000;-0.179646
6776.000000;-0.179892
6775.000000;-0.180143
6774.000000;-0.180422
6773.000000;-0.180697
6772.000000;-0.180896
6771.000000;-0.181011
6770.000000;-0.181139
6769.000000;-0.181350
6768.000000;-0.181605
6767.000000;-0.181853
6766.000000;-0.182145
6765.000000;-0.182549
6764.000000;-0.183008
6763.000000;-0.183383
6762.000000;-0.183619
6761.000000;-0.183787
6760.000000;-0.183975
6759.000000;-0.184213
6758.000000;-0.184484
6757.000000;-0.184758
6756.000000;-0.184992
6755.000000;-0.185181
6754.000000;-0.185394
6753.000000;-0.185700
6752.000000;-0.186066
6751.000000;-0.186393
6750.000000;-0.186636
6749.000000;-0.186845
6748.000000;-0.187069
6747.000000;-0.187313
6746.000000;-0.187580
6745.000000;-0.187901
6744.000000;-0.188287
6743.000000;-0.188706
6742.000000;-0.189120
6741.000000;-0.189509
6740.000000;-0.189847
6739.000000;-0.190099
6738.000000;-0.190265
6737.000000;-0.190415
6736.000000;-0.190628
6735.000000;-0.190912
6734.000000;-0.191207
6733.000000;-0.191449
6732.000000;-0.191620
6731.000000;-0.191757
6730.000000;-0.191917
6729.000000;-0.192124
6728.000000;-0.192353
6727.000000;-0.192577
6726.000000;-0.192800
6725.000000;-0.193042
6724.000000;-0.193296
6723.000000;-0.193553
6722.000000;-0.193826
6721.000000;-0.194146
6720.000000;-0.194514
6719.000000;-0.194900
6718.000000;-0.195267
6717.000000;-0.195587
6716.000000;-0.195831
6715.000000;-0.195996
6714.000000;-0.196143
6713.000000;-0.196350
6712.000000;-0.196670
6711.000000;-0.197055
6710.000000;-0.197404
6709.000000;-0.197672
6708.000000;-0.197848
6707.000000;-0.197930
6706.000000;-0.197979
6705.000000;-0.198099
6704.000000;-0.198318
6703.000000;-0.198477
6702.000000;-0.198878
6701.000000;-0.199315
6700.000000;-0.199705
6699.000000;-0.200003
6698.000000;-0.200247
6697.000000;-0.200504
6696.000000;-0.200787
6695.000000;-0.201047
6694.000000;-0.201264
6693.000000;-0.201477
6692.000000;-0.201732
6691.000000;-0.202012
6690.000000;-0.202264
6689.000000;-0.202470
6688.000000;-0.202665
6687.000000;-0.202897
6686.000000;-0.203172
6685.000000;-0.203454
6684.000000;-0.203705
6683.000000;-0.203937
6682.000000;-0.204196
6681.000000;-0.204493
6680.000000;-0.204783
6679.000000;-0.205025
6678.000000;-0.205233
6677.000000;-0.205445
6676.000000;-0.205670
6675.000000;-0.205911
6674.000000;-0.206197
6673.000000;-0.206543
6672.000000;-0.206900
6671.000000;-0.207190
6670.000000;-0.207400
6669.000000;-0.207587
6668.000000;-0.207796
6667.000000;-0.208009
6666.000000;-0.208196
6665.000000;-0.208356
6664.000000;-0.208517
6663.000000;-0.208713
6662.000000;-0.208970
6661.000000;-0.209291
6660.000000;-0.209647
6659.000000;-0.210006
6658.000000;-0.210364
6657.000000;-0.210715
6656.000000;-0.211020
6655.000000;-0.211241
6654.000000;-0.211394
6653.000000;-0.211533
6652.000000;-0.211687
6651.000000;-0.211858
6650.000000;-0.212077
6649.000000;-0.212384
6648.000000;-0.212757
6647.000000;-0.213117
6646.000000;-0.213411
6645.000000;-0.213661
6644.000000;-0.213905
6643.000000;-0.214134
6642.000000;-0.214326
6641.000000;-0.214499
6640.000000;-0.214705
6639.000000;-0.214987
6638.000000;-0.215345
6637.000000;-0.215732
6636.000000;-0.216077
6635.000000;-0.216340
6634.000000;-0.216550
6633.000000;-0.216780
6632.000000;-0.217065
6631.000000;-0.217376
6630.000000;-0.217667
6629.000000;-0.217924
6628.000000;-0.218161
6627.000000;-0.218396
6626.000000;-0.218632
6625.000000;-0.218856
6624.000000;-0.219057
6623.000000;-0.219242
6622.000000;-0.219445
6621.000000;-0.219693
6620.000000;-0.219981
6619.000000;-0.220277
6618.000000;-0.220550
6617.000000;-0.220784
6616.000000;-0.220976
6615.000000;-0.221154
6614.000000;-0.221367
6613.000000;-0.221636
6612.000000;-0.221927
6611.000000;-0.222205
6610.000000;-0.222481
6609.000000;-0.222770
6608.000000;-0.223044
6607.000000;-0.223267
6606.000000;-0.223463
6605.000000;-0.223686
6604.000000;-0.223934
6603.000000;-0.224158
6602.000000;-0.224350
6601.000000;-0.224567
6600.000000;-0.224840
6599.000000;-0.225134
6598.000000;-0.225402
6597.000000;-0.225650
6596.000000;-0.225900
6595.000000;-0.226155
6594.000000;-0.226408
6593.000000;-0.226668
6592.000000;-0.226931
6591.000000;-0.227161
6590.000000;-0.227344
6589.000000;-0.227527
6588.000000;-0.227786
6587.000000;-0.228143
6586.000000;-0.228541
6585.000000;-0.228900
6584.000000;-0.229188
6583.000000;-0.229434
6582.000000;-0.229687
6581.000000;-0.229962
6580.000000;-0.230236
6579.000000;-0.230491
6578.000000;-0.230745
6577.000000;-0.231015
6576.000000;-0.231273
6575.000000;-0.231483
6574.000000;-0.231662
6573.000000;-0.231865
6572.000000;-0.232114
6571.000000;-0.232370
6570.000000;-0.232595
6569.000000;-0.232808
6568.000000;-0.233060
6567.000000;-0.233374
6566.000000;-0.233722
6565.000000;-0.234040
6564.000000;-0.234265
6563.000000;-0.234381
6562.000000;-0.234442
6561.000000;-0.234536
6560.000000;-0.234716
6559.000000;-0.234978
6558.000000;-0.235297
6557.000000;-0.235650
6556.000000;-0.236016
6555.000000;-0.236371
6554.000000;-0.236708
6553.000000;-0.237022
6552.000000;-0.237291
6551.000000;-0.237493
6550.000000;-0.237643
6549.000000;-0.237798
6548.000000;-0.238006
6547.000000;-0.238270
6546.000000;-0.238570
6545.000000;-0.238881
6544.000000;-0.239180
6543.000000;-0.239447
6542.000000;-0.239680
6541.000000;-0.239902
6540.000000;-0.240128
6539.000000;-0.240361
6538.000000;-0.240603
6537.000000;-0.240864
6536.000000;-0.241140
6535.000000;-0.241398
6534.000000;-0.241616
6533.000000;-0.241811
6532.000000;-0.242030
6531.000000;-0.242300
6530.000000;-0.242608
6529.000000;-0.242904
6528.000000;-0.243146
6527.000000;-0.243338
6526.000000;-0.243525
6525.000000;-0.243751
6524.000000;-0.244024
6523.000000;-0.244317
6522.000000;-0.244606
6521.000000;-0.244874
6520.000000;-0.245112
6519.000000;-0.245335
6518.000000;-0.245580
6517.000000;-0.245871
6516.000000;-0.246181
6515.000000;-0.246455
6514.000000;-0.246674
6513.000000;-0.246867
6512.000000;-0.247067
6511.000000;-0.247271
6510.000000;-0.247455
6509.000000;-0.247616
6508.000000;-0.247783
6507.000000;-0.247998
6506.000000;-0.248282
6505.000000;-0.248611
6504.000000;-0.248929
6503.000000;-0.249185
6502.000000;-0.249372
6501.000000;-0.249511
6500.000000;-0.249636
6499.000000;-0.249782
6498.000000;-0.249987
6497.000000;-0.250269
6496.000000;-0.250601
6495.000000;-0.250930
6494.000000;-0.251205
6493.000000;-0.251414
6492.000000;-0.251584
6491.000000;-0.251760
6490.000000;-0.251981
6489.000000;-0.252245
6488.000000;-0.252522
6487.000000;-0.252790
6486.000000;-0.253046
6485.000000;-0.253289
6484.000000;-0.253506
6483.000000;-0.253699
6482.000000;-0.253896
6481.000000;-0.254117
6480.000000;-0.254361
6479.000000;-0.254618
6478.000000;-0.254905
6477.000000;-0.255233
6476.000000;-0.255577
6475.000000;-0.255890
6474.000000;-0.256153
6473.000000;-0.256374
6472.000000;-0.256570
6471.000000;-0.256768
6470.000000;-0.256995
6469.000000;-0.257255
6468.000000;-0.257516
6467.000000;-0.257750
6466.000000;-0.257963
6465.000000;-0.258177
6464.000000;-0.258390
6463.000000;-0.258592
6462.000000;-0.258790
6461.000000;-0.259000
6460.000000;-0.259213
6459.000000;-0.259415
6458.000000;-0.259608
6457.000000;-0.259810
6456.000000;-0.260020
6455.000000;-0.260234
6454.000000;-0.260471
6453.000000;-0.260752
6452.000000;-0.261067
6451.000000;-0.261387
6450.000000;-0.261698
6449.000000;-0.262005
6448.000000;-0.262298
6447.000000;-0.262560
6446.000000;-0.262789
6445.000000;-0.262998
6444.000000;-0.263195
6443.000000;-0.263388
6442.000000;-0.263594
6441.000000;-0.263819
6440.000000;-0.264045
6439.000000;-0.264261
6438.000000;-0.264497
6437.000000;-0.264791
6436.000000;-0.265124
6435.000000;-0.265435
6434.000000;-0.265688
6433.000000;-0.265897
6432.000000;-0.266087
6431.000000;-0.266259
6430.000000;-0.266411
6429.000000;-0.266554
6428.000000;-0.266711
6427.000000;-0.266895
6426.000000;-0.267107
6425.000000;-0.267339
6424.000000;-0.267579
6423.000000;-0.267816
6422.000000;-0.268043
6421.000000;-0.268252
6420.000000;-0.268444
6419.000000;-0.268647
6418.000000;-0.268902
6417.000000;-0.269223
6416.000000;-0.269579
6415.000000;-0.269922
6414.000000;-0.270216
6413.000000;-0.270434
6412.000000;-0.270561
6411.000000;-0.270631
6410.000000;-0.270722
6409.000000;-0.270888
6408.000000;-0.271120
6407.000000;-0.271381
6406.000000;-0.271663
6405.000000;-0.271967
6404.000000;-0.272273
6403.000000;-0.272554
6402.000000;-0.272807
6401.000000;-0.273038
6400.000000;-0.273254
6399.000000;-0.273475
6398.000000;-0.273737
6397.000000;-0.274045
6396.000000;-0.274338
6395.000000;-0.274554
6394.000000;-0.274697
6393.000000;-0.274821
6392.000000;-0.274969
6391.000000;-0.275153
6390.000000;-0.275380
6389.000000;-0.275635
6388.000000;-0.275885
6387.000000;-0.276120
6386.000000;-0.276369
6385.000000;-0.276646
6384.000000;-0.276904
6383.000000;-0.277096
6382.000000;-0.277263
6381.000000;-0.277491
6380.000000;-0.277793
6379.000000;-0.278097
6378.000000;-0.278350
6377.000000;-0.278572
6376.000000;-0.278797
6375.000000;-0.279033
6374.000000;-0.279267
6373.000000;-0.279488
6372.000000;-0.279686
6371.000000;-0.279867
6370.000000;-0.280076
6369.000000;-0.280358
6368.000000;-0.280698
6367.000000;-0.281030
6366.000000;-0.281314
6365.000000;-0.281567
6364.000000;-0.281820
6363.000000;-0.282076
6362.000000;-0.282323
6361.000000;-0.282549
6360.000000;-0.282742
6359.000000;-0.282897
6358.000000;-0.283039
6357.000000;-0.283201
6356.000000;-0.283401
6355.000000;-0.283636
6354.000000;-0.283904
6353.000000;-0.284197
6352.000000;-0.284484
6351.000000;-0.284724
6350.000000;-0.284902
6349.000000;-0.285041
6348.000000;-0.285173
6347.000000;-0.285335
6346.000000;-0.285558
6345.000000;-0.285834
6344.000000;-0.286106
6343.000000;-0.286319
6342.000000;-0.286481
6341.000000;-0.286638
6340.000000;-0.286811
6339.000000;-0.286999
6338.000000;-0.287210
6337.000000;-0.287457
6336.000000;-0.287722
6335.000000;-0.287976
6334.000000;-0.288229
6333.000000;-0.288511
6332.000000;-0.288804
6331.000000;-0.289054
6330.000000;-0.289244
6329.000000;-0.289418
6328.000000;-0.289611
6327.000000;-0.289802
6326.000000;-0.289958
6325.000000;-0.290093
6324.000000;-0.290249
6323.000000;-0.290458
6322.000000;-0.290708
6321.000000;-0.290959
6320.000000;-0.291169
6319.000000;-0.291330
6318.000000;-0.291481
6317.000000;-0.291666
6316.000000;-0.291886
6315.000000;-0.292119
6314.000000;-0.292367
6313.000000;-0.292649
6312.000000;-0.292959
6311.000000;-0.293259
6310.000000;-0.293520
6309.000000;-0.293755
6308.000000;-0.293994
6307.000000;-0.294262
6306.000000;-0.294555
6305.000000;-0.294838
6304.000000;-0.295054
6303.000000;-0.295191
6302.000000;-0.295303
6301.000000;-0.295457
6300.000000;-0.295656
6299.000000;-0.295856
6298.000000;-0.296047
6297.000000;-0.296265
6296.000000;-0.296539
6295.000000;-0.296850
6294.000000;-0.297159
6293.000000;-0.297432
6292.000000;-0.297654
6291.000000;-0.297836
6290.000000;-0.298017
6289.000000;-0.298229
6288.000000;-0.298464
6287.000000;-0.298700
6286.000000;-0.298937
6285.000000;-0.299189
6284.000000;-0.299444
6283.000000;-0.299679
6282.000000;-0.299893
6281.000000;-0.300092
6280.000000;-0.300262
6279.000000;-0.300393
6278.000000;-0.300522
6277.000000;-0.300709
6276.000000;-0.300973
6275.000000;-0.301280
6274.000000;-0.301587
6273.000000;-0.301867
6272.000000;-0.302089
6271.000000;-0.302236
6270.000000;-0.302346
6269.000000;-0.302481
6268.000000;-0.302666
6267.000000;-0.302871
6266.000000;-0.303069
6265.000000;-0.303256
6264.000000;-0.303430
6263.000000;-0.303588
6262.000000;-0.303752
6261.000000;-0.303955
6260.000000;-0.304191
6259.000000;-0.304424
6258.000000;-0.304640
6257.000000;-0.304860
6256.000000;-0.305101
6255.000000;-0.305348
6254.000000;-0.305593
6253.000000;-0.305851
6252.000000;-0.306133
6251.000000;-0.306431
6250.000000;-0.306735
6249.000000;-0.307039
6248.000000;-0.307321
6247.000000;-0.307562
6246.000000;-0.307770
6245.000000;-0.307973
6244.000000;-0.308170
6243.000000;-0.308327
6242.000000;-0.308445
6241.000000;-0.308573
6240.000000;-0.308763
6239.000000;-0.309016
6238.000000;-0.309287
6237.000000;-0.309535
6236.000000;-0.309739
6235.000000;-0.309919
6234.000000;-0.310111
6233.000000;-0.310332
6232.000000;-0.310553
6231.000000;-0.310738
6230.000000;-0.310906
6229.000000;-0.311114
6228.000000;-0.311384
6227.000000;-0.311671
6226.000000;-0.311916
6225.000000;-0.312099
6224.000000;-0.312252
6223.000000;-0.312430
6222.000000;-0.312673
6221.000000;-0.312966
6220.000000;-0.313240
6219.000000;-0.313444
6218.000000;-0.313598
6217.000000;-0.313762
6216.000000;-0.313963
6215.000000;-0.314183
6214.000000;-0.314414
6213.000000;-0.314678
6212.000000;-0.314973
6211.000000;-0.315258
6210.000000;-0.315492
6209.000000;-0.315676
6208.000000;-0.315840
6207.000000;-0.316017
6206.000000;-0.316228
6205.000000;-0.316464
6204.000000;-0.316686
6203.000000;-0.316863
6202.000000;-0.317024
6201.000000;-0.317239
6200.000000;-0.317532
6199.000000;-0.317846
6198.000000;-0.318095
6197.000000;-0.318261
6196.000000;-0.318400
6195.000000;-0.318583
6194.000000;-0.318823
6193.000000;-0.319078
6192.000000;-0.319298
6191.000000;-0.319484
6190.000000;-0.319677
6189.000000;-0.319903
6188.000000;-0.320155
6187.000000;-0.320414
6186.000000;-0.320679
6185.000000;-0.320948
6184.000000;-0.321201
6183.000000;-0.321422
6182.000000;-0.321618
6181.000000;-0.321797
6180.000000;-0.321948
6179.000000;-0.322080
6178.000000;-0.322241
6177.000000;-0.322477
6176.000000;-0.322772
6175.000000;-0.323066
6174.000000;-0.323318
6173.000000;-0.323534
6172.000000;-0.323736
6171.000000;-0.323941
6170.000000;-0.324166
6169.000000;-0.324412
6168.000000;-0.324653
6167.000000;-0.324863
6166.000000;-0.325045
6165.000000;-0.325223
6164.000000;-0.325405
6163.000000;-0.325594
6162.000000;-0.325806
6161.000000;-0.326059
6160.000000;-0.326350
6159.000000;-0.326668
6158.000000;-0.327003
6157.000000;-0.327326
6156.000000;-0.327588
6155.000000;-0.327767
6154.000000;-0.327905
6153.000000;-0.328052
6152.000000;-0.328218
6151.000000;-0.328390
6150.000000;-0.328578
6149.000000;-0.328802
6148.000000;-0.329051
6147.000000;-0.329294
6146.000000;-0.329531
6145.000000;-0.329777
6144.000000;-0.330026
6143.000000;-0.330261
6142.000000;-0.330487
6141.000000;-0.330719
6140.000000;-0.330942
6139.000000;-0.331138
6138.000000;-0.331333
6137.000000;-0.331562
6136.000000;-0.331811
6135.000000;-0.332033
6134.000000;-0.332223
6133.000000;-0.332420
6132.000000;-0.332646
6131.000000;-0.332875
6130.000000;-0.333076
6129.000000;-0.333241
6128.000000;-0.333380
6127.000000;-0.333518
6126.000000;-0.333689
6125.000000;-0.333911
6124.000000;-0.334159
6123.000000;-0.334404
6122.000000;-0.334646
6121.000000;-0.334888
6120.000000;-0.335112
6119.000000;-0.335298
6118.000000;-0.335473
6117.000000;-0.335675
6116.000000;-0.335909
6115.000000;-0.336164
6114.000000;-0.336439
6113.000000;-0.336719
6112.000000;-0.336956
6111.000000;-0.337117
6110.000000;-0.337250
6109.000000;-0.337432
6108.000000;-0.337675
6107.000000;-0.337926
6106.000000;-0.338153
6105.000000;-0.338369
6104.000000;-0.338582
6103.000000;-0.338793
6102.000000;-0.339030
6101.000000;-0.339316
6100.000000;-0.339617
6099.000000;-0.339863
6098.000000;-0.340040
6097.000000;-0.340206
6096.000000;-0.340405
6095.000000;-0.340642
6094.000000;-0.340917
6093.000000;-0.341237
6092.000000;-0.341583
6091.000000;-0.341915
6090.000000;-0.342222
6089.000000;-0.342507
6088.000000;-0.342737
6087.000000;-0.342869
6086.000000;-0.342930
6085.000000;-0.343018
6084.000000;-0.343197
6083.000000;-0.343442
6082.000000;-0.343699
6081.000000;-0.343938
6080.000000;-0.344143
6079.000000;-0.344304
6078.000000;-0.344445
6077.000000;-0.344620
6076.000000;-0.344843
6075.000000;-0.345072
6074.000000;-0.345272
6073.000000;-0.345458
6072.000000;-0.345670
6071.000000;-0.345929
6070.000000;-0.346233
6069.000000;-0.346551
6068.000000;-0.346830
6067.000000;-0.347033
6066.000000;-0.347182
6065.000000;-0.347332
6064.000000;-0.347507
6063.000000;-0.347694
6062.000000;-0.347900
6061.000000;-0.348148
6060.000000;-0.348424
6059.000000;-0.348674
6058.000000;-0.348881
6057.000000;-0.349085
6056.000000;-0.349329
6055.000000;-0.349610
6054.000000;-0.349904
6053.000000;-0.350193
6052.000000;-0.350450
6051.000000;-0.350648
6050.000000;-0.350800
6049.000000;-0.350965
6048.000000;-0.351183
6047.000000;-0.351431
6046.000000;-0.351666
6045.000000;-0.351879
6044.000000;-0.352091
6043.000000;-0.352322
6042.000000;-0.352571
6041.000000;-0.352830
6040.000000;-0.353084
6039.000000;-0.353320
6038.000000;-0.353549
6037.000000;-0.353785
6036.000000;-0.354022
6035.000000;-0.354242
6034.000000;-0.354446
6033.000000;-0.354649
6032.000000;-0.354854
6031.000000;-0.355053
6030.000000;-0.355252
6029.000000;-0.355457
6028.000000;-0.355644
6027.000000;-0.355791
6026.000000;-0.355926
6025.000000;-0.356112
6024.000000;-0.356377
6023.000000;-0.356691
6022.000000;-0.357012
6021.000000;-0.357311
6020.000000;-0.357566
6019.000000;-0.357764
6018.000000;-0.357922
6017.000000;-0.358078
6016.000000;-0.358256
6015.000000;-0.358457
6014.000000;-0.358680
6013.000000;-0.358919
6012.000000;-0.359142
6011.000000;-0.359313
6010.000000;-0.359446
6009.000000;-0.359589
6008.000000;-0.359780
6007.000000;-0.360017
6006.000000;-0.360278
6005.000000;-0.360529
6004.000000;-0.360737
6003.000000;-0.360905
6002.000000;-0.361090
6001.000000;-0.361349
6000.000000;-0.361666
5999.000000;-0.361976
5998.000000;-0.362249
5997.000000;-0.362497
5996.000000;-0.362714
5995.000000;-0.362881
5994.000000;-0.363020
5993.000000;-0.363200
5992.000000;-0.363459
5991.000000;-0.363769
5990.000000;-0.364084
5989.000000;-0.364377
5988.000000;-0.364627
5987.000000;-0.364820
5986.000000;-0.364982
5985.000000;-0.365168
5984.000000;-0.365402
5983.000000;-0.365657
5982.000000;-0.365905
5981.000000;-0.366142
5980.000000;-0.366373
5979.000000;-0.366589
5978.000000;-0.366788
5977.000000;-0.366977
5976.000000;-0.367154
5975.000000;-0.367309
5974.000000;-0.367443
5973.000000;-0.367580
5972.000000;-0.367744
5971.000000;-0.367949
5970.000000;-0.368211
5969.000000;-0.368527
5968.000000;-0.368855
5967.000000;-0.369146
5966.000000;-0.369389
5965.000000;-0.369600
5964.000000;-0.369792
5963.000000;-0.369976
5962.000000;-0.370191
5961.000000;-0.370469
5960.000000;-0.370785
5959.000000;-0.371077
5958.000000;-0.371315
5957.000000;-0.371503
5956.000000;-0.371642
5955.000000;-0.371738
5954.000000;-0.371835
5953.000000;-0.371992
5952.000000;-0.372223
5951.000000;-0.372496
5950.000000;-0.372786
5949.000000;-0.373083
5948.000000;-0.373353
5947.000000;-0.373567
5946.000000;-0.373753
5945.000000;-0.373986
5944.000000;-0.374291
5943.000000;-0.374619
5942.000000;-0.374917
5941.000000;-0.375183
5940.000000;-0.375432
5939.000000;-0.375659
5938.000000;-0.375861
5937.000000;-0.376054
5936.000000;-0.376251
5935.000000;-0.376448
5934.000000;-0.376641
5933.000000;-0.376839
5932.000000;-0.377035
5931.000000;-0.377208
5930.000000;-0.377366
5929.000000;-0.377551
5928.000000;-0.377793
5927.000000;-0.378087
5926.000000;-0.378408
5925.000000;-0.378725
5924.000000;-0.378999
5923.000000;-0.379211
5922.000000;-0.379389
5921.000000;-0.379571
5920.000000;-0.379762
5919.000000;-0.379938
5918.000000;-0.380105
5917.000000;-0.380303
5916.000000;-0.380549
5915.000000;-0.380815
5914.000000;-0.381073
5913.000000;-0.381306
5912.000000;-0.381502
5911.000000;-0.381660
5910.000000;-0.381810
5909.000000;-0.381997
5908.000000;-0.382221
5907.000000;-0.382449
5906.000000;-0.382671
5905.000000;-0.382915
5904.000000;-0.383193
5903.000000;-0.383483
5902.000000;-0.383758
5901.000000;-0.384014
5900.000000;-0.384250
5899.000000;-0.384474
5898.000000;-0.384712
5897.000000;-0.384984
5896.000000;-0.385257
5895.000000;-0.385481
5894.000000;-0.385664
5893.000000;-0.385867
5892.000000;-0.386122
5891.000000;-0.386396
5890.000000;-0.386643
5889.000000;-0.386857
5888.000000;-0.387068
5887.000000;-0.387300
5886.000000;-0.387563
5885.000000;-0.387839
5884.000000;-0.388085
5883.000000;-0.388269
5882.000000;-0.388423
5881.000000;-0.388610
5880.000000;-0.388861
5879.000000;-0.389151
5878.000000;-0.389446
5877.000000;-0.389732
5876.000000;-0.389995
5875.000000;-0.390232
5874.000000;-0.390462
5873.000000;-0.390706
5872.000000;-0.390949
5871.000000;-0.391155
5870.000000;-0.391322
5869.000000;-0.391487
5868.000000;-0.391682
5867.000000;-0.391924
5866.000000;-0.392223
5865.000000;-0.392571
5864.000000;-0.392921
5863.000000;-0.393225
5862.000000;-0.393483
5861.000000;-0.393728
5860.000000;-0.393963
5859.000000;-0.394166
5858.000000;-0.394345
5857.000000;-0.394543
5856.000000;-0.394785
5855.000000;-0.395057
5854.000000;-0.395339
5853.000000;-0.395621
5852.000000;-0.395882
5851.000000;-0.396096
5850.000000;-0.396275
5849.000000;-0.396457
5848.000000;-0.396664
5847.000000;-0.396888
5846.000000;-0.397114
5845.000000;-0.397336
5844.000000;-0.397538
5843.000000;-0.397718
5842.000000;-0.397909
5841.000000;-0.398150
5840.000000;-0.398436
5839.000000;-0.398725
5838.000000;-0.398994
5837.000000;-0.399242
5836.000000;-0.399455
5835.000000;-0.399617
5834.000000;-0.399750
5833.000000;-0.399911
5832.000000;-0.400125
5831.000000;-0.400375
5830.000000;-0.400639
5829.000000;-0.400912
5828.000000;-0.401184
5827.000000;-0.401450
5826.000000;-0.401726
5825.000000;-0.402027
5824.000000;-0.402328
5823.000000;-0.402589
5822.000000;-0.402818
5821.000000;-0.403054
5820.000000;-0.403313
5819.000000;-0.403578
5818.000000;-0.403843
5817.000000;-0.404120
5816.000000;-0.404394
5815.000000;-0.404629
5814.000000;-0.404820
5813.000000;-0.404991
5812.000000;-0.405159
5811.000000;-0.405327
5810.000000;-0.405519
5809.000000;-0.405756
5808.000000;-0.406025
5807.000000;-0.406296
5806.000000;-0.406571
5805.000000;-0.406878
5804.000000;-0.407202
5803.000000;-0.407493
5802.000000;-0.407732
5801.000000;-0.407945
5800.000000;-0.408163
5799.000000;-0.408392
5798.000000;-0.408634
5797.000000;-0.408889
5796.000000;-0.409137
5795.000000;-0.409356
5794.000000;-0.409569
5793.000000;-0.409814
5792.000000;-0.410095
5791.000000;-0.410374
5790.000000;-0.410633
5789.000000;-0.410887
5788.000000;-0.411149
5787.000000;-0.411415
5786.000000;-0.411679
5785.000000;-0.411944
5784.000000;-0.412197
5783.000000;-0.412439
5782.000000;-0.412693
5781.000000;-0.412971
5780.000000;-0.413242
5779.000000;-0.413465
5778.000000;-0.413649
5777.000000;-0.413833
5776.000000;-0.414027
5775.000000;-0.414223
5774.000000;-0.414436
5773.000000;-0.414693
5772.000000;-0.414986
5771.000000;-0.415285
5770.000000;-0.415579
5769.000000;-0.415868
5768.000000;-0.416136
5767.000000;-0.416377
5766.000000;-0.416630
5765.000000;-0.416935
5764.000000;-0.417256
5763.000000;-0.417528
5762.000000;-0.417742
5761.000000;-0.417938
5760.000000;-0.418130
5759.000000;-0.418310
5758.000000;-0.418503
5757.000000;-0.418751
5756.000000;-0.419045
5755.000000;-0.419334
5754.000000;-0.419612
5753.000000;-0.419905
5752.000000;-0.420207
5751.000000;-0.420473
5750.000000;-0.420692
5749.000000;-0.420903
5748.000000;-0.421129
5747.000000;-0.421366
5746.000000;-0.421623
5745.000000;-0.421929
5744.000000;-0.422267
5743.000000;-0.422583
5742.000000;-0.422848
5741.000000;-0.423088
5740.000000;-0.423327
5739.000000;-0.423567
5738.000000;-0.423806
5737.000000;-0.424047
5736.000000;-0.424271
5735.000000;-0.424464
5734.000000;-0.424659
5733.000000;-0.424911
5732.000000;-0.425224
5731.000000;-0.425555
5730.000000;-0.425871
5729.000000;-0.426166
5728.000000;-0.426429
5727.000000;-0.426661
5726.000000;-0.426893
5725.000000;-0.427156
5724.000000;-0.427428
5723.000000;-0.427672
5722.000000;-0.427908
5721.000000;-0.428183
5720.000000;-0.428490
5719.000000;-0.428776
5718.000000;-0.429024
5717.000000;-0.429270
5716.000000;-0.429535
5715.000000;-0.429811
5714.000000;-0.430101
5713.000000;-0.430417
5712.000000;-0.430730
5711.000000;-0.430994
5710.000000;-0.431212
5709.000000;-0.431420
5708.000000;-0.431632
5707.000000;-0.431841
5706.000000;-0.432070
5705.000000;-0.432355
5704.000000;-0.432681
5703.000000;-0.433003
5702.000000;-0.433299
5701.000000;-0.433569
5700.000000;-0.433788
5699.000000;-0.433939
5698.000000;-0.434122
5697.000000;-0.434332
5696.000000;-0.434601
5695.000000;-0.434877
5694.000000;-0.435130
5693.000000;-0.435371
5692.000000;-0.435593
5691.000000;-0.435788
5690.000000;-0.436004
5689.000000;-0.436303
5688.000000;-0.436666
5687.000000;-0.437016
5686.000000;-0.437326
5685.000000;-0.437636
5684.000000;-0.437952
5683.000000;-0.438225
5682.000000;-0.438434
5681.000000;-0.438615
5680.000000;-0.438786
5679.000000;-0.438930
5678.000000;-0.439055
5677.000000;-0.439218
5676.000000;-0.439456
5675.000000;-0.439755
5674.000000;-0.440095
5673.000000;-0.440463
5672.000000;-0.440829
5671.000000;-0.441145
5670.000000;-0.441404
5669.000000;-0.441639
5668.000000;-0.441877
5667.000000;-0.442124
5666.000000;-0.442386
5665.000000;-0.442660
5664.000000;-0.442906
5663.000000;-0.443097
5662.000000;-0.443279
5661.000000;-0.443527
5660.000000;-0.443846
5659.000000;-0.444185
5658.000000;-0.444520
5657.000000;-0.444852
5656.000000;-0.445159
5655.000000;-0.445409
5654.000000;-0.445625
5653.000000;-0.445867
5652.000000;-0.446141
5651.000000;-0.446400
5650.000000;-0.446638
5649.000000;-0.446885
5648.000000;-0.447145
5647.000000;-0.447384
5646.000000;-0.447599
5645.000000;-0.447820
5644.000000;-0.448062
5643.000000;-0.448320
5642.000000;-0.448606
5641.000000;-0.448924
5640.000000;-0.449223
5639.000000;-0.449454
5638.000000;-0.449650
5637.000000;-0.449878
5636.000000;-0.450125
5635.000000;-0.450325
5634.000000;-0.450470
5633.000000;-0.450613
5632.000000;-0.450786
5631.000000;-0.450982
5630.000000;-0.451235
5629.000000;-0.451584
5628.000000;-0.451986
5627.000000;-0.452344
5626.000000;-0.452637
5625.000000;-0.452927
5624.000000;-0.453242
5623.000000;-0.453543
5622.000000;-0.453814
5621.000000;-0.454085
5620.000000;-0.454359
5619.000000;-0.454597
5618.000000;-0.454799
5617.000000;-0.455013
5616.000000;-0.455257
5615.000000;-0.455506
5614.000000;-0.455761
5613.000000;-0.456055
5612.000000;-0.456372
5611.000000;-0.456643
5610.000000;-0.456843
5609.000000;-0.457014
5608.000000;-0.457198
5607.000000;-0.457407
5606.000000;-0.457657
5605.000000;-0.457947
5604.000000;-0.458232
5603.000000;-0.458462
5602.000000;-0.458662
5601.000000;-0.458897
5600.000000;-0.459170
5599.000000;-0.459432
5598.000000;-0.459665
5597.000000;-0.459885
5596.000000;-0.460085
5595.000000;-0.460266
5594.000000;-0.460493
5593.000000;-0.460818
5592.000000;-0.461181
5591.000000;-0.461489
5590.000000;-0.461750
5589.000000;-0.462033
5588.000000;-0.462325
5587.000000;-0.462551
5586.000000;-0.462725
5585.000000;-0.462935
5584.000000;-0.463202
5583.000000;-0.463461
5582.000000;-0.463685
5581.000000;-0.463909
5580.000000;-0.464134
5579.000000;-0.464325
5578.000000;-0.464512
5577.000000;-0.464754
5576.000000;-0.465024
5575.000000;-0.465242
5574.000000;-0.465423
5573.000000;-0.465649
5572.000000;-0.465913
5571.000000;-0.466125
5570.000000;-0.466292
5569.000000;-0.466529
5568.000000;-0.466856
5567.000000;-0.467161
5566.000000;-0.467392
5565.000000;-0.467625
5564.000000;-0.467900
5563.000000;-0.468151
5562.000000;-0.468341
5561.000000;-0.468540
5560.000000;-0.468792
5559.000000;-0.469033
5558.000000;-0.469218
5557.000000;-0.469411
5556.000000;-0.469668
5555.000000;-0.469944
5554.000000;-0.470190
5553.000000;-0.470446
5552.000000;-0.470746
5551.000000;-0.471023
5550.000000;-0.471197
5549.000000;-0.471304
5548.000000;-0.471443
5547.000000;-0.471675
5546.000000;-0.471998
5545.000000;-0.472371
5544.000000;-0.472712
5543.000000;-0.472961
5542.000000;-0.473150
5541.000000;-0.473389
5540.000000;-0.473711
5539.000000;-0.474027
5538.000000;-0.474266
5537.000000;-0.474472
5536.000000;-0.474707
5535.000000;-0.474942
5534.000000;-0.475137
5533.000000;-0.475321
5532.000000;-0.475551
5531.000000;-0.475823
5530.000000;-0.476097
5529.000000;-0.476368
5528.000000;-0.476628
5527.000000;-0.476870
5526.000000;-0.477114
5525.000000;-0.477375
5524.000000;-0.477612
5523.000000;-0.477774
5522.000000;-0.477907
5521.000000;-0.478146
5520.000000;-0.478508
5519.000000;-0.478850
5518.000000;-0.479083
5517.000000;-0.479282
5516.000000;-0.479555
5515.000000;-0.479864
5514.000000;-0.480079
5513.000000;-0.480181
5512.000000;-0.480311
5511.000000;-0.480562
5510.000000;-0.480862
5509.000000;-0.481081
5508.000000;-0.481210
5507.000000;-0.481388
5506.000000;-0.481713
5505.000000;-0.482061
5504.000000;-0.482286
5503.000000;-0.482474
5502.000000;-0.482811
5501.000000;-0.483302
5500.000000;-0.483663
5499.000000;-0.483691
5498.000000;-0.483634
5497.000000;-0.483849
5496.000000;-0.484245
5495.000000;-0.484411
5494.000000;-0.484231
5493.000000;-0.484117
5492.000000;-0.484443
5491.000000;-0.484983
5490.000000;-0.485287
5489.000000;-0.485339
5488.000000;-0.485511
5487.000000;-0.485997
5486.000000;-0.486627
5485.000000;-0.487139
5484.000000;-0.487525
5483.000000;-0.487911
5482.000000;-0.488183
5481.000000;-0.488190
5480.000000;-0.488117
5479.000000;-0.488271
5478.000000;-0.488613
5477.000000;-0.488738
5476.000000;-0.488461
5475.000000;-0.488289
5474.000000;-0.488748
5473.000000;-0.489508
5472.000000;-0.489893
5471.000000;-0.489875
5470.000000;-0.489990
5469.000000;-0.490515
5468.000000;-0.491092
5467.000000;-0.491289
5466.000000;-0.491268
5465.000000;-0.491407
5464.000000;-0.491687
5463.000000;-0.491882
5462.000000;-0.491941
5461.000000;-0.492008
5460.000000;-0.492222
5459.000000;-0.492585
5458.000000;-0.493017
5457.000000;-0.493419
5456.000000;-0.493679
5455.000000;-0.493872
5454.000000;-0.494276
5453.000000;-0.494846
5452.000000;-0.495112
5451.000000;-0.494854
5450.000000;-0.494522
5449.000000;-0.494661
5448.000000;-0.495038
5447.000000;-0.494940
5446.000000;-0.494448
5445.000000;-0.494423
5444.000000;-0.495151
5443.000000;-0.495944
5442.000000;-0.496158
5441.000000;-0.495980
5440.000000;-0.496138
5439.000000;-0.496871
5438.000000;-0.497636
5437.000000;-0.497931
5436.000000;-0.497746
5435.000000;-0.497448
5434.000000;-0.497540
5433.000000;-0.498076
5432.000000;-0.498552
5431.000000;-0.498594
5430.000000;-0.498353
5429.000000;-0.498348
5428.000000;-0.498932
5427.000000;-0.499872
5426.000000;-0.500698
5425.000000;-0.501254
5424.000000;-0.501695
5423.000000;-0.502245
5422.000000;-0.502982
5421.000000;-0.503571
5420.000000;-0.503568
5419.000000;-0.503129
5418.000000;-0.502856
5417.000000;-0.502920
5416.000000;-0.502795
5415.000000;-0.502090
5414.000000;-0.501358
5413.000000;-0.501392
5412.000000;-0.502000
5411.000000;-0.502403
5410.000000;-0.502547
5409.000000;-0.503072
5408.000000;-0.504127
5407.000000;-0.505133
5406.000000;-0.505689
5405.000000;-0.506095
5404.000000;-0.506683
5403.000000;-0.507174
5402.000000;-0.507361
5401.000000;-0.507504
5400.000000;-0.507631
5399.000000;-0.507510
5398.000000;-0.507208
5397.000000;-0.507119
5396.000000;-0.507325
5395.000000;-0.507358
5394.000000;-0.507094
5393.000000;-0.507096
5392.000000;-0.507629
5391.000000;-0.508194
5390.000000;-0.508422
5389.000000;-0.508632
5388.000000;-0.509146
5387.000000;-0.509656
5386.000000;-0.509783
5385.000000;-0.509901
5384.000000;-0.510411
5383.000000;-0.510789
5382.000000;-0.510580
5381.000000;-0.510333
5380.000000;-0.510653
5379.000000;-0.511193
5378.000000;-0.511235
5377.000000;-0.510953
5376.000000;-0.511158
5375.000000;-0.511840
5374.000000;-0.512270
5373.000000;-0.512372
5372.000000;-0.512771
5371.000000;-0.513613
5370.000000;-0.514302
5369.000000;-0.514525
5368.000000;-0.514717
5367.000000;-0.515173
5366.000000;-0.515532
5365.000000;-0.515576
5364.000000;-0.515626
5363.000000;-0.515855
5362.000000;-0.516015
5361.000000;-0.515914
5360.000000;-0.515694
5359.000000;-0.515553
5358.000000;-0.515552
5357.000000;-0.515772
5356.000000;-0.516218
5355.000000;-0.516507
5354.000000;-0.516239
5353.000000;-0.515821
5352.000000;-0.515970
5351.000000;-0.516371
5350.000000;-0.516205
5349.000000;-0.515681
5348.000000;-0.515740
5347.000000;-0.516467
5346.000000;-0.516784
5345.000000;-0.516121
5344.000000;-0.515523
5343.000000;-0.516002
5342.000000;-0.516819
5341.000000;-0.516891
5340.000000;-0.516463
5339.000000;-0.516420
5338.000000;-0.516987
5337.000000;-0.517643
5336.000000;-0.518091
5335.000000;-0.518514
5334.000000;-0.518858
5333.000000;-0.518935
5332.000000;-0.519068
5331.000000;-0.519617
5330.000000;-0.520236
5329.000000;-0.520342
5328.000000;-0.520017
5327.000000;-0.519986
5326.000000;-0.520542
5325.000000;-0.521126
5324.000000;-0.521333
5323.000000;-0.521439
5322.000000;-0.521718
5321.000000;-0.522052
5320.000000;-0.522292
5319.000000;-0.522505
5318.000000;-0.522774
5317.000000;-0.523020
5316.000000;-0.523187
5315.000000;-0.523351
5314.000000;-0.523439
5313.000000;-0.523286
5312.000000;-0.523052
5311.000000;-0.523069
5310.000000;-0.523314
5309.000000;-0.523426
5308.000000;-0.523304
5307.000000;-0.523292
5306.000000;-0.523582
5305.000000;-0.523883
5304.000000;-0.523945
5303.000000;-0.523967
5302.000000;-0.524220
5301.000000;-0.524596
5300.000000;-0.524809
5299.000000;-0.524864
5298.000000;-0.525025
5297.000000;-0.525272
5296.000000;-0.525335
5295.000000;-0.525231
5294.000000;-0.525226
5293.000000;-0.525361
5292.000000;-0.525357
5291.000000;-0.525057
5290.000000;-0.524790
5289.000000;-0.524929
5288.000000;-0.525303
5287.000000;-0.525457
5286.000000;-0.525303
5285.000000;-0.525220
5284.000000;-0.525486
5283.000000;-0.525894
5282.000000;-0.526114
5281.000000;-0.526169
5280.000000;-0.526292
5279.000000;-0.526494
5278.000000;-0.526619
5277.000000;-0.526657
5276.000000;-0.526708
5275.000000;-0.526788
5274.000000;-0.526807
5273.000000;-0.526753
5272.000000;-0.526742
5271.000000;-0.526715
5270.000000;-0.526451
5269.000000;-0.526035
5268.000000;-0.525819
5267.000000;-0.525842
5266.000000;-0.525758
5265.000000;-0.525411
5264.000000;-0.525137
5263.000000;-0.525319
5262.000000;-0.525761
5261.000000;-0.525951
5260.000000;-0.525859
5259.000000;-0.525912
5258.000000;-0.526254
5257.000000;-0.526586
5256.000000;-0.526637
5255.000000;-0.526495
5254.000000;-0.526391
5253.000000;-0.526343
5252.000000;-0.526302
5251.000000;-0.526257
5250.000000;-0.526112
5249.000000;-0.525884
5248.000000;-0.525837
5247.000000;-0.526138
5246.000000;-0.526514
5245.000000;-0.526563
5244.000000;-0.526381
5243.000000;-0.526528
5242.000000;-0.527189
5241.000000;-0.527802
5240.000000;-0.527898
5239.000000;-0.527777
5238.000000;-0.527905
5237.000000;-0.528128
5236.000000;-0.528066
5235.000000;-0.527825
5234.000000;-0.527794
5233.000000;-0.527946
5232.000000;-0.527854
5231.000000;-0.527448
5230.000000;-0.527197
5229.000000;-0.527331
5228.000000;-0.527463
5227.000000;-0.527256
5226.000000;-0.526957
5225.000000;-0.526959
5224.000000;-0.527204
5223.000000;-0.527357
5222.000000;-0.527391
5221.000000;-0.527519
5220.000000;-0.527779
5219.000000;-0.528053
5218.000000;-0.528277
5217.000000;-0.528457
5216.000000;-0.528524
5215.000000;-0.528375
5214.000000;-0.528143
5213.000000;-0.528036
5212.000000;-0.527992
5211.000000;-0.527836
5210.000000;-0.527590
5209.000000;-0.527367
5208.000000;-0.527126
5207.000000;-0.526811
5206.000000;-0.526645
5205.000000;-0.526915
5204.000000;-0.527455
5203.000000;-0.527800
5202.000000;-0.527845
5201.000000;-0.527925
5200.000000;-0.528219
5199.000000;-0.528442
5198.000000;-0.528312
5197.000000;-0.528054
5196.000000;-0.528023
5195.000000;-0.528104
5194.000000;-0.528017
5193.000000;-0.527839
5192.000000;-0.527814
5191.000000;-0.527919
5190.000000;-0.527942
5189.000000;-0.527914
5188.000000;-0.528035
5187.000000;-0.528199
5186.000000;-0.528089
5185.000000;-0.527759
5184.000000;-0.527642
5183.000000;-0.527875
5182.000000;-0.528104
5181.000000;-0.528089
5180.000000;-0.528033
5179.000000;-0.528138
5178.000000;-0.528234
5177.000000;-0.528107
5176.000000;-0.527900
5175.000000;-0.527858
5174.000000;-0.527919
5173.000000;-0.527874
5172.000000;-0.527726
5171.000000;-0.527616
5170.000000;-0.527553
5169.000000;-0.527468
5168.000000;-0.527412
5167.000000;-0.527450
5166.000000;-0.527476
5165.000000;-0.527359
5164.000000;-0.527175
5163.000000;-0.527073
5162.000000;-0.527015
5161.000000;-0.526885
5160.000000;-0.526738
5159.000000;-0.526714
5158.000000;-0.526777
5157.000000;-0.526759
5156.000000;-0.526636
5155.000000;-0.526558
5154.000000;-0.526575
5153.000000;-0.526577
5152.000000;-0.526523
5151.000000;-0.526504
5150.000000;-0.526564
5149.000000;-0.526621
5148.000000;-0.526599
5147.000000;-0.526521
5146.000000;-0.526432
5145.000000;-0.526338
5144.000000;-0.526243
5143.000000;-0.526165
5142.000000;-0.526108
5141.000000;-0.526053
5140.000000;-0.525993
5139.000000;-0.525921
5138.000000;-0.525824
5137.000000;-0.525732
5136.000000;-0.525704
5135.000000;-0.525734
5134.000000;-0.525715
5133.000000;-0.525580
5132.000000;-0.525406
5131.000000;-0.525289
5130.000000;-0.525219
5129.000000;-0.525140
5128.000000;-0.525087
5127.000000;-0.525118
5126.000000;-0.525181
5125.000000;-0.525163
5124.000000;-0.525052
5123.000000;-0.524914
5122.000000;-0.524763
5121.000000;-0.524572
5120.000000;-0.524377
5119.000000;-0.524244
5118.000000;-0.524163
5117.000000;-0.524068
5116.000000;-0.523960
5115.000000;-0.523901
5114.000000;-0.523896
5113.000000;-0.523886
5112.000000;-0.523840
5111.000000;-0.523763
5110.000000;-0.523628
5109.000000;-0.523394
5108.000000;-0.523107
5107.000000;-0.522879
5106.000000;-0.522767
5105.000000;-0.522748
5104.000000;-0.522786
5103.000000;-0.522843
5102.000000;-0.522860
5101.000000;-0.522792
5100.000000;-0.522676
5099.000000;-0.522587
5098.000000;-0.522539
5097.000000;-0.522483
5096.000000;-0.522391
5095.000000;-0.522275
5094.000000;-0.522138
5093.000000;-0.521978
5092.000000;-0.521833
5091.000000;-0.521744
5090.000000;-0.521695
5089.000000;-0.521639
5088.000000;-0.521564
5087.000000;-0.521479
5086.000000;-0.521364
5085.000000;-0.521192
5084.000000;-0.520998
5083.000000;-0.520840
5082.000000;-0.520722
5081.000000;-0.520601
5080.000000;-0.520458
5079.000000;-0.520308
5078.000000;-0.520154
5077.000000;-0.520007
5076.000000;-0.519916
5075.000000;-0.519911
5074.000000;-0.519941
5073.000000;-0.519923
5072.000000;-0.519826
5071.000000;-0.519671
5070.000000;-0.519472
5069.000000;-0.519256
5068.000000;-0.519095
5067.000000;-0.519043
5066.000000;-0.519056
5065.000000;-0.519036
5064.000000;-0.518945
5063.000000;-0.518803
5062.000000;-0.518627
5061.000000;-0.518433
5060.000000;-0.518267
5059.000000;-0.518159
5058.000000;-0.518054
5057.000000;-0.517884
5056.000000;-0.517673
5055.000000;-0.517508
5054.000000;-0.517409
5053.000000;-0.517317
5052.000000;-0.517194
5051.000000;-0.517061
5050.000000;-0.516933
5049.000000;-0.516790
5048.000000;-0.516627
5047.000000;-0.516467
5046.000000;-0.516322
5045.000000;-0.516184
5044.000000;-0.516047
5043.000000;-0.515907
5042.000000;-0.515743
5041.000000;-0.515549
5040.000000;-0.515359
5039.000000;-0.515209
5038.000000;-0.515093
5037.000000;-0.514990
5036.000000;-0.514911
5035.000000;-0.514863
5034.000000;-0.514807
5033.000000;-0.514705
5032.000000;-0.514579
5031.000000;-0.514468
5030.000000;-0.514359
5029.000000;-0.514211
5028.000000;-0.514020
5027.000000;-0.513810
5026.000000;-0.513580
5025.000000;-0.513339
5024.000000;-0.513141
5023.000000;-0.513026
5022.000000;-0.512949
5021.000000;-0.512841
5020.000000;-0.512708
5019.000000;-0.512595
5018.000000;-0.512482
5017.000000;-0.512304
5016.000000;-0.512061
5015.000000;-0.511831
5014.000000;-0.511675
5013.000000;-0.511588
5012.000000;-0.511541
5011.000000;-0.511483
5010.000000;-0.511344
5009.000000;-0.511089
5008.000000;-0.510780
5007.000000;-0.510521
5006.000000;-0.510341
5005.000000;-0.510191
5004.000000;-0.510036
5003.000000;-0.509881
5002.000000;-0.509690
5001.000000;-0.509513
5000.000000;-0.509311
4999.000000;-0.509120
4998.000000;-0.508950
4997.000000;-0.508772
4996.000000;-0.508575
4995.000000;-0.508378
4994.000000;-0.508185
4993.000000;-0.507980
4992.000000;-0.507758
4991.000000;-0.507531
4990.000000;-0.507301
4989.000000;-0.507078
4988.000000;-0.506898
4987.000000;-0.506788
4986.000000;-0.506726
4985.000000;-0.506670
4984.000000;-0.506618
4983.000000;-0.506584
4982.000000;-0.506544
4981.000000;-0.506452
4980.000000;-0.506308
4979.000000;-0.506144
4978.000000;-0.505978
4977.000000;-0.505813
4976.000000;-0.505662
4975.000000;-0.505520
4974.000000;-0.505333
4973.000000;-0.505061
4972.000000;-0.504753
4971.000000;-0.504499
4970.000000;-0.504319
4969.000000;-0.504154
4968.000000;-0.503968
4967.000000;-0.503777
4966.000000;-0.503594
4965.000000;-0.503410
4964.000000;-0.503231
4963.000000;-0.503079
4962.000000;-0.502943
4961.000000;-0.502789
4960.000000;-0.502615
4959.000000;-0.502450
4958.000000;-0.502294
4957.000000;-0.502106
4956.000000;-0.501877
4955.000000;-0.501652
4954.000000;-0.501479
4953.000000;-0.501358
4952.000000;-0.501256
4951.000000;-0.501146
4950.000000;-0.501010
4949.000000;-0.500846
4948.000000;-0.500682
4947.000000;-0.500543
4946.000000;-0.500424
4945.000000;-0.500299
4944.000000;-0.500157
4943.000000;-0.499998
4942.000000;-0.499814
4941.000000;-0.499608
4940.000000;-0.499416
4939.000000;-0.499275
4938.000000;-0.499176
4937.000000;-0.499080
4936.000000;-0.498977
4935.000000;-0.498872
4934.000000;-0.498746
4933.000000;-0.498557
4932.000000;-0.498297
4931.000000;-0.498001
4930.000000;-0.497702
4929.000000;-0.497420
4928.000000;-0.497172
4927.000000;-0.496965
4926.000000;-0.496783
4925.000000;-0.496609
4924.000000;-0.496449
4923.000000;-0.496314
4922.000000;-0.496186
4921.000000;-0.496032
4920.000000;-0.495844
4919.000000;-0.495638
4918.000000;-0.495422
4917.000000;-0.495211
4916.000000;-0.495027
4915.000000;-0.494877
4914.000000;-0.494722
4913.000000;-0.494525
4912.000000;-0.494296
4911.000000;-0.494069
4910.000000;-0.493857
4909.000000;-0.493667
4908.000000;-0.493527
4907.000000;-0.493456
4906.000000;-0.493420
4905.000000;-0.493355
4904.000000;-0.493231
4903.000000;-0.493057
4902.000000;-0.492844
4901.000000;-0.492621
4900.000000;-0.492450
4899.000000;-0.492369
4898.000000;-0.492322
4897.000000;-0.492193
4896.000000;-0.491930
4895.000000;-0.491586
4894.000000;-0.491255
4893.000000;-0.490999
4892.000000;-0.490829
4891.000000;-0.490713
4890.000000;-0.490594
4889.000000;-0.490440
4888.000000;-0.490270
4887.000000;-0.490116
4886.000000;-0.489966
4885.000000;-0.489775
4884.000000;-0.489529
4883.000000;-0.489256
4882.000000;-0.488987
4881.000000;-0.488738
4880.000000;-0.488516
4879.000000;-0.488327
4878.000000;-0.488156
4877.000000;-0.487997
4876.000000;-0.487856
4875.000000;-0.487723
4874.000000;-0.487547
4873.000000;-0.487277
4872.000000;-0.486923
4871.000000;-0.486548
4870.000000;-0.486209
4869.000000;-0.485944
4868.000000;-0.485769
4867.000000;-0.485664
4866.000000;-0.485568
4865.000000;-0.485433
4864.000000;-0.485259
4863.000000;-0.485069
4862.000000;-0.484864
4861.000000;-0.484652
4860.000000;-0.484464
4859.000000;-0.484309
4858.000000;-0.484126
4857.000000;-0.483849
4856.000000;-0.483500
4855.000000;-0.483169
4854.000000;-0.482924
4853.000000;-0.482769
4852.000000;-0.482668
4851.000000;-0.482548
4850.000000;-0.482325
4849.000000;-0.481986
4848.000000;-0.481631
4847.000000;-0.481382
4846.000000;-0.481244
4845.000000;-0.481111
4844.000000;-0.480904
4843.000000;-0.480640
4842.000000;-0.480364
4841.000000;-0.480099
4840.000000;-0.479853
4839.000000;-0.479634
4838.000000;-0.479429
4837.000000;-0.479210
4836.000000;-0.478976
4835.000000;-0.478745
4834.000000;-0.478518
4833.000000;-0.478272
4832.000000;-0.478005
4831.000000;-0.477746
4830.000000;-0.477516
4829.000000;-0.477303
4828.000000;-0.477090
4827.000000;-0.476868
4826.000000;-0.476627
4825.000000;-0.476367
4824.000000;-0.476115
4823.000000;-0.475902
4822.000000;-0.475720
4821.000000;-0.475534
4820.000000;-0.475328
4819.000000;-0.475114
4818.000000;-0.474890
4817.000000;-0.474642
4816.000000;-0.474376
4815.000000;-0.474121
4814.000000;-0.473887
4813.000000;-0.473647
4812.000000;-0.473367
4811.000000;-0.473032
4810.000000;-0.472659
4809.000000;-0.472294
4808.000000;-0.471985
4807.000000;-0.471744
4806.000000;-0.471530
4805.000000;-0.471294
4804.000000;-0.471020
4803.000000;-0.470707
4802.000000;-0.470338
4801.000000;-0.469924
4800.000000;-0.469542
4799.000000;-0.469274
4798.000000;-0.469116
4797.000000;-0.468983
4796.000000;-0.468802
4795.000000;-0.468557
4794.000000;-0.468262
4793.000000;-0.467934
4792.000000;-0.467603
4791.000000;-0.467300
4790.000000;-0.467016
4789.000000;-0.466705
4788.000000;-0.466339
4787.000000;-0.465935
4786.000000;-0.465536
4785.000000;-0.465183
4784.000000;-0.464899
4783.000000;-0.464674
4782.000000;-0.464454
4781.000000;-0.464173
4780.000000;-0.463806
4779.000000;-0.463387
4778.000000;-0.462972
4777.000000;-0.462605
4776.000000;-0.462304
4775.000000;-0.462056
4774.000000;-0.461813
4773.000000;-0.461529
4772.000000;-0.461195
4771.000000;-0.460841
4770.000000;-0.460508
4769.000000;-0.460224
4768.000000;-0.459991
4767.000000;-0.459770
4766.000000;-0.459498
4765.000000;-0.459140
4764.000000;-0.458719
4763.000000;-0.458291
4762.000000;-0.457893
4761.000000;-0.457538
4760.000000;-0.457225
4759.000000;-0.456936
4758.000000;-0.456628
4757.000000;-0.456274
4756.000000;-0.455899
4755.000000;-0.455551
4754.000000;-0.455256
4753.000000;-0.455004
4752.000000;-0.454774
4751.000000;-0.454529
4750.000000;-0.454223
4749.000000;-0.453830
4748.000000;-0.453379
4747.000000;-0.452936
4746.000000;-0.452549
4745.000000;-0.452224
4744.000000;-0.451934
4743.000000;-0.451636
4742.000000;-0.451286
4741.000000;-0.450879
4740.000000;-0.450452
4739.000000;-0.450043
4738.000000;-0.449662
4737.000000;-0.449309
4736.000000;-0.448988
4735.000000;-0.448679
4734.000000;-0.448329
4733.000000;-0.447898
4732.000000;-0.447415
4731.000000;-0.446957
4730.000000;-0.446588
4729.000000;-0.446324
4728.000000;-0.446138
4727.000000;-0.445963
4726.000000;-0.445709
4725.000000;-0.445332
4724.000000;-0.444871
4723.000000;-0.444401
4722.000000;-0.443965
4721.000000;-0.443563
4720.000000;-0.443190
4719.000000;-0.442844
4718.000000;-0.442502
4717.000000;-0.442137
4716.000000;-0.441747
4715.000000;-0.441353
4714.000000;-0.440979
4713.000000;-0.440626
4712.000000;-0.440288
4711.000000;-0.439940
4710.000000;-0.439554
4709.000000;-0.439129
4708.000000;-0.438700
4707.000000;-0.438293
4706.000000;-0.437898
4705.000000;-0.437498
4704.000000;-0.437091
4703.000000;-0.436675
4702.000000;-0.436233
4701.000000;-0.435772
4700.000000;-0.435345
4699.000000;-0.434987
4698.000000;-0.434648
4697.000000;-0.434237
4696.000000;-0.433724
4695.000000;-0.433162
4694.000000;-0.432628
4693.000000;-0.432175
4692.000000;-0.431816
4691.000000;-0.431519
4690.000000;-0.431207
4689.000000;-0.430798
4688.000000;-0.430271
4687.000000;-0.429675
4686.000000;-0.429081
4685.000000;-0.428546
4684.000000;-0.428091
4683.000000;-0.427695
4682.000000;-0.427316
4681.000000;-0.426921
4680.000000;-0.426506
4679.000000;-0.426077
4678.000000;-0.425639
4677.000000;-0.425213
4676.000000;-0.424828
4675.000000;-0.424475
4674.000000;-0.424087
4673.000000;-0.423601
4672.000000;-0.423023
4671.000000;-0.422413
4670.000000;-0.421819
4669.000000;-0.421261
4668.000000;-0.420739
4667.000000;-0.420233
4666.000000;-0.419708
4665.000000;-0.419140
4664.000000;-0.418547
4663.000000;-0.417959
4662.000000;-0.417398
4661.000000;-0.416880
4660.000000;-0.416416
4659.000000;-0.415977
4658.000000;-0.415493
4657.000000;-0.414918
4656.000000;-0.414276
4655.000000;-0.413637
4654.000000;-0.413052
4653.000000;-0.412546
4652.000000;-0.412110
4651.000000;-0.411686
4650.000000;-0.411190
4649.000000;-0.410603
4648.000000;-0.409993
4647.000000;-0.409431
4646.000000;-0.408906
4645.000000;-0.408361
4644.000000;-0.407784
4643.000000;-0.407199
4642.000000;-0.406612
4641.000000;-0.406004
4640.000000;-0.405377
4639.000000;-0.404753
4638.000000;-0.404141
4637.000000;-0.403538
4636.000000;-0.402955
4635.000000;-0.402393
4634.000000;-0.401824
4633.000000;-0.401210
4632.000000;-0.400552
4631.000000;-0.399883
4630.000000;-0.399235
4629.000000;-0.398639
4628.000000;-0.398104
4627.000000;-0.397593
4626.000000;-0.397038
4625.000000;-0.396409
4624.000000;-0.395748
4623.000000;-0.395093
4622.000000;-0.394423
4621.000000;-0.393723
4620.000000;-0.393038
4619.000000;-0.392410
4618.000000;-0.391803
4617.000000;-0.391149
4616.000000;-0.390447
4615.000000;-0.389749
4614.000000;-0.389071
4613.000000;-0.388383
4612.000000;-0.387671
4611.000000;-0.386941
4610.000000;-0.386162
4609.000000;-0.385299
4608.000000;-0.384398
4607.000000;-0.383565
4606.000000;-0.382861
4605.000000;-0.382243
4604.000000;-0.381620
4603.000000;-0.380924
4602.000000;-0.380133
4601.000000;-0.379278
4600.000000;-0.378435
4599.000000;-0.377661
4598.000000;-0.376929
4597.000000;-0.376170
4596.000000;-0.375358
4595.000000;-0.374516
4594.000000;-0.373649
4593.000000;-0.372737
4592.000000;-0.371801
4591.000000;-0.370913
4590.000000;-0.370115
4589.000000;-0.369363
4588.000000;-0.368577
4587.000000;-0.367714
4586.000000;-0.366786
4585.000000;-0.365833
4584.000000;-0.364880
4583.000000;-0.363911
4582.000000;-0.362888
4581.000000;-0.361798
4580.000000;-0.360681
4579.000000;-0.359589
4578.000000;-0.358533
4577.000000;-0.357506
4576.000000;-0.356512
4575.000000;-0.355548
4574.000000;-0.354553
4573.000000;-0.353452
4572.000000;-0.352241
4571.000000;-0.350988
4570.000000;-0.349764
4569.000000;-0.348596
4568.000000;-0.347476
4567.000000;-0.346372
4566.000000;-0.345221
4565.000000;-0.343978
4564.000000;-0.342664
4563.000000;-0.341346
4562.000000;-0.340059
4561.000000;-0.338774
4560.000000;-0.337453
4559.000000;-0.336076
4558.000000;-0.334628
4557.000000;-0.333098
4556.000000;-0.331505
4555.000000;-0.329899
4554.000000;-0.328318
4553.000000;-0.326775
4552.000000;-0.325267
4551.000000;-0.323774
4550.000000;-0.322242
4549.000000;-0.320617
4548.000000;-0.318903
4547.000000;-0.317171
4546.000000;-0.315487
4545.000000;-0.313866
4544.000000;-0.312276
4543.000000;-0.310681
4542.000000;-0.309075
4541.000000;-0.307492
4540.000000;-0.305970
4539.000000;-0.304496
4538.000000;-0.303010
4537.000000;-0.301475
4536.000000;-0.299932
4535.000000;-0.298436
4534.000000;-0.296984
4533.000000;-0.295524
4532.000000;-0.294044
4531.000000;-0.292595
4530.000000;-0.291226
4529.000000;-0.289929
4528.000000;-0.288662
4527.000000;-0.287380
4526.000000;-0.286067
4525.000000;-0.284751
4524.000000;-0.283492
4523.000000;-0.282323
4522.000000;-0.281212
4521.000000;-0.280099
4520.000000;-0.278953
4519.000000;-0.277774
4518.000000;-0.276566
4517.000000;-0.275338
4516.000000;-0.274131
4515.000000;-0.272989
4514.000000;-0.271912
4513.000000;-0.270857
4512.000000;-0.269780
4511.000000;-0.268663
4510.000000;-0.267504
4509.000000;-0.266342
4508.000000;-0.265242
4507.000000;-0.264239
4506.000000;-0.263286
4505.000000;-0.262305
4504.000000;-0.261263
4503.000000;-0.260179
4502.000000;-0.259050
4501.000000;-0.257846
4500.000000;-0.256560
4499.000000;-0.255250
4498.000000;-0.253993
4497.000000;-0.252827
4496.000000;-0.251728
4495.000000;-0.250642
4494.000000;-0.249539
4493.000000;-0.248426
4492.000000;-0.247309
4491.000000;-0.246151
4490.000000;-0.244894
4489.000000;-0.243549
4488.000000;-0.242196
4487.000000;-0.240893
4486.000000;-0.239618
4485.000000;-0.238333
4484.000000;-0.237062
4483.000000;-0.235841
4482.000000;-0.234638
4481.000000;-0.233370
4480.000000;-0.231995
4479.000000;-0.230525
4478.000000;-0.228987
4477.000000;-0.227411
4476.000000;-0.225856
4475.000000;-0.224383
4474.000000;-0.222998
4473.000000;-0.221649
4472.000000;-0.220271
4471.000000;-0.218813
4470.000000;-0.217258
4469.000000;-0.215654
4468.000000;-0.214093
4467.000000;-0.212623
4466.000000;-0.211173
4465.000000;-0.209626
4464.000000;-0.207943
4463.000000;-0.206189
4462.000000;-0.204462
4461.000000;-0.202827
4460.000000;-0.201297
4459.000000;-0.199833
4458.000000;-0.198352
4457.000000;-0.196791
4456.000000;-0.195154
4455.000000;-0.193492
4454.000000;-0.191843
4453.000000;-0.190202
4452.000000;-0.188550
4451.000000;-0.186870
4450.000000;-0.185159
4449.000000;-0.183445
4448.000000;-0.181756
4447.000000;-0.180072
4446.000000;-0.178351
4445.000000;-0.176604
4444.000000;-0.174896
4443.000000;-0.173235
4442.000000;-0.171528
4441.000000;-0.169703
4440.000000;-0.167810
4439.000000;-0.165940
4438.000000;-0.164106
4437.000000;-0.162278
4436.000000;-0.160479
4435.000000;-0.158757
4434.000000;-0.157083
4433.000000;-0.155364
4432.000000;-0.153553
4431.000000;-0.151667
4430.000000;-0.149721
4429.000000;-0.147714
4428.000000;-0.145682
4427.000000;-0.143690
4426.000000;-0.141745
4425.000000;-0.139790
4424.000000;-0.137792
4423.000000;-0.135791
4422.000000;-0.133842
4421.000000;-0.131969
4420.000000;-0.130138
4419.000000;-0.128262
4418.000000;-0.126230
4417.000000;-0.123995
4416.000000;-0.121631
4415.000000;-0.119278
4414.000000;-0.117020
4413.000000;-0.114840
4412.000000;-0.112676
4411.000000;-0.110477
4410.000000;-0.108239
4409.000000;-0.106006
4408.000000;-0.103834
4407.000000;-0.101710
4406.000000;-0.099555
4405.000000;-0.097312
4404.000000;-0.095008
4403.000000;-0.092667
4402.000000;-0.090238
4401.000000;-0.087674
4400.000000;-0.085039
4399.000000;-0.082445
4398.000000;-0.079941
4397.000000;-0.077501
4396.000000;-0.075103
4395.000000;-0.072717
4394.000000;-0.070272
4393.000000;-0.067719
4392.000000;-0.065099
4391.000000;-0.062481
4390.000000;-0.059846
4389.000000;-0.057130
4388.000000;-0.054351
4387.000000;-0.051595
4386.000000;-0.048876
4385.000000;-0.046101
4384.000000;-0.043202
4383.000000;-0.040221
4382.000000;-0.037262
4381.000000;-0.034408
4380.000000;-0.031670
4379.000000;-0.028962
4378.000000;-0.026120
4377.000000;-0.023036
4376.000000;-0.019777
4375.000000;-0.016502
4374.000000;-0.013287
4373.000000;-0.010084
4372.000000;-0.006836
4371.000000;-0.003553
4370.000000;-0.000256
4369.000000;0.003065
4368.000000;0.006426
4367.000000;0.009820
4366.000000;0.013231
4365.000000;0.016640
4364.000000;0.020034
4363.000000;0.023459
4362.000000;0.027004
4361.000000;0.030688
4360.000000;0.034400
4359.000000;0.038016
4358.000000;0.041552
4357.000000;0.045115
4356.000000;0.048759
4355.000000;0.052484
4354.000000;0.056330
4353.000000;0.060352
4352.000000;0.064497
4351.000000;0.068617
4350.000000;0.072624
4349.000000;0.076559
4348.000000;0.080515
4347.000000;0.084577
4346.000000;0.088835
4345.000000;0.093348
4344.000000;0.098060
4343.000000;0.102809
4342.000000;0.107449
4341.000000;0.111908
4340.000000;0.116195
4339.000000;0.120416
4338.000000;0.124751
4337.000000;0.129320
4336.000000;0.134064
4335.000000;0.138861
4334.000000;0.143703
4333.000000;0.148684
4332.000000;0.153839
4331.000000;0.159111
4330.000000;0.164454
4329.000000;0.169811
4328.000000;0.175042
4327.000000;0.180008
4326.000000;0.184772
4325.000000;0.189590
4324.000000;0.194680
4323.000000;0.200081
4322.000000;0.205724
4321.000000;0.211510
4320.000000;0.217325
4319.000000;0.223103
4318.000000;0.228916
4317.000000;0.234886
4316.000000;0.241023
4315.000000;0.247243
4314.000000;0.253528
4313.000000;0.259920
4312.000000;0.266352
4311.000000;0.272670
4310.000000;0.278853
4309.000000;0.285077
4308.000000;0.291525
4307.000000;0.298270
4306.000000;0.305328
4305.000000;0.312640
4304.000000;0.319965
4303.000000;0.327008
4302.000000;0.333773
4301.000000;0.340639
4300.000000;0.347973
4299.000000;0.355764
4298.000000;0.363717
4297.000000;0.371592
4296.000000;0.379366
4295.000000;0.387174
4294.000000;0.395201
4293.000000;0.403563
4292.000000;0.412209
4291.000000;0.420940
4290.000000;0.429570
4289.000000;0.438055
4288.000000;0.446507
4287.000000;0.455203
4286.000000;0.464528
4285.000000;0.474708
4284.000000;0.485534
4283.000000;0.496486
4282.000000;0.507190
4281.000000;0.517664
4280.000000;0.528086
4279.000000;0.538525
4278.000000;0.549039
4277.000000;0.559904
4276.000000;0.571571
4275.000000;0.584341
4274.000000;0.598076
4273.000000;0.612187
4272.000000;0.625997
4271.000000;0.639264
4270.000000;0.652384
4269.000000;0.665964
4268.000000;0.680261
4267.000000;0.695160
4266.000000;0.710585
4265.000000;0.726643
4264.000000;0.743382
4263.000000;0.760704
4262.000000;0.778661
4261.000000;0.797646
4260.000000;0.818083
4259.000000;0.839898
4258.000000;0.862326
4257.000000;0.884362
4256.000000;0.905691
4255.000000;0.927358
4254.000000;0.951254
4253.000000;0.978623
4252.000000;1.009142
4251.000000;1.041648
4250.000000;1.075522
4249.000000;1.111019
4248.000000;1.148693
4247.000000;1.189347
4246.000000;1.234547
4245.000000;1.286440
4244.000000;1.347016
4243.000000;1.418291
4242.000000;1.503811
4241.000000;1.607583
4240.000000;1.737713
4239.000000;1.902315
4238.000000;2.125578
4237.000000;2.187796
4236.000000;1.957714
4235.000000;1.761910
4234.000000;1.625250
4233.000000;1.524229
4232.000000;1.443974
4231.000000;1.376698
4230.000000;1.318230
4229.000000;1.266148
4228.000000;1.219357
4227.000000;1.177238
4226.000000;1.139008
4225.000000;1.103656
4224.000000;1.070348
4223.000000;1.038728
4222.000000;1.008925
4221.000000;0.981215
4220.000000;0.955373
4219.000000;0.930504
4218.000000;0.906022
4217.000000;0.882715
4216.000000;0.862067
4215.000000;0.844332
4214.000000;0.827915
4213.000000;0.811073
4212.000000;0.793694
4211.000000;0.776863
4210.000000;0.761211
4209.000000;0.746441
4208.000000;0.732106
4207.000000;0.718080
4206.000000;0.704294
4205.000000;0.690666
4204.000000;0.677471
4203.000000;0.665281
4202.000000;0.654301
4201.000000;0.644025
4200.000000;0.633713
4199.000000;0.623074
4198.000000;0.612349
4197.000000;0.601891
4196.000000;0.591830
4195.000000;0.582103
4194.000000;0.572691
4193.000000;0.563710
4192.000000;0.555203
4191.000000;0.546918
4190.000000;0.538506
4189.000000;0.529989
4188.000000;0.521827
4187.000000;0.514374
4186.000000;0.507421
4185.000000;0.500434
4184.000000;0.493108
4183.000000;0.485558
4182.000000;0.478095
4181.000000;0.471011
4180.000000;0.464455
4179.000000;0.458305
4178.000000;0.452215
4177.000000;0.445941
4176.000000;0.439593
4175.000000;0.433437
4174.000000;0.427574
4173.000000;0.421935
4172.000000;0.416463
4171.000000;0.411113
4170.000000;0.405756
4169.000000;0.400306
4168.000000;0.394894
4167.000000;0.389712
4166.000000;0.384743
4165.000000;0.379816
4164.000000;0.374894
4163.000000;0.370104
4162.000000;0.365495
4161.000000;0.360974
4160.000000;0.356483
4159.000000;0.352049
4158.000000;0.347623
4157.000000;0.343077
4156.000000;0.338428
4155.000000;0.333939
4154.000000;0.329887
4153.000000;0.326315
4152.000000;0.323034
4151.000000;0.319786
4150.000000;0.316395
4149.000000;0.312864
4148.000000;0.309366
4147.000000;0.306053
4146.000000;0.302858
4145.000000;0.299564
4144.000000;0.296080
4143.000000;0.292544
4142.000000;0.289139
4141.000000;0.285905
4140.000000;0.282784
4139.000000;0.279752
4138.000000;0.276819
4137.000000;0.273969
4136.000000;0.271157
4135.000000;0.268372
4134.000000;0.265656
4133.000000;0.263060
4132.000000;0.260607
4131.000000;0.258271
4130.000000;0.255983
4129.000000;0.253670
4128.000000;0.251287
4127.000000;0.248812
4126.000000;0.246245
4125.000000;0.243631
4124.000000;0.241069
4123.000000;0.238665
4122.000000;0.236460
4121.000000;0.234420
4120.000000;0.232489
4119.000000;0.230633
4118.000000;0.228844
4117.000000;0.227106
4116.000000;0.225355
4115.000000;0.223491
4114.000000;0.221478
4113.000000;0.219399
4112.000000;0.217383
4111.000000;0.215491
4110.000000;0.213705
4109.000000;0.212006
4108.000000;0.210374
4107.000000;0.208716
4106.000000;0.206945
4105.000000;0.205149
4104.000000;0.203572
4103.000000;0.202347
4102.000000;0.201323
4101.000000;0.200208
4100.000000;0.198833
4099.000000;0.197230
4098.000000;0.195528
4097.000000;0.193864
4096.000000;0.192337
4095.000000;0.190970
4094.000000;0.189747
4093.000000;0.188672
4092.000000;0.187726
4091.000000;0.186753
4090.000000;0.185525
4089.000000;0.184020
4088.000000;0.182516
4087.000000;0.181313
4086.000000;0.180410
4085.000000;0.179549
4084.000000;0.178529
4083.000000;0.177364
4082.000000;0.176179
4081.000000;0.175059
4080.000000;0.174001
4079.000000;0.172943
4078.000000;0.171830
4077.000000;0.170696
4076.000000;0.169622
4075.000000;0.168609
4074.000000;0.167550
4073.000000;0.166391
4072.000000;0.165236
4071.000000;0.164225
4070.000000;0.163371
4069.000000;0.162590
4068.000000;0.161836
4067.000000;0.161121
4066.000000;0.160427
4065.000000;0.159708
4064.000000;0.158933
4063.000000;0.158093
4062.000000;0.157183
4061.000000;0.156251
4060.000000;0.155408
4059.000000;0.154723
4058.000000;0.154134
4057.000000;0.153533
4056.000000;0.152868
4055.000000;0.152147
4054.000000;0.151384
4053.000000;0.150630
4052.000000;0.149984
4051.000000;0.149477
4050.000000;0.148992
4049.000000;0.148353
4048.000000;0.147494
4047.000000;0.146486
4046.000000;0.145478
4045.000000;0.144630
4044.000000;0.144023
4043.000000;0.143564
4042.000000;0.143048
4041.000000;0.142394
4040.000000;0.141745
4039.000000;0.141258
4038.000000;0.140895
4037.000000;0.140521
4036.000000;0.140089
4035.000000;0.139603
4034.000000;0.138988
4033.000000;0.138177
4032.000000;0.137288
4031.000000;0.136557
4030.000000;0.136094
4029.000000;0.135817
4028.000000;0.135600
4027.000000;0.135366
4026.000000;0.135045
4025.000000;0.134585
4024.000000;0.134024
4023.000000;0.133442
4022.000000;0.132847
4021.000000;0.132203
4020.000000;0.131576
4019.000000;0.131105
4018.000000;0.130815
4017.000000;0.130577
4016.000000;0.130287
4015.000000;0.129970
4014.000000;0.129683
4013.000000;0.129395
4012.000000;0.129025
4011.000000;0.128532
4010.000000;0.127945
4009.000000;0.127342
4008.000000;0.126844
4007.000000;0.126522
4006.000000;0.126305
4005.000000;0.126024
4004.000000;0.125601
4003.000000;0.125135
4002.000000;0.124767
4001.000000;0.124527
4000.000000;0.124321
3999.000000;0.124045
3998.000000;0.123667
3997.000000;0.123231
3996.000000;0.122825
3995.000000;0.122525
3994.000000;0.122338
3993.000000;0.122204
3992.000000;0.122043
3991.000000;0.121813
3990.000000;0.121526
3989.000000;0.121225
3988.000000;0.120938
3987.000000;0.120650
3986.000000;0.120329
3985.000000;0.119986
3984.000000;0.119687
3983.000000;0.119499
3982.000000;0.119432
3981.000000;0.119450
3980.000000;0.119481
3979.000000;0.119428
3978.000000;0.119228
3977.000000;0.118921
3976.000000;0.118623
3975.000000;0.118396
3974.000000;0.118180
3973.000000;0.117901
3972.000000;0.117577
3971.000000;0.117292
3970.000000;0.117118
3969.000000;0.117104
3968.000000;0.117285
3967.000000;0.117606
3966.000000;0.117867
3965.000000;0.117850
3964.000000;0.117511
3963.000000;0.117030
3962.000000;0.116640
3961.000000;0.116444
3960.000000;0.116386
3959.000000;0.116351
3958.000000;0.116286
3957.000000;0.116215
3956.000000;0.116160
3955.000000;0.116066
3954.000000;0.115857
3953.000000;0.115527
3952.000000;0.115118
3951.000000;0.114620
3950.000000;0.114008
3949.000000;0.113403
3948.000000;0.113073
3947.000000;0.113157
3946.000000;0.113446
3945.000000;0.113538
3944.000000;0.113235
3943.000000;0.112751
3942.000000;0.112493
3941.000000;0.112641
3940.000000;0.112977
3939.000000;0.113137
3938.000000;0.113014
3937.000000;0.112807
3936.000000;0.112677
3935.000000;0.112476
3934.000000;0.111984
3933.000000;0.111285
3932.000000;0.110725
3931.000000;0.110507
3930.000000;0.110505
3929.000000;0.110502
3928.000000;0.110392
3927.000000;0.110127
3926.000000;0.109674
3925.000000;0.109153
3924.000000;0.108830
3923.000000;0.108818
3922.000000;0.108908
3921.000000;0.108810
3920.000000;0.108459
3919.000000;0.107990
3918.000000;0.107566
3917.000000;0.107356
3916.000000;0.107537
3915.000000;0.108084
3914.000000;0.108659
3913.000000;0.108882
3912.000000;0.108724
3911.000000;0.108449
3910.000000;0.108251
3909.000000;0.108065
3908.000000;0.107734
3907.000000;0.107182
3906.000000;0.106467
3905.000000;0.105775
3904.000000;0.105352
3903.000000;0.105313
3902.000000;0.105518
3901.000000;0.105757
3900.000000;0.105990
3899.000000;0.106301
3898.000000;0.106673
3897.000000;0.106997
3896.000000;0.107251
3895.000000;0.107500
3894.000000;0.107694
3893.000000;0.107676
3892.000000;0.107463
3891.000000;0.107332
3890.000000;0.107523
3889.000000;0.107969
3888.000000;0.108396
3887.000000;0.108645
3886.000000;0.108778
3885.000000;0.108935
3884.000000;0.109179
3883.000000;0.109457
3882.000000;0.109694
3881.000000;0.109915
3880.000000;0.110231
3879.000000;0.110697
3878.000000;0.111218
3877.000000;0.111644
3876.000000;0.111957
3875.000000;0.112259
3874.000000;0.112598
3873.000000;0.112882
3872.000000;0.113017
3871.000000;0.113074
3870.000000;0.113264
3869.000000;0.113745
3868.000000;0.114480
3867.000000;0.115266
3866.000000;0.115911
3865.000000;0.116386
3864.000000;0.116791
3863.000000;0.117216
3862.000000;0.117663
3861.000000;0.118108
3860.000000;0.118536
3859.000000;0.118888
3858.000000;0.119094
3857.000000;0.119210
3856.000000;0.119438
3855.000000;0.119918
3854.000000;0.120546
3853.000000;0.121138
3852.000000;0.121692
3851.000000;0.122282
3850.000000;0.122887
3849.000000;0.123510
3848.000000;0.124262
3847.000000;0.125188
3846.000000;0.126113
3845.000000;0.126821
3844.000000;0.127310
3843.000000;0.127756
3842.000000;0.128265
3841.000000;0.128779
3840.000000;0.129207
3839.000000;0.129529
3838.000000;0.129767
3837.000000;0.129964
3836.000000;0.130215
3835.000000;0.130656
3834.000000;0.131366
3833.000000;0.132270
3832.000000;0.133152
3831.000000;0.133800
3830.000000;0.134207
3829.000000;0.134607
3828.000000;0.135239
3827.000000;0.136079
3826.000000;0.136888
3825.000000;0.137507
3824.000000;0.138007
3823.000000;0.138519
3822.000000;0.139051
3821.000000;0.139561
3820.000000;0.140079
3819.000000;0.140633
3818.000000;0.141162
3817.000000;0.141650
3816.000000;0.142197
3815.000000;0.142882
3814.000000;0.143633
3813.000000;0.144329
3812.000000;0.144952
3811.000000;0.145556
3810.000000;0.146137
3809.000000;0.146660
3808.000000;0.147155
3807.000000;0.147665
3806.000000;0.148185
3805.000000;0.148726
3804.000000;0.149368
3803.000000;0.150133
3802.000000;0.150884
3801.000000;0.151470
3800.000000;0.151962
3799.000000;0.152569
3798.000000;0.153349
3797.000000;0.154169
3796.000000;0.154892
3795.000000;0.155473
3794.000000;0.155930
3793.000000;0.156336
3792.000000;0.156818
3791.000000;0.157441
3790.000000;0.158122
3789.000000;0.158744
3788.000000;0.159334
3787.000000;0.160014
3786.000000;0.160794
3785.000000;0.161554
3784.000000;0.162209
3783.000000;0.162800
3782.000000;0.163421
3781.000000;0.164132
3780.000000;0.164929
3779.000000;0.165729
3778.000000;0.166431
3777.000000;0.167040
3776.000000;0.167708
3775.000000;0.168535
3774.000000;0.169412
3773.000000;0.170162
3772.000000;0.170783
3771.000000;0.171422
3770.000000;0.172151
3769.000000;0.172905
3768.000000;0.173597
3767.000000;0.174179
3766.000000;0.174606
3765.000000;0.174896
3764.000000;0.175227
3763.000000;0.175838
3762.000000;0.176797
3761.000000;0.177922
3760.000000;0.178939
3759.000000;0.179656
3758.000000;0.180026
3757.000000;0.180158
3756.000000;0.180279
3755.000000;0.180604
3754.000000;0.181199
3753.000000;0.182020
3752.000000;0.183025
3751.000000;0.184155
3750.000000;0.185245
3749.000000;0.186109
3748.000000;0.186759
3747.000000;0.187380
3746.000000;0.188088
3745.000000;0.188781
3744.000000;0.189292
3743.000000;0.189669
3742.000000;0.190136
3741.000000;0.190795
3740.000000;0.191598
3739.000000;0.192482
3738.000000;0.193401
3737.000000;0.194293
3736.000000;0.195099
3735.000000;0.195829
3734.000000;0.196561
3733.000000;0.197349
3732.000000;0.198142
3731.000000;0.198813
3730.000000;0.199300
3729.000000;0.199736
3728.000000;0.200339
3727.000000;0.201146
3726.000000;0.201947
3725.000000;0.202569
3724.000000;0.203081
3723.000000;0.203647
3722.000000;0.204296
3721.000000;0.204956
3720.000000;0.205614
3719.000000;0.206319
3718.000000;0.207087
3717.000000;0.207932
3716.000000;0.208904
3715.000000;0.209974
3714.000000;0.210957
3713.000000;0.211698
3712.000000;0.212281
3711.000000;0.212923
3710.000000;0.213674
3709.000000;0.214379
3708.000000;0.214937
3707.000000;0.215424
3706.000000;0.215959
3705.000000;0.216583
3704.000000;0.217270
3703.000000;0.217965
3702.000000;0.218632
3701.000000;0.219306
3700.000000;0.220065
3699.000000;0.220867
3698.000000;0.221534
3697.000000;0.222005
3696.000000;0.222495
3695.000000;0.223252
3694.000000;0.224221
3693.000000;0.225130
3692.000000;0.225866
3691.000000;0.226574
3690.000000;0.227416
3689.000000;0.228386
3688.000000;0.229402
3687.000000;0.230416
3686.000000;0.231380
3685.000000;0.232207
3684.000000;0.232861
3683.000000;0.233407
3682.000000;0.233966
3681.000000;0.234665
3680.000000;0.235583
3679.000000;0.236631
3678.000000;0.237541
3677.000000;0.238110
3676.000000;0.238442
3675.000000;0.238881
3674.000000;0.239674
3673.000000;0.240763
3672.000000;0.241907
3671.000000;0.242914
3670.000000;0.243713
3669.000000;0.244329
3668.000000;0.244842
3667.000000;0.245297
3666.000000;0.245701
3665.000000;0.246125
3664.000000;0.246730
3663.000000;0.247603
3662.000000;0.248608
3661.000000;0.249520
3660.000000;0.250270
3659.000000;0.250953
3658.000000;0.251635
3657.000000;0.252300
3656.000000;0.252975
3655.000000;0.253794
3654.000000;0.254857
3653.000000;0.256109
3652.000000;0.257388
3651.000000;0.258514
3650.000000;0.259361
3649.000000;0.259961
3648.000000;0.260471
3647.000000;0.260984
3646.000000;0.261463
3645.000000;0.261878
3644.000000;0.262332
3643.000000;0.262967
3642.000000;0.263790
3641.000000;0.264689
3640.000000;0.265580
3639.000000;0.266445
3638.000000;0.267278
3637.000000;0.268101
3636.000000;0.268995
3635.000000;0.269976
3634.000000;0.270906
3633.000000;0.271633
3632.000000;0.272198
3631.000000;0.272789
3630.000000;0.273509
3629.000000;0.274311
3628.000000;0.275146
3627.000000;0.275998
3626.000000;0.276801
3625.000000;0.277485
3624.000000;0.278099
3623.000000;0.278741
3622.000000;0.279428
3621.000000;0.280145
3620.000000;0.280978
3619.000000;0.282032
3618.000000;0.283265
3617.000000;0.284488
3616.000000;0.285541
3615.000000;0.286358
3614.000000;0.286947
3613.000000;0.287421
3612.000000;0.287982
3611.000000;0.288712
3610.000000;0.289456
3609.000000;0.290059
3608.000000;0.290613
3607.000000;0.291301
3606.000000;0.292084
3605.000000;0.292781
3604.000000;0.293421
3603.000000;0.294250
3602.000000;0.295368
3601.000000;0.296608
3600.000000;0.297786
3599.000000;0.298875
3598.000000;0.299865
3597.000000;0.300660
3596.000000;0.301207
3595.000000;0.301608
3594.000000;0.302055
3593.000000;0.302746
3592.000000;0.303836
3591.000000;0.305298
3590.000000;0.306820
3589.000000;0.307998
3588.000000;0.308711
3587.000000;0.309185
3586.000000;0.309685
3585.000000;0.310316
3584.000000;0.311107
3583.000000;0.312057
3582.000000;0.313033
3581.000000;0.313822
3580.000000;0.314384
3579.000000;0.314907
3578.000000;0.315543
3577.000000;0.316227
3576.000000;0.316838
3575.000000;0.317408
3574.000000;0.318077
3573.000000;0.318928
3572.000000;0.319940
3571.000000;0.321011
3570.000000;0.322002
3569.000000;0.322824
3568.000000;0.323555
3567.000000;0.324382
3566.000000;0.325390
3565.000000;0.326471
3564.000000;0.327476
3563.000000;0.328343
3562.000000;0.329061
3561.000000;0.329672
3560.000000;0.330369
3559.000000;0.331431
3558.000000;0.332917
3557.000000;0.334486
3556.000000;0.335631
3555.000000;0.336112
3554.000000;0.336132
3553.000000;0.336133
3552.000000;0.336467
3551.000000;0.337214
3550.000000;0.338257
3549.000000;0.339473
3548.000000;0.340794
3547.000000;0.342113
3546.000000;0.343242
3545.000000;0.344074
3544.000000;0.344727
3543.000000;0.345436
3542.000000;0.346327
3541.000000;0.347355
3540.000000;0.348394
3539.000000;0.349302
3538.000000;0.349966
3537.000000;0.350429
3536.000000;0.350954
3535.000000;0.351806
3534.000000;0.352962
3533.000000;0.354130
3532.000000;0.355054
3531.000000;0.355726
3530.000000;0.356332
3529.000000;0.357086
3528.000000;0.358099
3527.000000;0.359292
3526.000000;0.360445
3525.000000;0.361421
3524.000000;0.362314
3523.000000;0.363292
3522.000000;0.364337
3521.000000;0.365262
3520.000000;0.365961
3519.000000;0.366532
3518.000000;0.367184
3517.000000;0.368103
3516.000000;0.369335
3515.000000;0.370684
3514.000000;0.371770
3513.000000;0.372362
3512.000000;0.372615
3511.000000;0.372894
3510.000000;0.373426
3509.000000;0.374243
3508.000000;0.375337
3507.000000;0.376620
3506.000000;0.377802
3505.000000;0.378575
3504.000000;0.378988
3503.000000;0.379436
3502.000000;0.380205
3501.000000;0.381203
3500.000000;0.382204
3499.000000;0.383161
3498.000000;0.384190
3497.000000;0.385377
3496.000000;0.386703
3495.000000;0.388091
3494.000000;0.389446
3493.000000;0.390711
3492.000000;0.391887
3491.000000;0.392944
3490.000000;0.393758
3489.000000;0.394276
3488.000000;0.394690
3487.000000;0.395282
3486.000000;0.396088
3485.000000;0.396905
3484.000000;0.397654
3483.000000;0.398530
3482.000000;0.399685
3481.000000;0.400934
3480.000000;0.401934
3479.000000;0.402560
3478.000000;0.403000
3477.000000;0.403532
3476.000000;0.404329
3475.000000;0.405414
3474.000000;0.406674
3473.000000;0.407903
3472.000000;0.408912
3471.000000;0.409675
3470.000000;0.410387
3469.000000;0.411346
3468.000000;0.412681
3467.000000;0.414154
3466.000000;0.415320
3465.000000;0.415969
3464.000000;0.416337
3463.000000;0.416808
3462.000000;0.417504
3461.000000;0.418307
3460.000000;0.419176
3459.000000;0.420194
3458.000000;0.421330
3457.000000;0.422400
3456.000000;0.423323
3455.000000;0.424242
3454.000000;0.425289
3453.000000;0.426380
3452.000000;0.427360
3451.000000;0.428232
3450.000000;0.429137
3449.000000;0.430162
3448.000000;0.431255
3447.000000;0.432292
3446.000000;0.433179
3445.000000;0.433949
3444.000000;0.434745
3443.000000;0.435661
3442.000000;0.436592
3441.000000;0.437347
3440.000000;0.437943
3439.000000;0.438662
3438.000000;0.439732
3437.000000;0.441049
3436.000000;0.442297
3435.000000;0.443284
3434.000000;0.444106
3433.000000;0.444994
3432.000000;0.446051
3431.000000;0.447154
3430.000000;0.448086
3429.000000;0.448765
3428.000000;0.449353
3427.000000;0.450114
3426.000000;0.451187
3425.000000;0.452500
3424.000000;0.453858
3423.000000;0.455063
3422.000000;0.456000
3421.000000;0.456696
3420.000000;0.457318
3419.000000;0.458060
3418.000000;0.459032
3417.000000;0.460216
3416.000000;0.461480
3415.000000;0.462614
3414.000000;0.463469
3413.000000;0.464144
3412.000000;0.464941
3411.000000;0.466034
3410.000000;0.467250
3409.000000;0.468261
3408.000000;0.468900
3407.000000;0.469254
3406.000000;0.469537
3405.000000;0.470020
3404.000000;0.470946
3403.000000;0.472330
3402.000000;0.473858
3401.000000;0.475178
3400.000000;0.476245
3399.000000;0.477269
3398.000000;0.478380
3397.000000;0.479535
3396.000000;0.480679
3395.000000;0.481769
3394.000000;0.482625
3393.000000;0.483066
3392.000000;0.483272
3391.000000;0.483776
3390.000000;0.484940
3389.000000;0.486555
3388.000000;0.488100
3387.000000;0.489260
3386.000000;0.490095
3385.000000;0.490794
3384.000000;0.491469
3383.000000;0.492182
3382.000000;0.493004
3381.000000;0.493995
3380.000000;0.495170
3379.000000;0.496505
3378.000000;0.497967
3377.000000;0.499481
3376.000000;0.500907
3375.000000;0.502055
3374.000000;0.502820
3373.000000;0.503307
3372.000000;0.503794
3371.000000;0.504488
3370.000000;0.505358
3369.000000;0.506253
3368.000000;0.507134
3367.000000;0.508120
3366.000000;0.509302
3365.000000;0.510611
3364.000000;0.511859
3363.000000;0.512850
3362.000000;0.513482
3361.000000;0.513844
3360.000000;0.514195
3359.000000;0.514782
3358.000000;0.515635
3357.000000;0.516600
3356.000000;0.517564
3355.000000;0.518593
3354.000000;0.519802
3353.000000;0.521178
3352.000000;0.522546
3351.000000;0.523715
3350.000000;0.524644
3349.000000;0.525502
3348.000000;0.526505
3347.000000;0.527673
3346.000000;0.528799
3345.000000;0.529735
3344.000000;0.530593
3343.000000;0.531554
3342.000000;0.532550
3341.000000;0.533343
3340.000000;0.533947
3339.000000;0.534732
3338.000000;0.535969
3337.000000;0.537421
3336.000000;0.538563
3335.000000;0.539167
3334.000000;0.539528
3333.000000;0.540093
3332.000000;0.541025
3331.000000;0.542197
3330.000000;0.543474
3329.000000;0.544854
3328.000000;0.546323
3327.000000;0.547715
3326.000000;0.548788
3325.000000;0.549443
3324.000000;0.549822
3323.000000;0.550222
3322.000000;0.550905
3321.000000;0.551944
3320.000000;0.553197
3319.000000;0.554431
3318.000000;0.555500
3317.000000;0.556404
3316.000000;0.557242
3315.000000;0.558169
3314.000000;0.559368
3313.000000;0.560882
3312.000000;0.562461
3311.000000;0.563730
3310.000000;0.564625
3309.000000;0.565512
3308.000000;0.566695
3307.000000;0.567987
3306.000000;0.568941
3305.000000;0.569429
3304.000000;0.569710
3303.000000;0.570013
3302.000000;0.570374
3301.000000;0.570903
3300.000000;0.571826
3299.000000;0.573128
3298.000000;0.574432
3297.000000;0.575450
3296.000000;0.576367
3295.000000;0.577555
3294.000000;0.579034
3293.000000;0.580429
3292.000000;0.581397
3291.000000;0.581938
3290.000000;0.582328
3289.000000;0.582899
3288.000000;0.583875
3287.000000;0.585290
3286.000000;0.587005
3285.000000;0.588789
3284.000000;0.590329
3283.000000;0.591238
3282.000000;0.591285
3281.000000;0.590744
3280.000000;0.590345
3279.000000;0.590735
3278.000000;0.592035
3277.000000;0.593972
3276.000000;0.596189
3275.000000;0.598254
3274.000000;0.599622
3273.000000;0.600000
3272.000000;0.599774
3271.000000;0.599773
3270.000000;0.600511
3269.000000;0.601832
3268.000000;0.603317
3267.000000;0.604786
3266.000000;0.606265
3265.000000;0.607647
3264.000000;0.608680
3263.000000;0.609274
3262.000000;0.609622
3261.000000;0.609988
3260.000000;0.610514
3259.000000;0.611266
3258.000000;0.612297
3257.000000;0.613526
3256.000000;0.614693
3255.000000;0.615632
3254.000000;0.616506
3253.000000;0.617573
3252.000000;0.618749
3251.000000;0.619701
3250.000000;0.620406
3249.000000;0.621277
3248.000000;0.622544
3247.000000;0.623833
3246.000000;0.624658
3245.000000;0.625138
3244.000000;0.625810
3243.000000;0.626812
3242.000000;0.627705
3241.000000;0.628148
3240.000000;0.628397
3239.000000;0.628972
3238.000000;0.630086
3237.000000;0.631502
3236.000000;0.632757
3235.000000;0.633425
3234.000000;0.633426
3233.000000;0.633243
3232.000000;0.633678
3231.000000;0.635196
3230.000000;0.637516
3229.000000;0.639828
3228.000000;0.641342
3227.000000;0.641730
3226.000000;0.641303
3225.000000;0.640837
3224.000000;0.640999
3223.000000;0.641803
3222.000000;0.642732
3221.000000;0.643420
3220.000000;0.644009
3219.000000;0.644791
3218.000000;0.645766
3217.000000;0.646726
3216.000000;0.647593
3215.000000;0.648501
3214.000000;0.649613
3213.000000;0.650964
3212.000000;0.652383
3211.000000;0.653549
3210.000000;0.654252
3209.000000;0.654655
3208.000000;0.655176
3207.000000;0.656070
3206.000000;0.657270
3205.000000;0.658570
3204.000000;0.659760
3203.000000;0.660596
3202.000000;0.660909
3201.000000;0.660841
3200.000000;0.660784
3199.000000;0.661045
3198.000000;0.661742
3197.000000;0.662922
3196.000000;0.664420
3195.000000;0.665655
3194.000000;0.666059
3193.000000;0.665906
3192.000000;0.666247
3191.000000;0.667755
3190.000000;0.669974
3189.000000;0.671929
3188.000000;0.673134
3187.000000;0.673676
3186.000000;0.673725
3185.000000;0.673516
3184.000000;0.673582
3183.000000;0.674457
3182.000000;0.676104
3181.000000;0.677925
3180.000000;0.679334
3179.000000;0.680117
3178.000000;0.680360
3177.000000;0.680393
3176.000000;0.680741
3175.000000;0.681760
3174.000000;0.683224
3173.000000;0.684517
3172.000000;0.685288
3171.000000;0.685680
3170.000000;0.685928
3169.000000;0.686040
3168.000000;0.685978
3167.000000;0.685924
3166.000000;0.686187
3165.000000;0.686917
3164.000000;0.687992
3163.000000;0.689145
3162.000000;0.690142
3161.000000;0.690881
3160.000000;0.691364
3159.000000;0.691649
3158.000000;0.691847
3157.000000;0.692111
3156.000000;0.692523
3155.000000;0.693034
3154.000000;0.693639
3153.000000;0.694526
3152.000000;0.695826
3151.000000;0.697232
3150.000000;0.698179
3149.000000;0.698538
3148.000000;0.698846
3147.000000;0.699658
3146.000000;0.700920
3145.000000;0.702150
3144.000000;0.702966
3143.000000;0.703220
3142.000000;0.702868
3141.000000;0.702089
3140.000000;0.701447
3139.000000;0.701589
3138.000000;0.702703
3137.000000;0.704387
3136.000000;0.706014
3135.000000;0.707156
3134.000000;0.707806
3133.000000;0.708328
3132.000000;0.709090
3131.000000;0.709984
3130.000000;0.710441
3129.000000;0.710111
3128.000000;0.709368
3127.000000;0.708912
3126.000000;0.709032
3125.000000;0.709487
3124.000000;0.709965
3123.000000;0.710377
3122.000000;0.710789
3121.000000;0.711371
3120.000000;0.712343
3119.000000;0.713657
3118.000000;0.714752
3117.000000;0.715006
3116.000000;0.714550
3115.000000;0.714284
3114.000000;0.714913
3113.000000;0.716164
3112.000000;0.717163
3111.000000;0.717436
3110.000000;0.717352
3109.000000;0.717593
3108.000000;0.718353
3107.000000;0.719177
3106.000000;0.719575
3105.000000;0.719682
3104.000000;0.720127
3103.000000;0.721245
3102.000000;0.722630
3101.000000;0.723583
3100.000000;0.723846
3099.000000;0.723683
3098.000000;0.723422
3097.000000;0.723179
3096.000000;0.722993
3095.000000;0.722937
3094.000000;0.723030
3093.000000;0.723207
3092.000000;0.723410
3091.000000;0.723620
3090.000000;0.723820
3089.000000;0.724075
3088.000000;0.724567
3087.000000;0.725351
3086.000000;0.726113
3085.000000;0.726406
3084.000000;0.726182
3083.000000;0.725919
3082.000000;0.726130
3081.000000;0.726914
3080.000000;0.727974
3079.000000;0.728893
3078.000000;0.729369
3077.000000;0.729414
3076.000000;0.729409
3075.000000;0.729774
3074.000000;0.730478
3073.000000;0.731017
3072.000000;0.731011
3071.000000;0.730663
3070.000000;0.730453
3069.000000;0.730515
3068.000000;0.730570
3067.000000;0.730442
3066.000000;0.730370
3065.000000;0.730685
3064.000000;0.731377
3063.000000;0.732150
3062.000000;0.732837
3061.000000;0.733517
3060.000000;0.734199
3059.000000;0.734645
3058.000000;0.734707
3057.000000;0.734675
3056.000000;0.735012
3055.000000;0.735695
3054.000000;0.736105
3053.000000;0.735713
3052.000000;0.734682
3051.000000;0.733639
3050.000000;0.733039
3049.000000;0.732982
3048.000000;0.733503
3047.000000;0.734658
3046.000000;0.736219
3045.000000;0.737503
3044.000000;0.737756
3043.000000;0.736788
3042.000000;0.735221
3041.000000;0.734054
3040.000000;0.733846
3039.000000;0.734308
3038.000000;0.734741
3037.000000;0.734902
3036.000000;0.735233
3035.000000;0.736101
3034.000000;0.737067
3033.000000;0.737236
3032.000000;0.736328
3031.000000;0.735089
3030.000000;0.734550
3029.000000;0.735069
3028.000000;0.736135
3027.000000;0.736934
3026.000000;0.737031
3025.000000;0.736613
3024.000000;0.736179
3023.000000;0.736020
3022.000000;0.736011
3021.000000;0.735935
3020.000000;0.735853
3019.000000;0.735963
3018.000000;0.736199
3017.000000;0.736241
3016.000000;0.735964
3015.000000;0.735638
3014.000000;0.735611
3013.000000;0.735970
3012.000000;0.736566
3011.000000;0.737128
3010.000000;0.737295
3009.000000;0.736799
3008.000000;0.735774
3007.000000;0.734744
3006.000000;0.734162
3005.000000;0.734083
3004.000000;0.734310
3003.000000;0.734625
3002.000000;0.734789
3001.000000;0.734605
3000.000000;0.734174
2999.000000;0.733872
2998.000000;0.733847
2997.000000;0.733757
2996.000000;0.733289
2995.000000;0.732721
2994.000000;0.732542
2993.000000;0.732679
2992.000000;0.732574
2991.000000;0.732022
2990.000000;0.731469
2989.000000;0.731359
2988.000000;0.731565
2987.000000;0.731689
2986.000000;0.731640
2985.000000;0.731596
2984.000000;0.731594
2983.000000;0.731413
2982.000000;0.730883
2981.000000;0.730111
2980.000000;0.729400
2979.000000;0.729012
2978.000000;0.728959
2977.000000;0.728975
2976.000000;0.728803
2975.000000;0.728565
2974.000000;0.728687
2973.000000;0.729331
2972.000000;0.730063
2971.000000;0.730253
2970.000000;0.729745
2969.000000;0.728952
2968.000000;0.728331
2967.000000;0.727951
2966.000000;0.727555
2965.000000;0.726897
2964.000000;0.726018
2963.000000;0.725312
2962.000000;0.725266
2961.000000;0.725931
2960.000000;0.726637
2959.000000;0.726467
2958.000000;0.725179
2957.000000;0.723522
2956.000000;0.722509
2955.000000;0.722472
2954.000000;0.722923
2953.000000;0.723200
2952.000000;0.723055
2951.000000;0.722654
2950.000000;0.722287
2949.000000;0.722190
2948.000000;0.722439
2947.000000;0.722823
2946.000000;0.722888
2945.000000;0.722298
2944.000000;0.721169
2943.000000;0.719916
2942.000000;0.718853
2941.000000;0.718076
2940.000000;0.717681
2939.000000;0.717797
2938.000000;0.718305
2937.000000;0.718700
2936.000000;0.718460
2935.000000;0.717559
2934.000000;0.716521
2933.000000;0.715960
2932.000000;0.716096
2931.000000;0.716618
2930.000000;0.716961
2929.000000;0.716784
2928.000000;0.716205
2927.000000;0.715536
2926.000000;0.714839
2925.000000;0.713914
2924.000000;0.712725
2923.000000;0.711592
2922.000000;0.710868
2921.000000;0.710612
2920.000000;0.710685
2919.000000;0.710953
2918.000000;0.711234
2917.000000;0.711263
2916.000000;0.710941
2915.000000;0.710448
2914.000000;0.709882
2913.000000;0.709028
2912.000000;0.707812
2911.000000;0.706785
2910.000000;0.706674
2909.000000;0.707407
2908.000000;0.707975
2907.000000;0.707439
2906.000000;0.705866
2905.000000;0.704196
2904.000000;0.703395
2903.000000;0.703760
2902.000000;0.704756
2901.000000;0.705426
2900.000000;0.705182
2899.000000;0.704276
2898.000000;0.703354
2897.000000;0.702630
2896.000000;0.701791
2895.000000;0.700633
2894.000000;0.699366
2893.000000;0.698184
2892.000000;0.697013
2891.000000;0.695925
2890.000000;0.695386
2889.000000;0.695664
2888.000000;0.696188
2887.000000;0.695949
2886.000000;0.694591
2885.000000;0.692822
2884.000000;0.691682
2883.000000;0.691571
2882.000000;0.691996
2881.000000;0.692089
2880.000000;0.691365
2879.000000;0.690076
2878.000000;0.688904
2877.000000;0.688355
2876.000000;0.688459
2875.000000;0.688950
2874.000000;0.689526
2873.000000;0.689936
2872.000000;0.690007
2871.000000;0.689684
2870.000000;0.688961
2869.000000;0.687785
2868.000000;0.686183
2867.000000;0.684468
2866.000000;0.683094
2865.000000;0.682262
2864.000000;0.681819
2863.000000;0.681555
2862.000000;0.681341
2861.000000;0.680971
2860.000000;0.680202
2859.000000;0.679125
2858.000000;0.678243
2857.000000;0.677977
2856.000000;0.678255
2855.000000;0.678688
2854.000000;0.678917
2853.000000;0.678665
2852.000000;0.677786
2851.000000;0.676522
2850.000000;0.675504
2849.000000;0.675151
2848.000000;0.675171
2847.000000;0.674903
2846.000000;0.674076
2845.000000;0.672994
2844.000000;0.672058
2843.000000;0.671387
2842.000000;0.670862
2841.000000;0.670328
2840.000000;0.669746
2839.000000;0.669240
2838.000000;0.668912
2837.000000;0.668524
2836.000000;0.667615
2835.000000;0.666135
2834.000000;0.664764
2833.000000;0.664245
2832.000000;0.664530
2831.000000;0.664894
2830.000000;0.664833
2829.000000;0.664486
2828.000000;0.664147
2827.000000;0.663766
2826.000000;0.663109
2825.000000;0.662134
2824.000000;0.660998
2823.000000;0.659858
2822.000000;0.658898
2821.000000;0.658420
2820.000000;0.658610
2819.000000;0.659190
2818.000000;0.659493
2817.000000;0.659041
2816.000000;0.657997
2815.000000;0.656923
2814.000000;0.656112
2813.000000;0.655328
2812.000000;0.654232
2811.000000;0.652889
2810.000000;0.651650
2809.000000;0.650681
2808.000000;0.649855
2807.000000;0.649093
2806.000000;0.648511
2805.000000;0.648192
2804.000000;0.648053
2803.000000;0.648020
2802.000000;0.648099
2801.000000;0.648171
2800.000000;0.647982
2799.000000;0.647480
2798.000000;0.646905
2797.000000;0.646376
2796.000000;0.645666
2795.000000;0.644574
2794.000000;0.643277
2793.000000;0.642070
2792.000000;0.641041
2791.000000;0.640270
2790.000000;0.640051
2789.000000;0.640439
2788.000000;0.640788
2787.000000;0.640292
2786.000000;0.639035
2785.000000;0.637997
2784.000000;0.637851
2783.000000;0.638156
2782.000000;0.637943
2781.000000;0.636838
2780.000000;0.635297
2779.000000;0.633916
2778.000000;0.632850
2777.000000;0.631909
2776.000000;0.630970
2775.000000;0.630140
2774.000000;0.629555
2773.000000;0.629145
2772.000000;0.628690
2771.000000;0.628123
2770.000000;0.627631
2769.000000;0.627388
2768.000000;0.627255
2767.000000;0.626880
2766.000000;0.626080
2765.000000;0.625021
2764.000000;0.624029
2763.000000;0.623313
2762.000000;0.622868
2761.000000;0.622530
2760.000000;0.622132
2759.000000;0.621649
2758.000000;0.621137
2757.000000;0.620522
2756.000000;0.619561
2755.000000;0.618144
2754.000000;0.616543
2753.000000;0.615204
2752.000000;0.614325
2751.000000;0.613774
2750.000000;0.613365
2749.000000;0.613050
2748.000000;0.612828
2747.000000;0.612629
2746.000000;0.612347
2745.000000;0.611923
2744.000000;0.611388
2743.000000;0.610865
2742.000000;0.610501
2741.000000;0.610284
2740.000000;0.609943
2739.000000;0.609160
2738.000000;0.607959
2737.000000;0.606777
2736.000000;0.606095
2735.000000;0.605993
2734.000000;0.606087
2733.000000;0.605858
2732.000000;0.605068
2731.000000;0.603903
2730.000000;0.602770
2729.000000;0.601963
2728.000000;0.601494
2727.000000;0.601150
2726.000000;0.600642
2725.000000;0.599773
2724.000000;0.598592
2723.000000;0.597439
2722.000000;0.596696
2721.000000;0.596444
2720.000000;0.596413
2719.000000;0.596297
2718.000000;0.595990
2717.000000;0.595505
2716.000000;0.594826
2715.000000;0.593954
2714.000000;0.592994
2713.000000;0.592091
2712.000000;0.591331
2711.000000;0.590770
2710.000000;0.590435
2709.000000;0.590199
2708.000000;0.589786
2707.000000;0.589027
2706.000000;0.588038
2705.000000;0.587023
2704.000000;0.586017
2703.000000;0.584956
2702.000000;0.583956
2701.000000;0.583312
2700.000000;0.583175
2699.000000;0.583304
2698.000000;0.583208
2697.000000;0.582548
2696.000000;0.581426
2695.000000;0.580300
2694.000000;0.579566
2693.000000;0.579234
2692.000000;0.579013
2691.000000;0.578623
2690.000000;0.577919
2689.000000;0.576814
2688.000000;0.575355
2687.000000;0.573914
2686.000000;0.573007
2685.000000;0.572784
2684.000000;0.572864
2683.000000;0.572785
2682.000000;0.572465
2681.000000;0.572062
2680.000000;0.571604
2679.000000;0.570956
2678.000000;0.570052
2677.000000;0.568949
2676.000000;0.567725
2675.000000;0.566501
2674.000000;0.565467
2673.000000;0.564755
2672.000000;0.564321
2671.000000;0.564069
2670.000000;0.563945
2669.000000;0.563798
2668.000000;0.563315
2667.000000;0.562339
2666.000000;0.561145
2665.000000;0.560165
2664.000000;0.559522
2663.000000;0.559017
2662.000000;0.558505
2661.000000;0.558046
2660.000000;0.557750
2659.000000;0.557630
2658.000000;0.557628
2657.000000;0.557580
2656.000000;0.557229
2655.000000;0.556453
2654.000000;0.555447
2653.000000;0.554516
2652.000000;0.553724
2651.000000;0.552930
2650.000000;0.552127
2649.000000;0.551494
2648.000000;0.551102
2647.000000;0.550781
2646.000000;0.550331
2645.000000;0.549702
2644.000000;0.548924
2643.000000;0.548019
2642.000000;0.547039
2641.000000;0.546083
2640.000000;0.545233
2639.000000;0.544550
2638.000000;0.544089
2637.000000;0.543816
2636.000000;0.543535
2635.000000;0.543056
2634.000000;0.542405
2633.000000;0.541738
2632.000000;0.541072
2631.000000;0.540290
2630.000000;0.539405
2629.000000;0.538634
2628.000000;0.538146
2627.000000;0.537877
2626.000000;0.537629
2625.000000;0.537245
2624.000000;0.536681
2623.000000;0.536030
2622.000000;0.535442
2621.000000;0.534922
2620.000000;0.534224
2619.000000;0.533142
2618.000000;0.531879
2617.000000;0.530916
2616.000000;0.530473
2615.000000;0.530289
2614.000000;0.529998
2613.000000;0.529526
2612.000000;0.529025
2611.000000;0.528567
2610.000000;0.528046
2609.000000;0.527293
2608.000000;0.526184
2607.000000;0.524752
2606.000000;0.523292
2605.000000;0.522237
2604.000000;0.521802
2603.000000;0.521764
2602.000000;0.521677
2601.000000;0.521262
2600.000000;0.520555
2599.000000;0.519752
2598.000000;0.519016
2597.000000;0.518402
2596.000000;0.517860
2595.000000;0.517309
2594.000000;0.516733
2593.000000;0.516213
2592.000000;0.515859
2591.000000;0.515711
2590.000000;0.515709
2589.000000;0.515695
2588.000000;0.515450
2587.000000;0.514812
2586.000000;0.513792
2585.000000;0.512526
2584.000000;0.511112
2583.000000;0.509591
2582.000000;0.508103
2581.000000;0.506954
2580.000000;0.506391
2579.000000;0.506321
2578.000000;0.506353
2577.000000;0.506158
2576.000000;0.505761
2575.000000;0.505425
2574.000000;0.505271
2573.000000;0.505079
2572.000000;0.504537
2571.000000;0.503624
2570.000000;0.502637
2569.000000;0.501799
2568.000000;0.501026
2567.000000;0.500165
2566.000000;0.499287
2565.000000;0.498548
2564.000000;0.497851
2563.000000;0.496959
2562.000000;0.495947
2561.000000;0.495227
2560.000000;0.494993
2559.000000;0.494866
2558.000000;0.494332
2557.000000;0.493400
2556.000000;0.492564
2555.000000;0.492137
2554.000000;0.491920
2553.000000;0.491561
2552.000000;0.491037
2551.000000;0.490592
2550.000000;0.490319
2549.000000;0.489980
2548.000000;0.489272
2547.000000;0.488158
2546.000000;0.486897
2545.000000;0.485791
2544.000000;0.484947
2543.000000;0.484289
2542.000000;0.483736
2541.000000;0.483323
2540.000000;0.483105
2539.000000;0.482996
2538.000000;0.482768
2537.000000;0.482260
2536.000000;0.481551
2535.000000;0.480844
2534.000000;0.480196
2533.000000;0.479426
2532.000000;0.478372
2531.000000;0.477177
2530.000000;0.476231
2529.000000;0.475787
2528.000000;0.475712
2527.000000;0.475646
2526.000000;0.475381
2525.000000;0.474979
2524.000000;0.474544
2523.000000;0.473993
2522.000000;0.473137
2521.000000;0.471957
2520.000000;0.470675
2519.000000;0.469564
2518.000000;0.468749
2517.000000;0.468200
2516.000000;0.467793
2515.000000;0.467325
2514.000000;0.466552
2513.000000;0.465410
2512.000000;0.464199
2511.000000;0.463425
2510.000000;0.463351
2509.000000;0.463746
2508.000000;0.464079
2507.000000;0.463932
2506.000000;0.463231
2505.000000;0.462170
2504.000000;0.461033
2503.000000;0.460047
2502.000000;0.459300
2501.000000;0.458764
2500.000000;0.458383
2499.000000;0.458110
2498.000000;0.457838
2497.000000;0.457391
2496.000000;0.456659
2495.000000;0.455732
2494.000000;0.454828
2493.000000;0.454113
2492.000000;0.453621
2491.000000;0.453289
2490.000000;0.452973
2489.000000;0.452485
2488.000000;0.451739
2487.000000;0.450864
2486.000000;0.450122
2485.000000;0.449672
2484.000000;0.449479
2483.000000;0.449388
2482.000000;0.449212
2481.000000;0.448774
2480.000000;0.448007
2479.000000;0.447050
2478.000000;0.446151
2477.000000;0.445419
2476.000000;0.444740
2475.000000;0.443951
2474.000000;0.443052
2473.000000;0.442214
2472.000000;0.441608
2471.000000;0.441243
2470.000000;0.440948
2469.000000;0.440532
2468.000000;0.440011
2467.000000;0.439612
2466.000000;0.439466
2465.000000;0.439346
2464.000000;0.438862
2463.000000;0.437929
2462.000000;0.436880
2461.000000;0.436061
2460.000000;0.435466
2459.000000;0.434864
2458.000000;0.434203
2457.000000;0.433710
2456.000000;0.433587
2455.000000;0.433688
2454.000000;0.433558
2453.000000;0.432818
2452.000000;0.431519
2451.000000;0.430117
2450.000000;0.429054
2449.000000;0.428409
2448.000000;0.427935
2447.000000;0.427360
2446.000000;0.426576
2445.000000;0.425602
2444.000000;0.424536
2443.000000;0.423550
2442.000000;0.422813
2441.000000;0.422347
2440.000000;0.422023
2439.000000;0.421694
2438.000000;0.421280
2437.000000;0.420752
2436.000000;0.420159
2435.000000;0.419666
2434.000000;0.419406
2433.000000;0.419252
2432.000000;0.418888
2431.000000;0.418160
2430.000000;0.417247
2429.000000;0.416409
2428.000000;0.415704
2427.000000;0.415075
2426.000000;0.414555
2425.000000;0.414235
2424.000000;0.414068
2423.000000;0.413844
2422.000000;0.413366
2421.000000;0.412604
2420.000000;0.411686
2419.000000;0.410825
2418.000000;0.410195
2417.000000;0.409791
2416.000000;0.409417
2415.000000;0.408876
2414.000000;0.408174
2413.000000;0.407464
2412.000000;0.406854
2411.000000;0.406317
2410.000000;0.405778
2409.000000;0.405207
2408.000000;0.404606
2407.000000;0.403953
2406.000000;0.403191
2405.000000;0.402296
2404.000000;0.401372
2403.000000;0.400634
2402.000000;0.400231
2401.000000;0.400050
2400.000000;0.399778
2399.000000;0.399210
2398.000000;0.398457
2397.000000;0.397805
2396.000000;0.397414
2395.000000;0.397197
2394.000000;0.396931
2393.000000;0.396428
2392.000000;0.395647
2391.000000;0.394727
2390.000000;0.393921
2389.000000;0.393402
2388.000000;0.393108
2387.000000;0.392793
2386.000000;0.392256
2385.000000;0.391524
2384.000000;0.390821
2383.000000;0.390371
2382.000000;0.390220
2381.000000;0.390218
2380.000000;0.390128
2379.000000;0.389763
2378.000000;0.389070
2377.000000;0.388155
2376.000000;0.387235
2375.000000;0.386477
2374.000000;0.385845
2373.000000;0.385140
2372.000000;0.384259
2371.000000;0.383344
2370.000000;0.382612
2369.000000;0.382108
2368.000000;0.381739
2367.000000;0.381474
2366.000000;0.381331
2365.000000;0.381157
2364.000000;0.380653
2363.000000;0.379683
2362.000000;0.378485
2361.000000;0.377519
2360.000000;0.377041
2359.000000;0.376900
2358.000000;0.376739
2357.000000;0.376307
2356.000000;0.375693
2355.000000;0.375113
2354.000000;0.374558
2353.000000;0.373819
2352.000000;0.372868
2351.000000;0.372079
2350.000000;0.371733
2349.000000;0.371567
2348.000000;0.371048
2347.000000;0.370025
2346.000000;0.368994
2345.000000;0.368458
2344.000000;0.368389
2343.000000;0.368335
2342.000000;0.367986
2341.000000;0.367416
2340.000000;0.366755
2339.000000;0.366059
2338.000000;0.365340
2337.000000;0.364666
2336.000000;0.364078
2335.000000;0.363555
2334.000000;0.363012
2333.000000;0.362407
2332.000000;0.361799
2331.000000;0.361377
2330.000000;0.361199
2329.000000;0.361030
2328.000000;0.360520
2327.000000;0.359549
2326.000000;0.358433
2325.000000;0.357530
2324.000000;0.356956
2323.000000;0.356557
2322.000000;0.356149
2321.000000;0.355653
2320.000000;0.355039
2319.000000;0.354374
2318.000000;0.353767
2317.000000;0.353297
2316.000000;0.352896
2315.000000;0.352471
2314.000000;0.352013
2313.000000;0.351550
2312.000000;0.351038
2311.000000;0.350382
2310.000000;0.349587
2309.000000;0.348770
2308.000000;0.348072
2307.000000;0.347531
2306.000000;0.347079
2305.000000;0.346582
2304.000000;0.345975
2303.000000;0.345352
2302.000000;0.344859
2301.000000;0.344467
2300.000000;0.343952
2299.000000;0.343167
2298.000000;0.342260
2297.000000;0.341523
2296.000000;0.341089
2295.000000;0.340846
2294.000000;0.340607
2293.000000;0.340253
2292.000000;0.339774
2291.000000;0.339222
2290.000000;0.338638
2289.000000;0.337987
2288.000000;0.337230
2287.000000;0.336459
2286.000000;0.335844
2285.000000;0.335391
2284.000000;0.334875
2283.000000;0.334109
2282.000000;0.333189
2281.000000;0.332359
2280.000000;0.331746
2279.000000;0.331347
2278.000000;0.331143
2277.000000;0.331053
2276.000000;0.330839
2275.000000;0.330285
2274.000000;0.329478
2273.000000;0.328745
2272.000000;0.328267
2271.000000;0.327903
2270.000000;0.327416
2269.000000;0.326722
2268.000000;0.325893
2267.000000;0.325059
2266.000000;0.324372
2265.000000;0.323941
2264.000000;0.323710
2263.000000;0.323464
2262.000000;0.323049
2261.000000;0.322510
2260.000000;0.321981
2259.000000;0.321500
2258.000000;0.320988
2257.000000;0.320370
2256.000000;0.319649
2255.000000;0.318906
2254.000000;0.318251
2253.000000;0.317756
2252.000000;0.317377
2251.000000;0.317002
2250.000000;0.316582
2249.000000;0.316167
2248.000000;0.315780
2247.000000;0.315332
2246.000000;0.314713
2245.000000;0.313932
2244.000000;0.313105
2243.000000;0.312330
2242.000000;0.311640
2241.000000;0.311048
2240.000000;0.310568
2239.000000;0.310177
2238.000000;0.309816
2237.000000;0.309471
2236.000000;0.309192
2235.000000;0.308992
2234.000000;0.308769
2233.000000;0.308378
2232.000000;0.307778
2231.000000;0.307080
2230.000000;0.306408
2229.000000;0.305763
2228.000000;0.305054
2227.000000;0.304250
2226.000000;0.303445
2225.000000;0.302755
2224.000000;0.302186
2223.000000;0.301639
2222.000000;0.301029
2221.000000;0.300375
2220.000000;0.299762
2219.000000;0.299253
2218.000000;0.298842
2217.000000;0.298481
2216.000000;0.298118
2215.000000;0.297695
2214.000000;0.297153
2213.000000;0.296485
2212.000000;0.295789
2211.000000;0.295222
2210.000000;0.294850
2209.000000;0.294561
2208.000000;0.294168
2207.000000;0.293615
2206.000000;0.293024
2205.000000;0.292547
2204.000000;0.292196
2203.000000;0.291846
2202.000000;0.291374
2201.000000;0.290761
2200.000000;0.290069
2199.000000;0.289373
2198.000000;0.288721
2197.000000;0.288163
2196.000000;0.287751
2195.000000;0.287471
2194.000000;0.287187
2193.000000;0.286700
2192.000000;0.285937
2191.000000;0.285051
2190.000000;0.284299
2189.000000;0.283805
2188.000000;0.283469
2187.000000;0.283113
2186.000000;0.282656
2185.000000;0.282144
2184.000000;0.281618
2183.000000;0.281033
2182.000000;0.280341
2181.000000;0.279617
2180.000000;0.279048
2179.000000;0.278740
2178.000000;0.278566
2177.000000;0.278281
2176.000000;0.277782
2175.000000;0.277183
2174.000000;0.276601
2173.000000;0.275993
2172.000000;0.275277
2171.000000;0.274540
2170.000000;0.273970
2169.000000;0.273605
2168.000000;0.273267
2167.000000;0.272763
2166.000000;0.272094
2165.000000;0.271424
2164.000000;0.270895
2163.000000;0.270517
2162.000000;0.270164
2161.000000;0.269677
2160.000000;0.269005
2159.000000;0.268250
2158.000000;0.267547
2157.000000;0.266924
2156.000000;0.266333
2155.000000;0.265789
2154.000000;0.265366
2153.000000;0.265064
2152.000000;0.264754
2151.000000;0.264331
2150.000000;0.263807
2149.000000;0.263242
2148.000000;0.262630
2147.000000;0.261939
2146.000000;0.261187
2145.000000;0.260437
2144.000000;0.259752
2143.000000;0.259199
2142.000000;0.258863
2141.000000;0.258750
2140.000000;0.258720
2139.000000;0.258564
2138.000000;0.258158
2137.000000;0.257527
2136.000000;0.256775
2135.000000;0.256044
2134.000000;0.255491
2133.000000;0.255232
2132.000000;0.255192
2131.000000;0.255078
2130.000000;0.254567
2129.000000;0.253607
2128.000000;0.252502
2127.000000;0.251645
2126.000000;0.251179
2125.000000;0.250940
2124.000000;0.250710
2123.000000;0.250418
2122.000000;0.250093
2121.000000;0.249744
2120.000000;0.249366
2119.000000;0.248978
2118.000000;0.248536
2117.000000;0.247856
2116.000000;0.246799
2115.000000;0.245523
2114.000000;0.244431
2113.000000;0.243812
2112.000000;0.243608
2111.000000;0.243561
2110.000000;0.243450
2109.000000;0.243175
2108.000000;0.242711
2107.000000;0.242105
2106.000000;0.241478
2105.000000;0.240946
2104.000000;0.240535
2103.000000;0.240200
2102.000000;0.239880
2101.000000;0.239515
2100.000000;0.239057
2099.000000;0.238501
2098.000000;0.237871
2097.000000;0.237165
2096.000000;0.236358
2095.000000;0.235494
2094.000000;0.234711
2093.000000;0.234137
2092.000000;0.233783
2091.000000;0.233560
2090.000000;0.233345
2089.000000;0.233034
2088.000000;0.232587
2087.000000;0.232067
2086.000000;0.231571
2085.000000;0.231099
2084.000000;0.230552
2083.000000;0.229898
2082.000000;0.229250
2081.000000;0.228715
2080.000000;0.228247
2079.000000;0.227747
2078.000000;0.227226
2077.000000;0.226777
2076.000000;0.226393
2075.000000;0.225943
2074.000000;0.225337
2073.000000;0.224652
2072.000000;0.224049
2071.000000;0.223621
2070.000000;0.223331
2069.000000;0.223063
2068.000000;0.222719
2067.000000;0.222297
2066.000000;0.221878
2065.000000;0.221496
2064.000000;0.221061
2063.000000;0.220458
2062.000000;0.219728
2061.000000;0.219063
2060.000000;0.218597
2059.000000;0.218254
2058.000000;0.217842
2057.000000;0.217258
2056.000000;0.216569
2055.000000;0.215903
2054.000000;0.215342
2053.000000;0.214912
2052.000000;0.214614
2051.000000;0.214409
2050.000000;0.214199
2049.000000;0.213869
2048.000000;0.213364
2047.000000;0.212717
2046.000000;0.211997
2045.000000;0.211275
2044.000000;0.210630
2043.000000;0.210143
2042.000000;0.209823
2041.000000;0.209554
2040.000000;0.209165
2039.000000;0.208582
2038.000000;0.207896
2037.000000;0.207279
2036.000000;0.206825
2035.000000;0.206460
2034.000000;0.206016
2033.000000;0.205398
2032.000000;0.204700
2031.000000;0.204112
2030.000000;0.203717
2029.000000;0.203390
2028.000000;0.202952
2027.000000;0.202393
2026.000000;0.201886
2025.000000;0.201586
2024.000000;0.201436
2023.000000;0.201213
2022.000000;0.200738
2021.000000;0.200040
2020.000000;0.199310
2019.000000;0.198708
2018.000000;0.198216
2017.000000;0.197708
2016.000000;0.197127
2015.000000;0.196549
2014.000000;0.196070
2013.000000;0.195703
2012.000000;0.195387
2011.000000;0.195059
2010.000000;0.194661
2009.000000;0.194153
2008.000000;0.193574
2007.000000;0.193047
2006.000000;0.192665
2005.000000;0.192408
2004.000000;0.192198
2003.000000;0.191980
2002.000000;0.191699
2001.000000;0.191258
2000.000000;0.190602
1999.000000;0.189812
1998.000000;0.189029
1997.000000;0.188316
1996.000000;0.187667
1995.000000;0.187099
1994.000000;0.186644
1993.000000;0.186254
1992.000000;0.185846
1991.000000;0.185406
1990.000000;0.184964
1989.000000;0.184483
1988.000000;0.183911
1987.000000;0.183331
1986.000000;0.182916
1985.000000;0.182687
1984.000000;0.182440
1983.000000;0.181987
1982.000000;0.181365
1981.000000;0.180749
1980.000000;0.180253
1979.000000;0.179885
1978.000000;0.179595
1977.000000;0.179286
1976.000000;0.178834
1975.000000;0.178204
1974.000000;0.177502
1973.000000;0.176868
1972.000000;0.176351
1971.000000;0.175939
1970.000000;0.175640
1969.000000;0.175439
1968.000000;0.175243
1967.000000;0.174931
1966.000000;0.174473
1965.000000;0.173912
1964.000000;0.173297
1963.000000;0.172663
1962.000000;0.172066
1961.000000;0.171561
1960.000000;0.171141
1959.000000;0.170752
1958.000000;0.170356
1957.000000;0.169940
1956.000000;0.169491
1955.000000;0.169010
1954.000000;0.168530
1953.000000;0.168064
1952.000000;0.167577
1951.000000;0.167038
1950.000000;0.166482
1949.000000;0.165965
1948.000000;0.165498
1947.000000;0.165062
1946.000000;0.164665
1945.000000;0.164317
1944.000000;0.163958
1943.000000;0.163502
1942.000000;0.162957
1941.000000;0.162429
1940.000000;0.161988
1939.000000;0.161590
1938.000000;0.161169
1937.000000;0.160751
1936.000000;0.160409
1935.000000;0.160138
1934.000000;0.159820
1933.000000;0.159334
1932.000000;0.158676
1931.000000;0.157969
1930.000000;0.157345
1929.000000;0.156835
1928.000000;0.156368
1927.000000;0.155879
1926.000000;0.155389
1925.000000;0.154975
1924.000000;0.154672
1923.000000;0.154433
1922.000000;0.154177
1921.000000;0.153835
1920.000000;0.153366
1919.000000;0.152770
1918.000000;0.152118
1917.000000;0.151542
1916.000000;0.151140
1915.000000;0.150876
1914.000000;0.150598
1913.000000;0.150173
1912.000000;0.149597
1911.000000;0.148966
1910.000000;0.148349
1909.000000;0.147738
1908.000000;0.147105
1907.000000;0.146478
1906.000000;0.145923
1905.000000;0.145481
1904.000000;0.145134
1903.000000;0.144821
1902.000000;0.144475
1901.000000;0.144058
1900.000000;0.143618
1899.000000;0.143260
1898.000000;0.143022
1897.000000;0.142777
1896.000000;0.142332
1895.000000;0.141643
1894.000000;0.140907
1893.000000;0.140380
1892.000000;0.140127
1891.000000;0.139949
1890.000000;0.139587
1889.000000;0.138969
1888.000000;0.138254
1887.000000;0.137658
1886.000000;0.137268
1885.000000;0.137007
1884.000000;0.136741
1883.000000;0.136383
1882.000000;0.135924
1881.000000;0.135415
1880.000000;0.134919
1879.000000;0.134461
1878.000000;0.134022
1877.000000;0.133607
1876.000000;0.133271
1875.000000;0.133021
1874.000000;0.132735
1873.000000;0.132273
1872.000000;0.131670
1871.000000;0.131111
1870.000000;0.130687
1869.000000;0.130284
1868.000000;0.129778
1867.000000;0.129229
1866.000000;0.128774
1865.000000;0.128413
1864.000000;0.128016
1863.000000;0.127530
1862.000000;0.127042
1861.000000;0.126627
1860.000000;0.126252
1859.000000;0.125842
1858.000000;0.125372
1857.000000;0.124869
1856.000000;0.124376
1855.000000;0.123956
1854.000000;0.123658
1853.000000;0.123450
1852.000000;0.123211
1851.000000;0.122822
1850.000000;0.122255
1849.000000;0.121584
1848.000000;0.120946
1847.000000;0.120461
1846.000000;0.120140
1845.000000;0.119866
1844.000000;0.119506
1843.000000;0.119035
1842.000000;0.118534
1841.000000;0.118086
1840.000000;0.117712
1839.000000;0.117366
1838.000000;0.116986
1837.000000;0.116537
1836.000000;0.116055
1835.000000;0.115622
1834.000000;0.115273
1833.000000;0.114954
1832.000000;0.114624
1831.000000;0.114347
1830.000000;0.114198
1829.000000;0.114085
1828.000000;0.113769
1827.000000;0.113127
1826.000000;0.112295
1825.000000;0.111515
1824.000000;0.110892
1823.000000;0.110357
1822.000000;0.109812
1821.000000;0.109248
1820.000000;0.108737
1819.000000;0.108359
1818.000000;0.108124
1817.000000;0.107938
1816.000000;0.107673
1815.000000;0.107283
1814.000000;0.106840
1813.000000;0.106452
1812.000000;0.106150
1811.000000;0.105863
1810.000000;0.105471
1809.000000;0.104902
1808.000000;0.104200
1807.000000;0.103515
1806.000000;0.102991
1805.000000;0.102656
1804.000000;0.102420
1803.000000;0.102147
1802.000000;0.101742
1801.000000;0.101205
1800.000000;0.100657
1799.000000;0.100261
1798.000000;0.100051
1797.000000;0.099865
1796.000000;0.099497
1795.000000;0.098911
1794.000000;0.098252
1793.000000;0.097673
1792.000000;0.097218
1791.000000;0.096846
1790.000000;0.096486
1789.000000;0.096071
1788.000000;0.095569
1787.000000;0.095015
1786.000000;0.094496
1785.000000;0.094070
1784.000000;0.093728
1783.000000;0.093426
1782.000000;0.093133
1781.000000;0.092842
1780.000000;0.092551
1779.000000;0.092257
1778.000000;0.091918
1777.000000;0.091467
1776.000000;0.090886
1775.000000;0.090260
1774.000000;0.089709
1773.000000;0.089276
1772.000000;0.088914
1771.000000;0.088538
1770.000000;0.088092
1769.000000;0.087577
1768.000000;0.087047
1767.000000;0.086560
1766.000000;0.086131
1765.000000;0.085745
1764.000000;0.085413
1763.000000;0.085185
1762.000000;0.085052
1761.000000;0.084881
1760.000000;0.084519
1759.000000;0.083953
1758.000000;0.083302
1757.000000;0.082684
1756.000000;0.082165
1755.000000;0.081799
1754.000000;0.081595
1753.000000;0.081440
1752.000000;0.081149
1751.000000;0.080648
1750.000000;0.080034
1749.000000;0.079430
1748.000000;0.078864
1747.000000;0.078319
1746.000000;0.077817
1745.000000;0.077420
1744.000000;0.077167
1743.000000;0.077048
1742.000000;0.076988
1741.000000;0.076847
1740.000000;0.076506
1739.000000;0.075970
1738.000000;0.075362
1737.000000;0.074791
1736.000000;0.074280
1735.000000;0.073795
1734.000000;0.073331
1733.000000;0.072888
1732.000000;0.072419
1731.000000;0.071925
1730.000000;0.071487
1729.000000;0.071147
1728.000000;0.070858
1727.000000;0.070539
1726.000000;0.070141
1725.000000;0.069656
1724.000000;0.069135
1723.000000;0.068690
1722.000000;0.068408
1721.000000;0.068232
1720.000000;0.067994
1719.000000;0.067581
1718.000000;0.067044
1717.000000;0.066511
1716.000000;0.066045
1715.000000;0.065661
1714.000000;0.065370
1713.000000;0.065135
1712.000000;0.064848
1711.000000;0.064443
1710.000000;0.063969
1709.000000;0.063523
1708.000000;0.063129
1707.000000;0.062730
1706.000000;0.062272
1705.000000;0.061765
1704.000000;0.061278
1703.000000;0.060881
1702.000000;0.060570
1701.000000;0.060243
1700.000000;0.059856
1699.000000;0.059475
1698.000000;0.059128
1697.000000;0.058771
1696.000000;0.058323
1695.000000;0.057793
1694.000000;0.057296
1693.000000;0.056911
1692.000000;0.056609
1691.000000;0.056303
1690.000000;0.055945
1689.000000;0.055538
1688.000000;0.055079
1687.000000;0.054585
1686.000000;0.054111
1685.000000;0.053712
1684.000000;0.053420
1683.000000;0.053212
1682.000000;0.052969
1681.000000;0.052610
1680.000000;0.052140
1679.000000;0.051618
1678.000000;0.051139
1677.000000;0.050766
1676.000000;0.050472
1675.000000;0.050189
1674.000000;0.049877
1673.000000;0.049514
1672.000000;0.049106
1671.000000;0.048683
1670.000000;0.048284
1669.000000;0.047933
1668.000000;0.047601
1667.000000;0.047235
1666.000000;0.046820
1665.000000;0.046363
1664.000000;0.045873
1663.000000;0.045404
1662.000000;0.045044
1661.000000;0.044813
1660.000000;0.044621
1659.000000;0.044349
1658.000000;0.043944
1657.000000;0.043443
1656.000000;0.042917
1655.000000;0.042411
1654.000000;0.041948
1653.000000;0.041624
1652.000000;0.041487
1651.000000;0.041328
1650.000000;0.040983
1649.000000;0.040475
1648.000000;0.039900
1647.000000;0.039366
1646.000000;0.038941
1645.000000;0.038583
1644.000000;0.038216
1643.000000;0.037855
1642.000000;0.037563
1641.000000;0.037324
1640.000000;0.037041
1639.000000;0.036640
1638.000000;0.036124
1637.000000;0.035540
1636.000000;0.034949
1635.000000;0.034445
1634.000000;0.034081
1633.000000;0.033828
1632.000000;0.033629
1631.000000;0.033410
1630.000000;0.033095
1629.000000;0.032654
1628.000000;0.032138
1627.000000;0.031652
1626.000000;0.031248
1625.000000;0.030862
1624.000000;0.030409
1623.000000;0.029941
1622.000000;0.029599
1621.000000;0.029413
1620.000000;0.029222
1619.000000;0.028856
1618.000000;0.028315
1617.000000;0.027757
1616.000000;0.027326
1615.000000;0.027022
1614.000000;0.026770
1613.000000;0.026548
1612.000000;0.026347
1611.000000;0.026118
1610.000000;0.025803
1609.000000;0.025408
1608.000000;0.025009
1607.000000;0.024667
1606.000000;0.024368
1605.000000;0.024042
1604.000000;0.023646
1603.000000;0.023197
1602.000000;0.022731
1601.000000;0.022282
1600.000000;0.021906
1599.000000;0.021668
1598.000000;0.021539
1597.000000;0.021354
1596.000000;0.020949
1595.000000;0.020352
1594.000000;0.019739
1593.000000;0.019230
1592.000000;0.018793
1591.000000;0.018379
1590.000000;0.018026
1589.000000;0.017781
1588.000000;0.017595
1587.000000;0.017372
1586.000000;0.017075
1585.000000;0.016705
1584.000000;0.016244
1583.000000;0.015685
1582.000000;0.015110
1581.000000;0.014641
1580.000000;0.014309
1579.000000;0.014034
1578.000000;0.013734
1577.000000;0.013384
1576.000000;0.013003
1575.000000;0.012592
1574.000000;0.012139
1573.000000;0.011681
1572.000000;0.011285
1571.000000;0.010947
1570.000000;0.010621
1569.000000;0.010288
1568.000000;0.009947
1567.000000;0.009588
1566.000000;0.009200
1565.000000;0.008786
1564.000000;0.008384
1563.000000;0.008062
1562.000000;0.007846
1561.000000;0.007641
1560.000000;0.007281
1559.000000;0.006795
1558.000000;0.006409
1557.000000;0.006155
1556.000000;0.005891
1555.000000;0.005522
1554.000000;0.005064
1553.000000;0.004625
1552.000000;0.004272
1551.000000;0.003940
1550.000000;0.003519
1549.000000;0.002989
1548.000000;0.002439
1547.000000;0.001959
1546.000000;0.001561
1545.000000;0.001219
1544.000000;0.000913
1543.000000;0.000614
1542.000000;0.000280
1541.000000;-0.000093
1540.000000;-0.000428
1539.000000;-0.000651
1538.000000;-0.000842
1537.000000;-0.001116
1536.000000;-0.001459
1535.000000;-0.001776
1534.000000;-0.002022
1533.000000;-0.002240
1532.000000;-0.002522
1531.000000;-0.002918
1530.000000;-0.003373
1529.000000;-0.003798
1528.000000;-0.004170
1527.000000;-0.004540
1526.000000;-0.004958
1525.000000;-0.005396
1524.000000;-0.005764
1523.000000;-0.006011
1522.000000;-0.006197
1521.000000;-0.006432
1520.000000;-0.006766
1519.000000;-0.007146
1518.000000;-0.007487
1517.000000;-0.007794
1516.000000;-0.008161
1515.000000;-0.008645
1514.000000;-0.009177
1513.000000;-0.009617
1512.000000;-0.009909
1511.000000;-0.010126
1510.000000;-0.010392
1509.000000;-0.010757
1508.000000;-0.011171
1507.000000;-0.011540
1506.000000;-0.011812
1505.000000;-0.012069
1504.000000;-0.012432
1503.000000;-0.012874
1502.000000;-0.013305
1501.000000;-0.013692
1500.000000;-0.014020
1499.000000;-0.014265
1498.000000;-0.014465
1497.000000;-0.014748
1496.000000;-0.015210
1495.000000;-0.015771
1494.000000;-0.016237
1493.000000;-0.016494
1492.000000;-0.016620
1491.000000;-0.016779
1490.000000;-0.017054
1489.000000;-0.017417
1488.000000;-0.017804
1487.000000;-0.018177
1486.000000;-0.018537
1485.000000;-0.018904
1484.000000;-0.019279
1483.000000;-0.019635
1482.000000;-0.019952
1481.000000;-0.020253
1480.000000;-0.020579
1479.000000;-0.020949
1478.000000;-0.021353
1477.000000;-0.021760
1476.000000;-0.022139
1475.000000;-0.022482
1474.000000;-0.022824
1473.000000;-0.023197
1472.000000;-0.023566
1471.000000;-0.023876
1470.000000;-0.024147
1469.000000;-0.024465
1468.000000;-0.024870
1467.000000;-0.025296
1466.000000;-0.025657
1465.000000;-0.025971
1464.000000;-0.026322
1463.000000;-0.026731
1462.000000;-0.027108
1461.000000;-0.027355
1460.000000;-0.027491
1459.000000;-0.027641
1458.000000;-0.027917
1457.000000;-0.028307
1456.000000;-0.028711
1455.000000;-0.029077
1454.000000;-0.029431
1453.000000;-0.029823
1452.000000;-0.030268
1451.000000;-0.030700
1450.000000;-0.031035
1449.000000;-0.031275
1448.000000;-0.031505
1447.000000;-0.031807
1446.000000;-0.032201
1445.000000;-0.032650
1444.000000;-0.033061
1443.000000;-0.033333
1442.000000;-0.033450
1441.000000;-0.033519
1440.000000;-0.033664
1439.000000;-0.033930
1438.000000;-0.034293
1437.000000;-0.034731
1436.000000;-0.035217
1435.000000;-0.035695
1434.000000;-0.036107
1433.000000;-0.036442
1432.000000;-0.036745
1431.000000;-0.037054
1430.000000;-0.037375
1429.000000;-0.037712
1428.000000;-0.038078
1427.000000;-0.038460
1426.000000;-0.038835
1425.000000;-0.039204
1424.000000;-0.039560
1423.000000;-0.039856
1422.000000;-0.040053
1421.000000;-0.040202
1420.000000;-0.040402
1419.000000;-0.040677
1418.000000;-0.040979
1417.000000;-0.041310
1416.000000;-0.041716
1415.000000;-0.042197
1414.000000;-0.042669
1413.000000;-0.043055
1412.000000;-0.043355
1411.000000;-0.043616
1410.000000;-0.043895
1409.000000;-0.044235
1408.000000;-0.044635
1407.000000;-0.045022
1406.000000;-0.045313
1405.000000;-0.045520
1404.000000;-0.045740
1403.000000;-0.046031
1402.000000;-0.046359
1401.000000;-0.046679
1400.000000;-0.047012
1399.000000;-0.047399
1398.000000;-0.047822
1397.000000;-0.048225
1396.000000;-0.048566
1395.000000;-0.048843
1394.000000;-0.049083
1393.000000;-0.049336
1392.000000;-0.049628
1391.000000;-0.049928
1390.000000;-0.050190
1389.000000;-0.050436
1388.000000;-0.050735
1387.000000;-0.051091
1386.000000;-0.051420
1385.000000;-0.051663
1384.000000;-0.051865
1383.000000;-0.052103
1382.000000;-0.052392
1381.000000;-0.052695
1380.000000;-0.053003
1379.000000;-0.053342
1378.000000;-0.053723
1377.000000;-0.054127
1376.000000;-0.054532
1375.000000;-0.054917
1374.000000;-0.055245
1373.000000;-0.055490
1372.000000;-0.055671
1371.000000;-0.055851
1370.000000;-0.056083
1369.000000;-0.056376
1368.000000;-0.056705
1367.000000;-0.057057
1366.000000;-0.057453
1365.000000;-0.057904
1364.000000;-0.058364
1363.000000;-0.058751
1362.000000;-0.059037
1361.000000;-0.059285
1360.000000;-0.059574
1359.000000;-0.059905
1358.000000;-0.060216
1357.000000;-0.060474
1356.000000;-0.060710
1355.000000;-0.060975
1354.000000;-0.061305
1353.000000;-0.061718
1352.000000;-0.062185
1351.000000;-0.062626
1350.000000;-0.062948
1349.000000;-0.063121
1348.000000;-0.063183
1347.000000;-0.063197
1346.000000;-0.063253
1345.000000;-0.063480
1344.000000;-0.063964
1343.000000;-0.064632
1342.000000;-0.065254
1341.000000;-0.065621
1340.000000;-0.065715
1339.000000;-0.065717
1338.000000;-0.065860
1337.000000;-0.066253
1336.000000;-0.066798
1335.000000;-0.067276
1334.000000;-0.067549
1333.000000;-0.067686
1332.000000;-0.067852
1331.000000;-0.068125
1330.000000;-0.068468
1329.000000;-0.068848
1328.000000;-0.069276
1327.000000;-0.069725
1326.000000;-0.070105
1325.000000;-0.070354
1324.000000;-0.070501
1323.000000;-0.070609
1322.000000;-0.070734
1321.000000;-0.070936
1320.000000;-0.071269
1319.000000;-0.071701
1318.000000;-0.072113
1317.000000;-0.072428
1316.000000;-0.072675
1315.000000;-0.072908
1314.000000;-0.073112
1313.000000;-0.073274
1312.000000;-0.073474
1311.000000;-0.073821
1310.000000;-0.074320
1309.000000;-0.074878
1308.000000;-0.075421
1307.000000;-0.075926
1306.000000;-0.076354
1305.000000;-0.076637
1304.000000;-0.076769
1303.000000;-0.076867
1302.000000;-0.077067
1301.000000;-0.077381
1300.000000;-0.077701
1299.000000;-0.077940
1298.000000;-0.078129
1297.000000;-0.078372
1296.000000;-0.078724
1295.000000;-0.079151
1294.000000;-0.079595
1293.000000;-0.080033
1292.000000;-0.080442
1291.000000;-0.080763
1290.000000;-0.080951
1289.000000;-0.081051
1288.000000;-0.081168
1287.000000;-0.081364
1286.000000;-0.081618
1285.000000;-0.081880
1284.000000;-0.082124
1283.000000;-0.082352
1282.000000;-0.082587
1281.000000;-0.082875
1280.000000;-0.083230
1279.000000;-0.083586
1278.000000;-0.083850
1277.000000;-0.084039
1276.000000;-0.084289
1275.000000;-0.084694
1274.000000;-0.085189
1273.000000;-0.085635
1272.000000;-0.085968
1271.000000;-0.086235
1270.000000;-0.086484
1269.000000;-0.086720
1268.000000;-0.086934
1267.000000;-0.087141
1266.000000;-0.087351
1265.000000;-0.087566
1264.000000;-0.087798
1263.000000;-0.088079
1262.000000;-0.088422
1261.000000;-0.088799
1260.000000;-0.089153
1259.000000;-0.089443
1258.000000;-0.089664
1257.000000;-0.089865
1256.000000;-0.090111
1255.000000;-0.090435
1254.000000;-0.090807
1253.000000;-0.091189
1252.000000;-0.091590
1251.000000;-0.092036
1250.000000;-0.092488
1249.000000;-0.092840
1248.000000;-0.093037
1247.000000;-0.093150
1246.000000;-0.093298
1245.000000;-0.093509
1244.000000;-0.093713
1243.000000;-0.093871
1242.000000;-0.094035
1241.000000;-0.094274
1240.000000;-0.094580
1239.000000;-0.094917
1238.000000;-0.095288
1237.000000;-0.095703
1236.000000;-0.096104
1235.000000;-0.096404
1234.000000;-0.096609
1233.000000;-0.096831
1232.000000;-0.097151
1231.000000;-0.097522
1230.000000;-0.097838
1229.000000;-0.098051
1228.000000;-0.098190
1227.000000;-0.098304
1226.000000;-0.098437
1225.000000;-0.098626
1224.000000;-0.098887
1223.000000;-0.099202
1222.000000;-0.099550
1221.000000;-0.099939
1220.000000;-0.100361
1219.000000;-0.100762
1218.000000;-0.101087
1217.000000;-0.101352
1216.000000;-0.101625
1215.000000;-0.101939
1214.000000;-0.102253
1213.000000;-0.102498
1212.000000;-0.102656
1211.000000;-0.102780
1210.000000;-0.102953
1209.000000;-0.103221
1208.000000;-0.103549
1207.000000;-0.103878
1206.000000;-0.104201
1205.000000;-0.104568
1204.000000;-0.104987
1203.000000;-0.105366
1202.000000;-0.105620
1201.000000;-0.105774
1200.000000;-0.105927
