Criado como novo conjunto de dados;"e2410_daniel_v2.spp","106747.6 Secs"
cm-1;Abs
10000.000000;0.148669
9999.000000;0.149491
9998.000000;0.150391
9997.000000;0.151243
9996.000000;0.151987
9995.000000;0.152653
9994.000000;0.153232
9993.000000;0.153639
9992.000000;0.153849
9991.000000;0.153994
9990.000000;0.154278
9989.000000;0.154831
9988.000000;0.155674
9987.000000;0.156719
9986.000000;0.157780
9985.000000;0.158666
9984.000000;0.159337
9983.000000;0.159902
9982.000000;0.160441
9981.000000;0.160913
9980.000000;0.161307
9979.000000;0.161749
9978.000000;0.162380
9977.000000;0.163199
9976.000000;0.164126
9975.000000;0.165107
9974.000000;0.166071
9973.000000;0.166863
9972.000000;0.167398
9971.000000;0.167824
9970.000000;0.168380
9969.000000;0.169112
9968.000000;0.169847
9967.000000;0.170446
9966.000000;0.170934
9965.000000;0.171414
9964.000000;0.171967
9963.000000;0.172663
9962.000000;0.173516
9961.000000;0.174409
9960.000000;0.175174
9959.000000;0.175802
9958.000000;0.176454
9957.000000;0.177234
9956.000000;0.178038
9955.000000;0.178691
9954.000000;0.179165
9953.000000;0.179616
9952.000000;0.180248
9951.000000;0.181175
9950.000000;0.182324
9949.000000;0.183451
9948.000000;0.184313
9947.000000;0.184864
9946.000000;0.185232
9945.000000;0.185533
9944.000000;0.185804
9943.000000;0.186135
9942.000000;0.186687
9941.000000;0.187509
9940.000000;0.188429
9939.000000;0.189244
9938.000000;0.189963
9937.000000;0.190767
9936.000000;0.191786
9935.000000;0.193005
9934.000000;0.194332
9933.000000;0.195631
9932.000000;0.196712
9931.000000;0.197415
9930.000000;0.197775
9929.000000;0.198016
9928.000000;0.198368
9927.000000;0.198917
9926.000000;0.199636
9925.000000;0.200461
9924.000000;0.201299
9923.000000;0.202017
9922.000000;0.202536
9921.000000;0.202934
9920.000000;0.203408
9919.000000;0.204097
9918.000000;0.204970
9917.000000;0.205889
9916.000000;0.206742
9915.000000;0.207487
9914.000000;0.208117
9913.000000;0.208655
9912.000000;0.209193
9911.000000;0.209870
9910.000000;0.210748
9909.000000;0.211761
9908.000000;0.212827
9907.000000;0.213939
9906.000000;0.215094
9905.000000;0.216160
9904.000000;0.216935
9903.000000;0.217388
9902.000000;0.217734
9901.000000;0.218245
9900.000000;0.219007
9899.000000;0.219904
9898.000000;0.220800
9897.000000;0.221665
9896.000000;0.222537
9895.000000;0.223429
9894.000000;0.224308
9893.000000;0.225137
9892.000000;0.225908
9891.000000;0.226616
9890.000000;0.227252
9889.000000;0.227832
9888.000000;0.228428
9887.000000;0.229116
9886.000000;0.229900
9885.000000;0.230718
9884.000000;0.231532
9883.000000;0.232357
9882.000000;0.233185
9881.000000;0.233961
9880.000000;0.234682
9879.000000;0.235468
9878.000000;0.236436
9877.000000;0.237546
9876.000000;0.238635
9875.000000;0.239593
9874.000000;0.240437
9873.000000;0.241240
9872.000000;0.242061
9871.000000;0.242946
9870.000000;0.243907
9869.000000;0.244876
9868.000000;0.245734
9867.000000;0.246417
9866.000000;0.246983
9865.000000;0.247573
9864.000000;0.248329
9863.000000;0.249320
9862.000000;0.250479
9861.000000;0.251620
9860.000000;0.252556
9859.000000;0.253250
9858.000000;0.253812
9857.000000;0.254408
9856.000000;0.255166
9855.000000;0.256135
9854.000000;0.257232
9853.000000;0.258266
9852.000000;0.259115
9851.000000;0.259877
9850.000000;0.260767
9849.000000;0.261856
9848.000000;0.262987
9847.000000;0.263972
9846.000000;0.264776
9845.000000;0.265496
9844.000000;0.266209
9843.000000;0.266908
9842.000000;0.267525
9841.000000;0.268014
9840.000000;0.268445
9839.000000;0.269016
9838.000000;0.269925
9837.000000;0.271196
9836.000000;0.272656
9835.000000;0.274057
9834.000000;0.275189
9833.000000;0.275931
9832.000000;0.276323
9831.000000;0.276616
9830.000000;0.277131
9829.000000;0.278007
9828.000000;0.279097
9827.000000;0.280121
9826.000000;0.280873
9825.000000;0.281351
9824.000000;0.281793
9823.000000;0.282548
9822.000000;0.283767
9821.000000;0.285181
9820.000000;0.286349
9819.000000;0.287153
9818.000000;0.287926
9817.000000;0.289028
9816.000000;0.290450
9815.000000;0.291902
9814.000000;0.293114
9813.000000;0.293937
9812.000000;0.294339
9811.000000;0.294502
9810.000000;0.294835
9809.000000;0.295683
9808.000000;0.297020
9807.000000;0.298542
9806.000000;0.299963
9805.000000;0.301112
9804.000000;0.301866
9803.000000;0.302237
9802.000000;0.302518
9801.000000;0.303086
9800.000000;0.303999
9799.000000;0.304962
9798.000000;0.305750
9797.000000;0.306494
9796.000000;0.307443
9795.000000;0.308611
9794.000000;0.309804
9793.000000;0.310871
9792.000000;0.311809
9791.000000;0.312680
9790.000000;0.313563
9789.000000;0.314548
9788.000000;0.315663
9787.000000;0.316773
9786.000000;0.317648
9785.000000;0.318188
9784.000000;0.318511
9783.000000;0.318840
9782.000000;0.319342
9781.000000;0.320117
9780.000000;0.321263
9779.000000;0.322829
9778.000000;0.324662
9777.000000;0.326352
9776.000000;0.327477
9775.000000;0.327982
9774.000000;0.328252
9773.000000;0.328741
9772.000000;0.329538
9771.000000;0.330398
9770.000000;0.331136
9769.000000;0.331854
9768.000000;0.332719
9767.000000;0.333678
9766.000000;0.334536
9765.000000;0.335268
9764.000000;0.336112
9763.000000;0.337313
9762.000000;0.338855
9761.000000;0.340464
9760.000000;0.341825
9759.000000;0.342787
9758.000000;0.343460
9757.000000;0.344157
9756.000000;0.345180
9755.000000;0.346570
9754.000000;0.348053
9753.000000;0.349277
9752.000000;0.350103
9751.000000;0.350649
9750.000000;0.351114
9749.000000;0.351629
9748.000000;0.352287
9747.000000;0.353191
9746.000000;0.354373
9745.000000;0.355686
9744.000000;0.356867
9743.000000;0.357751
9742.000000;0.358382
9741.000000;0.358945
9740.000000;0.359606
9739.000000;0.360455
9738.000000;0.361521
9737.000000;0.362756
9736.000000;0.364009
9735.000000;0.365069
9734.000000;0.365806
9733.000000;0.366293
9732.000000;0.366785
9731.000000;0.367552
9730.000000;0.368689
9729.000000;0.370048
9728.000000;0.371339
9727.000000;0.372341
9726.000000;0.373054
9725.000000;0.373684
9724.000000;0.374485
9723.000000;0.375582
9722.000000;0.376907
9721.000000;0.378284
9720.000000;0.379595
9719.000000;0.380844
9718.000000;0.382067
9717.000000;0.383240
9716.000000;0.384322
9715.000000;0.385358
9714.000000;0.386431
9713.000000;0.387497
9712.000000;0.388357
9711.000000;0.388868
9710.000000;0.389129
9709.000000;0.389427
9708.000000;0.390033
9707.000000;0.391079
9706.000000;0.392492
9705.000000;0.393953
9704.000000;0.395063
9703.000000;0.395740
9702.000000;0.396406
9701.000000;0.397577
9700.000000;0.399233
9699.000000;0.400800
9698.000000;0.401827
9697.000000;0.402492
9696.000000;0.403310
9695.000000;0.404552
9694.000000;0.406119
9693.000000;0.407810
9692.000000;0.409414
9691.000000;0.410621
9690.000000;0.411224
9689.000000;0.411472
9688.000000;0.411940
9687.000000;0.412875
9686.000000;0.413919
9685.000000;0.414662
9684.000000;0.415272
9683.000000;0.416279
9682.000000;0.417851
9681.000000;0.419563
9680.000000;0.420879
9679.000000;0.421638
9678.000000;0.422055
9677.000000;0.422479
9676.000000;0.423222
9675.000000;0.424378
9674.000000;0.425673
9673.000000;0.426687
9672.000000;0.427338
9671.000000;0.427970
9670.000000;0.428850
9669.000000;0.429790
9668.000000;0.430477
9667.000000;0.431048
9666.000000;0.432010
9665.000000;0.433585
9664.000000;0.435390
9663.000000;0.436815
9662.000000;0.437568
9661.000000;0.437823
9660.000000;0.438001
9659.000000;0.438506
9658.000000;0.439468
9657.000000;0.440634
9656.000000;0.441596
9655.000000;0.442244
9654.000000;0.442901
9653.000000;0.443899
9652.000000;0.445169
9651.000000;0.446367
9650.000000;0.447319
9649.000000;0.448144
9648.000000;0.448988
9647.000000;0.449810
9646.000000;0.450514
9645.000000;0.451137
9644.000000;0.451833
9643.000000;0.452742
9642.000000;0.453923
9641.000000;0.455367
9640.000000;0.456986
9639.000000;0.458583
9638.000000;0.459906
9637.000000;0.460775
9636.000000;0.461215
9635.000000;0.461449
9634.000000;0.461731
9633.000000;0.462149
9632.000000;0.462640
9631.000000;0.463224
9630.000000;0.464100
9629.000000;0.465415
9628.000000;0.466987
9627.000000;0.468392
9626.000000;0.469346
9625.000000;0.469945
9624.000000;0.470511
9623.000000;0.471319
9622.000000;0.472461
9621.000000;0.473829
9620.000000;0.475166
9619.000000;0.476206
9618.000000;0.476882
9617.000000;0.477349
9616.000000;0.477771
9615.000000;0.478156
9614.000000;0.478458
9613.000000;0.478783
9612.000000;0.479375
9611.000000;0.480378
9610.000000;0.481655
9609.000000;0.482875
9608.000000;0.483764
9607.000000;0.484325
9606.000000;0.484853
9605.000000;0.485688
9604.000000;0.486879
9603.000000;0.488133
9602.000000;0.489144
9601.000000;0.489911
9600.000000;0.490618
9599.000000;0.491277
9598.000000;0.491706
9597.000000;0.491904
9596.000000;0.492236
9595.000000;0.493030
9594.000000;0.494091
9593.000000;0.494867
9592.000000;0.495134
9591.000000;0.495360
9590.000000;0.496228
9589.000000;0.497881
9588.000000;0.499748
9587.000000;0.501090
9586.000000;0.501655
9585.000000;0.501831
9584.000000;0.502251
9583.000000;0.503224
9582.000000;0.504486
9581.000000;0.505474
9580.000000;0.505903
9579.000000;0.506017
9578.000000;0.506224
9577.000000;0.506598
9576.000000;0.506948
9575.000000;0.507272
9574.000000;0.507869
9573.000000;0.508906
9572.000000;0.510176
9571.000000;0.511444
9570.000000;0.512787
9569.000000;0.514332
9568.000000;0.515791
9567.000000;0.516655
9566.000000;0.516841
9565.000000;0.516833
9564.000000;0.517046
9563.000000;0.517334
9562.000000;0.517267
9561.000000;0.516741
9560.000000;0.516109
9559.000000;0.515812
9558.000000;0.516056
9557.000000;0.516818
9556.000000;0.518013
9555.000000;0.519555
9554.000000;0.521250
9553.000000;0.522713
9552.000000;0.523501
9551.000000;0.523469
9550.000000;0.522991
9549.000000;0.522694
9548.000000;0.522934
9547.000000;0.523585
9546.000000;0.524322
9545.000000;0.524967
9544.000000;0.525536
9543.000000;0.526052
9542.000000;0.526425
9541.000000;0.526495
9540.000000;0.526198
9539.000000;0.525723
9538.000000;0.525457
9537.000000;0.525608
9536.000000;0.525947
9535.000000;0.526104
9534.000000;0.526126
9533.000000;0.526475
9532.000000;0.527386
9531.000000;0.528519
9530.000000;0.529384
9529.000000;0.529871
9528.000000;0.530145
9527.000000;0.530289
9526.000000;0.530345
9525.000000;0.530569
9524.000000;0.531240
9523.000000;0.532243
9522.000000;0.533094
9521.000000;0.533469
9520.000000;0.533500
9519.000000;0.533541
9518.000000;0.533823
9517.000000;0.534361
9516.000000;0.535024
9515.000000;0.535668
9514.000000;0.536291
9513.000000;0.537047
9512.000000;0.538015
9511.000000;0.538994
9510.000000;0.539634
9509.000000;0.539697
9508.000000;0.539151
9507.000000;0.538158
9506.000000;0.537157
9505.000000;0.536775
9504.000000;0.537311
9503.000000;0.538364
9502.000000;0.539213
9501.000000;0.539542
9500.000000;0.539530
9499.000000;0.539322
9498.000000;0.538874
9497.000000;0.538339
9496.000000;0.538120
9495.000000;0.538293
9494.000000;0.538328
9493.000000;0.537733
9492.000000;0.536728
9491.000000;0.535985
9490.000000;0.535859
9489.000000;0.536210
9488.000000;0.536842
9487.000000;0.537745
9486.000000;0.538853
9485.000000;0.539837
9484.000000;0.540306
9483.000000;0.540139
9482.000000;0.539567
9481.000000;0.538987
9480.000000;0.538693
9479.000000;0.538668
9478.000000;0.538640
9477.000000;0.538413
9476.000000;0.538138
9475.000000;0.538172
9474.000000;0.538657
9473.000000;0.539288
9472.000000;0.539562
9471.000000;0.539276
9470.000000;0.538710
9469.000000;0.538305
9468.000000;0.538191
9467.000000;0.538124
9466.000000;0.537927
9465.000000;0.537831
9464.000000;0.538179
9463.000000;0.538838
9462.000000;0.539183
9461.000000;0.538777
9460.000000;0.537895
9459.000000;0.537172
9458.000000;0.536883
9457.000000;0.536765
9456.000000;0.536462
9455.000000;0.535930
9454.000000;0.535372
9453.000000;0.534982
9452.000000;0.534863
9451.000000;0.535075
9450.000000;0.535613
9449.000000;0.536282
9448.000000;0.536641
9447.000000;0.536198
9446.000000;0.534813
9445.000000;0.532973
9444.000000;0.531553
9443.000000;0.531192
9442.000000;0.531813
9441.000000;0.532714
9440.000000;0.533110
9439.000000;0.532689
9438.000000;0.531754
9437.000000;0.530848
9436.000000;0.530192
9435.000000;0.529522
9434.000000;0.528581
9433.000000;0.527690
9432.000000;0.527517
9431.000000;0.528187
9430.000000;0.528896
9429.000000;0.528717
9428.000000;0.527642
9427.000000;0.526493
9426.000000;0.525830
9425.000000;0.525361
9424.000000;0.524538
9423.000000;0.523387
9422.000000;0.522417
9421.000000;0.521899
9420.000000;0.521607
9419.000000;0.521286
9418.000000;0.521062
9417.000000;0.521240
9416.000000;0.521864
9415.000000;0.522632
9414.000000;0.523149
9413.000000;0.523129
9412.000000;0.522462
9411.000000;0.521297
9410.000000;0.520047
9409.000000;0.519121
9408.000000;0.518552
9407.000000;0.517996
9406.000000;0.517148
9405.000000;0.516087
9404.000000;0.515153
9403.000000;0.514607
9402.000000;0.514469
9401.000000;0.514594
9400.000000;0.514755
9399.000000;0.514688
9398.000000;0.514215
9397.000000;0.513348
9396.000000;0.512259
9395.000000;0.511157
9394.000000;0.510228
9393.000000;0.509607
9392.000000;0.509305
9391.000000;0.509197
9390.000000;0.509126
9389.000000;0.508970
9388.000000;0.508568
9387.000000;0.507753
9386.000000;0.506593
9385.000000;0.505513
9384.000000;0.504992
9383.000000;0.505111
9382.000000;0.505506
9381.000000;0.505715
9380.000000;0.505449
9379.000000;0.504608
9378.000000;0.503256
9377.000000;0.501643
9376.000000;0.500107
9375.000000;0.498878
9374.000000;0.498045
9373.000000;0.497637
9372.000000;0.497504
9371.000000;0.497180
9370.000000;0.496180
9369.000000;0.494602
9368.000000;0.493182
9367.000000;0.492521
9366.000000;0.492431
9365.000000;0.492236
9364.000000;0.491666
9363.000000;0.491130
9362.000000;0.491079
9361.000000;0.491347
9360.000000;0.491313
9359.000000;0.490642
9358.000000;0.489678
9357.000000;0.489010
9356.000000;0.488781
9355.000000;0.488561
9354.000000;0.487886
9353.000000;0.486781
9352.000000;0.485636
9351.000000;0.484713
9350.000000;0.483966
9349.000000;0.483280
9348.000000;0.482610
9347.000000;0.481824
9346.000000;0.480702
9345.000000;0.479313
9344.000000;0.478195
9343.000000;0.477851
9342.000000;0.478099
9341.000000;0.478163
9340.000000;0.477490
9339.000000;0.476281
9338.000000;0.475155
9337.000000;0.474453
9336.000000;0.474005
9335.000000;0.473469
9334.000000;0.472710
9333.000000;0.471845
9332.000000;0.471053
9331.000000;0.470399
9330.000000;0.469792
9329.000000;0.469076
9328.000000;0.468179
9327.000000;0.467218
9326.000000;0.466411
9325.000000;0.465868
9324.000000;0.465498
9323.000000;0.465156
9322.000000;0.464820
9321.000000;0.464508
9320.000000;0.464044
9319.000000;0.463087
9318.000000;0.461529
9317.000000;0.459753
9316.000000;0.458351
9315.000000;0.457572
9314.000000;0.457153
9313.000000;0.456686
9312.000000;0.456040
9311.000000;0.455357
9310.000000;0.454761
9309.000000;0.454186
9308.000000;0.453504
9307.000000;0.452717
9306.000000;0.451949
9305.000000;0.451233
9304.000000;0.450389
9303.000000;0.449239
9302.000000;0.447945
9301.000000;0.446978
9300.000000;0.446645
9299.000000;0.446728
9298.000000;0.446711
9297.000000;0.446298
9296.000000;0.445550
9295.000000;0.444572
9294.000000;0.443333
9293.000000;0.441883
9292.000000;0.440527
9291.000000;0.439599
9290.000000;0.439153
9289.000000;0.438964
9288.000000;0.438752
9287.000000;0.438300
9286.000000;0.437461
9285.000000;0.436268
9284.000000;0.435064
9283.000000;0.434317
9282.000000;0.434156
9281.000000;0.434145
9280.000000;0.433650
9279.000000;0.432470
9278.000000;0.431020
9277.000000;0.429826
9276.000000;0.428950
9275.000000;0.428044
9274.000000;0.426941
9273.000000;0.425944
9272.000000;0.425432
9271.000000;0.425316
9270.000000;0.425146
9269.000000;0.424685
9268.000000;0.424115
9267.000000;0.423629
9266.000000;0.423060
9265.000000;0.422118
9264.000000;0.420852
9263.000000;0.419671
9262.000000;0.418925
9261.000000;0.418602
9260.000000;0.418415
9259.000000;0.418067
9258.000000;0.417451
9257.000000;0.416690
9256.000000;0.416011
9255.000000;0.415536
9254.000000;0.415166
9253.000000;0.414658
9252.000000;0.413827
9251.000000;0.412650
9250.000000;0.411247
9249.000000;0.409801
9248.000000;0.408490
9247.000000;0.407453
9246.000000;0.406791
9245.000000;0.406570
9244.000000;0.406743
9243.000000;0.407059
9242.000000;0.407134
9241.000000;0.406748
9240.000000;0.406018
9239.000000;0.405243
9238.000000;0.404580
9237.000000;0.403917
9236.000000;0.403028
9235.000000;0.401787
9234.000000;0.400275
9233.000000;0.398777
9232.000000;0.397646
9231.000000;0.397064
9230.000000;0.396872
9229.000000;0.396692
9228.000000;0.396243
9227.000000;0.395516
9226.000000;0.394644
9225.000000;0.393678
9224.000000;0.392564
9223.000000;0.391308
9222.000000;0.390110
9221.000000;0.389286
9220.000000;0.389028
9219.000000;0.389243
9218.000000;0.389601
9217.000000;0.389713
9216.000000;0.389286
9215.000000;0.388207
9214.000000;0.386636
9213.000000;0.385038
9212.000000;0.383948
9211.000000;0.383546
9210.000000;0.383457
9209.000000;0.383117
9208.000000;0.382374
9207.000000;0.381615
9206.000000;0.381250
9205.000000;0.381195
9204.000000;0.380967
9203.000000;0.380240
9202.000000;0.379180
9201.000000;0.378210
9200.000000;0.377563
9199.000000;0.377119
9198.000000;0.376592
9197.000000;0.375781
9196.000000;0.374700
9195.000000;0.373559
9194.000000;0.372649
9193.000000;0.372134
9192.000000;0.371893
9191.000000;0.371607
9190.000000;0.371036
9189.000000;0.370208
9188.000000;0.369331
9187.000000;0.368582
9186.000000;0.368019
9185.000000;0.367624
9184.000000;0.367319
9183.000000;0.366958
9182.000000;0.366409
9181.000000;0.365676
9180.000000;0.364893
9179.000000;0.364192
9178.000000;0.363629
9177.000000;0.363234
9176.000000;0.362999
9175.000000;0.362780
9174.000000;0.362318
9173.000000;0.361452
9172.000000;0.360288
9171.000000;0.359092
9170.000000;0.358066
9169.000000;0.357265
9168.000000;0.356692
9167.000000;0.356339
9166.000000;0.356145
9165.000000;0.355977
9164.000000;0.355696
9163.000000;0.355220
9162.000000;0.354521
9161.000000;0.353629
9160.000000;0.352656
9159.000000;0.351770
9158.000000;0.351106
9157.000000;0.350689
9156.000000;0.350418
9155.000000;0.350095
9154.000000;0.349507
9153.000000;0.348575
9152.000000;0.347462
9151.000000;0.346477
9150.000000;0.345809
9149.000000;0.345351
9148.000000;0.344835
9147.000000;0.344128
9146.000000;0.343352
9145.000000;0.342702
9144.000000;0.342187
9143.000000;0.341605
9142.000000;0.340777
9141.000000;0.339765
9140.000000;0.338844
9139.000000;0.338253
9138.000000;0.338009
9137.000000;0.337936
9136.000000;0.337841
9135.000000;0.337608
9134.000000;0.337181
9133.000000;0.336536
9132.000000;0.335737
9131.000000;0.334953
9130.000000;0.334341
9129.000000;0.333910
9128.000000;0.333530
9127.000000;0.333090
9126.000000;0.332561
9125.000000;0.331932
9124.000000;0.331196
9123.000000;0.330452
9122.000000;0.329901
9121.000000;0.329614
9120.000000;0.329373
9119.000000;0.328919
9118.000000;0.328343
9117.000000;0.327994
9116.000000;0.327963
9115.000000;0.327859
9114.000000;0.327268
9113.000000;0.326259
9112.000000;0.325220
9111.000000;0.324303
9110.000000;0.323323
9109.000000;0.322186
9108.000000;0.321143
9107.000000;0.320475
9106.000000;0.320134
9105.000000;0.319856
9104.000000;0.319504
9103.000000;0.319132
9102.000000;0.318779
9101.000000;0.318363
9100.000000;0.317768
9099.000000;0.316932
9098.000000;0.315885
9097.000000;0.314801
9096.000000;0.313967
9095.000000;0.313577
9094.000000;0.313518
9093.000000;0.313475
9092.000000;0.313269
9091.000000;0.312994
9090.000000;0.312804
9089.000000;0.312688
9088.000000;0.312509
9087.000000;0.312185
9086.000000;0.311710
9085.000000;0.311056
9084.000000;0.310184
9083.000000;0.309151
9082.000000;0.308117
9081.000000;0.307215
9080.000000;0.306467
9079.000000;0.305830
9078.000000;0.305293
9077.000000;0.304893
9076.000000;0.304650
9075.000000;0.304506
9074.000000;0.304309
9073.000000;0.303901
9072.000000;0.303251
9071.000000;0.302497
9070.000000;0.301827
9069.000000;0.301326
9068.000000;0.300958
9067.000000;0.300688
9066.000000;0.300514
9065.000000;0.300380
9064.000000;0.300132
9063.000000;0.299640
9062.000000;0.298960
9061.000000;0.298288
9060.000000;0.297759
9059.000000;0.297324
9058.000000;0.296834
9057.000000;0.296220
9056.000000;0.295580
9055.000000;0.295073
9054.000000;0.294748
9053.000000;0.294467
9052.000000;0.294050
9051.000000;0.293489
9050.000000;0.292963
9049.000000;0.292609
9048.000000;0.292343
9047.000000;0.291993
9046.000000;0.291569
9045.000000;0.291274
9044.000000;0.291210
9043.000000;0.291190
9042.000000;0.290891
9041.000000;0.290165
9040.000000;0.289146
9039.000000;0.288112
9038.000000;0.287286
9037.000000;0.286737
9036.000000;0.286388
9035.000000;0.286100
9034.000000;0.285770
9033.000000;0.285390
9032.000000;0.285005
9031.000000;0.284649
9030.000000;0.284313
9029.000000;0.283952
9028.000000;0.283514
9027.000000;0.283000
9026.000000;0.282478
9025.000000;0.282008
9024.000000;0.281567
9023.000000;0.281109
9022.000000;0.280699
9021.000000;0.280470
9020.000000;0.280424
9019.000000;0.280365
9018.000000;0.280090
9017.000000;0.279569
9016.000000;0.278872
9015.000000;0.278030
9014.000000;0.277087
9013.000000;0.276216
9012.000000;0.275626
9011.000000;0.275351
9010.000000;0.275217
9009.000000;0.275052
9008.000000;0.274826
9007.000000;0.274613
9006.000000;0.274507
9005.000000;0.274572
9004.000000;0.274771
9003.000000;0.274876
9002.000000;0.274573
9001.000000;0.273734
9000.000000;0.272579
8999.000000;0.271542
8998.000000;0.270961
8997.000000;0.270858
8996.000000;0.270930
8995.000000;0.270765
8994.000000;0.270172
8993.000000;0.269346
8992.000000;0.268661
8991.000000;0.268297
8990.000000;0.268119
8989.000000;0.267909
8988.000000;0.267582
8987.000000;0.267156
8986.000000;0.266643
8985.000000;0.266061
8984.000000;0.265484
8983.000000;0.264988
8982.000000;0.264603
8981.000000;0.264359
8980.000000;0.264293
8979.000000;0.264324
8978.000000;0.264231
8977.000000;0.263896
8976.000000;0.263505
8975.000000;0.263338
8974.000000;0.263393
8973.000000;0.263353
8972.000000;0.262946
8971.000000;0.262214
8970.000000;0.261375
8969.000000;0.260565
8968.000000;0.259816
8967.000000;0.259171
8966.000000;0.258707
8965.000000;0.258448
8964.000000;0.258343
8963.000000;0.258309
8962.000000;0.258268
8961.000000;0.258152
8960.000000;0.257951
8959.000000;0.257714
8958.000000;0.257458
8957.000000;0.257107
8956.000000;0.256588
8955.000000;0.255963
8954.000000;0.255392
8953.000000;0.254958
8952.000000;0.254616
8951.000000;0.254325
8950.000000;0.254153
8949.000000;0.254175
8948.000000;0.254312
8947.000000;0.254349
8946.000000;0.254116
8945.000000;0.253628
8944.000000;0.253071
8943.000000;0.252657
8942.000000;0.252426
8941.000000;0.252188
8940.000000;0.251705
8939.000000;0.250997
8938.000000;0.250378
8937.000000;0.250108
8936.000000;0.250057
8935.000000;0.249849
8934.000000;0.249308
8933.000000;0.248622
8932.000000;0.248062
8931.000000;0.247706
8930.000000;0.247515
8929.000000;0.247506
8928.000000;0.247686
8927.000000;0.247897
8926.000000;0.247872
8925.000000;0.247458
8924.000000;0.246713
8923.000000;0.245800
8922.000000;0.244917
8921.000000;0.244279
8920.000000;0.244032
8919.000000;0.244129
8918.000000;0.244348
8917.000000;0.244471
8916.000000;0.244414
8915.000000;0.244200
8914.000000;0.243894
8913.000000;0.243556
8912.000000;0.243204
8911.000000;0.242798
8910.000000;0.242338
8909.000000;0.241929
8908.000000;0.241682
8907.000000;0.241545
8906.000000;0.241332
8905.000000;0.240944
8904.000000;0.240469
8903.000000;0.240061
8902.000000;0.239813
8901.000000;0.239768
8900.000000;0.239909
8899.000000;0.240091
8898.000000;0.240076
8897.000000;0.239725
8896.000000;0.239109
8895.000000;0.238417
8894.000000;0.237810
8893.000000;0.237408
8892.000000;0.237250
8891.000000;0.237206
8890.000000;0.237021
8889.000000;0.236591
8888.000000;0.236112
8887.000000;0.235831
8886.000000;0.235733
8885.000000;0.235602
8884.000000;0.235360
8883.000000;0.235160
8882.000000;0.235131
8881.000000;0.235191
8880.000000;0.235139
8879.000000;0.234844
8878.000000;0.234288
8877.000000;0.233537
8876.000000;0.232732
8875.000000;0.232047
8874.000000;0.231571
8873.000000;0.231263
8872.000000;0.231047
8871.000000;0.230904
8870.000000;0.230826
8869.000000;0.230771
8868.000000;0.230718
8867.000000;0.230733
8866.000000;0.230862
8865.000000;0.230996
8864.000000;0.230917
8863.000000;0.230530
8862.000000;0.229990
8861.000000;0.229539
8860.000000;0.229257
8859.000000;0.229007
8858.000000;0.228611
8857.000000;0.228051
8856.000000;0.227501
8855.000000;0.227215
8854.000000;0.227365
8853.000000;0.227903
8852.000000;0.228518
8851.000000;0.228806
8850.000000;0.228575
8849.000000;0.227999
8848.000000;0.227401
8847.000000;0.226917
8846.000000;0.226463
8845.000000;0.225983
8844.000000;0.225578
8843.000000;0.225331
8842.000000;0.225153
8841.000000;0.224898
8840.000000;0.224566
8839.000000;0.224257
8838.000000;0.224001
8837.000000;0.223737
8836.000000;0.223441
8835.000000;0.223158
8834.000000;0.222900
8833.000000;0.222645
8832.000000;0.222427
8831.000000;0.222342
8830.000000;0.222395
8829.000000;0.222452
8828.000000;0.222364
8827.000000;0.222093
8826.000000;0.221693
8825.000000;0.221244
8824.000000;0.220836
8823.000000;0.220545
8822.000000;0.220358
8821.000000;0.220170
8820.000000;0.219921
8819.000000;0.219675
8818.000000;0.219536
8817.000000;0.219524
8816.000000;0.219630
8815.000000;0.219914
8814.000000;0.220436
8813.000000;0.221054
8812.000000;0.221405
8811.000000;0.221178
8810.000000;0.220399
8809.000000;0.219390
8808.000000;0.218467
8807.000000;0.217740
8806.000000;0.217176
8805.000000;0.216789
8804.000000;0.216648
8803.000000;0.216750
8802.000000;0.216936
8801.000000;0.216969
8800.000000;0.216675
8799.000000;0.216013
8798.000000;0.215101
8797.000000;0.214216
8796.000000;0.213678
8795.000000;0.213621
8794.000000;0.213867
8793.000000;0.214070
8792.000000;0.214010
8791.000000;0.213721
8790.000000;0.213382
8789.000000;0.213139
8788.000000;0.213019
8787.000000;0.212977
8786.000000;0.212994
8785.000000;0.213135
8784.000000;0.213445
8783.000000;0.213767
8782.000000;0.213774
8781.000000;0.213282
8780.000000;0.212517
8779.000000;0.211937
8778.000000;0.211783
8777.000000;0.211892
8776.000000;0.211936
8775.000000;0.211731
8774.000000;0.211292
8773.000000;0.210728
8772.000000;0.210179
8771.000000;0.209786
8770.000000;0.209629
8769.000000;0.209696
8768.000000;0.209914
8767.000000;0.210178
8766.000000;0.210340
8765.000000;0.210267
8764.000000;0.209963
8763.000000;0.209582
8762.000000;0.209262
8761.000000;0.209027
8760.000000;0.208863
8759.000000;0.208801
8758.000000;0.208837
8757.000000;0.208844
8756.000000;0.208672
8755.000000;0.208315
8754.000000;0.207890
8753.000000;0.207484
8752.000000;0.207112
8751.000000;0.206836
8750.000000;0.206764
8749.000000;0.206901
8748.000000;0.207050
8747.000000;0.206968
8746.000000;0.206593
8745.000000;0.206075
8744.000000;0.205608
8743.000000;0.205304
8742.000000;0.205242
8741.000000;0.205508
8740.000000;0.206076
8739.000000;0.206670
8738.000000;0.206909
8737.000000;0.206639
8736.000000;0.206059
8735.000000;0.205461
8734.000000;0.204954
8733.000000;0.204544
8732.000000;0.204323
8731.000000;0.204387
8730.000000;0.204568
8729.000000;0.204502
8728.000000;0.204032
8727.000000;0.203378
8726.000000;0.202845
8725.000000;0.202530
8724.000000;0.202424
8723.000000;0.202591
8722.000000;0.203052
8721.000000;0.203573
8720.000000;0.203808
8719.000000;0.203626
8718.000000;0.203181
8717.000000;0.202693
8716.000000;0.202295
8715.000000;0.202049
8714.000000;0.201921
8713.000000;0.201741
8712.000000;0.201353
8711.000000;0.200844
8710.000000;0.200506
8709.000000;0.200517
8708.000000;0.200765
8707.000000;0.200996
8706.000000;0.201041
8705.000000;0.200877
8704.000000;0.200575
8703.000000;0.200249
8702.000000;0.199982
8701.000000;0.199756
8700.000000;0.199533
8699.000000;0.199383
8698.000000;0.199446
8697.000000;0.199701
8696.000000;0.199905
8695.000000;0.199826
8694.000000;0.199476
8693.000000;0.199053
8692.000000;0.198715
8691.000000;0.198489
8690.000000;0.198339
8689.000000;0.198247
8688.000000;0.198225
8687.000000;0.198279
8686.000000;0.198349
8685.000000;0.198290
8684.000000;0.198002
8683.000000;0.197569
8682.000000;0.197202
8681.000000;0.196990
8680.000000;0.196815
8679.000000;0.196560
8678.000000;0.196309
8677.000000;0.196245
8676.000000;0.196397
8675.000000;0.196583
8674.000000;0.196597
8673.000000;0.196377
8672.000000;0.196016
8671.000000;0.195661
8670.000000;0.195434
8669.000000;0.195364
8668.000000;0.195374
8667.000000;0.195356
8666.000000;0.195254
8665.000000;0.195084
8664.000000;0.194867
8663.000000;0.194598
8662.000000;0.194278
8661.000000;0.193984
8660.000000;0.193847
8659.000000;0.193906
8658.000000;0.193990
8657.000000;0.193841
8656.000000;0.193437
8655.000000;0.193092
8654.000000;0.193118
8653.000000;0.193404
8652.000000;0.193540
8651.000000;0.193333
8650.000000;0.193023
8649.000000;0.192907
8648.000000;0.192960
8647.000000;0.192983
8646.000000;0.192953
8645.000000;0.192998
8644.000000;0.193102
8643.000000;0.193064
8642.000000;0.192780
8641.000000;0.192392
8640.000000;0.192114
8639.000000;0.192011
8638.000000;0.192004
8637.000000;0.191965
8636.000000;0.191788
8635.000000;0.191461
8634.000000;0.191122
8633.000000;0.190959
8632.000000;0.191009
8631.000000;0.191116
8630.000000;0.191126
8629.000000;0.191022
8628.000000;0.190858
8627.000000;0.190637
8626.000000;0.190344
8625.000000;0.190036
8624.000000;0.189821
8623.000000;0.189765
8622.000000;0.189853
8621.000000;0.190012
8620.000000;0.190131
8619.000000;0.190112
8618.000000;0.189952
8617.000000;0.189757
8616.000000;0.189623
8615.000000;0.189533
8614.000000;0.189420
8613.000000;0.189300
8612.000000;0.189256
8611.000000;0.189289
8610.000000;0.189253
8609.000000;0.188999
8608.000000;0.188567
8607.000000;0.188174
8606.000000;0.188003
8605.000000;0.188011
8604.000000;0.187991
8603.000000;0.187806
8602.000000;0.187531
8601.000000;0.187350
8600.000000;0.187367
8599.000000;0.187552
8598.000000;0.187818
8597.000000;0.188059
8596.000000;0.188135
8595.000000;0.187954
8594.000000;0.187599
8593.000000;0.187306
8592.000000;0.187234
8591.000000;0.187303
8590.000000;0.187309
8589.000000;0.187154
8588.000000;0.186910
8587.000000;0.186690
8586.000000;0.186536
8585.000000;0.186428
8584.000000;0.186344
8583.000000;0.186292
8582.000000;0.186291
8581.000000;0.186319
8580.000000;0.186275
8579.000000;0.186039
8578.000000;0.185609
8577.000000;0.185161
8576.000000;0.184912
8575.000000;0.184936
8574.000000;0.185151
8573.000000;0.185435
8572.000000;0.185693
8571.000000;0.185833
8570.000000;0.185784
8569.000000;0.185565
8568.000000;0.185267
8567.000000;0.184914
8566.000000;0.184438
8565.000000;0.183829
8564.000000;0.183256
8563.000000;0.182944
8562.000000;0.182945
8561.000000;0.183118
8560.000000;0.183297
8559.000000;0.183412
8558.000000;0.183453
8557.000000;0.183422
8556.000000;0.183366
8555.000000;0.183384
8554.000000;0.183518
8553.000000;0.183665
8552.000000;0.183646
8551.000000;0.183372
8550.000000;0.182914
8549.000000;0.182432
8548.000000;0.182074
8547.000000;0.181932
8546.000000;0.182025
8545.000000;0.182284
8544.000000;0.182566
8543.000000;0.182733
8542.000000;0.182736
8541.000000;0.182638
8540.000000;0.182544
8539.000000;0.182521
8538.000000;0.182540
8537.000000;0.182503
8536.000000;0.182320
8535.000000;0.181979
8534.000000;0.181558
8533.000000;0.181186
8532.000000;0.180988
8531.000000;0.181012
8530.000000;0.181178
8529.000000;0.181298
8528.000000;0.181209
8527.000000;0.180913
8526.000000;0.180584
8525.000000;0.180424
8524.000000;0.180504
8523.000000;0.180732
8522.000000;0.180952
8521.000000;0.181070
8520.000000;0.181079
8519.000000;0.181004
8518.000000;0.180836
8517.000000;0.180553
8516.000000;0.180173
8515.000000;0.179772
8514.000000;0.179443
8513.000000;0.179248
8512.000000;0.179215
8511.000000;0.179318
8510.000000;0.179437
8509.000000;0.179399
8508.000000;0.179135
8507.000000;0.178782
8506.000000;0.178557
8505.000000;0.178545
8504.000000;0.178638
8503.000000;0.178691
8502.000000;0.178668
8501.000000;0.178627
8500.000000;0.178636
8499.000000;0.178750
8498.000000;0.178981
8497.000000;0.179239
8496.000000;0.179342
8495.000000;0.179177
8494.000000;0.178831
8493.000000;0.178513
8492.000000;0.178331
8491.000000;0.178194
8490.000000;0.177960
8489.000000;0.177630
8488.000000;0.177351
8487.000000;0.177244
8486.000000;0.177266
8485.000000;0.177247
8484.000000;0.177062
8483.000000;0.176747
8482.000000;0.176448
8481.000000;0.176267
8480.000000;0.176175
8479.000000;0.176077
8478.000000;0.175926
8477.000000;0.175764
8476.000000;0.175670
8475.000000;0.175677
8474.000000;0.175746
8473.000000;0.175815
8472.000000;0.175867
8471.000000;0.175949
8470.000000;0.176079
8469.000000;0.176171
8468.000000;0.176094
8467.000000;0.175824
8466.000000;0.175480
8465.000000;0.175178
8464.000000;0.174932
8463.000000;0.174713
8462.000000;0.174561
8461.000000;0.174544
8460.000000;0.174639
8459.000000;0.174734
8458.000000;0.174750
8457.000000;0.174701
8456.000000;0.174623
8455.000000;0.174512
8454.000000;0.174369
8453.000000;0.174234
8452.000000;0.174138
8451.000000;0.174041
8450.000000;0.173881
8449.000000;0.173666
8448.000000;0.173475
8447.000000;0.173353
8446.000000;0.173236
8445.000000;0.173019
8444.000000;0.172695
8443.000000;0.172408
8442.000000;0.172333
8441.000000;0.172487
8440.000000;0.172694
8439.000000;0.172742
8438.000000;0.172578
8437.000000;0.172337
8436.000000;0.172194
8435.000000;0.172215
8434.000000;0.172340
8433.000000;0.172462
8432.000000;0.172497
8431.000000;0.172415
8430.000000;0.172236
8429.000000;0.172021
8428.000000;0.171842
8427.000000;0.171722
8426.000000;0.171618
8425.000000;0.171453
8424.000000;0.171195
8423.000000;0.170883
8422.000000;0.170571
8421.000000;0.170286
8420.000000;0.170056
8419.000000;0.169956
8418.000000;0.170045
8417.000000;0.170265
8416.000000;0.170462
8415.000000;0.170544
8414.000000;0.170545
8413.000000;0.170528
8412.000000;0.170484
8411.000000;0.170387
8410.000000;0.170277
8409.000000;0.170218
8408.000000;0.170202
8407.000000;0.170155
8406.000000;0.170013
8405.000000;0.169743
8404.000000;0.169350
8403.000000;0.168918
8402.000000;0.168613
8401.000000;0.168532
8400.000000;0.168579
8399.000000;0.168576
8398.000000;0.168486
8397.000000;0.168407
8396.000000;0.168369
8395.000000;0.168271
8394.000000;0.168073
8393.000000;0.167908
8392.000000;0.167927
8391.000000;0.168103
8390.000000;0.168281
8389.000000;0.168337
8388.000000;0.168227
8387.000000;0.167950
8386.000000;0.167566
8385.000000;0.167223
8384.000000;0.167053
8383.000000;0.167042
8382.000000;0.167076
8381.000000;0.167077
8380.000000;0.167032
8379.000000;0.166907
8378.000000;0.166647
8377.000000;0.166283
8376.000000;0.165974
8375.000000;0.165878
8374.000000;0.166020
8373.000000;0.166287
8372.000000;0.166526
8371.000000;0.166618
8370.000000;0.166516
8369.000000;0.166249
8368.000000;0.165896
8367.000000;0.165558
8366.000000;0.165342
8365.000000;0.165324
8364.000000;0.165476
8363.000000;0.165649
8362.000000;0.165692
8361.000000;0.165596
8360.000000;0.165468
8359.000000;0.165377
8358.000000;0.165278
8357.000000;0.165117
8356.000000;0.164937
8355.000000;0.164809
8354.000000;0.164728
8353.000000;0.164609
8352.000000;0.164396
8351.000000;0.164108
8350.000000;0.163805
8349.000000;0.163555
8348.000000;0.163421
8347.000000;0.163430
8346.000000;0.163516
8345.000000;0.163543
8344.000000;0.163415
8343.000000;0.163163
8342.000000;0.162904
8341.000000;0.162733
8340.000000;0.162670
8339.000000;0.162695
8338.000000;0.162777
8337.000000;0.162859
8336.000000;0.162859
8335.000000;0.162726
8334.000000;0.162496
8333.000000;0.162264
8332.000000;0.162097
8331.000000;0.161987
8330.000000;0.161875
8329.000000;0.161718
8328.000000;0.161512
8327.000000;0.161287
8326.000000;0.161074
8325.000000;0.160888
8324.000000;0.160736
8323.000000;0.160641
8322.000000;0.160628
8321.000000;0.160648
8320.000000;0.160564
8319.000000;0.160282
8318.000000;0.159905
8317.000000;0.159672
8316.000000;0.159695
8315.000000;0.159834
8314.000000;0.159869
8313.000000;0.159752
8312.000000;0.159604
8311.000000;0.159507
8310.000000;0.159422
8309.000000;0.159309
8308.000000;0.159224
8307.000000;0.159227
8306.000000;0.159264
8305.000000;0.159222
8304.000000;0.159066
8303.000000;0.158863
8302.000000;0.158683
8301.000000;0.158529
8300.000000;0.158362
8299.000000;0.158163
8298.000000;0.157941
8297.000000;0.157717
8296.000000;0.157546
8295.000000;0.157511
8294.000000;0.157647
8293.000000;0.157847
8292.000000;0.157883
8291.000000;0.157610
8290.000000;0.157145
8289.000000;0.156772
8288.000000;0.156639
8287.000000;0.156591
8286.000000;0.156375
8285.000000;0.155959
8284.000000;0.155574
8283.000000;0.155457
8282.000000;0.155605
8281.000000;0.155809
8280.000000;0.155859
8279.000000;0.155688
8278.000000;0.155390
8277.000000;0.155140
8276.000000;0.155072
8275.000000;0.155188
8274.000000;0.155381
8273.000000;0.155534
8272.000000;0.155563
8271.000000;0.155397
8270.000000;0.155004
8269.000000;0.154481
8268.000000;0.154037
8267.000000;0.153818
8266.000000;0.153781
8265.000000;0.153781
8264.000000;0.153746
8263.000000;0.153699
8262.000000;0.153651
8261.000000;0.153561
8260.000000;0.153414
8259.000000;0.153245
8258.000000;0.153077
8257.000000;0.152888
8256.000000;0.152677
8255.000000;0.152507
8254.000000;0.152433
8253.000000;0.152408
8252.000000;0.152310
8251.000000;0.152084
8250.000000;0.151824
8249.000000;0.151671
8248.000000;0.151644
8247.000000;0.151585
8246.000000;0.151336
8245.000000;0.150945
8244.000000;0.150645
8243.000000;0.150610
8242.000000;0.150783
8241.000000;0.150966
8240.000000;0.151024
8239.000000;0.150957
8238.000000;0.150816
8237.000000;0.150635
8236.000000;0.150442
8235.000000;0.150263
8234.000000;0.150108
8233.000000;0.149980
8232.000000;0.149888
8231.000000;0.149829
8230.000000;0.149741
8229.000000;0.149549
8228.000000;0.149235
8227.000000;0.148841
8226.000000;0.148391
8225.000000;0.147894
8224.000000;0.147410
8223.000000;0.147060
8222.000000;0.146922
8221.000000;0.146963
8220.000000;0.147100
8219.000000;0.147262
8218.000000;0.147364
8217.000000;0.147286
8216.000000;0.146972
8215.000000;0.146542
8214.000000;0.146215
8213.000000;0.146096
8212.000000;0.146088
8211.000000;0.146032
8210.000000;0.145890
8209.000000;0.145750
8208.000000;0.145691
8207.000000;0.145674
8206.000000;0.145583
8205.000000;0.145342
8204.000000;0.144980
8203.000000;0.144599
8202.000000;0.144284
8201.000000;0.144036
8200.000000;0.143794
8199.000000;0.143537
8198.000000;0.143356
8197.000000;0.143379
8196.000000;0.143601
8195.000000;0.143812
8194.000000;0.143763
8193.000000;0.143417
8192.000000;0.142982
8191.000000;0.142683
8190.000000;0.142545
8189.000000;0.142439
8188.000000;0.142286
8187.000000;0.142119
8186.000000;0.141981
8185.000000;0.141845
8184.000000;0.141687
8183.000000;0.141555
8182.000000;0.141503
8181.000000;0.141480
8180.000000;0.141364
8179.000000;0.141107
8178.000000;0.140794
8177.000000;0.140535
8176.000000;0.140342
8175.000000;0.140172
8174.000000;0.140020
8173.000000;0.139933
8172.000000;0.139911
8171.000000;0.139871
8170.000000;0.139736
8169.000000;0.139514
8168.000000;0.139258
8167.000000;0.138979
8166.000000;0.138666
8165.000000;0.138368
8164.000000;0.138163
8163.000000;0.138046
8162.000000;0.137909
8161.000000;0.137666
8160.000000;0.137361
8159.000000;0.137102
8158.000000;0.136938
8157.000000;0.136840
8156.000000;0.136767
8155.000000;0.136692
8154.000000;0.136588
8153.000000;0.136438
8152.000000;0.136255
8151.000000;0.136054
8150.000000;0.135829
8149.000000;0.135559
8148.000000;0.135245
8147.000000;0.134911
8146.000000;0.134604
8145.000000;0.134394
8144.000000;0.134321
8143.000000;0.134313
8142.000000;0.134224
8141.000000;0.133998
8140.000000;0.133750
8139.000000;0.133612
8138.000000;0.133560
8137.000000;0.133466
8136.000000;0.133268
8135.000000;0.132991
8134.000000;0.132655
8133.000000;0.132289
8132.000000;0.132004
8131.000000;0.131906
8130.000000;0.131935
8129.000000;0.131905
8128.000000;0.131764
8127.000000;0.131657
8126.000000;0.131699
8125.000000;0.131774
8124.000000;0.131675
8123.000000;0.131336
8122.000000;0.130862
8121.000000;0.130396
8120.000000;0.130040
8119.000000;0.129861
8118.000000;0.129837
8117.000000;0.129844
8116.000000;0.129759
8115.000000;0.129579
8114.000000;0.129372
8113.000000;0.129138
8112.000000;0.128805
8111.000000;0.128349
8110.000000;0.127867
8109.000000;0.127496
8108.000000;0.127308
8107.000000;0.127272
8106.000000;0.127277
8105.000000;0.127198
8104.000000;0.126997
8103.000000;0.126756
8102.000000;0.126589
8101.000000;0.126504
8100.000000;0.126398
8099.000000;0.126188
8098.000000;0.125917
8097.000000;0.125699
8096.000000;0.125590
8095.000000;0.125533
8094.000000;0.125434
8093.000000;0.125267
8092.000000;0.125093
8091.000000;0.124961
8090.000000;0.124826
8089.000000;0.124602
8088.000000;0.124282
8087.000000;0.123958
8086.000000;0.123699
8085.000000;0.123461
8084.000000;0.123162
8083.000000;0.122806
8082.000000;0.122471
8081.000000;0.122213
8080.000000;0.122026
8079.000000;0.121890
8078.000000;0.121807
8077.000000;0.121759
8076.000000;0.121679
8075.000000;0.121490
8074.000000;0.121178
8073.000000;0.120814
8072.000000;0.120518
8071.000000;0.120372
8070.000000;0.120371
8069.000000;0.120437
8068.000000;0.120462
8067.000000;0.120356
8066.000000;0.120089
8065.000000;0.119720
8064.000000;0.119366
8063.000000;0.119100
8062.000000;0.118876
8061.000000;0.118601
8060.000000;0.118255
8059.000000;0.117913
8058.000000;0.117642
8057.000000;0.117454
8056.000000;0.117342
8055.000000;0.117293
8054.000000;0.117255
8053.000000;0.117160
8052.000000;0.116996
8051.000000;0.116806
8050.000000;0.116587
8049.000000;0.116282
8048.000000;0.115900
8047.000000;0.115567
8046.000000;0.115384
8045.000000;0.115300
8044.000000;0.115192
8043.000000;0.115011
8042.000000;0.114794
8041.000000;0.114560
8040.000000;0.114272
8039.000000;0.113901
8038.000000;0.113476
8037.000000;0.113079
8036.000000;0.112794
8035.000000;0.112642
8034.000000;0.112529
8033.000000;0.112326
8032.000000;0.112019
8031.000000;0.111733
8030.000000;0.111551
8029.000000;0.111395
8028.000000;0.111137
8027.000000;0.110781
8026.000000;0.110450
8025.000000;0.110220
8024.000000;0.110064
8023.000000;0.109925
8022.000000;0.109781
8021.000000;0.109630
8020.000000;0.109485
8019.000000;0.109374
8018.000000;0.109291
8017.000000;0.109162
8016.000000;0.108928
8015.000000;0.108639
8014.000000;0.108395
8013.000000;0.108210
8012.000000;0.108001
8011.000000;0.107705
8010.000000;0.107342
8009.000000;0.106974
8008.000000;0.106650
8007.000000;0.106394
8006.000000;0.106182
8005.000000;0.105936
8004.000000;0.105603
8003.000000;0.105226
8002.000000;0.104893
8001.000000;0.104631
8000.000000;0.104406
7999.000000;0.104212
7998.000000;0.104074
7997.000000;0.103973
7996.000000;0.103849
7995.000000;0.103687
7994.000000;0.103530
7993.000000;0.103399
7992.000000;0.103247
7991.000000;0.103033
7990.000000;0.102776
7989.000000;0.102505
7988.000000;0.102221
7987.000000;0.101918
7986.000000;0.101607
7985.000000;0.101295
7984.000000;0.100988
7983.000000;0.100699
7982.000000;0.100431
7981.000000;0.100140
7980.000000;0.099778
7979.000000;0.099370
7978.000000;0.099004
7977.000000;0.098727
7976.000000;0.098513
7975.000000;0.098317
7974.000000;0.098117
7973.000000;0.097899
7972.000000;0.097675
7971.000000;0.097500
7970.000000;0.097399
7969.000000;0.097284
7968.000000;0.097031
7967.000000;0.096654
7966.000000;0.096299
7965.000000;0.096052
7964.000000;0.095855
7963.000000;0.095667
7962.000000;0.095565
7961.000000;0.095593
7960.000000;0.095601
7959.000000;0.095367
7958.000000;0.094857
7957.000000;0.094252
7956.000000;0.093746
7955.000000;0.093398
7954.000000;0.093179
7953.000000;0.093049
7952.000000;0.092955
7951.000000;0.092840
7950.000000;0.092682
7949.000000;0.092492
7948.000000;0.092258
7947.000000;0.091944
7946.000000;0.091545
7945.000000;0.091106
7944.000000;0.090668
7943.000000;0.090234
7942.000000;0.089808
7941.000000;0.089443
7940.000000;0.089191
7939.000000;0.089053
7938.000000;0.088975
7937.000000;0.088895
7936.000000;0.088767
7935.000000;0.088566
7934.000000;0.088299
7933.000000;0.088020
7932.000000;0.087775
7931.000000;0.087553
7930.000000;0.087306
7929.000000;0.087020
7928.000000;0.086736
7927.000000;0.086476
7926.000000;0.086182
7925.000000;0.085761
7924.000000;0.085207
7923.000000;0.084632
7922.000000;0.084186
7921.000000;0.083940
7920.000000;0.083847
7919.000000;0.083795
7918.000000;0.083688
7917.000000;0.083488
7916.000000;0.083198
7915.000000;0.082815
7914.000000;0.082346
7913.000000;0.081868
7912.000000;0.081532
7911.000000;0.081439
7910.000000;0.081524
7909.000000;0.081605
7908.000000;0.081554
7907.000000;0.081362
7906.000000;0.081060
7905.000000;0.080650
7904.000000;0.080170
7903.000000;0.079738
7902.000000;0.079449
7901.000000;0.079270
7900.000000;0.079085
7899.000000;0.078841
7898.000000;0.078574
7897.000000;0.078326
7896.000000;0.078084
7895.000000;0.077803
7894.000000;0.077452
7893.000000;0.077037
7892.000000;0.076611
7891.000000;0.076233
7890.000000;0.075910
7889.000000;0.075606
7888.000000;0.075327
7887.000000;0.075131
7886.000000;0.075015
7885.000000;0.074852
7884.000000;0.074542
7883.000000;0.074158
7882.000000;0.073861
7881.000000;0.073691
7880.000000;0.073536
7879.000000;0.073303
7878.000000;0.073015
7877.000000;0.072741
7876.000000;0.072507
7875.000000;0.072296
7874.000000;0.072057
7873.000000;0.071716
7872.000000;0.071261
7871.000000;0.070816
7870.000000;0.070539
7869.000000;0.070428
7868.000000;0.070311
7867.000000;0.070069
7866.000000;0.069756
7865.000000;0.069479
7864.000000;0.069234
7863.000000;0.068964
7862.000000;0.068675
7861.000000;0.068412
7860.000000;0.068152
7859.000000;0.067832
7858.000000;0.067452
7857.000000;0.067093
7856.000000;0.066821
7855.000000;0.066611
7854.000000;0.066381
7853.000000;0.066079
7852.000000;0.065745
7851.000000;0.065489
7850.000000;0.065363
7849.000000;0.065256
7848.000000;0.064985
7847.000000;0.064512
7846.000000;0.064007
7845.000000;0.063640
7844.000000;0.063388
7843.000000;0.063106
7842.000000;0.062742
7841.000000;0.062389
7840.000000;0.062149
7839.000000;0.062019
7838.000000;0.061923
7837.000000;0.061779
7836.000000;0.061536
7835.000000;0.061194
7834.000000;0.060813
7833.000000;0.060459
7832.000000;0.060154
7831.000000;0.059882
7830.000000;0.059644
7829.000000;0.059447
7828.000000;0.059269
7827.000000;0.059082
7826.000000;0.058893
7825.000000;0.058716
7824.000000;0.058500
7823.000000;0.058161
7822.000000;0.057703
7821.000000;0.057264
7820.000000;0.056987
7819.000000;0.056877
7818.000000;0.056802
7817.000000;0.056639
7816.000000;0.056376
7815.000000;0.056091
7814.000000;0.055840
7813.000000;0.055597
7812.000000;0.055298
7811.000000;0.054930
7810.000000;0.054545
7809.000000;0.054179
7808.000000;0.053807
7807.000000;0.053396
7806.000000;0.052968
7805.000000;0.052594
7804.000000;0.052327
7803.000000;0.052181
7802.000000;0.052137
7801.000000;0.052115
7800.000000;0.051971
7799.000000;0.051602
7798.000000;0.051072
7797.000000;0.050576
7796.000000;0.050234
7795.000000;0.049992
7794.000000;0.049737
7793.000000;0.049457
7792.000000;0.049239
7791.000000;0.049128
7790.000000;0.049070
7789.000000;0.048973
7788.000000;0.048776
7787.000000;0.048449
7786.000000;0.047993
7785.000000;0.047473
7784.000000;0.047014
7783.000000;0.046715
7782.000000;0.046574
7781.000000;0.046501
7780.000000;0.046411
7779.000000;0.046278
7778.000000;0.046104
7777.000000;0.045879
7776.000000;0.045583
7775.000000;0.045224
7774.000000;0.044841
7773.000000;0.044478
7772.000000;0.044147
7771.000000;0.043836
7770.000000;0.043540
7769.000000;0.043272
7768.000000;0.043031
7767.000000;0.042773
7766.000000;0.042435
7765.000000;0.042011
7764.000000;0.041589
7763.000000;0.041270
7762.000000;0.041069
7761.000000;0.040922
7760.000000;0.040783
7759.000000;0.040670
7758.000000;0.040599
7757.000000;0.040502
7756.000000;0.040261
7755.000000;0.039823
7754.000000;0.039251
7753.000000;0.038691
7752.000000;0.038276
7751.000000;0.038072
7750.000000;0.038045
7749.000000;0.038072
7748.000000;0.038017
7747.000000;0.037820
7746.000000;0.037531
7745.000000;0.037237
7744.000000;0.036963
7743.000000;0.036651
7742.000000;0.036248
7741.000000;0.035791
7740.000000;0.035388
7739.000000;0.035118
7738.000000;0.034965
7737.000000;0.034858
7736.000000;0.034748
7735.000000;0.034622
7734.000000;0.034459
7733.000000;0.034219
7732.000000;0.033884
7731.000000;0.033476
7730.000000;0.033044
7729.000000;0.032640
7728.000000;0.032317
7727.000000;0.032112
7726.000000;0.032014
7725.000000;0.031952
7724.000000;0.031843
7723.000000;0.031638
7722.000000;0.031338
7721.000000;0.030973
7720.000000;0.030596
7719.000000;0.030264
7718.000000;0.030020
7717.000000;0.029876
7716.000000;0.029819
7715.000000;0.029795
7714.000000;0.029715
7713.000000;0.029496
7712.000000;0.029117
7711.000000;0.028618
7710.000000;0.028070
7709.000000;0.027567
7708.000000;0.027219
7707.000000;0.027079
7706.000000;0.027061
7705.000000;0.026991
7704.000000;0.026767
7703.000000;0.026451
7702.000000;0.026168
7701.000000;0.025962
7700.000000;0.025782
7699.000000;0.025553
7698.000000;0.025239
7697.000000;0.024856
7696.000000;0.024466
7695.000000;0.024128
7694.000000;0.023850
7693.000000;0.023594
7692.000000;0.023354
7691.000000;0.023152
7690.000000;0.022955
7689.000000;0.022662
7688.000000;0.022221
7687.000000;0.021724
7686.000000;0.021314
7685.000000;0.021045
7684.000000;0.020873
7683.000000;0.020744
7682.000000;0.020626
7681.000000;0.020475
7680.000000;0.020258
7679.000000;0.019997
7678.000000;0.019748
7677.000000;0.019544
7676.000000;0.019380
7675.000000;0.019235
7674.000000;0.019077
7673.000000;0.018868
7672.000000;0.018600
7671.000000;0.018311
7670.000000;0.018028
7669.000000;0.017739
7668.000000;0.017450
7667.000000;0.017223
7666.000000;0.017071
7665.000000;0.016885
7664.000000;0.016540
7663.000000;0.016060
7662.000000;0.015594
7661.000000;0.015247
7660.000000;0.015006
7659.000000;0.014813
7658.000000;0.014639
7657.000000;0.014472
7656.000000;0.014308
7655.000000;0.014159
7654.000000;0.014016
7653.000000;0.013822
7652.000000;0.013533
7651.000000;0.013179
7650.000000;0.012822
7649.000000;0.012472
7648.000000;0.012128
7647.000000;0.011863
7646.000000;0.011753
7645.000000;0.011747
7644.000000;0.011693
7643.000000;0.011528
7642.000000;0.011324
7641.000000;0.011148
7640.000000;0.010963
7639.000000;0.010715
7638.000000;0.010431
7637.000000;0.010171
7636.000000;0.009942
7635.000000;0.009692
7634.000000;0.009379
7633.000000;0.009002
7632.000000;0.008618
7631.000000;0.008303
7630.000000;0.008086
7629.000000;0.007902
7628.000000;0.007675
7627.000000;0.007426
7626.000000;0.007239
7625.000000;0.007113
7624.000000;0.006952
7623.000000;0.006699
7622.000000;0.006417
7621.000000;0.006196
7620.000000;0.006058
7619.000000;0.005974
7618.000000;0.005892
7617.000000;0.005733
7616.000000;0.005441
7615.000000;0.005066
7614.000000;0.004744
7613.000000;0.004542
7612.000000;0.004393
7611.000000;0.004197
7610.000000;0.003936
7609.000000;0.003647
7608.000000;0.003353
7607.000000;0.003080
7606.000000;0.002868
7605.000000;0.002721
7604.000000;0.002595
7603.000000;0.002448
7602.000000;0.002269
7601.000000;0.002027
7600.000000;0.001672
7599.000000;0.001225
7598.000000;0.000816
7597.000000;0.000546
7596.000000;0.000388
7595.000000;0.000254
7594.000000;0.000116
7593.000000;-0.000018
7592.000000;-0.000175
7591.000000;-0.000396
7590.000000;-0.000658
7589.000000;-0.000917
7588.000000;-0.001182
7587.000000;-0.001503
7586.000000;-0.001869
7585.000000;-0.002187
7584.000000;-0.002377
7583.000000;-0.002459
7582.000000;-0.002548
7581.000000;-0.002760
7580.000000;-0.003115
7579.000000;-0.003513
7578.000000;-0.003813
7577.000000;-0.003953
7576.000000;-0.004002
7575.000000;-0.004078
7574.000000;-0.004267
7573.000000;-0.004593
7572.000000;-0.005002
7571.000000;-0.005374
7570.000000;-0.005603
7569.000000;-0.005714
7568.000000;-0.005848
7567.000000;-0.006103
7566.000000;-0.006420
7565.000000;-0.006666
7564.000000;-0.006781
7563.000000;-0.006805
7562.000000;-0.006820
7561.000000;-0.006907
7560.000000;-0.007143
7559.000000;-0.007545
7558.000000;-0.008026
7557.000000;-0.008459
7556.000000;-0.008781
7555.000000;-0.009020
7554.000000;-0.009214
7553.000000;-0.009361
7552.000000;-0.009451
7551.000000;-0.009524
7550.000000;-0.009656
7549.000000;-0.009884
7548.000000;-0.010175
7547.000000;-0.010462
7546.000000;-0.010722
7545.000000;-0.010974
7544.000000;-0.011221
7543.000000;-0.011433
7542.000000;-0.011609
7541.000000;-0.011808
7540.000000;-0.012072
7539.000000;-0.012355
7538.000000;-0.012593
7537.000000;-0.012801
7536.000000;-0.013034
7535.000000;-0.013279
7534.000000;-0.013465
7533.000000;-0.013581
7532.000000;-0.013684
7531.000000;-0.013815
7530.000000;-0.013969
7529.000000;-0.014165
7528.000000;-0.014441
7527.000000;-0.014768
7526.000000;-0.015056
7525.000000;-0.015265
7524.000000;-0.015449
7523.000000;-0.015658
7522.000000;-0.015876
7521.000000;-0.016074
7520.000000;-0.016247
7519.000000;-0.016387
7518.000000;-0.016478
7517.000000;-0.016569
7516.000000;-0.016760
7515.000000;-0.017071
7514.000000;-0.017408
7513.000000;-0.017679
7512.000000;-0.017905
7511.000000;-0.018149
7510.000000;-0.018421
7509.000000;-0.018697
7508.000000;-0.018969
7507.000000;-0.019242
7506.000000;-0.019492
7505.000000;-0.019707
7504.000000;-0.019923
7503.000000;-0.020171
7502.000000;-0.020429
7501.000000;-0.020637
7500.000000;-0.020755
7499.000000;-0.020783
7498.000000;-0.020766
7497.000000;-0.020869
7496.000000;-0.021038
7495.000000;-0.021353
7494.000000;-0.021758
7493.000000;-0.022170
7492.000000;-0.022511
7491.000000;-0.022724
7490.000000;-0.022820
7489.000000;-0.022899
7488.000000;-0.023048
7487.000000;-0.023248
7486.000000;-0.023444
7485.000000;-0.023657
7484.000000;-0.023933
7483.000000;-0.024208
7482.000000;-0.024373
7481.000000;-0.024471
7480.000000;-0.024680
7479.000000;-0.025064
7478.000000;-0.025486
7477.000000;-0.025809
7476.000000;-0.026054
7475.000000;-0.026285
7474.000000;-0.026486
7473.000000;-0.026625
7472.000000;-0.026746
7471.000000;-0.026916
7470.000000;-0.027133
7469.000000;-0.027346
7468.000000;-0.027520
7467.000000;-0.027629
7466.000000;-0.027685
7465.000000;-0.027769
7464.000000;-0.027982
7463.000000;-0.028301
7462.000000;-0.028590
7461.000000;-0.028775
7460.000000;-0.028917
7459.000000;-0.029088
7458.000000;-0.029279
7457.000000;-0.029489
7456.000000;-0.029769
7455.000000;-0.030124
7454.000000;-0.030459
7453.000000;-0.030699
7452.000000;-0.030890
7451.000000;-0.031103
7450.000000;-0.031331
7449.000000;-0.031539
7448.000000;-0.031727
7447.000000;-0.031898
7446.000000;-0.032040
7445.000000;-0.032181
7444.000000;-0.032379
7443.000000;-0.032627
7442.000000;-0.032861
7441.000000;-0.033090
7440.000000;-0.033394
7439.000000;-0.033749
7438.000000;-0.034010
7437.000000;-0.034119
7436.000000;-0.034200
7435.000000;-0.034370
7434.000000;-0.034583
7433.000000;-0.034747
7432.000000;-0.034879
7431.000000;-0.035046
7430.000000;-0.035240
7429.000000;-0.035408
7428.000000;-0.035545
7427.000000;-0.035676
7426.000000;-0.035826
7425.000000;-0.036055
7424.000000;-0.036406
7423.000000;-0.036739
7422.000000;-0.036787
7421.000000;-0.036508
7420.000000;-0.036233
7419.000000;-0.036323
7418.000000;-0.036779
7417.000000;-0.037319
7416.000000;-0.037725
7415.000000;-0.037981
7414.000000;-0.038176
7413.000000;-0.038393
7412.000000;-0.038673
7411.000000;-0.038986
7410.000000;-0.039276
7409.000000;-0.039528
7408.000000;-0.039741
7407.000000;-0.039851
7406.000000;-0.039845
7405.000000;-0.039894
7404.000000;-0.040211
7403.000000;-0.040741
7402.000000;-0.041185
7401.000000;-0.041311
7400.000000;-0.041126
7399.000000;-0.040830
7398.000000;-0.040694
7397.000000;-0.040878
7396.000000;-0.041239
7395.000000;-0.041496
7394.000000;-0.041691
7393.000000;-0.042210
7392.000000;-0.043175
7391.000000;-0.044106
7390.000000;-0.044474
7389.000000;-0.044355
7388.000000;-0.044156
7387.000000;-0.043970
7386.000000;-0.043677
7385.000000;-0.043496
7384.000000;-0.043704
7383.000000;-0.043872
7382.000000;-0.043268
7381.000000;-0.042217
7380.000000;-0.042115
7379.000000;-0.043467
7378.000000;-0.044834
7377.000000;-0.044593
7376.000000;-0.043058
7375.000000;-0.042056
7374.000000;-0.042718
7373.000000;-0.044470
7372.000000;-0.046041
7371.000000;-0.046634
7370.000000;-0.046243
7369.000000;-0.045546
7368.000000;-0.045442
7367.000000;-0.046180
7366.000000;-0.047089
7365.000000;-0.047545
7364.000000;-0.047732
7363.000000;-0.047975
7362.000000;-0.048011
7361.000000;-0.047671
7360.000000;-0.047673
7359.000000;-0.048555
7358.000000;-0.049365
7357.000000;-0.048762
7356.000000;-0.047088
7355.000000;-0.046114
7354.000000;-0.046763
7353.000000;-0.048275
7352.000000;-0.049578
7351.000000;-0.050151
7350.000000;-0.049681
7349.000000;-0.048359
7348.000000;-0.047443
7347.000000;-0.048045
7346.000000;-0.049420
7345.000000;-0.049910
7344.000000;-0.049350
7343.000000;-0.048759
7342.000000;-0.047979
7341.000000;-0.045875
7340.000000;-0.043238
7339.000000;-0.043006
7338.000000;-0.046272
7337.000000;-0.050453
7336.000000;-0.052720
7335.000000;-0.053045
7334.000000;-0.052914
7333.000000;-0.053027
7332.000000;-0.053382
7331.000000;-0.053901
7330.000000;-0.053767
7329.000000;-0.051840
7328.000000;-0.048939
7327.000000;-0.047946
7326.000000;-0.050089
7325.000000;-0.052964
7324.000000;-0.053962
7323.000000;-0.053653
7322.000000;-0.054172
7321.000000;-0.055758
7320.000000;-0.056815
7319.000000;-0.056628
7318.000000;-0.055950
7317.000000;-0.055404
7316.000000;-0.055104
7315.000000;-0.055354
7314.000000;-0.056062
7313.000000;-0.055987
7312.000000;-0.054404
7311.000000;-0.052902
7310.000000;-0.053453
7309.000000;-0.055264
7308.000000;-0.055831
7307.000000;-0.054768
7306.000000;-0.054337
7305.000000;-0.055900
7304.000000;-0.058086
7303.000000;-0.059272
7302.000000;-0.059537
7301.000000;-0.059473
7300.000000;-0.059066
7299.000000;-0.058701
7298.000000;-0.059450
7297.000000;-0.061062
7296.000000;-0.061440
7295.000000;-0.059468
7294.000000;-0.057046
7293.000000;-0.056829
7292.000000;-0.058667
7291.000000;-0.060113
7290.000000;-0.059758
7289.000000;-0.058392
7288.000000;-0.057441
7287.000000;-0.057546
7286.000000;-0.058555
7285.000000;-0.059936
7284.000000;-0.060974
7283.000000;-0.061267
7282.000000;-0.061150
7281.000000;-0.061246
7280.000000;-0.061649
7279.000000;-0.061965
7278.000000;-0.062043
7277.000000;-0.062056
7276.000000;-0.062009
7275.000000;-0.061683
7274.000000;-0.061096
7273.000000;-0.060648
7272.000000;-0.060691
7271.000000;-0.061154
7270.000000;-0.061645
7269.000000;-0.061804
7268.000000;-0.061618
7267.000000;-0.061472
7266.000000;-0.061691
7265.000000;-0.061956
7264.000000;-0.061533
7263.000000;-0.060297
7262.000000;-0.059202
7261.000000;-0.059285
7260.000000;-0.060433
7259.000000;-0.061653
7258.000000;-0.062340
7257.000000;-0.062637
7256.000000;-0.062617
7255.000000;-0.061929
7254.000000;-0.060539
7253.000000;-0.059226
7252.000000;-0.058955
7251.000000;-0.059858
7250.000000;-0.061048
7249.000000;-0.061543
7248.000000;-0.061312
7247.000000;-0.061164
7246.000000;-0.061358
7245.000000;-0.060792
7244.000000;-0.058337
7243.000000;-0.054900
7242.000000;-0.053184
7241.000000;-0.054703
7240.000000;-0.057876
7239.000000;-0.060055
7238.000000;-0.060518
7237.000000;-0.060551
7236.000000;-0.061062
7235.000000;-0.061110
7234.000000;-0.059190
7233.000000;-0.055537
7232.000000;-0.052713
7231.000000;-0.053313
7230.000000;-0.057014
7229.000000;-0.060771
7228.000000;-0.062036
7227.000000;-0.061041
7226.000000;-0.059937
7225.000000;-0.060400
7224.000000;-0.062287
7223.000000;-0.064215
7222.000000;-0.064954
7221.000000;-0.064323
7220.000000;-0.063254
7219.000000;-0.062994
7218.000000;-0.063941
7217.000000;-0.065326
7216.000000;-0.066159
7215.000000;-0.066323
7214.000000;-0.066495
7213.000000;-0.067087
7212.000000;-0.067750
7211.000000;-0.068042
7210.000000;-0.068100
7209.000000;-0.068233
7208.000000;-0.068229
7207.000000;-0.067545
7206.000000;-0.066066
7205.000000;-0.064460
7204.000000;-0.063746
7203.000000;-0.064486
7202.000000;-0.066308
7201.000000;-0.068221
7200.000000;-0.069471
7199.000000;-0.070119
7198.000000;-0.070671
7197.000000;-0.071257
7196.000000;-0.071501
7195.000000;-0.071310
7194.000000;-0.071262
7193.000000;-0.071786
7192.000000;-0.072468
7191.000000;-0.072696
7190.000000;-0.072635
7189.000000;-0.072844
7188.000000;-0.073241
7187.000000;-0.073358
7186.000000;-0.073374
7185.000000;-0.073875
7184.000000;-0.074526
7183.000000;-0.074190
7182.000000;-0.072719
7181.000000;-0.071627
7180.000000;-0.072234
7179.000000;-0.073923
7178.000000;-0.075167
7177.000000;-0.075492
7176.000000;-0.075519
7175.000000;-0.075749
7174.000000;-0.076166
7173.000000;-0.076657
7172.000000;-0.077008
7171.000000;-0.076632
7170.000000;-0.075212
7169.000000;-0.073422
7168.000000;-0.072345
7167.000000;-0.072405
7166.000000;-0.073401
7165.000000;-0.075124
7164.000000;-0.077070
7163.000000;-0.078128
7162.000000;-0.077648
7161.000000;-0.076639
7160.000000;-0.076827
7159.000000;-0.078389
7158.000000;-0.079765
7157.000000;-0.079939
7156.000000;-0.079631
7155.000000;-0.079925
7154.000000;-0.080790
7153.000000;-0.081485
7152.000000;-0.081717
7151.000000;-0.081785
7150.000000;-0.082015
7149.000000;-0.082430
7148.000000;-0.082808
7147.000000;-0.082787
7146.000000;-0.082115
7145.000000;-0.081089
7144.000000;-0.080541
7143.000000;-0.080935
7142.000000;-0.081567
7141.000000;-0.081332
7140.000000;-0.080280
7139.000000;-0.079788
7138.000000;-0.080801
7137.000000;-0.082517
7136.000000;-0.083510
7135.000000;-0.083578
7134.000000;-0.083734
7133.000000;-0.084624
7132.000000;-0.085756
7131.000000;-0.086440
7130.000000;-0.086701
7129.000000;-0.086912
7128.000000;-0.087086
7127.000000;-0.087110
7126.000000;-0.087198
7125.000000;-0.087489
7124.000000;-0.087603
7123.000000;-0.087255
7122.000000;-0.086978
7121.000000;-0.087434
7120.000000;-0.088150
7119.000000;-0.087940
7118.000000;-0.086742
7117.000000;-0.086110
7116.000000;-0.087207
7115.000000;-0.089136
7114.000000;-0.090195
7113.000000;-0.090033
7112.000000;-0.089671
7111.000000;-0.089860
7110.000000;-0.090325
7109.000000;-0.090530
7108.000000;-0.090376
7107.000000;-0.090041
7106.000000;-0.089775
7105.000000;-0.089956
7104.000000;-0.090824
7103.000000;-0.092040
7102.000000;-0.092904
7101.000000;-0.093123
7100.000000;-0.093111
7099.000000;-0.093416
7098.000000;-0.093991
7097.000000;-0.094297
7096.000000;-0.094073
7095.000000;-0.093701
7094.000000;-0.093734
7093.000000;-0.094247
7092.000000;-0.094834
7091.000000;-0.095160
7090.000000;-0.095316
7089.000000;-0.095592
7088.000000;-0.096051
7087.000000;-0.096456
7086.000000;-0.096651
7085.000000;-0.096819
7084.000000;-0.097224
7083.000000;-0.097809
7082.000000;-0.098248
7081.000000;-0.098390
7080.000000;-0.098481
7079.000000;-0.098790
7078.000000;-0.099174
7077.000000;-0.099309
7076.000000;-0.099246
7075.000000;-0.099354
7074.000000;-0.099708
7073.000000;-0.099931
7072.000000;-0.099760
7071.000000;-0.099459
7070.000000;-0.099470
7069.000000;-0.099879
7068.000000;-0.100430
7067.000000;-0.100922
7066.000000;-0.101352
7065.000000;-0.101756
7064.000000;-0.102121
7063.000000;-0.102469
7062.000000;-0.102846
7061.000000;-0.103192
7060.000000;-0.103409
7059.000000;-0.103571
7058.000000;-0.103879
7057.000000;-0.104364
7056.000000;-0.104829
7055.000000;-0.105083
7054.000000;-0.105136
7053.000000;-0.105178
7052.000000;-0.105389
7051.000000;-0.105770
7050.000000;-0.106126
7049.000000;-0.106249
7048.000000;-0.106152
7047.000000;-0.106094
7046.000000;-0.106293
7045.000000;-0.106665
7044.000000;-0.106971
7043.000000;-0.107151
7042.000000;-0.107376
7041.000000;-0.107753
7040.000000;-0.108186
7039.000000;-0.108569
7038.000000;-0.108925
7037.000000;-0.109295
7036.000000;-0.109640
7035.000000;-0.109931
7034.000000;-0.110219
7033.000000;-0.110551
7032.000000;-0.110896
7031.000000;-0.111211
7030.000000;-0.111501
7029.000000;-0.111757
7028.000000;-0.111935
7027.000000;-0.112055
7026.000000;-0.112207
7025.000000;-0.112400
7024.000000;-0.112544
7023.000000;-0.112640
7022.000000;-0.112863
7021.000000;-0.113329
7020.000000;-0.113894
7019.000000;-0.114322
7018.000000;-0.114556
7017.000000;-0.114722
7016.000000;-0.114912
7015.000000;-0.115121
7014.000000;-0.115372
7013.000000;-0.115728
7012.000000;-0.116174
7011.000000;-0.116597
7010.000000;-0.116910
7009.000000;-0.117104
7008.000000;-0.117205
7007.000000;-0.117266
7006.000000;-0.117385
7005.000000;-0.117610
7004.000000;-0.117872
7003.000000;-0.118078
7002.000000;-0.118259
7001.000000;-0.118523
7000.000000;-0.118895
6999.000000;-0.119303
6998.000000;-0.119712
6997.000000;-0.120136
6996.000000;-0.120529
6995.000000;-0.120788
6994.000000;-0.120915
6993.000000;-0.121048
6992.000000;-0.121287
6991.000000;-0.121572
6990.000000;-0.121783
6989.000000;-0.121895
6988.000000;-0.121952
6987.000000;-0.121990
6986.000000;-0.122069
6985.000000;-0.122297
6984.000000;-0.122694
6983.000000;-0.123115
6982.000000;-0.123401
6981.000000;-0.123595
6980.000000;-0.123901
6979.000000;-0.124423
6978.000000;-0.125026
6977.000000;-0.125509
6976.000000;-0.125829
6975.000000;-0.126072
6974.000000;-0.126261
6973.000000;-0.126343
6972.000000;-0.126355
6971.000000;-0.126453
6970.000000;-0.126719
6969.000000;-0.127059
6968.000000;-0.127358
6967.000000;-0.127654
6966.000000;-0.128045
6965.000000;-0.128496
6964.000000;-0.128869
6963.000000;-0.129126
6962.000000;-0.129356
6961.000000;-0.129610
6960.000000;-0.129846
6959.000000;-0.130059
6958.000000;-0.130297
6957.000000;-0.130537
6956.000000;-0.130694
6955.000000;-0.130800
6954.000000;-0.131015
6953.000000;-0.131417
6952.000000;-0.131892
6951.000000;-0.132307
6950.000000;-0.132654
6949.000000;-0.132947
6948.000000;-0.133130
6947.000000;-0.133206
6946.000000;-0.133342
6945.000000;-0.133692
6944.000000;-0.134173
6943.000000;-0.134578
6942.000000;-0.134848
6941.000000;-0.135074
6940.000000;-0.135278
6939.000000;-0.135399
6938.000000;-0.135474
6937.000000;-0.135659
6936.000000;-0.136022
6935.000000;-0.136455
6934.000000;-0.136824
6933.000000;-0.137089
6932.000000;-0.137268
6931.000000;-0.137391
6930.000000;-0.137523
6929.000000;-0.137741
6928.000000;-0.138046
6927.000000;-0.138361
6926.000000;-0.138654
6925.000000;-0.138978
6924.000000;-0.139343
6923.000000;-0.139669
6922.000000;-0.139917
6921.000000;-0.140142
6920.000000;-0.140328
6919.000000;-0.140354
6918.000000;-0.140207
6917.000000;-0.140122
6916.000000;-0.140378
6915.000000;-0.140982
6914.000000;-0.141677
6913.000000;-0.142215
6912.000000;-0.142540
6911.000000;-0.142739
6910.000000;-0.142909
6909.000000;-0.143112
6908.000000;-0.143381
6907.000000;-0.143711
6906.000000;-0.144079
6905.000000;-0.144464
6904.000000;-0.144830
6903.000000;-0.145127
6902.000000;-0.145345
6901.000000;-0.145542
6900.000000;-0.145782
6899.000000;-0.146074
6898.000000;-0.146384
6897.000000;-0.146653
6896.000000;-0.146811
6895.000000;-0.146838
6894.000000;-0.146838
6893.000000;-0.146978
6892.000000;-0.147324
6891.000000;-0.147782
6890.000000;-0.148223
6889.000000;-0.148599
6888.000000;-0.148921
6887.000000;-0.149196
6886.000000;-0.149460
6885.000000;-0.149781
6884.000000;-0.150178
6883.000000;-0.150562
6882.000000;-0.150835
6881.000000;-0.151024
6880.000000;-0.151241
6879.000000;-0.151531
6878.000000;-0.151830
6877.000000;-0.152071
6876.000000;-0.152286
6875.000000;-0.152564
6874.000000;-0.152921
6873.000000;-0.153284
6872.000000;-0.153578
6871.000000;-0.153802
6870.000000;-0.153999
6869.000000;-0.154186
6868.000000;-0.154348
6867.000000;-0.154506
6866.000000;-0.154730
6865.000000;-0.155074
6864.000000;-0.155503
6863.000000;-0.155917
6862.000000;-0.156236
6861.000000;-0.156452
6860.000000;-0.156615
6859.000000;-0.156785
6858.000000;-0.157005
6857.000000;-0.157287
6856.000000;-0.157622
6855.000000;-0.157981
6854.000000;-0.158318
6853.000000;-0.158598
6852.000000;-0.158824
6851.000000;-0.159036
6850.000000;-0.159269
6849.000000;-0.159534
6848.000000;-0.159833
6847.000000;-0.160166
6846.000000;-0.160514
6845.000000;-0.160826
6844.000000;-0.161068
6843.000000;-0.161271
6842.000000;-0.161502
6841.000000;-0.161782
6840.000000;-0.162059
6839.000000;-0.162290
6838.000000;-0.162491
6837.000000;-0.162683
6836.000000;-0.162852
6835.000000;-0.163012
6834.000000;-0.163261
6833.000000;-0.163679
6832.000000;-0.164196
6831.000000;-0.164635
6830.000000;-0.164899
6829.000000;-0.165043
6828.000000;-0.165150
6827.000000;-0.165232
6826.000000;-0.165312
6825.000000;-0.165495
6824.000000;-0.165863
6823.000000;-0.166338
6822.000000;-0.166749
6821.000000;-0.167035
6820.000000;-0.167285
6819.000000;-0.167592
6818.000000;-0.167933
6817.000000;-0.168228
6816.000000;-0.168455
6815.000000;-0.168663
6814.000000;-0.168908
6813.000000;-0.169204
6812.000000;-0.169517
6811.000000;-0.169785
6810.000000;-0.169977
6809.000000;-0.170144
6808.000000;-0.170356
6807.000000;-0.170596
6806.000000;-0.170775
6805.000000;-0.170880
6804.000000;-0.171028
6803.000000;-0.171328
6802.000000;-0.171723
6801.000000;-0.172074
6800.000000;-0.172347
6799.000000;-0.172636
6798.000000;-0.173005
6797.000000;-0.173401
6796.000000;-0.173740
6795.000000;-0.173984
6794.000000;-0.174128
6793.000000;-0.174184
6792.000000;-0.174231
6791.000000;-0.174402
6790.000000;-0.174752
6789.000000;-0.175175
6788.000000;-0.175515
6787.000000;-0.175737
6786.000000;-0.175943
6785.000000;-0.176235
6784.000000;-0.176622
6783.000000;-0.177043
6782.000000;-0.177416
6781.000000;-0.177687
6780.000000;-0.177861
6779.000000;-0.178005
6778.000000;-0.178183
6777.000000;-0.178405
6776.000000;-0.178661
6775.000000;-0.178970
6774.000000;-0.179343
6773.000000;-0.179722
6772.000000;-0.180015
6771.000000;-0.180209
6770.000000;-0.180370
6769.000000;-0.180542
6768.000000;-0.180704
6767.000000;-0.180859
6766.000000;-0.181075
6765.000000;-0.181394
6764.000000;-0.181768
6763.000000;-0.182126
6762.000000;-0.182451
6761.000000;-0.182752
6760.000000;-0.183029
6759.000000;-0.183286
6758.000000;-0.183541
6757.000000;-0.183782
6756.000000;-0.183962
6755.000000;-0.184092
6754.000000;-0.184278
6753.000000;-0.184592
6752.000000;-0.184962
6751.000000;-0.185268
6750.000000;-0.185496
6749.000000;-0.185748
6748.000000;-0.186089
6747.000000;-0.186471
6746.000000;-0.186802
6745.000000;-0.187052
6744.000000;-0.187267
6743.000000;-0.187529
6742.000000;-0.187885
6741.000000;-0.188302
6740.000000;-0.188688
6739.000000;-0.188968
6738.000000;-0.189139
6737.000000;-0.189263
6736.000000;-0.189397
6735.000000;-0.189568
6734.000000;-0.189781
6733.000000;-0.190028
6732.000000;-0.190287
6731.000000;-0.190547
6730.000000;-0.190813
6729.000000;-0.191081
6728.000000;-0.191321
6727.000000;-0.191516
6726.000000;-0.191695
6725.000000;-0.191899
6724.000000;-0.192144
6723.000000;-0.192417
6722.000000;-0.192699
6721.000000;-0.192973
6720.000000;-0.193215
6719.000000;-0.193424
6718.000000;-0.193634
6717.000000;-0.193875
6716.000000;-0.194142
6715.000000;-0.194423
6714.000000;-0.194742
6713.000000;-0.195108
6712.000000;-0.195499
6711.000000;-0.195836
6710.000000;-0.196071
6709.000000;-0.196245
6708.000000;-0.196403
6707.000000;-0.196553
6706.000000;-0.196732
6705.000000;-0.197018
6704.000000;-0.197403
6703.000000;-0.197660
6702.000000;-0.198012
6701.000000;-0.198268
6700.000000;-0.198453
6699.000000;-0.198638
6698.000000;-0.198869
6697.000000;-0.199146
6696.000000;-0.199439
6695.000000;-0.199731
6694.000000;-0.200031
6693.000000;-0.200333
6692.000000;-0.200600
6691.000000;-0.200795
6690.000000;-0.200918
6689.000000;-0.201012
6688.000000;-0.201144
6687.000000;-0.201376
6686.000000;-0.201713
6685.000000;-0.202082
6684.000000;-0.202388
6683.000000;-0.202614
6682.000000;-0.202828
6681.000000;-0.203082
6680.000000;-0.203356
6679.000000;-0.203615
6678.000000;-0.203878
6677.000000;-0.204179
6676.000000;-0.204500
6675.000000;-0.204796
6674.000000;-0.205060
6673.000000;-0.205322
6672.000000;-0.205591
6671.000000;-0.205853
6670.000000;-0.206093
6669.000000;-0.206301
6668.000000;-0.206473
6667.000000;-0.206642
6666.000000;-0.206867
6665.000000;-0.207168
6664.000000;-0.207489
6663.000000;-0.207768
6662.000000;-0.208017
6661.000000;-0.208275
6660.000000;-0.208536
6659.000000;-0.208781
6658.000000;-0.209043
6657.000000;-0.209376
6656.000000;-0.209746
6655.000000;-0.210056
6654.000000;-0.210254
6653.000000;-0.210383
6652.000000;-0.210504
6651.000000;-0.210649
6650.000000;-0.210843
6649.000000;-0.211123
6648.000000;-0.211479
6647.000000;-0.211847
6646.000000;-0.212170
6645.000000;-0.212445
6644.000000;-0.212691
6643.000000;-0.212904
6642.000000;-0.213076
6641.000000;-0.213230
6640.000000;-0.213404
6639.000000;-0.213624
6638.000000;-0.213900
6637.000000;-0.214224
6636.000000;-0.214565
6635.000000;-0.214890
6634.000000;-0.215192
6633.000000;-0.215496
6632.000000;-0.215808
6631.000000;-0.216110
6630.000000;-0.216385
6629.000000;-0.216642
6628.000000;-0.216892
6627.000000;-0.217119
6626.000000;-0.217303
6625.000000;-0.217448
6624.000000;-0.217588
6623.000000;-0.217770
6622.000000;-0.218026
6621.000000;-0.218353
6620.000000;-0.218702
6619.000000;-0.219010
6618.000000;-0.219248
6617.000000;-0.219440
6616.000000;-0.219628
6615.000000;-0.219829
6614.000000;-0.220030
6613.000000;-0.220213
6612.000000;-0.220378
6611.000000;-0.220561
6610.000000;-0.220806
6609.000000;-0.221115
6608.000000;-0.221441
6607.000000;-0.221731
6606.000000;-0.221978
6605.000000;-0.222210
6604.000000;-0.222461
6603.000000;-0.222748
6602.000000;-0.223070
6601.000000;-0.223394
6600.000000;-0.223665
6599.000000;-0.223861
6598.000000;-0.224013
6597.000000;-0.224173
6596.000000;-0.224367
6595.000000;-0.224598
6594.000000;-0.224878
6593.000000;-0.225211
6592.000000;-0.225558
6591.000000;-0.225860
6590.000000;-0.226096
6589.000000;-0.226297
6588.000000;-0.226504
6587.000000;-0.226737
6586.000000;-0.227005
6585.000000;-0.227305
6584.000000;-0.227616
6583.000000;-0.227912
6582.000000;-0.228187
6581.000000;-0.228444
6580.000000;-0.228671
6579.000000;-0.228854
6578.000000;-0.229006
6577.000000;-0.229170
6576.000000;-0.229379
6575.000000;-0.229634
6574.000000;-0.229916
6573.000000;-0.230204
6572.000000;-0.230486
6571.000000;-0.230757
6570.000000;-0.231026
6569.000000;-0.231300
6568.000000;-0.231578
6567.000000;-0.231852
6566.000000;-0.232114
6565.000000;-0.232361
6564.000000;-0.232584
6563.000000;-0.232789
6562.000000;-0.232998
6561.000000;-0.233230
6560.000000;-0.233483
6559.000000;-0.233743
6558.000000;-0.234008
6557.000000;-0.234283
6556.000000;-0.234570
6555.000000;-0.234862
6554.000000;-0.235146
6553.000000;-0.235400
6552.000000;-0.235603
6551.000000;-0.235780
6550.000000;-0.235989
6549.000000;-0.236247
6548.000000;-0.236506
6547.000000;-0.236711
6546.000000;-0.236871
6545.000000;-0.237048
6544.000000;-0.237289
6543.000000;-0.237587
6542.000000;-0.237904
6541.000000;-0.238200
6540.000000;-0.238459
6539.000000;-0.238705
6538.000000;-0.238972
6537.000000;-0.239253
6536.000000;-0.239500
6535.000000;-0.239697
6534.000000;-0.239896
6533.000000;-0.240156
6532.000000;-0.240464
6531.000000;-0.240765
6530.000000;-0.241025
6529.000000;-0.241261
6528.000000;-0.241500
6527.000000;-0.241757
6526.000000;-0.242032
6525.000000;-0.242299
6524.000000;-0.242533
6523.000000;-0.242737
6522.000000;-0.242955
6521.000000;-0.243202
6520.000000;-0.243444
6519.000000;-0.243649
6518.000000;-0.243848
6517.000000;-0.244090
6516.000000;-0.244374
6515.000000;-0.244656
6514.000000;-0.244906
6513.000000;-0.245123
6512.000000;-0.245312
6511.000000;-0.245491
6510.000000;-0.245695
6509.000000;-0.245937
6508.000000;-0.246184
6507.000000;-0.246406
6506.000000;-0.246634
6505.000000;-0.246913
6504.000000;-0.247221
6503.000000;-0.247488
6502.000000;-0.247681
6501.000000;-0.247828
6500.000000;-0.247968
6499.000000;-0.248127
6498.000000;-0.248344
6497.000000;-0.248649
6496.000000;-0.249013
6495.000000;-0.249352
6494.000000;-0.249611
6493.000000;-0.249812
6492.000000;-0.250010
6491.000000;-0.250236
6490.000000;-0.250476
6489.000000;-0.250710
6488.000000;-0.250935
6487.000000;-0.251175
6486.000000;-0.251446
6485.000000;-0.251721
6484.000000;-0.251960
6483.000000;-0.252170
6482.000000;-0.252409
6481.000000;-0.252708
6480.000000;-0.253014
6479.000000;-0.253263
6478.000000;-0.253466
6477.000000;-0.253690
6476.000000;-0.253965
6475.000000;-0.254252
6474.000000;-0.254506
6473.000000;-0.254709
6472.000000;-0.254869
6471.000000;-0.255022
6470.000000;-0.255218
6469.000000;-0.255470
6468.000000;-0.255724
6467.000000;-0.255921
6466.000000;-0.256074
6465.000000;-0.256240
6464.000000;-0.256444
6463.000000;-0.256673
6462.000000;-0.256928
6461.000000;-0.257220
6460.000000;-0.257525
6459.000000;-0.257787
6458.000000;-0.257984
6457.000000;-0.258147
6456.000000;-0.258314
6455.000000;-0.258512
6454.000000;-0.258767
6453.000000;-0.259084
6452.000000;-0.259409
6451.000000;-0.259668
6450.000000;-0.259853
6449.000000;-0.260032
6448.000000;-0.260268
6447.000000;-0.260558
6446.000000;-0.260869
6445.000000;-0.261182
6444.000000;-0.261480
6443.000000;-0.261732
6442.000000;-0.261922
6441.000000;-0.262063
6440.000000;-0.262192
6439.000000;-0.262357
6438.000000;-0.262600
6437.000000;-0.262929
6436.000000;-0.263294
6435.000000;-0.263622
6434.000000;-0.263881
6433.000000;-0.264104
6432.000000;-0.264331
6431.000000;-0.264564
6430.000000;-0.264778
6429.000000;-0.264959
6428.000000;-0.265114
6427.000000;-0.265268
6426.000000;-0.265441
6425.000000;-0.265628
6424.000000;-0.265807
6423.000000;-0.265973
6422.000000;-0.266162
6421.000000;-0.266407
6420.000000;-0.266691
6419.000000;-0.266964
6418.000000;-0.267194
6417.000000;-0.267391
6416.000000;-0.267591
6415.000000;-0.267830
6414.000000;-0.268120
6413.000000;-0.268423
6412.000000;-0.268661
6411.000000;-0.268796
6410.000000;-0.268877
6409.000000;-0.268996
6408.000000;-0.269197
6407.000000;-0.269472
6406.000000;-0.269797
6405.000000;-0.270142
6404.000000;-0.270467
6403.000000;-0.270742
6402.000000;-0.270986
6401.000000;-0.271239
6400.000000;-0.271504
6399.000000;-0.271755
6398.000000;-0.271984
6397.000000;-0.272201
6396.000000;-0.272396
6395.000000;-0.272549
6394.000000;-0.272677
6393.000000;-0.272831
6392.000000;-0.273037
6391.000000;-0.273274
6390.000000;-0.273504
6389.000000;-0.273713
6388.000000;-0.273910
6387.000000;-0.274118
6386.000000;-0.274360
6385.000000;-0.274635
6384.000000;-0.274909
6383.000000;-0.275163
6382.000000;-0.275418
6381.000000;-0.275692
6380.000000;-0.275948
6379.000000;-0.276145
6378.000000;-0.276302
6377.000000;-0.276482
6376.000000;-0.276707
6375.000000;-0.276950
6374.000000;-0.277189
6373.000000;-0.277424
6372.000000;-0.277638
6371.000000;-0.277813
6370.000000;-0.277977
6369.000000;-0.278189
6368.000000;-0.278460
6367.000000;-0.278743
6366.000000;-0.279006
6365.000000;-0.279262
6364.000000;-0.279530
6363.000000;-0.279799
6362.000000;-0.280057
6361.000000;-0.280309
6360.000000;-0.280551
6359.000000;-0.280768
6358.000000;-0.280962
6357.000000;-0.281158
6356.000000;-0.281373
6355.000000;-0.281607
6354.000000;-0.281859
6353.000000;-0.282123
6352.000000;-0.282367
6351.000000;-0.282553
6350.000000;-0.282688
6349.000000;-0.282825
6348.000000;-0.282995
6347.000000;-0.283190
6346.000000;-0.283407
6345.000000;-0.283665
6344.000000;-0.283956
6343.000000;-0.284226
6342.000000;-0.284435
6341.000000;-0.284605
6340.000000;-0.284790
6339.000000;-0.285016
6338.000000;-0.285265
6337.000000;-0.285510
6336.000000;-0.285738
6335.000000;-0.285967
6334.000000;-0.286221
6333.000000;-0.286493
6332.000000;-0.286735
6331.000000;-0.286907
6330.000000;-0.287037
6329.000000;-0.287197
6328.000000;-0.287423
6327.000000;-0.287674
6326.000000;-0.287892
6325.000000;-0.288058
6324.000000;-0.288209
6323.000000;-0.288405
6322.000000;-0.288675
6321.000000;-0.288992
6320.000000;-0.289293
6319.000000;-0.289547
6318.000000;-0.289774
6317.000000;-0.289997
6316.000000;-0.290185
6315.000000;-0.290302
6314.000000;-0.290384
6313.000000;-0.290530
6312.000000;-0.290799
6311.000000;-0.291156
6310.000000;-0.291515
6309.000000;-0.291821
6308.000000;-0.292066
6307.000000;-0.292282
6306.000000;-0.292497
6305.000000;-0.292705
6304.000000;-0.292874
6303.000000;-0.293005
6302.000000;-0.293155
6301.000000;-0.293368
6300.000000;-0.293614
6299.000000;-0.293830
6298.000000;-0.294013
6297.000000;-0.294213
6296.000000;-0.294463
6295.000000;-0.294738
6294.000000;-0.295002
6293.000000;-0.295234
6292.000000;-0.295426
6291.000000;-0.295594
6290.000000;-0.295789
6289.000000;-0.296053
6288.000000;-0.296370
6287.000000;-0.296676
6286.000000;-0.296932
6285.000000;-0.297142
6284.000000;-0.297324
6283.000000;-0.297497
6282.000000;-0.297693
6281.000000;-0.297933
6280.000000;-0.298181
6279.000000;-0.298379
6278.000000;-0.298524
6277.000000;-0.298675
6276.000000;-0.298883
6275.000000;-0.299150
6274.000000;-0.299458
6273.000000;-0.299783
6272.000000;-0.300073
6271.000000;-0.300272
6270.000000;-0.300371
6269.000000;-0.300428
6268.000000;-0.300505
6267.000000;-0.300637
6266.000000;-0.300836
6265.000000;-0.301095
6264.000000;-0.301367
6263.000000;-0.301600
6262.000000;-0.301794
6261.000000;-0.301989
6260.000000;-0.302193
6259.000000;-0.302379
6258.000000;-0.302548
6257.000000;-0.302741
6256.000000;-0.302972
6255.000000;-0.303200
6254.000000;-0.303404
6253.000000;-0.303622
6252.000000;-0.303891
6251.000000;-0.304187
6250.000000;-0.304472
6249.000000;-0.304741
6248.000000;-0.305006
6247.000000;-0.305254
6246.000000;-0.305465
6245.000000;-0.305646
6244.000000;-0.305825
6243.000000;-0.306013
6242.000000;-0.306216
6241.000000;-0.306442
6240.000000;-0.306683
6239.000000;-0.306912
6238.000000;-0.307120
6237.000000;-0.307337
6236.000000;-0.307581
6235.000000;-0.307825
6234.000000;-0.308027
6233.000000;-0.308188
6232.000000;-0.308354
6231.000000;-0.308554
6230.000000;-0.308778
6229.000000;-0.308994
6228.000000;-0.309189
6227.000000;-0.309380
6226.000000;-0.309601
6225.000000;-0.309868
6224.000000;-0.310154
6223.000000;-0.310416
6222.000000;-0.310636
6221.000000;-0.310835
6220.000000;-0.311038
6219.000000;-0.311247
6218.000000;-0.311451
6217.000000;-0.311643
6216.000000;-0.311827
6215.000000;-0.312011
6214.000000;-0.312216
6213.000000;-0.312466
6212.000000;-0.312759
6211.000000;-0.313055
6210.000000;-0.313305
6209.000000;-0.313487
6208.000000;-0.313623
6207.000000;-0.313759
6206.000000;-0.313937
6205.000000;-0.314166
6204.000000;-0.314420
6203.000000;-0.314683
6202.000000;-0.314956
6201.000000;-0.315239
6200.000000;-0.315498
6199.000000;-0.315699
6198.000000;-0.315858
6197.000000;-0.316029
6196.000000;-0.316248
6195.000000;-0.316501
6194.000000;-0.316751
6193.000000;-0.316968
6192.000000;-0.317136
6191.000000;-0.317262
6190.000000;-0.317384
6189.000000;-0.317546
6188.000000;-0.317764
6187.000000;-0.318016
6186.000000;-0.318279
6185.000000;-0.318551
6184.000000;-0.318827
6183.000000;-0.319089
6182.000000;-0.319314
6181.000000;-0.319498
6180.000000;-0.319665
6179.000000;-0.319854
6178.000000;-0.320083
6177.000000;-0.320321
6176.000000;-0.320520
6175.000000;-0.320682
6174.000000;-0.320865
6173.000000;-0.321112
6172.000000;-0.321398
6171.000000;-0.321666
6170.000000;-0.321900
6169.000000;-0.322122
6168.000000;-0.322343
6167.000000;-0.322557
6166.000000;-0.322769
6165.000000;-0.322985
6164.000000;-0.323198
6163.000000;-0.323403
6162.000000;-0.323625
6161.000000;-0.323895
6160.000000;-0.324195
6159.000000;-0.324474
6158.000000;-0.324702
6157.000000;-0.324893
6156.000000;-0.325069
6155.000000;-0.325242
6154.000000;-0.325426
6153.000000;-0.325628
6152.000000;-0.325831
6151.000000;-0.326017
6150.000000;-0.326206
6149.000000;-0.326434
6148.000000;-0.326695
6147.000000;-0.326948
6146.000000;-0.327174
6145.000000;-0.327398
6144.000000;-0.327633
6143.000000;-0.327855
6142.000000;-0.328041
6141.000000;-0.328202
6140.000000;-0.328370
6139.000000;-0.328569
6138.000000;-0.328806
6137.000000;-0.329071
6136.000000;-0.329342
6135.000000;-0.329599
6134.000000;-0.329841
6133.000000;-0.330087
6132.000000;-0.330338
6131.000000;-0.330570
6130.000000;-0.330756
6129.000000;-0.330897
6128.000000;-0.331024
6127.000000;-0.331183
6126.000000;-0.331405
6125.000000;-0.331680
6124.000000;-0.331959
6123.000000;-0.332199
6122.000000;-0.332387
6121.000000;-0.332538
6120.000000;-0.332675
6119.000000;-0.332825
6118.000000;-0.333020
6117.000000;-0.333268
6116.000000;-0.333545
6115.000000;-0.333833
6114.000000;-0.334130
6113.000000;-0.334423
6112.000000;-0.334679
6111.000000;-0.334890
6110.000000;-0.335081
6109.000000;-0.335268
6108.000000;-0.335422
6107.000000;-0.335529
6106.000000;-0.335648
6105.000000;-0.335847
6104.000000;-0.336124
6103.000000;-0.336420
6102.000000;-0.336698
6101.000000;-0.336966
6100.000000;-0.337225
6099.000000;-0.337460
6098.000000;-0.337666
6097.000000;-0.337859
6096.000000;-0.338049
6095.000000;-0.338250
6094.000000;-0.338492
6093.000000;-0.338789
6092.000000;-0.339112
6091.000000;-0.339418
6090.000000;-0.339694
6089.000000;-0.339946
6088.000000;-0.340160
6087.000000;-0.340322
6086.000000;-0.340468
6085.000000;-0.340652
6084.000000;-0.340880
6083.000000;-0.341117
6082.000000;-0.341339
6081.000000;-0.341550
6080.000000;-0.341744
6079.000000;-0.341917
6078.000000;-0.342091
6077.000000;-0.342302
6076.000000;-0.342549
6075.000000;-0.342788
6074.000000;-0.342991
6073.000000;-0.343164
6072.000000;-0.343337
6071.000000;-0.343556
6070.000000;-0.343851
6069.000000;-0.344191
6068.000000;-0.344471
6067.000000;-0.344617
6066.000000;-0.344680
6065.000000;-0.344790
6064.000000;-0.345012
6063.000000;-0.345303
6062.000000;-0.345596
6061.000000;-0.345857
6060.000000;-0.346076
6059.000000;-0.346262
6058.000000;-0.346456
6057.000000;-0.346702
6056.000000;-0.346978
6055.000000;-0.347218
6054.000000;-0.347397
6053.000000;-0.347558
6052.000000;-0.347738
6051.000000;-0.347925
6050.000000;-0.348107
6049.000000;-0.348306
6048.000000;-0.348554
6047.000000;-0.348855
6046.000000;-0.349188
6045.000000;-0.349513
6044.000000;-0.349783
6043.000000;-0.349980
6042.000000;-0.350150
6041.000000;-0.350362
6040.000000;-0.350625
6039.000000;-0.350893
6038.000000;-0.351131
6037.000000;-0.351346
6036.000000;-0.351550
6035.000000;-0.351738
6034.000000;-0.351922
6033.000000;-0.352128
6032.000000;-0.352364
6031.000000;-0.352607
6030.000000;-0.352835
6029.000000;-0.353037
6028.000000;-0.353195
6027.000000;-0.353303
6026.000000;-0.353405
6025.000000;-0.353577
6024.000000;-0.353845
6023.000000;-0.354172
6022.000000;-0.354509
6021.000000;-0.354828
6020.000000;-0.355101
6019.000000;-0.355298
6018.000000;-0.355419
6017.000000;-0.355512
6016.000000;-0.355622
6015.000000;-0.355770
6014.000000;-0.355969
6013.000000;-0.356225
6012.000000;-0.356517
6011.000000;-0.356796
6010.000000;-0.357036
6009.000000;-0.357258
6008.000000;-0.357490
6007.000000;-0.357735
6006.000000;-0.357975
6005.000000;-0.358183
6004.000000;-0.358348
6003.000000;-0.358490
6002.000000;-0.358666
6001.000000;-0.358927
6000.000000;-0.359257
5999.000000;-0.359593
5998.000000;-0.359887
5997.000000;-0.360127
5996.000000;-0.360321
5995.000000;-0.360481
5994.000000;-0.360634
5993.000000;-0.360811
5992.000000;-0.361019
5991.000000;-0.361257
5990.000000;-0.361531
5989.000000;-0.361844
5988.000000;-0.362156
5987.000000;-0.362414
5986.000000;-0.362616
5985.000000;-0.362800
5984.000000;-0.362993
5983.000000;-0.363185
5982.000000;-0.363371
5981.000000;-0.363563
5980.000000;-0.363777
5979.000000;-0.364014
5978.000000;-0.364271
5977.000000;-0.364532
5976.000000;-0.364751
5975.000000;-0.364900
5974.000000;-0.365010
5973.000000;-0.365152
5972.000000;-0.365360
5971.000000;-0.365612
5970.000000;-0.365875
5969.000000;-0.366131
5968.000000;-0.366366
5967.000000;-0.366573
5966.000000;-0.366770
5965.000000;-0.366984
5964.000000;-0.367217
5963.000000;-0.367463
5962.000000;-0.367730
5961.000000;-0.368025
5960.000000;-0.368312
5959.000000;-0.368553
5958.000000;-0.368758
5957.000000;-0.368967
5956.000000;-0.369183
5955.000000;-0.369369
5954.000000;-0.369513
5953.000000;-0.369645
5952.000000;-0.369784
5951.000000;-0.369941
5950.000000;-0.370142
5949.000000;-0.370412
5948.000000;-0.370723
5947.000000;-0.371004
5946.000000;-0.371227
5945.000000;-0.371441
5944.000000;-0.371698
5943.000000;-0.372002
5942.000000;-0.372322
5941.000000;-0.372630
5940.000000;-0.372896
5939.000000;-0.373099
5938.000000;-0.373252
5937.000000;-0.373399
5936.000000;-0.373576
5935.000000;-0.373791
5934.000000;-0.374033
5933.000000;-0.374276
5932.000000;-0.374492
5931.000000;-0.374684
5930.000000;-0.374906
5929.000000;-0.375197
5928.000000;-0.375525
5927.000000;-0.375817
5926.000000;-0.376049
5925.000000;-0.376256
5924.000000;-0.376454
5923.000000;-0.376626
5922.000000;-0.376769
5921.000000;-0.376912
5920.000000;-0.377073
5919.000000;-0.377244
5918.000000;-0.377431
5917.000000;-0.377655
5916.000000;-0.377914
5915.000000;-0.378175
5914.000000;-0.378422
5913.000000;-0.378662
5912.000000;-0.378886
5911.000000;-0.379070
5910.000000;-0.379229
5909.000000;-0.379417
5908.000000;-0.379664
5907.000000;-0.379940
5906.000000;-0.380204
5905.000000;-0.380457
5904.000000;-0.380722
5903.000000;-0.381004
5902.000000;-0.381289
5901.000000;-0.381556
5900.000000;-0.381794
5899.000000;-0.382014
5898.000000;-0.382254
5897.000000;-0.382533
5896.000000;-0.382822
5895.000000;-0.383071
5894.000000;-0.383278
5893.000000;-0.383485
5892.000000;-0.383718
5891.000000;-0.383956
5890.000000;-0.384170
5889.000000;-0.384353
5888.000000;-0.384532
5887.000000;-0.384747
5886.000000;-0.385026
5885.000000;-0.385340
5884.000000;-0.385609
5883.000000;-0.385784
5882.000000;-0.385919
5881.000000;-0.386116
5880.000000;-0.386414
5879.000000;-0.386763
5878.000000;-0.387096
5877.000000;-0.387380
5876.000000;-0.387603
5875.000000;-0.387769
5874.000000;-0.387919
5873.000000;-0.388101
5872.000000;-0.388323
5871.000000;-0.388549
5870.000000;-0.388754
5869.000000;-0.388951
5868.000000;-0.389170
5867.000000;-0.389428
5866.000000;-0.389731
5865.000000;-0.390059
5864.000000;-0.390366
5863.000000;-0.390623
5862.000000;-0.390850
5861.000000;-0.391086
5860.000000;-0.391333
5859.000000;-0.391569
5858.000000;-0.391793
5857.000000;-0.392015
5856.000000;-0.392230
5855.000000;-0.392438
5854.000000;-0.392675
5853.000000;-0.392967
5852.000000;-0.393277
5851.000000;-0.393545
5850.000000;-0.393763
5849.000000;-0.393971
5848.000000;-0.394189
5847.000000;-0.394407
5846.000000;-0.394628
5845.000000;-0.394858
5844.000000;-0.395067
5843.000000;-0.395224
5842.000000;-0.395362
5841.000000;-0.395554
5840.000000;-0.395808
5839.000000;-0.396065
5838.000000;-0.396287
5837.000000;-0.396495
5836.000000;-0.396706
5835.000000;-0.396905
5834.000000;-0.397091
5833.000000;-0.397301
5832.000000;-0.397558
5831.000000;-0.397840
5830.000000;-0.398112
5829.000000;-0.398374
5828.000000;-0.398643
5827.000000;-0.398934
5826.000000;-0.399253
5825.000000;-0.399586
5824.000000;-0.399895
5823.000000;-0.400153
5822.000000;-0.400379
5821.000000;-0.400609
5820.000000;-0.400855
5819.000000;-0.401109
5818.000000;-0.401385
5817.000000;-0.401687
5816.000000;-0.401971
5815.000000;-0.402191
5814.000000;-0.402361
5813.000000;-0.402544
5812.000000;-0.402760
5811.000000;-0.402978
5810.000000;-0.403184
5809.000000;-0.403402
5808.000000;-0.403644
5807.000000;-0.403892
5806.000000;-0.404136
5805.000000;-0.404381
5804.000000;-0.404618
5803.000000;-0.404831
5802.000000;-0.405039
5801.000000;-0.405283
5800.000000;-0.405571
5799.000000;-0.405861
5798.000000;-0.406121
5797.000000;-0.406355
5796.000000;-0.406579
5795.000000;-0.406810
5794.000000;-0.407077
5793.000000;-0.407392
5792.000000;-0.407721
5791.000000;-0.408010
5790.000000;-0.408251
5789.000000;-0.408479
5788.000000;-0.408711
5787.000000;-0.408937
5786.000000;-0.409159
5785.000000;-0.409393
5784.000000;-0.409638
5783.000000;-0.409879
5782.000000;-0.410123
5781.000000;-0.410386
5780.000000;-0.410648
5779.000000;-0.410873
5778.000000;-0.411070
5777.000000;-0.411285
5776.000000;-0.411536
5775.000000;-0.411799
5774.000000;-0.412056
5773.000000;-0.412319
5772.000000;-0.412594
5771.000000;-0.412868
5770.000000;-0.413136
5769.000000;-0.413397
5768.000000;-0.413635
5767.000000;-0.413842
5766.000000;-0.414052
5765.000000;-0.414306
5764.000000;-0.414598
5763.000000;-0.414890
5762.000000;-0.415160
5761.000000;-0.415413
5760.000000;-0.415644
5759.000000;-0.415853
5758.000000;-0.416074
5757.000000;-0.416341
5756.000000;-0.416632
5755.000000;-0.416899
5754.000000;-0.417140
5753.000000;-0.417391
5752.000000;-0.417658
5751.000000;-0.417917
5750.000000;-0.418159
5749.000000;-0.418400
5748.000000;-0.418638
5747.000000;-0.418873
5746.000000;-0.419135
5745.000000;-0.419459
5744.000000;-0.419808
5743.000000;-0.420107
5742.000000;-0.420333
5741.000000;-0.420524
5740.000000;-0.420715
5739.000000;-0.420913
5738.000000;-0.421125
5737.000000;-0.421362
5736.000000;-0.421602
5735.000000;-0.421824
5734.000000;-0.422056
5733.000000;-0.422348
5732.000000;-0.422692
5731.000000;-0.423037
5730.000000;-0.423361
5729.000000;-0.423674
5728.000000;-0.423967
5727.000000;-0.424219
5726.000000;-0.424449
5725.000000;-0.424696
5724.000000;-0.424958
5723.000000;-0.425202
5722.000000;-0.425435
5721.000000;-0.425694
5720.000000;-0.425981
5719.000000;-0.426256
5718.000000;-0.426507
5717.000000;-0.426754
5716.000000;-0.427000
5715.000000;-0.427236
5714.000000;-0.427488
5713.000000;-0.427797
5712.000000;-0.428146
5711.000000;-0.428467
5710.000000;-0.428734
5709.000000;-0.428978
5708.000000;-0.429231
5707.000000;-0.429505
5706.000000;-0.429811
5705.000000;-0.430140
5704.000000;-0.430435
5703.000000;-0.430648
5702.000000;-0.430814
5701.000000;-0.431004
5700.000000;-0.431221
5699.000000;-0.431415
5698.000000;-0.431630
5697.000000;-0.431841
5696.000000;-0.432086
5695.000000;-0.432334
5694.000000;-0.432580
5693.000000;-0.432851
5692.000000;-0.433139
5691.000000;-0.433404
5690.000000;-0.433657
5689.000000;-0.433948
5688.000000;-0.434277
5687.000000;-0.434585
5686.000000;-0.434849
5685.000000;-0.435108
5684.000000;-0.435375
5683.000000;-0.435620
5682.000000;-0.435840
5681.000000;-0.436082
5680.000000;-0.436361
5679.000000;-0.436619
5678.000000;-0.436815
5677.000000;-0.436982
5676.000000;-0.437184
5675.000000;-0.437448
5674.000000;-0.437769
5673.000000;-0.438123
5672.000000;-0.438456
5671.000000;-0.438728
5670.000000;-0.438961
5669.000000;-0.439210
5668.000000;-0.439495
5667.000000;-0.439783
5666.000000;-0.440056
5665.000000;-0.440313
5664.000000;-0.440545
5663.000000;-0.440740
5662.000000;-0.440931
5661.000000;-0.441173
5660.000000;-0.441468
5659.000000;-0.441778
5658.000000;-0.442088
5657.000000;-0.442405
5656.000000;-0.442703
5655.000000;-0.442947
5654.000000;-0.443160
5653.000000;-0.443404
5652.000000;-0.443694
5651.000000;-0.443993
5650.000000;-0.444281
5649.000000;-0.444561
5648.000000;-0.444810
5647.000000;-0.444993
5646.000000;-0.445134
5645.000000;-0.445311
5644.000000;-0.445558
5643.000000;-0.445845
5642.000000;-0.446141
5641.000000;-0.446439
5640.000000;-0.446724
5639.000000;-0.446972
5638.000000;-0.447200
5637.000000;-0.447442
5636.000000;-0.447692
5635.000000;-0.447913
5634.000000;-0.448102
5633.000000;-0.448280
5632.000000;-0.448449
5631.000000;-0.448614
5630.000000;-0.448840
5629.000000;-0.449189
5628.000000;-0.449614
5627.000000;-0.450005
5626.000000;-0.450321
5625.000000;-0.450608
5624.000000;-0.450901
5623.000000;-0.451189
5622.000000;-0.451480
5621.000000;-0.451791
5620.000000;-0.452092
5619.000000;-0.452328
5618.000000;-0.452510
5617.000000;-0.452700
5616.000000;-0.452924
5615.000000;-0.453168
5614.000000;-0.453441
5613.000000;-0.453760
5612.000000;-0.454070
5611.000000;-0.454291
5610.000000;-0.454428
5609.000000;-0.454567
5608.000000;-0.454761
5607.000000;-0.454995
5606.000000;-0.455256
5605.000000;-0.455541
5604.000000;-0.455812
5603.000000;-0.456026
5602.000000;-0.456212
5601.000000;-0.456438
5600.000000;-0.456705
5599.000000;-0.456949
5598.000000;-0.457153
5597.000000;-0.457351
5596.000000;-0.457559
5595.000000;-0.457781
5594.000000;-0.458066
5593.000000;-0.458454
5592.000000;-0.458876
5591.000000;-0.459217
5590.000000;-0.459476
5589.000000;-0.459744
5588.000000;-0.460045
5587.000000;-0.460315
5586.000000;-0.460531
5585.000000;-0.460748
5584.000000;-0.460987
5583.000000;-0.461212
5582.000000;-0.461418
5581.000000;-0.461637
5580.000000;-0.461854
5579.000000;-0.462023
5578.000000;-0.462174
5577.000000;-0.462384
5576.000000;-0.462646
5575.000000;-0.462881
5574.000000;-0.463073
5573.000000;-0.463281
5572.000000;-0.463505
5571.000000;-0.463687
5570.000000;-0.463856
5569.000000;-0.464129
5568.000000;-0.464515
5567.000000;-0.464885
5566.000000;-0.465156
5565.000000;-0.465381
5564.000000;-0.465611
5563.000000;-0.465806
5562.000000;-0.465955
5561.000000;-0.466124
5560.000000;-0.466350
5559.000000;-0.466565
5558.000000;-0.466728
5557.000000;-0.466904
5556.000000;-0.467159
5555.000000;-0.467458
5554.000000;-0.467744
5553.000000;-0.468029
5552.000000;-0.468329
5551.000000;-0.468601
5550.000000;-0.468798
5549.000000;-0.468949
5548.000000;-0.469112
5547.000000;-0.469320
5546.000000;-0.469588
5545.000000;-0.469910
5544.000000;-0.470228
5543.000000;-0.470480
5542.000000;-0.470694
5541.000000;-0.470969
5540.000000;-0.471315
5539.000000;-0.471621
5538.000000;-0.471823
5537.000000;-0.472007
5536.000000;-0.472265
5535.000000;-0.472568
5534.000000;-0.472835
5533.000000;-0.473066
5532.000000;-0.473317
5531.000000;-0.473605
5530.000000;-0.473912
5529.000000;-0.474217
5528.000000;-0.474482
5527.000000;-0.474684
5526.000000;-0.474878
5525.000000;-0.475123
5524.000000;-0.475387
5523.000000;-0.475575
5522.000000;-0.475698
5521.000000;-0.475899
5520.000000;-0.476231
5519.000000;-0.476558
5518.000000;-0.476769
5517.000000;-0.476928
5516.000000;-0.477163
5515.000000;-0.477466
5514.000000;-0.477711
5513.000000;-0.477865
5512.000000;-0.478036
5511.000000;-0.478295
5510.000000;-0.478570
5509.000000;-0.478766
5508.000000;-0.478912
5507.000000;-0.479155
5506.000000;-0.479554
5505.000000;-0.479954
5504.000000;-0.480206
5503.000000;-0.480406
5502.000000;-0.480750
5501.000000;-0.481241
5500.000000;-0.481592
5499.000000;-0.481601
5498.000000;-0.481516
5497.000000;-0.481705
5496.000000;-0.482089
5495.000000;-0.482256
5494.000000;-0.482082
5493.000000;-0.481992
5492.000000;-0.482384
5491.000000;-0.483023
5490.000000;-0.483405
5489.000000;-0.483473
5488.000000;-0.483607
5487.000000;-0.484043
5486.000000;-0.484622
5485.000000;-0.485069
5484.000000;-0.485376
5483.000000;-0.485687
5482.000000;-0.485903
5481.000000;-0.485882
5480.000000;-0.485836
5479.000000;-0.486108
5478.000000;-0.486638
5477.000000;-0.486937
5476.000000;-0.486739
5475.000000;-0.486540
5474.000000;-0.486930
5473.000000;-0.487659
5472.000000;-0.488063
5471.000000;-0.488070
5470.000000;-0.488174
5469.000000;-0.488660
5468.000000;-0.489212
5467.000000;-0.489428
5466.000000;-0.489451
5465.000000;-0.489621
5464.000000;-0.489915
5463.000000;-0.490114
5462.000000;-0.490177
5461.000000;-0.490257
5460.000000;-0.490499
5459.000000;-0.490886
5458.000000;-0.491296
5457.000000;-0.491610
5456.000000;-0.491761
5455.000000;-0.491892
5454.000000;-0.492300
5453.000000;-0.492903
5452.000000;-0.493188
5451.000000;-0.492930
5450.000000;-0.492607
5449.000000;-0.492804
5448.000000;-0.493296
5447.000000;-0.493342
5446.000000;-0.492975
5445.000000;-0.493037
5444.000000;-0.493820
5443.000000;-0.494633
5442.000000;-0.494794
5441.000000;-0.494501
5440.000000;-0.494549
5439.000000;-0.495238
5438.000000;-0.496008
5437.000000;-0.496289
5436.000000;-0.496040
5435.000000;-0.495676
5434.000000;-0.495766
5433.000000;-0.496378
5432.000000;-0.496962
5431.000000;-0.497053
5430.000000;-0.496764
5429.000000;-0.496659
5428.000000;-0.497172
5427.000000;-0.498114
5426.000000;-0.498978
5425.000000;-0.499543
5424.000000;-0.499924
5423.000000;-0.500356
5422.000000;-0.500950
5421.000000;-0.501411
5420.000000;-0.501345
5419.000000;-0.500935
5418.000000;-0.500769
5417.000000;-0.500970
5416.000000;-0.500968
5415.000000;-0.500378
5414.000000;-0.499778
5413.000000;-0.499969
5412.000000;-0.500723
5411.000000;-0.501201
5410.000000;-0.501314
5409.000000;-0.501724
5408.000000;-0.502639
5407.000000;-0.503515
5406.000000;-0.503950
5405.000000;-0.504232
5404.000000;-0.504708
5403.000000;-0.505131
5402.000000;-0.505303
5401.000000;-0.505464
5400.000000;-0.505638
5399.000000;-0.505598
5398.000000;-0.505404
5397.000000;-0.505419
5396.000000;-0.505695
5395.000000;-0.505767
5394.000000;-0.505526
5393.000000;-0.505546
5392.000000;-0.506085
5391.000000;-0.506632
5390.000000;-0.506822
5389.000000;-0.506982
5388.000000;-0.507451
5387.000000;-0.507941
5386.000000;-0.508081
5385.000000;-0.508219
5384.000000;-0.508722
5383.000000;-0.509064
5382.000000;-0.508815
5381.000000;-0.508564
5380.000000;-0.508934
5379.000000;-0.509559
5378.000000;-0.509682
5377.000000;-0.509453
5376.000000;-0.509676
5375.000000;-0.510348
5374.000000;-0.510727
5373.000000;-0.510724
5372.000000;-0.510980
5371.000000;-0.511688
5370.000000;-0.512302
5369.000000;-0.512515
5368.000000;-0.512729
5367.000000;-0.513202
5366.000000;-0.513557
5365.000000;-0.513587
5364.000000;-0.513630
5363.000000;-0.513875
5362.000000;-0.514077
5361.000000;-0.514020
5360.000000;-0.513819
5359.000000;-0.513673
5358.000000;-0.513673
5357.000000;-0.513925
5356.000000;-0.514423
5355.000000;-0.514759
5354.000000;-0.514546
5353.000000;-0.514229
5352.000000;-0.514514
5351.000000;-0.515022
5350.000000;-0.514880
5349.000000;-0.514320
5348.000000;-0.514365
5347.000000;-0.515146
5346.000000;-0.515531
5345.000000;-0.514882
5344.000000;-0.514247
5343.000000;-0.514720
5342.000000;-0.515603
5341.000000;-0.515736
5340.000000;-0.515268
5339.000000;-0.515103
5338.000000;-0.515564
5337.000000;-0.516200
5336.000000;-0.516685
5335.000000;-0.517120
5334.000000;-0.517401
5333.000000;-0.517375
5332.000000;-0.517440
5331.000000;-0.518007
5330.000000;-0.518709
5329.000000;-0.518874
5328.000000;-0.518519
5327.000000;-0.518392
5326.000000;-0.518861
5325.000000;-0.519400
5324.000000;-0.519559
5323.000000;-0.519582
5322.000000;-0.519784
5321.000000;-0.520106
5320.000000;-0.520389
5319.000000;-0.520642
5318.000000;-0.520912
5317.000000;-0.521128
5316.000000;-0.521262
5315.000000;-0.521401
5314.000000;-0.521475
5313.000000;-0.521331
5312.000000;-0.521133
5311.000000;-0.521204
5310.000000;-0.521499
5309.000000;-0.521639
5308.000000;-0.521516
5307.000000;-0.521488
5306.000000;-0.521768
5305.000000;-0.522074
5304.000000;-0.522139
5303.000000;-0.522143
5302.000000;-0.522362
5301.000000;-0.522716
5300.000000;-0.522929
5299.000000;-0.522991
5298.000000;-0.523137
5297.000000;-0.523345
5296.000000;-0.523373
5295.000000;-0.523270
5294.000000;-0.523318
5293.000000;-0.523551
5292.000000;-0.523648
5291.000000;-0.523409
5290.000000;-0.523159
5289.000000;-0.523308
5288.000000;-0.523721
5287.000000;-0.523913
5286.000000;-0.523741
5285.000000;-0.523575
5284.000000;-0.523745
5283.000000;-0.524084
5282.000000;-0.524248
5281.000000;-0.524244
5280.000000;-0.524320
5279.000000;-0.524517
5278.000000;-0.524669
5277.000000;-0.524723
5276.000000;-0.524765
5275.000000;-0.524842
5274.000000;-0.524891
5273.000000;-0.524893
5272.000000;-0.524936
5271.000000;-0.524941
5270.000000;-0.524697
5269.000000;-0.524318
5268.000000;-0.524177
5267.000000;-0.524289
5266.000000;-0.524266
5265.000000;-0.523937
5264.000000;-0.523673
5263.000000;-0.523884
5262.000000;-0.524348
5261.000000;-0.524505
5260.000000;-0.524329
5259.000000;-0.524314
5258.000000;-0.524651
5257.000000;-0.525016
5256.000000;-0.525084
5255.000000;-0.524934
5254.000000;-0.524836
5253.000000;-0.524852
5252.000000;-0.524906
5251.000000;-0.524915
5250.000000;-0.524744
5249.000000;-0.524445
5248.000000;-0.524361
5247.000000;-0.524707
5246.000000;-0.525175
5245.000000;-0.525280
5244.000000;-0.525074
5243.000000;-0.525138
5242.000000;-0.525700
5241.000000;-0.526216
5240.000000;-0.526207
5239.000000;-0.525977
5238.000000;-0.526020
5237.000000;-0.526216
5236.000000;-0.526183
5235.000000;-0.525988
5234.000000;-0.525989
5233.000000;-0.526162
5232.000000;-0.526100
5231.000000;-0.525732
5230.000000;-0.525513
5229.000000;-0.525665
5228.000000;-0.525808
5227.000000;-0.525600
5226.000000;-0.525279
5225.000000;-0.525263
5224.000000;-0.525538
5223.000000;-0.525770
5222.000000;-0.525866
5221.000000;-0.525980
5220.000000;-0.526152
5219.000000;-0.526314
5218.000000;-0.526439
5217.000000;-0.526551
5216.000000;-0.526591
5215.000000;-0.526458
5214.000000;-0.526263
5213.000000;-0.526186
5212.000000;-0.526165
5211.000000;-0.526061
5210.000000;-0.525936
5209.000000;-0.525898
5208.000000;-0.525848
5207.000000;-0.525666
5206.000000;-0.525541
5205.000000;-0.525761
5204.000000;-0.526193
5203.000000;-0.526399
5202.000000;-0.526298
5201.000000;-0.526254
5200.000000;-0.526473
5199.000000;-0.526668
5198.000000;-0.526529
5197.000000;-0.526269
5196.000000;-0.526256
5195.000000;-0.526388
5194.000000;-0.526362
5193.000000;-0.526212
5192.000000;-0.526175
5191.000000;-0.526245
5190.000000;-0.526225
5189.000000;-0.526150
5188.000000;-0.526234
5187.000000;-0.526392
5186.000000;-0.526301
5185.000000;-0.525987
5184.000000;-0.525868
5183.000000;-0.526089
5182.000000;-0.526303
5181.000000;-0.526255
5180.000000;-0.526148
5179.000000;-0.526222
5178.000000;-0.526332
5177.000000;-0.526245
5176.000000;-0.526063
5175.000000;-0.526030
5174.000000;-0.526112
5173.000000;-0.526102
5172.000000;-0.525972
5171.000000;-0.525845
5170.000000;-0.525748
5169.000000;-0.525645
5168.000000;-0.525595
5167.000000;-0.525651
5166.000000;-0.525687
5165.000000;-0.525553
5164.000000;-0.525327
5163.000000;-0.525186
5162.000000;-0.525130
5161.000000;-0.525036
5160.000000;-0.524917
5159.000000;-0.524886
5158.000000;-0.524917
5157.000000;-0.524874
5156.000000;-0.524747
5155.000000;-0.524673
5154.000000;-0.524684
5153.000000;-0.524669
5152.000000;-0.524601
5151.000000;-0.524587
5150.000000;-0.524673
5149.000000;-0.524748
5148.000000;-0.524704
5147.000000;-0.524571
5146.000000;-0.524433
5145.000000;-0.524328
5144.000000;-0.524255
5143.000000;-0.524213
5142.000000;-0.524189
5141.000000;-0.524154
5140.000000;-0.524094
5139.000000;-0.524015
5138.000000;-0.523929
5137.000000;-0.523863
5136.000000;-0.523851
5135.000000;-0.523869
5134.000000;-0.523826
5133.000000;-0.523684
5132.000000;-0.523515
5131.000000;-0.523399
5130.000000;-0.523323
5129.000000;-0.523254
5128.000000;-0.523219
5127.000000;-0.523249
5126.000000;-0.523279
5125.000000;-0.523226
5124.000000;-0.523112
5123.000000;-0.523005
5122.000000;-0.522895
5121.000000;-0.522737
5120.000000;-0.522569
5119.000000;-0.522460
5118.000000;-0.522396
5117.000000;-0.522298
5116.000000;-0.522164
5115.000000;-0.522068
5114.000000;-0.522038
5113.000000;-0.522034
5112.000000;-0.522015
5111.000000;-0.521960
5110.000000;-0.521826
5109.000000;-0.521587
5108.000000;-0.521311
5107.000000;-0.521119
5106.000000;-0.521050
5105.000000;-0.521060
5104.000000;-0.521104
5103.000000;-0.521150
5102.000000;-0.521142
5101.000000;-0.521046
5100.000000;-0.520906
5099.000000;-0.520803
5098.000000;-0.520752
5097.000000;-0.520702
5096.000000;-0.520621
5095.000000;-0.520512
5094.000000;-0.520364
5093.000000;-0.520174
5092.000000;-0.519993
5091.000000;-0.519884
5090.000000;-0.519836
5089.000000;-0.519788
5088.000000;-0.519712
5087.000000;-0.519615
5086.000000;-0.519489
5085.000000;-0.519317
5084.000000;-0.519133
5083.000000;-0.518985
5082.000000;-0.518868
5081.000000;-0.518737
5080.000000;-0.518588
5079.000000;-0.518445
5078.000000;-0.518313
5077.000000;-0.518192
5076.000000;-0.518119
5075.000000;-0.518118
5074.000000;-0.518142
5073.000000;-0.518124
5072.000000;-0.518042
5071.000000;-0.517908
5070.000000;-0.517711
5069.000000;-0.517470
5068.000000;-0.517287
5067.000000;-0.517247
5066.000000;-0.517300
5065.000000;-0.517307
5064.000000;-0.517198
5063.000000;-0.517008
5062.000000;-0.516787
5061.000000;-0.516567
5060.000000;-0.516390
5059.000000;-0.516279
5058.000000;-0.516187
5057.000000;-0.516035
5056.000000;-0.515828
5055.000000;-0.515646
5054.000000;-0.515537
5053.000000;-0.515475
5052.000000;-0.515417
5051.000000;-0.515341
5050.000000;-0.515225
5049.000000;-0.515060
5048.000000;-0.514882
5047.000000;-0.514739
5046.000000;-0.514632
5045.000000;-0.514519
5044.000000;-0.514370
5043.000000;-0.514176
5042.000000;-0.513929
5041.000000;-0.513655
5040.000000;-0.513430
5039.000000;-0.513308
5038.000000;-0.513256
5037.000000;-0.513203
5036.000000;-0.513137
5035.000000;-0.513084
5034.000000;-0.513034
5033.000000;-0.512954
5032.000000;-0.512853
5031.000000;-0.512760
5030.000000;-0.512657
5029.000000;-0.512499
5028.000000;-0.512281
5027.000000;-0.512034
5026.000000;-0.511775
5025.000000;-0.511521
5024.000000;-0.511323
5023.000000;-0.511212
5022.000000;-0.511145
5021.000000;-0.511055
5020.000000;-0.510939
5019.000000;-0.510818
5018.000000;-0.510660
5017.000000;-0.510416
5016.000000;-0.510134
5015.000000;-0.509934
5014.000000;-0.509862
5013.000000;-0.509845
5012.000000;-0.509787
5011.000000;-0.509655
5010.000000;-0.509452
5009.000000;-0.509201
5008.000000;-0.508953
5007.000000;-0.508767
5006.000000;-0.508644
5005.000000;-0.508533
5004.000000;-0.508395
5003.000000;-0.508224
5002.000000;-0.507987
5001.000000;-0.507755
5000.000000;-0.507513
4999.000000;-0.507294
4998.000000;-0.507096
4997.000000;-0.506890
4996.000000;-0.506676
4995.000000;-0.506477
4994.000000;-0.506294
4993.000000;-0.506105
4992.000000;-0.505904
4991.000000;-0.505702
4990.000000;-0.505493
4989.000000;-0.505280
4988.000000;-0.505102
4987.000000;-0.504994
4986.000000;-0.504933
4985.000000;-0.504867
4984.000000;-0.504791
4983.000000;-0.504730
4982.000000;-0.504664
4981.000000;-0.504549
4980.000000;-0.504392
4979.000000;-0.504246
4978.000000;-0.504131
4977.000000;-0.504008
4976.000000;-0.503845
4975.000000;-0.503650
4974.000000;-0.503441
4973.000000;-0.503227
4972.000000;-0.503021
4971.000000;-0.502831
4970.000000;-0.502635
4969.000000;-0.502415
4968.000000;-0.502194
4967.000000;-0.502007
4966.000000;-0.501850
4965.000000;-0.501686
4964.000000;-0.501510
4963.000000;-0.501346
4962.000000;-0.501187
4961.000000;-0.501001
4960.000000;-0.500794
4959.000000;-0.500599
4958.000000;-0.500423
4957.000000;-0.500236
4956.000000;-0.500031
4955.000000;-0.499847
4954.000000;-0.499716
4953.000000;-0.499631
4952.000000;-0.499563
4951.000000;-0.499471
4950.000000;-0.499311
4949.000000;-0.499069
4948.000000;-0.498799
4947.000000;-0.498584
4946.000000;-0.498460
4945.000000;-0.498405
4944.000000;-0.498374
4943.000000;-0.498322
4942.000000;-0.498202
4941.000000;-0.497994
4940.000000;-0.497749
4939.000000;-0.497545
4938.000000;-0.497415
4937.000000;-0.497332
4936.000000;-0.497254
4935.000000;-0.497148
4934.000000;-0.496978
4933.000000;-0.496743
4932.000000;-0.496491
4931.000000;-0.496269
4930.000000;-0.496058
4929.000000;-0.495808
4928.000000;-0.495521
4927.000000;-0.495252
4926.000000;-0.495032
4925.000000;-0.494846
4924.000000;-0.494680
4923.000000;-0.494535
4922.000000;-0.494405
4921.000000;-0.494263
4920.000000;-0.494094
4919.000000;-0.493897
4918.000000;-0.493677
4917.000000;-0.493455
4916.000000;-0.493277
4915.000000;-0.493155
4914.000000;-0.493027
4913.000000;-0.492818
4912.000000;-0.492536
4911.000000;-0.492260
4910.000000;-0.492052
4909.000000;-0.491911
4908.000000;-0.491815
4907.000000;-0.491748
4906.000000;-0.491678
4905.000000;-0.491575
4904.000000;-0.491440
4903.000000;-0.491290
4902.000000;-0.491125
4901.000000;-0.490935
4900.000000;-0.490755
4899.000000;-0.490630
4898.000000;-0.490548
4897.000000;-0.490431
4896.000000;-0.490219
4895.000000;-0.489927
4894.000000;-0.489621
4893.000000;-0.489368
4892.000000;-0.489204
4891.000000;-0.489117
4890.000000;-0.489044
4889.000000;-0.488923
4888.000000;-0.488742
4887.000000;-0.488527
4886.000000;-0.488285
4885.000000;-0.488007
4884.000000;-0.487704
4883.000000;-0.487418
4882.000000;-0.487174
4881.000000;-0.486966
4880.000000;-0.486783
4879.000000;-0.486616
4878.000000;-0.486448
4877.000000;-0.486269
4876.000000;-0.486095
4875.000000;-0.485951
4874.000000;-0.485820
4873.000000;-0.485642
4872.000000;-0.485373
4871.000000;-0.485030
4870.000000;-0.484683
4869.000000;-0.484409
4868.000000;-0.484239
4867.000000;-0.484127
4866.000000;-0.483992
4865.000000;-0.483790
4864.000000;-0.483543
4863.000000;-0.483295
4862.000000;-0.483061
4861.000000;-0.482852
4860.000000;-0.482689
4859.000000;-0.482556
4858.000000;-0.482382
4857.000000;-0.482112
4856.000000;-0.481786
4855.000000;-0.481494
4854.000000;-0.481285
4853.000000;-0.481145
4852.000000;-0.481043
4851.000000;-0.480930
4850.000000;-0.480738
4849.000000;-0.480429
4848.000000;-0.480065
4847.000000;-0.479756
4846.000000;-0.479551
4845.000000;-0.479400
4844.000000;-0.479227
4843.000000;-0.478996
4842.000000;-0.478709
4841.000000;-0.478399
4840.000000;-0.478118
4839.000000;-0.477900
4838.000000;-0.477729
4837.000000;-0.477563
4836.000000;-0.477386
4835.000000;-0.477203
4834.000000;-0.477000
4833.000000;-0.476754
4832.000000;-0.476481
4831.000000;-0.476222
4830.000000;-0.476000
4829.000000;-0.475793
4828.000000;-0.475576
4827.000000;-0.475326
4826.000000;-0.475031
4825.000000;-0.474708
4824.000000;-0.474411
4823.000000;-0.474181
4822.000000;-0.473995
4821.000000;-0.473803
4820.000000;-0.473596
4819.000000;-0.473406
4818.000000;-0.473238
4817.000000;-0.473059
4816.000000;-0.472851
4815.000000;-0.472632
4814.000000;-0.472410
4813.000000;-0.472151
4812.000000;-0.471815
4811.000000;-0.471408
4810.000000;-0.470983
4809.000000;-0.470610
4808.000000;-0.470332
4807.000000;-0.470129
4806.000000;-0.469936
4805.000000;-0.469707
4804.000000;-0.469439
4803.000000;-0.469133
4802.000000;-0.468771
4801.000000;-0.468360
4800.000000;-0.467974
4799.000000;-0.467689
4798.000000;-0.467495
4797.000000;-0.467314
4796.000000;-0.467099
4795.000000;-0.466851
4794.000000;-0.466577
4793.000000;-0.466269
4792.000000;-0.465945
4791.000000;-0.465637
4790.000000;-0.465348
4789.000000;-0.465041
4788.000000;-0.464699
4787.000000;-0.464350
4786.000000;-0.464028
4785.000000;-0.463745
4784.000000;-0.463498
4783.000000;-0.463266
4782.000000;-0.463005
4781.000000;-0.462662
4780.000000;-0.462228
4779.000000;-0.461747
4778.000000;-0.461290
4777.000000;-0.460915
4776.000000;-0.460646
4775.000000;-0.460456
4774.000000;-0.460265
4773.000000;-0.459994
4772.000000;-0.459624
4771.000000;-0.459207
4770.000000;-0.458822
4769.000000;-0.458532
4768.000000;-0.458352
4767.000000;-0.458215
4766.000000;-0.458002
4765.000000;-0.457632
4764.000000;-0.457142
4763.000000;-0.456642
4762.000000;-0.456216
4761.000000;-0.455870
4760.000000;-0.455569
4759.000000;-0.455268
4758.000000;-0.454926
4757.000000;-0.454529
4756.000000;-0.454120
4755.000000;-0.453772
4754.000000;-0.453522
4753.000000;-0.453343
4752.000000;-0.453177
4751.000000;-0.452964
4750.000000;-0.452657
4749.000000;-0.452245
4748.000000;-0.451774
4747.000000;-0.451321
4746.000000;-0.450938
4745.000000;-0.450630
4744.000000;-0.450362
4743.000000;-0.450080
4742.000000;-0.449728
4741.000000;-0.449291
4740.000000;-0.448816
4739.000000;-0.448374
4738.000000;-0.448000
4737.000000;-0.447685
4736.000000;-0.447410
4735.000000;-0.447146
4734.000000;-0.446852
4733.000000;-0.446492
4732.000000;-0.446076
4731.000000;-0.445654
4730.000000;-0.445274
4729.000000;-0.444964
4728.000000;-0.444723
4727.000000;-0.444511
4726.000000;-0.444250
4725.000000;-0.443884
4724.000000;-0.443430
4723.000000;-0.442954
4722.000000;-0.442498
4721.000000;-0.442062
4720.000000;-0.441644
4719.000000;-0.441256
4718.000000;-0.440895
4717.000000;-0.440541
4716.000000;-0.440181
4715.000000;-0.439816
4714.000000;-0.439449
4713.000000;-0.439078
4712.000000;-0.438705
4711.000000;-0.438325
4710.000000;-0.437921
4709.000000;-0.437482
4708.000000;-0.437035
4707.000000;-0.436615
4706.000000;-0.436228
4705.000000;-0.435851
4704.000000;-0.435462
4703.000000;-0.435058
4702.000000;-0.434646
4701.000000;-0.434253
4700.000000;-0.433919
4699.000000;-0.433645
4698.000000;-0.433354
4697.000000;-0.432946
4696.000000;-0.432389
4695.000000;-0.431760
4694.000000;-0.431173
4693.000000;-0.430692
4692.000000;-0.430307
4691.000000;-0.429955
4690.000000;-0.429577
4689.000000;-0.429150
4688.000000;-0.428686
4687.000000;-0.428200
4686.000000;-0.427703
4685.000000;-0.427213
4684.000000;-0.426754
4683.000000;-0.426334
4682.000000;-0.425933
4681.000000;-0.425529
4680.000000;-0.425118
4679.000000;-0.424700
4678.000000;-0.424271
4677.000000;-0.423847
4676.000000;-0.423454
4675.000000;-0.423082
4674.000000;-0.422667
4673.000000;-0.422155
4672.000000;-0.421561
4671.000000;-0.420945
4670.000000;-0.420344
4669.000000;-0.419769
4668.000000;-0.419222
4667.000000;-0.418706
4666.000000;-0.418205
4665.000000;-0.417700
4664.000000;-0.417178
4663.000000;-0.416634
4662.000000;-0.416075
4661.000000;-0.415538
4660.000000;-0.415064
4659.000000;-0.414632
4658.000000;-0.414150
4657.000000;-0.413547
4656.000000;-0.412859
4655.000000;-0.412181
4654.000000;-0.411576
4653.000000;-0.411058
4652.000000;-0.410609
4651.000000;-0.410173
4650.000000;-0.409675
4649.000000;-0.409087
4648.000000;-0.408484
4647.000000;-0.407954
4646.000000;-0.407486
4645.000000;-0.406985
4644.000000;-0.406396
4643.000000;-0.405758
4642.000000;-0.405123
4641.000000;-0.404495
4640.000000;-0.403850
4639.000000;-0.403192
4638.000000;-0.402554
4637.000000;-0.401963
4636.000000;-0.401417
4635.000000;-0.400883
4634.000000;-0.400311
4633.000000;-0.399667
4632.000000;-0.398959
4631.000000;-0.398235
4630.000000;-0.397559
4629.000000;-0.396977
4628.000000;-0.396480
4627.000000;-0.395997
4626.000000;-0.395449
4625.000000;-0.394824
4624.000000;-0.394184
4623.000000;-0.393569
4622.000000;-0.392958
4621.000000;-0.392315
4620.000000;-0.391652
4619.000000;-0.390990
4618.000000;-0.390313
4617.000000;-0.389597
4616.000000;-0.388861
4615.000000;-0.388161
4614.000000;-0.387525
4613.000000;-0.386935
4612.000000;-0.386338
4611.000000;-0.385666
4610.000000;-0.384855
4609.000000;-0.383915
4608.000000;-0.382958
4607.000000;-0.382114
4606.000000;-0.381425
4605.000000;-0.380819
4604.000000;-0.380192
4603.000000;-0.379476
4602.000000;-0.378672
4601.000000;-0.377842
4600.000000;-0.377052
4599.000000;-0.376300
4598.000000;-0.375519
4597.000000;-0.374670
4596.000000;-0.373801
4595.000000;-0.372970
4594.000000;-0.372158
4593.000000;-0.371305
4592.000000;-0.370411
4591.000000;-0.369539
4590.000000;-0.368725
4589.000000;-0.367935
4588.000000;-0.367123
4587.000000;-0.366266
4586.000000;-0.365349
4585.000000;-0.364368
4584.000000;-0.363348
4583.000000;-0.362330
4582.000000;-0.361319
4581.000000;-0.360288
4580.000000;-0.359222
4579.000000;-0.358142
4578.000000;-0.357084
4577.000000;-0.356066
4576.000000;-0.355077
4575.000000;-0.354070
4574.000000;-0.352992
4573.000000;-0.351829
4572.000000;-0.350627
4571.000000;-0.349437
4570.000000;-0.348280
4569.000000;-0.347158
4568.000000;-0.346075
4567.000000;-0.345006
4566.000000;-0.343870
4565.000000;-0.342604
4564.000000;-0.341235
4563.000000;-0.339852
4562.000000;-0.338509
4561.000000;-0.337188
4560.000000;-0.335858
4559.000000;-0.334516
4558.000000;-0.333159
4557.000000;-0.331766
4556.000000;-0.330302
4555.000000;-0.328748
4554.000000;-0.327107
4553.000000;-0.325414
4552.000000;-0.323737
4551.000000;-0.322130
4550.000000;-0.320585
4549.000000;-0.319047
4548.000000;-0.317455
4547.000000;-0.315789
4546.000000;-0.314079
4545.000000;-0.312387
4544.000000;-0.310765
4543.000000;-0.309194
4542.000000;-0.307611
4541.000000;-0.305996
4540.000000;-0.304397
4539.000000;-0.302858
4538.000000;-0.301362
4537.000000;-0.299883
4536.000000;-0.298433
4535.000000;-0.297014
4534.000000;-0.295567
4533.000000;-0.294032
4532.000000;-0.292453
4531.000000;-0.290941
4530.000000;-0.289555
4529.000000;-0.288262
4528.000000;-0.287000
4527.000000;-0.285738
4526.000000;-0.284467
4525.000000;-0.283200
4524.000000;-0.281977
4523.000000;-0.280833
4522.000000;-0.279742
4521.000000;-0.278638
4520.000000;-0.277473
4519.000000;-0.276245
4518.000000;-0.274967
4517.000000;-0.273659
4516.000000;-0.272374
4515.000000;-0.271183
4514.000000;-0.270116
4513.000000;-0.269136
4512.000000;-0.268172
4511.000000;-0.267162
4510.000000;-0.266084
4509.000000;-0.264961
4508.000000;-0.263833
4507.000000;-0.262724
4506.000000;-0.261625
4505.000000;-0.260531
4504.000000;-0.259448
4503.000000;-0.258358
4502.000000;-0.257210
4501.000000;-0.255982
4500.000000;-0.254727
4499.000000;-0.253525
4498.000000;-0.252396
4497.000000;-0.251297
4496.000000;-0.250178
4495.000000;-0.249020
4494.000000;-0.247842
4493.000000;-0.246677
4492.000000;-0.245543
4491.000000;-0.244404
4490.000000;-0.243206
4489.000000;-0.241948
4488.000000;-0.240685
4487.000000;-0.239448
4486.000000;-0.238207
4485.000000;-0.236943
4484.000000;-0.235698
4483.000000;-0.234497
4482.000000;-0.233277
4481.000000;-0.231939
4480.000000;-0.230458
4479.000000;-0.228891
4478.000000;-0.227302
4477.000000;-0.225739
4476.000000;-0.224249
4475.000000;-0.222861
4474.000000;-0.221543
4473.000000;-0.220218
4472.000000;-0.218819
4471.000000;-0.217314
4470.000000;-0.215713
4469.000000;-0.214076
4468.000000;-0.212495
4467.000000;-0.211005
4466.000000;-0.209537
4465.000000;-0.207993
4464.000000;-0.206339
4463.000000;-0.204609
4462.000000;-0.202854
4461.000000;-0.201122
4460.000000;-0.199468
4459.000000;-0.197908
4458.000000;-0.196398
4457.000000;-0.194883
4456.000000;-0.193346
4455.000000;-0.191784
4454.000000;-0.190175
4453.000000;-0.188515
4452.000000;-0.186845
4451.000000;-0.185185
4450.000000;-0.183489
4449.000000;-0.181718
4448.000000;-0.179916
4447.000000;-0.178148
4446.000000;-0.176413
4445.000000;-0.174679
4444.000000;-0.172963
4443.000000;-0.171292
4442.000000;-0.169617
4441.000000;-0.167860
4440.000000;-0.166032
4439.000000;-0.164224
4438.000000;-0.162496
4437.000000;-0.160843
4436.000000;-0.159238
4435.000000;-0.157636
4434.000000;-0.155937
4433.000000;-0.154034
4432.000000;-0.151935
4431.000000;-0.149771
4430.000000;-0.147678
4429.000000;-0.145694
4428.000000;-0.143776
4427.000000;-0.141858
4426.000000;-0.139894
4425.000000;-0.137887
4424.000000;-0.135884
4423.000000;-0.133924
4422.000000;-0.131995
4421.000000;-0.130070
4420.000000;-0.128139
4419.000000;-0.126164
4418.000000;-0.124049
4417.000000;-0.121743
4416.000000;-0.119341
4415.000000;-0.117024
4414.000000;-0.114897
4413.000000;-0.112931
4412.000000;-0.111028
4411.000000;-0.109080
4410.000000;-0.106991
4409.000000;-0.104727
4408.000000;-0.102358
4407.000000;-0.099989
4406.000000;-0.097669
4405.000000;-0.095386
4404.000000;-0.093122
4403.000000;-0.090839
4402.000000;-0.088460
4401.000000;-0.085935
4400.000000;-0.083316
4399.000000;-0.080702
4398.000000;-0.078124
4397.000000;-0.075558
4396.000000;-0.073006
4395.000000;-0.070484
4394.000000;-0.067951
4393.000000;-0.065349
4392.000000;-0.062713
4391.000000;-0.060150
4390.000000;-0.057704
4389.000000;-0.055291
4388.000000;-0.052786
4387.000000;-0.050105
4386.000000;-0.047236
4385.000000;-0.044247
4384.000000;-0.041263
4383.000000;-0.038368
4382.000000;-0.035534
4381.000000;-0.032696
4380.000000;-0.029861
4379.000000;-0.027061
4378.000000;-0.024244
4377.000000;-0.021294
4376.000000;-0.018166
4375.000000;-0.014909
4374.000000;-0.011579
4373.000000;-0.008206
4372.000000;-0.004846
4371.000000;-0.001544
4370.000000;0.001755
4369.000000;0.005151
4368.000000;0.008641
4367.000000;0.012101
4366.000000;0.015445
4365.000000;0.018721
4364.000000;0.022031
4363.000000;0.025441
4362.000000;0.028984
4361.000000;0.032675
4360.000000;0.036465
4359.000000;0.040245
4358.000000;0.043927
4357.000000;0.047500
4356.000000;0.051024
4355.000000;0.054625
4354.000000;0.058456
4353.000000;0.062558
4352.000000;0.066768
4351.000000;0.070846
4350.000000;0.074729
4349.000000;0.078581
4348.000000;0.082589
4347.000000;0.086811
4346.000000;0.091217
4345.000000;0.095778
4344.000000;0.100430
4343.000000;0.105037
4342.000000;0.109472
4341.000000;0.113740
4340.000000;0.117987
4339.000000;0.122400
4338.000000;0.127078
4337.000000;0.131960
4336.000000;0.136875
4335.000000;0.141699
4334.000000;0.146457
4333.000000;0.151256
4332.000000;0.156167
4331.000000;0.161220
4330.000000;0.166447
4329.000000;0.171820
4328.000000;0.177192
4327.000000;0.182406
4326.000000;0.187486
4325.000000;0.192643
4324.000000;0.198084
4323.000000;0.203863
4322.000000;0.209878
4321.000000;0.215926
4320.000000;0.221796
4319.000000;0.227408
4318.000000;0.232902
4317.000000;0.238525
4316.000000;0.244467
4315.000000;0.250794
4314.000000;0.257436
4313.000000;0.264140
4312.000000;0.270554
4311.000000;0.276522
4310.000000;0.282291
4309.000000;0.288270
4308.000000;0.294635
4307.000000;0.301298
4306.000000;0.308167
4305.000000;0.315225
4304.000000;0.322371
4303.000000;0.329423
4302.000000;0.336367
4301.000000;0.343461
4300.000000;0.350985
4299.000000;0.358991
4298.000000;0.367292
4297.000000;0.375583
4296.000000;0.383575
4295.000000;0.391199
4294.000000;0.398776
4293.000000;0.406833
4292.000000;0.415660
4291.000000;0.425073
4290.000000;0.434616
4289.000000;0.443936
4288.000000;0.452972
4287.000000;0.461939
4286.000000;0.471163
4285.000000;0.480871
4284.000000;0.491073
4283.000000;0.501649
4282.000000;0.512456
4281.000000;0.523274
4280.000000;0.533817
4279.000000;0.544047
4278.000000;0.554467
4277.000000;0.565829
4276.000000;0.578477
4275.000000;0.592054
4274.000000;0.605873
4273.000000;0.619460
4272.000000;0.632800
4271.000000;0.646195
4270.000000;0.659925
4269.000000;0.673977
4268.000000;0.688188
4267.000000;0.702693
4266.000000;0.718021
4265.000000;0.734526
4264.000000;0.751906
4263.000000;0.769606
4262.000000;0.787546
4261.000000;0.806108
4260.000000;0.825521
4259.000000;0.845681
4258.000000;0.866574
4257.000000;0.888540
4256.000000;0.912084
4255.000000;0.937667
4254.000000;0.965538
4253.000000;0.995475
4252.000000;1.027010
4251.000000;1.060365
4250.000000;1.096664
4249.000000;1.136396
4248.000000;1.178187
4247.000000;1.220596
4246.000000;1.265514
4245.000000;1.318230
4244.000000;1.383614
4243.000000;1.463787
4242.000000;1.559630
4241.000000;1.675201
4240.000000;1.817957
4239.000000;1.996147
4238.000000;2.133870
4237.000000;2.035908
4236.000000;1.849168
4235.000000;1.701475
4234.000000;1.585559
4233.000000;1.490910
4232.000000;1.410790
4231.000000;1.343259
4230.000000;1.286231
4229.000000;1.237027
4228.000000;1.193180
4227.000000;1.153204
4226.000000;1.116362
4225.000000;1.082253
4224.000000;1.050569
4223.000000;1.020885
4222.000000;0.992736
4221.000000;0.966022
4220.000000;0.941080
4219.000000;0.918100
4218.000000;0.896751
4217.000000;0.876500
4216.000000;0.857028
4215.000000;0.838162
4214.000000;0.819777
4213.000000;0.802042
4212.000000;0.785420
4211.000000;0.770088
4210.000000;0.755572
4209.000000;0.741237
4208.000000;0.726930
4207.000000;0.712892
4206.000000;0.699309
4205.000000;0.686278
4204.000000;0.673976
4203.000000;0.662455
4202.000000;0.651408
4201.000000;0.640473
4200.000000;0.629645
4199.000000;0.619111
4198.000000;0.608798
4197.000000;0.598430
4196.000000;0.587992
4195.000000;0.577820
4194.000000;0.568240
4193.000000;0.559333
4192.000000;0.550997
4191.000000;0.542988
4190.000000;0.534945
4189.000000;0.526628
4188.000000;0.518219
4187.000000;0.510192
4186.000000;0.502844
4185.000000;0.496030
4184.000000;0.489325
4183.000000;0.482369
4182.000000;0.475089
4181.000000;0.467746
4180.000000;0.460729
4179.000000;0.454201
4178.000000;0.447988
4177.000000;0.441865
4176.000000;0.435840
4175.000000;0.430031
4174.000000;0.424396
4173.000000;0.418798
4172.000000;0.413257
4171.000000;0.407951
4170.000000;0.402939
4169.000000;0.398062
4168.000000;0.393104
4167.000000;0.387960
4166.000000;0.382677
4165.000000;0.377435
4164.000000;0.372463
4163.000000;0.367836
4162.000000;0.363378
4161.000000;0.358868
4160.000000;0.354299
4159.000000;0.349832
4158.000000;0.345556
4157.000000;0.341426
4156.000000;0.337385
4155.000000;0.333409
4154.000000;0.329439
4153.000000;0.325423
4152.000000;0.321414
4151.000000;0.317536
4150.000000;0.313832
4149.000000;0.310260
4148.000000;0.306791
4147.000000;0.303407
4146.000000;0.300030
4145.000000;0.296593
4144.000000;0.293177
4143.000000;0.289959
4142.000000;0.286989
4141.000000;0.284131
4140.000000;0.281242
4139.000000;0.278325
4138.000000;0.275468
4137.000000;0.272720
4136.000000;0.270042
4135.000000;0.267357
4134.000000;0.264644
4133.000000;0.261994
4132.000000;0.259541
4131.000000;0.257294
4130.000000;0.255079
4129.000000;0.252709
4128.000000;0.250167
4127.000000;0.247568
4126.000000;0.244988
4125.000000;0.242458
4124.000000;0.240056
4123.000000;0.237880
4122.000000;0.235897
4121.000000;0.233932
4120.000000;0.231840
4119.000000;0.229636
4118.000000;0.227439
4117.000000;0.225339
4116.000000;0.223352
4115.000000;0.221468
4114.000000;0.219675
4113.000000;0.217947
4112.000000;0.216224
4111.000000;0.214459
4110.000000;0.212674
4109.000000;0.210952
4108.000000;0.209337
4107.000000;0.207764
4106.000000;0.206168
4105.000000;0.204585
4104.000000;0.203070
4103.000000;0.201555
4102.000000;0.199931
4101.000000;0.198255
4100.000000;0.196727
4099.000000;0.195418
4098.000000;0.194169
4097.000000;0.192824
4096.000000;0.191410
4095.000000;0.190018
4094.000000;0.188663
4093.000000;0.187367
4092.000000;0.186223
4091.000000;0.185235
4090.000000;0.184201
4089.000000;0.182916
4088.000000;0.181433
4087.000000;0.179998
4086.000000;0.178783
4085.000000;0.177793
4084.000000;0.176945
4083.000000;0.176111
4082.000000;0.175131
4081.000000;0.173953
4080.000000;0.172721
4079.000000;0.171635
4078.000000;0.170740
4077.000000;0.169939
4076.000000;0.169140
4075.000000;0.168286
4074.000000;0.167312
4073.000000;0.166208
4072.000000;0.165102
4071.000000;0.164150
4070.000000;0.163353
4069.000000;0.162593
4068.000000;0.161808
4067.000000;0.161039
4066.000000;0.160311
4065.000000;0.159581
4064.000000;0.158802
4063.000000;0.157962
4062.000000;0.157067
4061.000000;0.156161
4060.000000;0.155320
4059.000000;0.154560
4058.000000;0.153797
4057.000000;0.152975
4056.000000;0.152196
4055.000000;0.151602
4054.000000;0.151180
4053.000000;0.150755
4052.000000;0.150168
4051.000000;0.149380
4050.000000;0.148461
4049.000000;0.147549
4048.000000;0.146766
4047.000000;0.146107
4046.000000;0.145441
4045.000000;0.144697
4044.000000;0.143987
4043.000000;0.143446
4042.000000;0.143044
4041.000000;0.142651
4040.000000;0.142199
4039.000000;0.141690
4038.000000;0.141119
4037.000000;0.140542
4036.000000;0.140115
4035.000000;0.139888
4034.000000;0.139612
4033.000000;0.138964
4032.000000;0.137961
4031.000000;0.136984
4030.000000;0.136345
4029.000000;0.135986
4028.000000;0.135624
4027.000000;0.135063
4026.000000;0.134333
4025.000000;0.133637
4024.000000;0.133180
4023.000000;0.132978
4022.000000;0.132800
4021.000000;0.132405
4020.000000;0.131814
4019.000000;0.131258
4018.000000;0.130869
4017.000000;0.130546
4016.000000;0.130138
4015.000000;0.129630
4014.000000;0.129110
4013.000000;0.128652
4012.000000;0.128276
4011.000000;0.127962
4010.000000;0.127667
4009.000000;0.127379
4008.000000;0.127151
4007.000000;0.127018
4006.000000;0.126914
4005.000000;0.126725
4004.000000;0.126424
4003.000000;0.126076
4002.000000;0.125745
4001.000000;0.125478
4000.000000;0.125317
3999.000000;0.125239
3998.000000;0.125089
3997.000000;0.124712
3996.000000;0.124167
3995.000000;0.123673
3994.000000;0.123359
3993.000000;0.123157
3992.000000;0.122946
3991.000000;0.122691
3990.000000;0.122421
3989.000000;0.122168
3988.000000;0.121950
3987.000000;0.121744
3986.000000;0.121478
3985.000000;0.121119
3984.000000;0.120764
3983.000000;0.120534
3982.000000;0.120403
3981.000000;0.120240
3980.000000;0.120011
3979.000000;0.119802
3978.000000;0.119653
3977.000000;0.119514
3976.000000;0.119396
3975.000000;0.119388
3974.000000;0.119452
3973.000000;0.119365
3972.000000;0.118982
3971.000000;0.118454
3970.000000;0.118059
3969.000000;0.117894
3968.000000;0.117845
3967.000000;0.117794
3966.000000;0.117726
3965.000000;0.117637
3964.000000;0.117474
3963.000000;0.117210
3962.000000;0.116925
3961.000000;0.116754
3960.000000;0.116764
3959.000000;0.116896
3958.000000;0.117017
3957.000000;0.117028
3956.000000;0.116905
3955.000000;0.116663
3954.000000;0.116317
3953.000000;0.115892
3952.000000;0.115443
3951.000000;0.115020
3950.000000;0.114652
3949.000000;0.114386
3948.000000;0.114303
3947.000000;0.114402
3946.000000;0.114509
3945.000000;0.114396
3944.000000;0.114032
3943.000000;0.113651
3942.000000;0.113512
3941.000000;0.113628
3940.000000;0.113783
3939.000000;0.113787
3938.000000;0.113646
3937.000000;0.113493
3936.000000;0.113372
3935.000000;0.113154
3934.000000;0.112689
3933.000000;0.112023
3932.000000;0.111416
3931.000000;0.111117
3930.000000;0.111156
3929.000000;0.111364
3928.000000;0.111520
3927.000000;0.111470
3926.000000;0.111198
3925.000000;0.110857
3924.000000;0.110652
3923.000000;0.110617
3922.000000;0.110578
3921.000000;0.110373
3920.000000;0.110008
3919.000000;0.109583
3918.000000;0.109173
3917.000000;0.108869
3916.000000;0.108819
3915.000000;0.109067
3914.000000;0.109418
3913.000000;0.109592
3912.000000;0.109497
3911.000000;0.109251
3910.000000;0.108993
3909.000000;0.108789
3908.000000;0.108671
3907.000000;0.108614
3906.000000;0.108469
3905.000000;0.108103
3904.000000;0.107637
3903.000000;0.107369
3902.000000;0.107439
3901.000000;0.107695
3900.000000;0.107937
3899.000000;0.108142
3898.000000;0.108389
3897.000000;0.108683
3896.000000;0.108949
3895.000000;0.109113
3894.000000;0.109132
3893.000000;0.109035
3892.000000;0.108978
3891.000000;0.109171
3890.000000;0.109634
3889.000000;0.110113
3888.000000;0.110349
3887.000000;0.110357
3886.000000;0.110404
3885.000000;0.110707
3884.000000;0.111161
3883.000000;0.111464
3882.000000;0.111487
3881.000000;0.111454
3880.000000;0.111718
3879.000000;0.112351
3878.000000;0.113023
3877.000000;0.113369
3876.000000;0.113371
3875.000000;0.113370
3874.000000;0.113711
3873.000000;0.114383
3872.000000;0.115053
3871.000000;0.115489
3870.000000;0.115810
3869.000000;0.116264
3868.000000;0.116849
3867.000000;0.117359
3866.000000;0.117697
3865.000000;0.117975
3864.000000;0.118338
3863.000000;0.118795
3862.000000;0.119261
3861.000000;0.119719
3860.000000;0.120222
3859.000000;0.120781
3858.000000;0.121354
3857.000000;0.121937
3856.000000;0.122565
3855.000000;0.123189
3854.000000;0.123682
3853.000000;0.124114
3852.000000;0.124623
3851.000000;0.125143
3850.000000;0.125567
3849.000000;0.125901
3848.000000;0.126266
3847.000000;0.126758
3846.000000;0.127309
3845.000000;0.127781
3844.000000;0.128186
3843.000000;0.128712
3842.000000;0.129472
3841.000000;0.130330
3840.000000;0.131046
3839.000000;0.131523
3838.000000;0.131860
3837.000000;0.132210
3836.000000;0.132676
3835.000000;0.133312
3834.000000;0.134120
3833.000000;0.135026
3832.000000;0.135899
3831.000000;0.136612
3830.000000;0.137131
3829.000000;0.137543
3828.000000;0.137964
3827.000000;0.138432
3826.000000;0.138913
3825.000000;0.139376
3824.000000;0.139818
3823.000000;0.140256
3822.000000;0.140724
3821.000000;0.141323
3820.000000;0.142078
3819.000000;0.142782
3818.000000;0.143275
3817.000000;0.143706
3816.000000;0.144334
3815.000000;0.145163
3814.000000;0.145910
3813.000000;0.146420
3812.000000;0.146896
3811.000000;0.147595
3810.000000;0.148518
3809.000000;0.149458
3808.000000;0.150249
3807.000000;0.150897
3806.000000;0.151491
3805.000000;0.152093
3804.000000;0.152723
3803.000000;0.153337
3802.000000;0.153858
3801.000000;0.154317
3800.000000;0.154787
3799.000000;0.155289
3798.000000;0.155849
3797.000000;0.156495
3796.000000;0.157198
3795.000000;0.157844
3794.000000;0.158346
3793.000000;0.158824
3792.000000;0.159506
3791.000000;0.160398
3790.000000;0.161234
3789.000000;0.161835
3788.000000;0.162343
3787.000000;0.162981
3786.000000;0.163746
3785.000000;0.164501
3784.000000;0.165226
3783.000000;0.165969
3782.000000;0.166666
3781.000000;0.167214
3780.000000;0.167676
3779.000000;0.168215
3778.000000;0.168813
3777.000000;0.169294
3776.000000;0.169652
3775.000000;0.170113
3774.000000;0.170824
3773.000000;0.171676
3772.000000;0.172502
3771.000000;0.173285
3770.000000;0.174106
3769.000000;0.174974
3768.000000;0.175812
3767.000000;0.176581
3766.000000;0.177302
3765.000000;0.178005
3764.000000;0.178691
3763.000000;0.179352
3762.000000;0.179980
3761.000000;0.180606
3760.000000;0.181296
3759.000000;0.182077
3758.000000;0.182873
3757.000000;0.183585
3756.000000;0.184232
3755.000000;0.184910
3754.000000;0.185652
3753.000000;0.186399
3752.000000;0.187111
3751.000000;0.187813
3750.000000;0.188506
3749.000000;0.189137
3748.000000;0.189758
3747.000000;0.190547
3746.000000;0.191582
3745.000000;0.192731
3744.000000;0.193767
3743.000000;0.194487
3742.000000;0.194855
3741.000000;0.195088
3740.000000;0.195491
3739.000000;0.196221
3738.000000;0.197171
3737.000000;0.198082
3736.000000;0.198825
3735.000000;0.199519
3734.000000;0.200317
3733.000000;0.201191
3732.000000;0.201989
3731.000000;0.202580
3730.000000;0.202956
3729.000000;0.203261
3728.000000;0.203694
3727.000000;0.204347
3726.000000;0.205124
3725.000000;0.205863
3724.000000;0.206506
3723.000000;0.207110
3722.000000;0.207717
3721.000000;0.208327
3720.000000;0.208998
3719.000000;0.209831
3718.000000;0.210816
3717.000000;0.211781
3716.000000;0.212570
3715.000000;0.213214
3714.000000;0.213865
3713.000000;0.214592
3712.000000;0.215349
3711.000000;0.216119
3710.000000;0.216950
3709.000000;0.217842
3708.000000;0.218690
3707.000000;0.219355
3706.000000;0.219801
3705.000000;0.220178
3704.000000;0.220694
3703.000000;0.221420
3702.000000;0.222276
3701.000000;0.223174
3700.000000;0.224088
3699.000000;0.224987
3698.000000;0.225808
3697.000000;0.226517
3696.000000;0.227180
3695.000000;0.227908
3694.000000;0.228752
3693.000000;0.229655
3692.000000;0.230480
3691.000000;0.231143
3690.000000;0.231756
3689.000000;0.232561
3688.000000;0.233602
3687.000000;0.234583
3686.000000;0.235222
3685.000000;0.235584
3684.000000;0.235996
3683.000000;0.236669
3682.000000;0.237535
3681.000000;0.238454
3680.000000;0.239417
3679.000000;0.240441
3678.000000;0.241417
3677.000000;0.242210
3676.000000;0.242859
3675.000000;0.243523
3674.000000;0.244180
3673.000000;0.244742
3672.000000;0.245361
3671.000000;0.246208
3670.000000;0.247206
3669.000000;0.248161
3668.000000;0.248954
3667.000000;0.249614
3666.000000;0.250226
3665.000000;0.250846
3664.000000;0.251563
3663.000000;0.252439
3662.000000;0.253379
3661.000000;0.254207
3660.000000;0.254886
3659.000000;0.255537
3658.000000;0.256265
3657.000000;0.257082
3656.000000;0.257980
3655.000000;0.258924
3654.000000;0.259802
3653.000000;0.260536
3652.000000;0.261187
3651.000000;0.261882
3650.000000;0.262685
3649.000000;0.263573
3648.000000;0.264439
3647.000000;0.265154
3646.000000;0.265725
3645.000000;0.266329
3644.000000;0.267143
3643.000000;0.268158
3642.000000;0.269180
3641.000000;0.270034
3640.000000;0.270716
3639.000000;0.271344
3638.000000;0.272021
3637.000000;0.272816
3636.000000;0.273762
3635.000000;0.274803
3634.000000;0.275797
3633.000000;0.276680
3632.000000;0.277569
3631.000000;0.278603
3630.000000;0.279743
3629.000000;0.280864
3628.000000;0.281910
3627.000000;0.282771
3626.000000;0.283338
3625.000000;0.283677
3624.000000;0.283977
3623.000000;0.284385
3622.000000;0.284901
3621.000000;0.285475
3620.000000;0.286155
3619.000000;0.287019
3618.000000;0.288012
3617.000000;0.288990
3616.000000;0.289930
3615.000000;0.290920
3614.000000;0.291944
3613.000000;0.292867
3612.000000;0.293618
3611.000000;0.294265
3610.000000;0.294920
3609.000000;0.295628
3608.000000;0.296382
3607.000000;0.297141
3606.000000;0.297842
3605.000000;0.298495
3604.000000;0.299226
3603.000000;0.300142
3602.000000;0.301176
3601.000000;0.302161
3600.000000;0.303031
3599.000000;0.303849
3598.000000;0.304694
3597.000000;0.305586
3596.000000;0.306506
3595.000000;0.307439
3594.000000;0.308388
3593.000000;0.309370
3592.000000;0.310411
3591.000000;0.311478
3590.000000;0.312451
3589.000000;0.313211
3588.000000;0.313768
3587.000000;0.314234
3586.000000;0.314684
3585.000000;0.315155
3584.000000;0.315741
3583.000000;0.316516
3582.000000;0.317409
3581.000000;0.318303
3580.000000;0.319166
3579.000000;0.320030
3578.000000;0.320908
3577.000000;0.321815
3576.000000;0.322768
3575.000000;0.323699
3574.000000;0.324469
3573.000000;0.325081
3572.000000;0.325766
3571.000000;0.326724
3570.000000;0.327837
3569.000000;0.328780
3568.000000;0.329418
3567.000000;0.329960
3566.000000;0.330693
3565.000000;0.331700
3564.000000;0.332882
3563.000000;0.334063
3562.000000;0.335043
3561.000000;0.335715
3560.000000;0.336183
3559.000000;0.336724
3558.000000;0.337598
3557.000000;0.338882
3556.000000;0.340392
3555.000000;0.341752
3554.000000;0.342668
3553.000000;0.343193
3552.000000;0.343615
3551.000000;0.344094
3550.000000;0.344595
3549.000000;0.345198
3548.000000;0.346175
3547.000000;0.347585
3546.000000;0.349022
3545.000000;0.350013
3544.000000;0.350535
3543.000000;0.350927
3542.000000;0.351429
3541.000000;0.352073
3540.000000;0.352933
3539.000000;0.354148
3538.000000;0.355658
3537.000000;0.357143
3536.000000;0.358307
3535.000000;0.359119
3534.000000;0.359755
3533.000000;0.360424
3532.000000;0.361223
3531.000000;0.362063
3530.000000;0.362780
3529.000000;0.363383
3528.000000;0.364092
3527.000000;0.365009
3526.000000;0.365935
3525.000000;0.366690
3524.000000;0.367456
3523.000000;0.368518
3522.000000;0.369792
3521.000000;0.370921
3520.000000;0.371811
3519.000000;0.372697
3518.000000;0.373667
3517.000000;0.374472
3516.000000;0.374967
3515.000000;0.375424
3514.000000;0.376214
3513.000000;0.377356
3512.000000;0.378559
3511.000000;0.379585
3510.000000;0.380422
3509.000000;0.381214
3508.000000;0.382129
3507.000000;0.383231
3506.000000;0.384375
3505.000000;0.385334
3504.000000;0.386086
3503.000000;0.386882
3502.000000;0.387926
3501.000000;0.389080
3500.000000;0.390001
3499.000000;0.390529
3498.000000;0.390840
3497.000000;0.391289
3496.000000;0.392152
3495.000000;0.393482
3494.000000;0.395123
3493.000000;0.396831
3492.000000;0.398416
3491.000000;0.399768
3490.000000;0.400802
3489.000000;0.401452
3488.000000;0.401749
3487.000000;0.401861
3486.000000;0.402021
3485.000000;0.402442
3484.000000;0.403231
3483.000000;0.404330
3482.000000;0.405547
3481.000000;0.406709
3480.000000;0.407784
3479.000000;0.408811
3478.000000;0.409755
3477.000000;0.410532
3476.000000;0.411171
3475.000000;0.411851
3474.000000;0.412717
3473.000000;0.413733
3472.000000;0.414738
3471.000000;0.415630
3470.000000;0.416474
3469.000000;0.417470
3468.000000;0.418764
3467.000000;0.420262
3466.000000;0.421634
3465.000000;0.422584
3464.000000;0.423095
3463.000000;0.423430
3462.000000;0.423887
3461.000000;0.424617
3460.000000;0.425582
3459.000000;0.426652
3458.000000;0.427756
3457.000000;0.428978
3456.000000;0.430451
3455.000000;0.432124
3454.000000;0.433707
3453.000000;0.434906
3452.000000;0.435676
3451.000000;0.436166
3450.000000;0.436544
3449.000000;0.436973
3448.000000;0.437655
3447.000000;0.438712
3446.000000;0.440023
3445.000000;0.441312
3444.000000;0.442413
3443.000000;0.443338
3442.000000;0.444137
3441.000000;0.444833
3440.000000;0.445545
3439.000000;0.446492
3438.000000;0.447768
3437.000000;0.449174
3436.000000;0.450370
3435.000000;0.451194
3434.000000;0.451799
3433.000000;0.452471
3432.000000;0.453343
3431.000000;0.454313
3430.000000;0.455233
3429.000000;0.456118
3428.000000;0.457081
3427.000000;0.458100
3426.000000;0.458952
3425.000000;0.459449
3424.000000;0.459683
3423.000000;0.459986
3422.000000;0.460701
3421.000000;0.461979
3420.000000;0.463714
3419.000000;0.465601
3418.000000;0.467315
3417.000000;0.468661
3416.000000;0.469582
3415.000000;0.470091
3414.000000;0.470342
3413.000000;0.470704
3412.000000;0.471541
3411.000000;0.472830
3410.000000;0.474167
3409.000000;0.475223
3408.000000;0.476059
3407.000000;0.476897
3406.000000;0.477792
3405.000000;0.478703
3404.000000;0.479709
3403.000000;0.480901
3402.000000;0.482147
3401.000000;0.483182
3400.000000;0.483901
3399.000000;0.484420
3398.000000;0.484870
3397.000000;0.485341
3396.000000;0.485996
3395.000000;0.487017
3394.000000;0.488359
3393.000000;0.489709
3392.000000;0.490795
3391.000000;0.491652
3390.000000;0.492516
3389.000000;0.493543
3388.000000;0.494706
3387.000000;0.495931
3386.000000;0.497229
3385.000000;0.498642
3384.000000;0.500091
3383.000000;0.501324
3382.000000;0.502104
3381.000000;0.502463
3380.000000;0.502767
3379.000000;0.503481
3378.000000;0.504806
3377.000000;0.506504
3376.000000;0.508069
3375.000000;0.509151
3374.000000;0.509861
3373.000000;0.510587
3372.000000;0.511498
3371.000000;0.512358
3370.000000;0.512941
3369.000000;0.513461
3368.000000;0.514360
3367.000000;0.515750
3366.000000;0.517266
3365.000000;0.518477
3364.000000;0.519236
3363.000000;0.519621
3362.000000;0.519836
3361.000000;0.520211
3360.000000;0.521073
3359.000000;0.522451
3358.000000;0.524055
3357.000000;0.525615
3356.000000;0.527096
3355.000000;0.528526
3354.000000;0.529824
3353.000000;0.530913
3352.000000;0.531808
3351.000000;0.532506
3350.000000;0.532959
3349.000000;0.533277
3348.000000;0.533773
3347.000000;0.534685
3346.000000;0.535956
3345.000000;0.537359
3344.000000;0.538691
3343.000000;0.539802
3342.000000;0.540682
3341.000000;0.541594
3340.000000;0.542894
3339.000000;0.544547
3338.000000;0.546081
3337.000000;0.547144
3336.000000;0.547888
3335.000000;0.548590
3334.000000;0.549226
3333.000000;0.549661
3332.000000;0.550035
3331.000000;0.550611
3330.000000;0.551388
3329.000000;0.552193
3328.000000;0.553033
3327.000000;0.554045
3326.000000;0.555168
3325.000000;0.556203
3324.000000;0.557204
3323.000000;0.558460
3322.000000;0.560042
3321.000000;0.561619
3320.000000;0.562842
3319.000000;0.563718
3318.000000;0.564517
3317.000000;0.565451
3316.000000;0.566525
3315.000000;0.567598
3314.000000;0.568558
3313.000000;0.569466
3312.000000;0.570519
3311.000000;0.571783
3310.000000;0.573021
3309.000000;0.573934
3308.000000;0.574514
3307.000000;0.575038
3306.000000;0.575743
3305.000000;0.576644
3304.000000;0.577656
3303.000000;0.578727
3302.000000;0.579802
3301.000000;0.580757
3300.000000;0.581430
3299.000000;0.581769
3298.000000;0.581974
3297.000000;0.582479
3296.000000;0.583664
3295.000000;0.585465
3294.000000;0.587313
3293.000000;0.588577
3292.000000;0.589097
3291.000000;0.589303
3290.000000;0.589856
3289.000000;0.591144
3288.000000;0.592994
3287.000000;0.594807
3286.000000;0.596069
3285.000000;0.596775
3284.000000;0.597270
3283.000000;0.597743
3282.000000;0.598119
3281.000000;0.598431
3280.000000;0.598968
3279.000000;0.599900
3278.000000;0.600988
3277.000000;0.601905
3276.000000;0.602650
3275.000000;0.603453
3274.000000;0.604436
3273.000000;0.605593
3272.000000;0.606952
3271.000000;0.608417
3270.000000;0.609567
3269.000000;0.609984
3268.000000;0.609868
3267.000000;0.610071
3266.000000;0.611346
3265.000000;0.613624
3264.000000;0.616085
3263.000000;0.617875
3262.000000;0.618745
3261.000000;0.619071
3260.000000;0.619356
3259.000000;0.619790
3258.000000;0.620264
3257.000000;0.620685
3256.000000;0.621114
3255.000000;0.621610
3254.000000;0.622156
3253.000000;0.622819
3252.000000;0.623825
3251.000000;0.625351
3250.000000;0.627294
3249.000000;0.629316
3248.000000;0.631027
3247.000000;0.632135
3246.000000;0.632590
3245.000000;0.632716
3244.000000;0.633017
3243.000000;0.633726
3242.000000;0.634630
3241.000000;0.635426
3240.000000;0.636087
3239.000000;0.636789
3238.000000;0.637641
3237.000000;0.638663
3236.000000;0.639896
3235.000000;0.641345
3234.000000;0.642844
3233.000000;0.644174
3232.000000;0.645244
3231.000000;0.646033
3230.000000;0.646467
3229.000000;0.646545
3228.000000;0.646534
3227.000000;0.646809
3226.000000;0.647495
3225.000000;0.648403
3224.000000;0.649314
3223.000000;0.650152
3222.000000;0.650851
3221.000000;0.651238
3220.000000;0.651224
3219.000000;0.651081
3218.000000;0.651381
3217.000000;0.652556
3216.000000;0.654492
3215.000000;0.656581
3214.000000;0.658196
3213.000000;0.659115
3212.000000;0.659510
3211.000000;0.659713
3210.000000;0.660097
3209.000000;0.660995
3208.000000;0.662421
3207.000000;0.663919
3206.000000;0.664893
3205.000000;0.665190
3204.000000;0.665219
3203.000000;0.665531
3202.000000;0.666436
3201.000000;0.667946
3200.000000;0.669783
3199.000000;0.671417
3198.000000;0.672406
3197.000000;0.672816
3196.000000;0.673108
3195.000000;0.673554
3194.000000;0.674032
3193.000000;0.674450
3192.000000;0.675003
3191.000000;0.675811
3190.000000;0.676580
3189.000000;0.676914
3188.000000;0.676845
3187.000000;0.676815
3186.000000;0.677259
3185.000000;0.678379
3184.000000;0.680153
3183.000000;0.682299
3182.000000;0.684273
3181.000000;0.685549
3180.000000;0.685979
3179.000000;0.685844
3178.000000;0.685614
3177.000000;0.685686
3176.000000;0.686221
3175.000000;0.687066
3174.000000;0.687911
3173.000000;0.688582
3172.000000;0.689114
3171.000000;0.689537
3170.000000;0.689854
3169.000000;0.690289
3168.000000;0.691232
3167.000000;0.692738
3166.000000;0.694328
3165.000000;0.695507
3164.000000;0.696267
3163.000000;0.696816
3162.000000;0.697056
3161.000000;0.696754
3160.000000;0.696147
3159.000000;0.695937
3158.000000;0.696569
3157.000000;0.697765
3156.000000;0.698844
3155.000000;0.699342
3154.000000;0.699279
3153.000000;0.699052
3152.000000;0.699166
3151.000000;0.699913
3150.000000;0.701122
3149.000000;0.702296
3148.000000;0.703085
3147.000000;0.703610
3146.000000;0.704274
3145.000000;0.705284
3144.000000;0.706442
3143.000000;0.707375
3142.000000;0.707914
3141.000000;0.708159
3140.000000;0.708247
3139.000000;0.708206
3138.000000;0.708130
3137.000000;0.708304
3136.000000;0.708939
3135.000000;0.709832
3134.000000;0.710566
3133.000000;0.711087
3132.000000;0.711777
3131.000000;0.712841
3130.000000;0.713921
3129.000000;0.714587
3128.000000;0.715019
3127.000000;0.715793
3126.000000;0.717008
3125.000000;0.717973
3124.000000;0.717941
3123.000000;0.716969
3122.000000;0.715887
3121.000000;0.715518
3120.000000;0.716069
3119.000000;0.717174
3118.000000;0.718346
3117.000000;0.719359
3116.000000;0.720303
3115.000000;0.721389
3114.000000;0.722658
3113.000000;0.723834
3112.000000;0.724427
3111.000000;0.724057
3110.000000;0.722795
3109.000000;0.721228
3108.000000;0.720127
3107.000000;0.719992
3106.000000;0.720839
3105.000000;0.722330
3104.000000;0.724021
3103.000000;0.725546
3102.000000;0.726643
3101.000000;0.727143
3100.000000;0.726989
3099.000000;0.726331
3098.000000;0.725560
3097.000000;0.725108
3096.000000;0.725167
3095.000000;0.725613
3094.000000;0.726193
3093.000000;0.726727
3092.000000;0.727164
3091.000000;0.727531
3090.000000;0.727900
3089.000000;0.728332
3088.000000;0.728825
3087.000000;0.729383
3086.000000;0.730094
3085.000000;0.730991
3084.000000;0.731841
3083.000000;0.732303
3082.000000;0.732334
3081.000000;0.732245
3080.000000;0.732274
3079.000000;0.732373
3078.000000;0.732502
3077.000000;0.732804
3076.000000;0.733283
3075.000000;0.733599
3074.000000;0.733477
3073.000000;0.733100
3072.000000;0.732786
3071.000000;0.732480
3070.000000;0.731987
3069.000000;0.731545
3068.000000;0.731735
3067.000000;0.732808
3066.000000;0.734444
3065.000000;0.736078
3064.000000;0.737147
3063.000000;0.737168
3062.000000;0.736109
3061.000000;0.734756
3060.000000;0.734218
3059.000000;0.734865
3058.000000;0.736041
3057.000000;0.736903
3056.000000;0.737223
3055.000000;0.737232
3054.000000;0.737122
3053.000000;0.736976
3052.000000;0.736888
3051.000000;0.736876
3050.000000;0.736874
3049.000000;0.736989
3048.000000;0.737538
3047.000000;0.738568
3046.000000;0.739589
3045.000000;0.740079
3044.000000;0.740104
3043.000000;0.740119
3042.000000;0.740254
3041.000000;0.740124
3040.000000;0.739383
3039.000000;0.738246
3038.000000;0.737356
3037.000000;0.737212
3036.000000;0.737742
3035.000000;0.738397
3034.000000;0.738678
3033.000000;0.738553
3032.000000;0.738318
3031.000000;0.738111
3030.000000;0.737796
3029.000000;0.737354
3028.000000;0.737081
3027.000000;0.737206
3026.000000;0.737527
3025.000000;0.737650
3024.000000;0.737494
3023.000000;0.737373
3022.000000;0.737581
3021.000000;0.738061
3020.000000;0.738438
3019.000000;0.738292
3018.000000;0.737518
3017.000000;0.736547
3016.000000;0.736087
3015.000000;0.736423
3014.000000;0.737044
3013.000000;0.737192
3012.000000;0.736758
3011.000000;0.736383
3010.000000;0.736613
3009.000000;0.737203
3008.000000;0.737440
3007.000000;0.736985
3006.000000;0.736154
3005.000000;0.735398
3004.000000;0.734771
3003.000000;0.734081
3002.000000;0.733405
3001.000000;0.733196
3000.000000;0.733794
2999.000000;0.734948
2998.000000;0.735958
2997.000000;0.736301
2996.000000;0.736042
2995.000000;0.735669
2994.000000;0.735617
2993.000000;0.735939
2992.000000;0.736298
2991.000000;0.736232
2990.000000;0.735536
2989.000000;0.734512
2988.000000;0.733763
2987.000000;0.733686
2986.000000;0.734132
2985.000000;0.734556
2984.000000;0.734456
2983.000000;0.733684
2982.000000;0.732449
2981.000000;0.731140
2980.000000;0.730111
2979.000000;0.729518
2978.000000;0.729289
2977.000000;0.729194
2976.000000;0.728995
2975.000000;0.728591
2974.000000;0.728112
2973.000000;0.727845
2972.000000;0.728000
2971.000000;0.728495
2970.000000;0.729057
2969.000000;0.729501
2968.000000;0.729817
2967.000000;0.729944
2966.000000;0.729651
2965.000000;0.728831
2964.000000;0.727837
2963.000000;0.727300
2962.000000;0.727492
2961.000000;0.728005
2960.000000;0.728132
2959.000000;0.727530
2958.000000;0.726435
2957.000000;0.725341
2956.000000;0.724575
2955.000000;0.724154
2954.000000;0.723887
2953.000000;0.723549
2952.000000;0.723058
2951.000000;0.722574
2950.000000;0.722401
2949.000000;0.722724
2948.000000;0.723410
2947.000000;0.724076
2946.000000;0.724305
2945.000000;0.723858
2944.000000;0.722802
2943.000000;0.721493
2942.000000;0.720347
2941.000000;0.719503
2940.000000;0.718743
2939.000000;0.717827
2938.000000;0.716878
2937.000000;0.716270
2936.000000;0.716146
2935.000000;0.716192
2934.000000;0.715994
2933.000000;0.715535
2932.000000;0.715222
2931.000000;0.715442
2930.000000;0.716154
2929.000000;0.716877
2928.000000;0.717020
2927.000000;0.716233
2926.000000;0.714564
2925.000000;0.712435
2924.000000;0.710499
2923.000000;0.709362
2922.000000;0.709279
2921.000000;0.710044
2920.000000;0.711177
2919.000000;0.712171
2918.000000;0.712569
2917.000000;0.712045
2916.000000;0.710708
2915.000000;0.709261
2914.000000;0.708454
2913.000000;0.708270
2912.000000;0.707952
2911.000000;0.707029
2910.000000;0.705954
2909.000000;0.705422
2908.000000;0.705366
2907.000000;0.705140
2906.000000;0.704513
2905.000000;0.703920
2904.000000;0.703678
2903.000000;0.703517
2902.000000;0.703075
2901.000000;0.702435
2900.000000;0.701883
2899.000000;0.701454
2898.000000;0.701024
2897.000000;0.700607
2896.000000;0.700255
2895.000000;0.699821
2894.000000;0.699119
2893.000000;0.698219
2892.000000;0.697341
2891.000000;0.696541
2890.000000;0.695758
2889.000000;0.695096
2888.000000;0.694789
2887.000000;0.694856
2886.000000;0.694959
2885.000000;0.694720
2884.000000;0.694093
2883.000000;0.693426
2882.000000;0.693152
2881.000000;0.693343
2880.000000;0.693527
2879.000000;0.693075
2878.000000;0.691850
2877.000000;0.690372
2876.000000;0.689260
2875.000000;0.688683
2874.000000;0.688442
2873.000000;0.688351
2872.000000;0.688295
2871.000000;0.688068
2870.000000;0.687503
2869.000000;0.686754
2868.000000;0.686182
2867.000000;0.685903
2866.000000;0.685657
2865.000000;0.685200
2864.000000;0.684669
2863.000000;0.684444
2862.000000;0.684681
2861.000000;0.685042
2860.000000;0.684903
2859.000000;0.683879
2858.000000;0.682191
2857.000000;0.680434
2856.000000;0.678969
2855.000000;0.677702
2854.000000;0.676498
2853.000000;0.675564
2852.000000;0.675177
2851.000000;0.675180
2850.000000;0.675057
2849.000000;0.674531
2848.000000;0.673818
2847.000000;0.673249
2846.000000;0.672870
2845.000000;0.672504
2844.000000;0.671997
2843.000000;0.671333
2842.000000;0.670665
2841.000000;0.670300
2840.000000;0.670487
2839.000000;0.671075
2838.000000;0.671468
2837.000000;0.671061
2836.000000;0.669690
2835.000000;0.667667
2834.000000;0.665548
2833.000000;0.663930
2832.000000;0.663268
2831.000000;0.663607
2830.000000;0.664431
2829.000000;0.664900
2828.000000;0.664369
2827.000000;0.662838
2826.000000;0.660969
2825.000000;0.659637
2824.000000;0.659271
2823.000000;0.659498
2822.000000;0.659476
2821.000000;0.658686
2820.000000;0.657386
2819.000000;0.656289
2818.000000;0.655902
2817.000000;0.656193
2816.000000;0.656698
2815.000000;0.656824
2814.000000;0.656179
2813.000000;0.654841
2812.000000;0.653334
2811.000000;0.652202
2810.000000;0.651558
2809.000000;0.651084
2808.000000;0.650458
2807.000000;0.649713
2806.000000;0.649137
2805.000000;0.648905
2804.000000;0.648875
2803.000000;0.648733
2802.000000;0.648277
2801.000000;0.647566
2800.000000;0.646785
2799.000000;0.646054
2798.000000;0.645411
2797.000000;0.644968
2796.000000;0.644930
2795.000000;0.645345
2794.000000;0.645893
2793.000000;0.646051
2792.000000;0.645494
2791.000000;0.644358
2790.000000;0.643101
2789.000000;0.642182
2788.000000;0.641786
2787.000000;0.641718
2786.000000;0.641498
2785.000000;0.640688
2784.000000;0.639252
2783.000000;0.637626
2782.000000;0.636354
2781.000000;0.635607
2780.000000;0.635045
2779.000000;0.634197
2778.000000;0.632960
2777.000000;0.631691
2776.000000;0.630774
2775.000000;0.630196
2774.000000;0.629619
2773.000000;0.628840
2772.000000;0.628030
2771.000000;0.627493
2770.000000;0.627323
2769.000000;0.627343
2768.000000;0.627327
2767.000000;0.627200
2766.000000;0.627056
2765.000000;0.627003
2764.000000;0.626961
2763.000000;0.626635
2762.000000;0.625805
2761.000000;0.624637
2760.000000;0.623592
2759.000000;0.622925
2758.000000;0.622429
2757.000000;0.621763
2756.000000;0.620892
2755.000000;0.620023
2754.000000;0.619246
2753.000000;0.618457
2752.000000;0.617644
2751.000000;0.616993
2750.000000;0.616644
2749.000000;0.616501
2748.000000;0.616319
2747.000000;0.615907
2746.000000;0.615201
2745.000000;0.614261
2744.000000;0.613258
2743.000000;0.612393
2742.000000;0.611760
2741.000000;0.611296
2740.000000;0.610851
2739.000000;0.610273
2738.000000;0.609499
2737.000000;0.608664
2736.000000;0.608044
2735.000000;0.607749
2734.000000;0.607534
2733.000000;0.607075
2732.000000;0.606371
2731.000000;0.605648
2730.000000;0.604896
2729.000000;0.603862
2728.000000;0.602551
2727.000000;0.601419
2726.000000;0.600843
2725.000000;0.600607
2724.000000;0.600170
2723.000000;0.599369
2722.000000;0.598581
2721.000000;0.598207
2720.000000;0.598190
2719.000000;0.598098
2718.000000;0.597557
2717.000000;0.596545
2716.000000;0.595340
2715.000000;0.594244
2714.000000;0.593398
2713.000000;0.592811
2712.000000;0.592457
2711.000000;0.592248
2710.000000;0.592007
2709.000000;0.591626
2708.000000;0.591231
2707.000000;0.591006
2706.000000;0.590859
2705.000000;0.590477
2704.000000;0.589739
2703.000000;0.588852
2702.000000;0.587977
2701.000000;0.586990
2700.000000;0.585777
2699.000000;0.584599
2698.000000;0.583912
2697.000000;0.583893
2696.000000;0.584260
2695.000000;0.584476
2694.000000;0.584049
2693.000000;0.582797
2692.000000;0.581006
2691.000000;0.579239
2690.000000;0.577883
2689.000000;0.576954
2688.000000;0.576378
2687.000000;0.576206
2686.000000;0.576363
2685.000000;0.576413
2684.000000;0.575918
2683.000000;0.574958
2682.000000;0.574037
2681.000000;0.573494
2680.000000;0.573242
2679.000000;0.573047
2678.000000;0.572786
2677.000000;0.572418
2676.000000;0.571887
2675.000000;0.571160
2674.000000;0.570244
2673.000000;0.569161
2672.000000;0.568001
2671.000000;0.566985
2670.000000;0.566367
2669.000000;0.566236
2668.000000;0.566435
2667.000000;0.566592
2666.000000;0.566247
2665.000000;0.565148
2664.000000;0.563572
2663.000000;0.562193
2662.000000;0.561443
2661.000000;0.561129
2660.000000;0.560797
2659.000000;0.560281
2658.000000;0.559674
2657.000000;0.558954
2656.000000;0.557975
2655.000000;0.556750
2654.000000;0.555457
2653.000000;0.554247
2652.000000;0.553270
2651.000000;0.552796
2650.000000;0.552951
2649.000000;0.553394
2648.000000;0.553564
2647.000000;0.553263
2646.000000;0.552695
2645.000000;0.551990
2644.000000;0.551044
2643.000000;0.549887
2642.000000;0.548820
2641.000000;0.548053
2640.000000;0.547484
2639.000000;0.546939
2638.000000;0.546396
2637.000000;0.545880
2636.000000;0.545367
2635.000000;0.544905
2634.000000;0.544566
2633.000000;0.544227
2632.000000;0.543607
2631.000000;0.542649
2630.000000;0.541630
2629.000000;0.540805
2628.000000;0.540181
2627.000000;0.539686
2626.000000;0.539326
2625.000000;0.539051
2624.000000;0.538725
2623.000000;0.538319
2622.000000;0.537907
2621.000000;0.537361
2620.000000;0.536368
2619.000000;0.534909
2618.000000;0.533480
2617.000000;0.532603
2616.000000;0.532294
2615.000000;0.532207
2614.000000;0.532064
2613.000000;0.531776
2612.000000;0.531299
2611.000000;0.530635
2610.000000;0.529876
2609.000000;0.529071
2608.000000;0.528144
2607.000000;0.527076
2606.000000;0.526057
2605.000000;0.525325
2604.000000;0.524943
2603.000000;0.524838
2602.000000;0.524903
2601.000000;0.524953
2600.000000;0.524733
2599.000000;0.524169
2598.000000;0.523453
2597.000000;0.522766
2596.000000;0.522021
2595.000000;0.521068
2594.000000;0.520003
2593.000000;0.519092
2592.000000;0.518451
2591.000000;0.517962
2590.000000;0.517458
2589.000000;0.516862
2588.000000;0.516205
2587.000000;0.515595
2586.000000;0.515113
2585.000000;0.514654
2584.000000;0.513996
2583.000000;0.513087
2582.000000;0.512161
2581.000000;0.511463
2580.000000;0.510975
2579.000000;0.510510
2578.000000;0.509965
2577.000000;0.509374
2576.000000;0.508807
2575.000000;0.508311
2574.000000;0.507853
2573.000000;0.507281
2572.000000;0.506493
2571.000000;0.505673
2570.000000;0.505136
2569.000000;0.504850
2568.000000;0.504379
2567.000000;0.503430
2566.000000;0.502240
2565.000000;0.501231
2564.000000;0.500506
2563.000000;0.499957
2562.000000;0.499619
2561.000000;0.499580
2560.000000;0.499656
2559.000000;0.499483
2558.000000;0.498928
2557.000000;0.498142
2556.000000;0.497253
2555.000000;0.496274
2554.000000;0.495297
2553.000000;0.494493
2552.000000;0.493875
2551.000000;0.493280
2550.000000;0.492628
2549.000000;0.492013
2548.000000;0.491498
2547.000000;0.490991
2546.000000;0.490397
2545.000000;0.489731
2544.000000;0.489038
2543.000000;0.488337
2542.000000;0.487693
2541.000000;0.487199
2540.000000;0.486831
2539.000000;0.486434
2538.000000;0.485911
2537.000000;0.485337
2536.000000;0.484810
2535.000000;0.484276
2534.000000;0.483564
2533.000000;0.482582
2532.000000;0.481434
2531.000000;0.480364
2530.000000;0.479582
2529.000000;0.479100
2528.000000;0.478744
2527.000000;0.478334
2526.000000;0.477817
2525.000000;0.477210
2524.000000;0.476528
2523.000000;0.475837
2522.000000;0.475302
2521.000000;0.475023
2520.000000;0.474859
2519.000000;0.474528
2518.000000;0.473900
2517.000000;0.473105
2516.000000;0.472360
2515.000000;0.471751
2514.000000;0.471192
2513.000000;0.470526
2512.000000;0.469718
2511.000000;0.468967
2510.000000;0.468571
2509.000000;0.468597
2508.000000;0.468745
2507.000000;0.468617
2506.000000;0.468048
2505.000000;0.467134
2504.000000;0.466028
2503.000000;0.464891
2502.000000;0.463949
2501.000000;0.463369
2500.000000;0.463029
2499.000000;0.462586
2498.000000;0.461842
2497.000000;0.460942
2496.000000;0.460164
2495.000000;0.459595
2494.000000;0.459101
2493.000000;0.458523
2492.000000;0.457837
2491.000000;0.457124
2490.000000;0.456445
2489.000000;0.455790
2488.000000;0.455140
2487.000000;0.454543
2486.000000;0.454086
2485.000000;0.453768
2484.000000;0.453469
2483.000000;0.453092
2482.000000;0.452696
2481.000000;0.452413
2480.000000;0.452256
2479.000000;0.452059
2478.000000;0.451589
2477.000000;0.450707
2476.000000;0.449471
2475.000000;0.448167
2474.000000;0.447176
2473.000000;0.446688
2472.000000;0.446522
2471.000000;0.446268
2470.000000;0.445656
2469.000000;0.444757
2468.000000;0.443848
2467.000000;0.443149
2466.000000;0.442680
2465.000000;0.442320
2464.000000;0.441908
2463.000000;0.441307
2462.000000;0.440443
2461.000000;0.439386
2460.000000;0.438383
2459.000000;0.437713
2458.000000;0.437419
2457.000000;0.437232
2456.000000;0.436830
2455.000000;0.436120
2454.000000;0.435203
2453.000000;0.434181
2452.000000;0.433160
2451.000000;0.432363
2450.000000;0.431990
2449.000000;0.431919
2448.000000;0.431763
2447.000000;0.431292
2446.000000;0.430615
2445.000000;0.429901
2444.000000;0.429131
2443.000000;0.428292
2442.000000;0.427591
2441.000000;0.427273
2440.000000;0.427315
2439.000000;0.427458
2438.000000;0.427455
2437.000000;0.427134
2436.000000;0.426408
2435.000000;0.425402
2434.000000;0.424491
2433.000000;0.423949
2432.000000;0.423602
2431.000000;0.423035
2430.000000;0.422103
2429.000000;0.421035
2428.000000;0.420069
2427.000000;0.419233
2426.000000;0.418532
2425.000000;0.418071
2424.000000;0.417878
2423.000000;0.417757
2422.000000;0.417451
2421.000000;0.416868
2420.000000;0.416096
2419.000000;0.415274
2418.000000;0.414522
2417.000000;0.413888
2416.000000;0.413314
2415.000000;0.412693
2414.000000;0.412016
2413.000000;0.411382
2412.000000;0.410841
2411.000000;0.410329
2410.000000;0.409793
2409.000000;0.409263
2408.000000;0.408743
2407.000000;0.408131
2406.000000;0.407352
2405.000000;0.406522
2404.000000;0.405862
2403.000000;0.405466
2402.000000;0.405205
2401.000000;0.404868
2400.000000;0.404357
2399.000000;0.403772
2398.000000;0.403331
2397.000000;0.403169
2396.000000;0.403152
2395.000000;0.402927
2394.000000;0.402246
2393.000000;0.401239
2392.000000;0.400291
2391.000000;0.399631
2390.000000;0.399098
2389.000000;0.398381
2388.000000;0.397444
2387.000000;0.396603
2386.000000;0.396156
2385.000000;0.396015
2384.000000;0.395768
2383.000000;0.395119
2382.000000;0.394176
2381.000000;0.393303
2380.000000;0.392730
2379.000000;0.392374
2378.000000;0.391984
2377.000000;0.391405
2376.000000;0.390684
2375.000000;0.389961
2374.000000;0.389311
2373.000000;0.388710
2372.000000;0.388130
2371.000000;0.387620
2370.000000;0.387247
2369.000000;0.386978
2368.000000;0.386661
2367.000000;0.386146
2366.000000;0.385409
2365.000000;0.384565
2364.000000;0.383775
2363.000000;0.383146
2362.000000;0.382650
2361.000000;0.382138
2360.000000;0.381513
2359.000000;0.380844
2358.000000;0.380279
2357.000000;0.379859
2356.000000;0.379452
2355.000000;0.378957
2354.000000;0.378402
2353.000000;0.377832
2352.000000;0.377201
2351.000000;0.376469
2350.000000;0.375751
2349.000000;0.375178
2348.000000;0.374737
2347.000000;0.374299
2346.000000;0.373724
2345.000000;0.372964
2344.000000;0.372056
2343.000000;0.371185
2342.000000;0.370525
2341.000000;0.370078
2340.000000;0.369692
2339.000000;0.369205
2338.000000;0.368629
2337.000000;0.368077
2336.000000;0.367610
2335.000000;0.367150
2334.000000;0.366619
2333.000000;0.366002
2332.000000;0.365385
2331.000000;0.364827
2330.000000;0.364365
2329.000000;0.363925
2328.000000;0.363436
2327.000000;0.362899
2326.000000;0.362395
2325.000000;0.361952
2324.000000;0.361423
2323.000000;0.360660
2322.000000;0.359720
2321.000000;0.358886
2320.000000;0.358400
2319.000000;0.358200
2318.000000;0.357984
2317.000000;0.357453
2316.000000;0.356607
2315.000000;0.355682
2314.000000;0.354938
2313.000000;0.354415
2312.000000;0.354032
2311.000000;0.353714
2310.000000;0.353468
2309.000000;0.353214
2308.000000;0.352810
2307.000000;0.352200
2306.000000;0.351525
2305.000000;0.350937
2304.000000;0.350430
2303.000000;0.349889
2302.000000;0.349296
2301.000000;0.348709
2300.000000;0.348116
2299.000000;0.347392
2298.000000;0.346484
2297.000000;0.345516
2296.000000;0.344721
2295.000000;0.344246
2294.000000;0.344050
2293.000000;0.343923
2292.000000;0.343636
2291.000000;0.343126
2290.000000;0.342549
2289.000000;0.342105
2288.000000;0.341803
2287.000000;0.341469
2286.000000;0.340961
2285.000000;0.340311
2284.000000;0.339635
2283.000000;0.338988
2282.000000;0.338375
2281.000000;0.337826
2280.000000;0.337366
2279.000000;0.336931
2278.000000;0.336393
2277.000000;0.335705
2276.000000;0.334964
2275.000000;0.334304
2274.000000;0.333768
2273.000000;0.333305
2272.000000;0.332837
2271.000000;0.332277
2270.000000;0.331551
2269.000000;0.330694
2268.000000;0.329927
2267.000000;0.329499
2266.000000;0.329394
2265.000000;0.329266
2264.000000;0.328760
2263.000000;0.327859
2262.000000;0.326844
2261.000000;0.325975
2260.000000;0.325321
2259.000000;0.324870
2258.000000;0.324609
2257.000000;0.324456
2256.000000;0.324221
2255.000000;0.323763
2254.000000;0.323138
2253.000000;0.322498
2252.000000;0.321890
2251.000000;0.321225
2250.000000;0.320436
2249.000000;0.319594
2248.000000;0.318843
2247.000000;0.318254
2246.000000;0.317778
2245.000000;0.317301
2244.000000;0.316775
2243.000000;0.316284
2242.000000;0.315964
2241.000000;0.315827
2240.000000;0.315685
2239.000000;0.315309
2238.000000;0.314677
2237.000000;0.314012
2236.000000;0.313537
2235.000000;0.313214
2234.000000;0.312783
2233.000000;0.312052
2232.000000;0.311102
2231.000000;0.310187
2230.000000;0.309488
2229.000000;0.309002
2228.000000;0.308634
2227.000000;0.308294
2226.000000;0.307891
2225.000000;0.307338
2224.000000;0.306627
2223.000000;0.305861
2222.000000;0.305156
2221.000000;0.304516
2220.000000;0.303861
2219.000000;0.303175
2218.000000;0.302565
2217.000000;0.302172
2216.000000;0.302003
2215.000000;0.301869
2214.000000;0.301499
2213.000000;0.300798
2212.000000;0.299981
2211.000000;0.299400
2210.000000;0.299169
2209.000000;0.299038
2208.000000;0.298682
2207.000000;0.298052
2206.000000;0.297336
2205.000000;0.296664
2204.000000;0.295997
2203.000000;0.295297
2202.000000;0.294649
2201.000000;0.294158
2200.000000;0.293805
2199.000000;0.293471
2198.000000;0.293039
2197.000000;0.292437
2196.000000;0.291657
2195.000000;0.290809
2194.000000;0.290102
2193.000000;0.289659
2192.000000;0.289367
2191.000000;0.288955
2190.000000;0.288264
2189.000000;0.287429
2188.000000;0.286751
2187.000000;0.286399
2186.000000;0.286269
2185.000000;0.286124
2184.000000;0.285827
2183.000000;0.285382
2182.000000;0.284813
2181.000000;0.284132
2180.000000;0.283433
2179.000000;0.282859
2178.000000;0.282402
2177.000000;0.281845
2176.000000;0.281020
2175.000000;0.280056
2174.000000;0.279240
2173.000000;0.278697
2172.000000;0.278341
2171.000000;0.278093
2170.000000;0.277963
2169.000000;0.277901
2168.000000;0.277722
2167.000000;0.277259
2166.000000;0.276552
2165.000000;0.275805
2164.000000;0.275211
2163.000000;0.274809
2162.000000;0.274464
2161.000000;0.273975
2160.000000;0.273261
2159.000000;0.272449
2158.000000;0.271732
2157.000000;0.271168
2156.000000;0.270671
2155.000000;0.270181
2154.000000;0.269733
2153.000000;0.269371
2152.000000;0.269081
2151.000000;0.268789
2150.000000;0.268370
2149.000000;0.267692
2148.000000;0.266757
2147.000000;0.265773
2146.000000;0.264971
2145.000000;0.264365
2144.000000;0.263812
2143.000000;0.263285
2142.000000;0.262909
2141.000000;0.262709
2140.000000;0.262523
2139.000000;0.262219
2138.000000;0.261850
2137.000000;0.261499
2136.000000;0.261109
2135.000000;0.260568
2134.000000;0.259875
2133.000000;0.259109
2132.000000;0.258311
2131.000000;0.257511
2130.000000;0.256780
2129.000000;0.256188
2128.000000;0.255740
2127.000000;0.255422
2126.000000;0.255224
2125.000000;0.255045
2124.000000;0.254680
2123.000000;0.254012
2122.000000;0.253180
2121.000000;0.252443
2120.000000;0.251897
2119.000000;0.251435
2118.000000;0.250924
2117.000000;0.250359
2116.000000;0.249830
2115.000000;0.249419
2114.000000;0.249126
2113.000000;0.248848
2112.000000;0.248458
2111.000000;0.247933
2110.000000;0.247369
2109.000000;0.246849
2108.000000;0.246343
2107.000000;0.245793
2106.000000;0.245229
2105.000000;0.244724
2104.000000;0.244286
2103.000000;0.243861
2102.000000;0.243415
2101.000000;0.242942
2100.000000;0.242422
2099.000000;0.241839
2098.000000;0.241231
2097.000000;0.240640
2096.000000;0.240060
2095.000000;0.239478
2094.000000;0.238957
2093.000000;0.238588
2092.000000;0.238373
2091.000000;0.238188
2090.000000;0.237884
2089.000000;0.237384
2088.000000;0.236721
2087.000000;0.236010
2086.000000;0.235361
2085.000000;0.234798
2084.000000;0.234261
2083.000000;0.233722
2082.000000;0.233226
2081.000000;0.232797
2080.000000;0.232353
2079.000000;0.231795
2078.000000;0.231130
2077.000000;0.230415
2076.000000;0.229650
2075.000000;0.228822
2074.000000;0.228056
2073.000000;0.227578
2072.000000;0.227473
2071.000000;0.227550
2070.000000;0.227496
2069.000000;0.227123
2068.000000;0.226471
2067.000000;0.225712
2066.000000;0.225024
2065.000000;0.224499
2064.000000;0.224113
2063.000000;0.223756
2062.000000;0.223322
2061.000000;0.222784
2060.000000;0.222192
2059.000000;0.221604
2058.000000;0.221040
2057.000000;0.220482
2056.000000;0.219905
2055.000000;0.219312
2054.000000;0.218752
2053.000000;0.218306
2052.000000;0.218033
2051.000000;0.217892
2050.000000;0.217731
2049.000000;0.217389
2048.000000;0.216840
2047.000000;0.216206
2046.000000;0.215626
2045.000000;0.215126
2044.000000;0.214656
2043.000000;0.214177
2042.000000;0.213672
2041.000000;0.213108
2040.000000;0.212463
2039.000000;0.211785
2038.000000;0.211184
2037.000000;0.210724
2036.000000;0.210387
2035.000000;0.210110
2034.000000;0.209816
2033.000000;0.209416
2032.000000;0.208856
2031.000000;0.208196
2030.000000;0.207557
2029.000000;0.206993
2028.000000;0.206464
2027.000000;0.205944
2026.000000;0.205487
2025.000000;0.205126
2024.000000;0.204783
2023.000000;0.204333
2022.000000;0.203749
2021.000000;0.203124
2020.000000;0.202567
2019.000000;0.202100
2018.000000;0.201645
2017.000000;0.201114
2016.000000;0.200518
2015.000000;0.199979
2014.000000;0.199592
2013.000000;0.199288
2012.000000;0.198877
2011.000000;0.198266
2010.000000;0.197569
2009.000000;0.196991
2008.000000;0.196637
2007.000000;0.196445
2006.000000;0.196263
2005.000000;0.195969
2004.000000;0.195543
2003.000000;0.195065
2002.000000;0.194616
2001.000000;0.194176
2000.000000;0.193662
1999.000000;0.193063
1998.000000;0.192485
1997.000000;0.192023
1996.000000;0.191650
1995.000000;0.191244
1994.000000;0.190713
1993.000000;0.190068
1992.000000;0.189407
1991.000000;0.188841
1990.000000;0.188379
1989.000000;0.187899
1988.000000;0.187283
1987.000000;0.186598
1986.000000;0.186054
1985.000000;0.185743
1984.000000;0.185492
1983.000000;0.185047
1982.000000;0.184359
1981.000000;0.183619
1980.000000;0.183040
1979.000000;0.182655
1978.000000;0.182326
1977.000000;0.181889
1976.000000;0.181303
1975.000000;0.180683
1974.000000;0.180188
1973.000000;0.179867
1972.000000;0.179634
1971.000000;0.179381
1970.000000;0.179073
1969.000000;0.178717
1968.000000;0.178312
1967.000000;0.177842
1966.000000;0.177305
1965.000000;0.176714
1964.000000;0.176109
1963.000000;0.175564
1962.000000;0.175136
1961.000000;0.174786
1960.000000;0.174409
1959.000000;0.173960
1958.000000;0.173480
1957.000000;0.172973
1956.000000;0.172376
1955.000000;0.171699
1954.000000;0.171094
1953.000000;0.170687
1952.000000;0.170406
1951.000000;0.170065
1950.000000;0.169599
1949.000000;0.169098
1948.000000;0.168641
1947.000000;0.168200
1946.000000;0.167718
1945.000000;0.167207
1944.000000;0.166717
1943.000000;0.166280
1942.000000;0.165886
1941.000000;0.165505
1940.000000;0.165075
1939.000000;0.164531
1938.000000;0.163866
1937.000000;0.163170
1936.000000;0.162583
1935.000000;0.162199
1934.000000;0.161991
1933.000000;0.161814
1932.000000;0.161513
1931.000000;0.161062
1930.000000;0.160573
1929.000000;0.160151
1928.000000;0.159770
1927.000000;0.159299
1926.000000;0.158656
1925.000000;0.157893
1924.000000;0.157159
1923.000000;0.156598
1922.000000;0.156246
1921.000000;0.156003
1920.000000;0.155702
1919.000000;0.155246
1918.000000;0.154659
1917.000000;0.154025
1916.000000;0.153396
1915.000000;0.152803
1914.000000;0.152288
1913.000000;0.151875
1912.000000;0.151540
1911.000000;0.151224
1910.000000;0.150890
1909.000000;0.150509
1908.000000;0.150060
1907.000000;0.149572
1906.000000;0.149144
1905.000000;0.148867
1904.000000;0.148713
1903.000000;0.148558
1902.000000;0.148293
1901.000000;0.147885
1900.000000;0.147367
1899.000000;0.146802
1898.000000;0.146276
1897.000000;0.145838
1896.000000;0.145432
1895.000000;0.144941
1894.000000;0.144303
1893.000000;0.143566
1892.000000;0.142803
1891.000000;0.142050
1890.000000;0.141341
1889.000000;0.140761
1888.000000;0.140398
1887.000000;0.140230
1886.000000;0.140113
1885.000000;0.139884
1884.000000;0.139488
1883.000000;0.139003
1882.000000;0.138555
1881.000000;0.138200
1880.000000;0.137872
1879.000000;0.137466
1878.000000;0.136969
1877.000000;0.136481
1876.000000;0.136080
1875.000000;0.135702
1874.000000;0.135205
1873.000000;0.134554
1872.000000;0.133876
1871.000000;0.133311
1870.000000;0.132860
1869.000000;0.132444
1868.000000;0.132040
1867.000000;0.131693
1866.000000;0.131392
1865.000000;0.131044
1864.000000;0.130594
1863.000000;0.130108
1862.000000;0.129681
1861.000000;0.129309
1860.000000;0.128909
1859.000000;0.128438
1858.000000;0.127936
1857.000000;0.127471
1856.000000;0.127080
1855.000000;0.126754
1854.000000;0.126431
1853.000000;0.126027
1852.000000;0.125527
1851.000000;0.125011
1850.000000;0.124549
1849.000000;0.124093
1848.000000;0.123550
1847.000000;0.122953
1846.000000;0.122462
1845.000000;0.122145
1844.000000;0.121856
1843.000000;0.121399
1842.000000;0.120762
1841.000000;0.120134
1840.000000;0.119677
1839.000000;0.119380
1838.000000;0.119139
1837.000000;0.118870
1836.000000;0.118517
1835.000000;0.118024
1834.000000;0.117391
1833.000000;0.116709
1832.000000;0.116081
1831.000000;0.115487
1830.000000;0.114837
1829.000000;0.114162
1828.000000;0.113667
1827.000000;0.113507
1826.000000;0.113558
1825.000000;0.113522
1824.000000;0.113244
1823.000000;0.112838
1822.000000;0.112459
1821.000000;0.112097
1820.000000;0.111662
1819.000000;0.111183
1818.000000;0.110771
1817.000000;0.110416
1816.000000;0.109966
1815.000000;0.109331
1814.000000;0.108613
1813.000000;0.108001
1812.000000;0.107571
1811.000000;0.107237
1810.000000;0.106849
1809.000000;0.106331
1808.000000;0.105737
1807.000000;0.105208
1806.000000;0.104827
1805.000000;0.104551
1804.000000;0.104267
1803.000000;0.103906
1802.000000;0.103467
1801.000000;0.102991
1800.000000;0.102545
1799.000000;0.102205
1798.000000;0.101974
1797.000000;0.101722
1796.000000;0.101304
1795.000000;0.100728
1794.000000;0.100137
1793.000000;0.099649
1792.000000;0.099264
1791.000000;0.098936
1790.000000;0.098652
1789.000000;0.098383
1788.000000;0.098037
1787.000000;0.097557
1786.000000;0.097029
1785.000000;0.096611
1784.000000;0.096345
1783.000000;0.096101
1782.000000;0.095705
1781.000000;0.095122
1780.000000;0.094487
1779.000000;0.093980
1778.000000;0.093662
1777.000000;0.093425
1776.000000;0.093094
1775.000000;0.092573
1774.000000;0.091903
1773.000000;0.091222
1772.000000;0.090671
1771.000000;0.090313
1770.000000;0.090105
1769.000000;0.089929
1768.000000;0.089668
1767.000000;0.089296
1766.000000;0.088855
1765.000000;0.088366
1764.000000;0.087798
1763.000000;0.087146
1762.000000;0.086497
1761.000000;0.085959
1760.000000;0.085569
1759.000000;0.085297
1758.000000;0.085096
1757.000000;0.084924
1756.000000;0.084741
1755.000000;0.084501
1754.000000;0.084190
1753.000000;0.083818
1752.000000;0.083398
1751.000000;0.082932
1750.000000;0.082404
1749.000000;0.081805
1748.000000;0.081192
1747.000000;0.080663
1746.000000;0.080270
1745.000000;0.079964
1744.000000;0.079654
1743.000000;0.079312
1742.000000;0.078952
1741.000000;0.078549
1740.000000;0.078041
1739.000000;0.077431
1738.000000;0.076804
1737.000000;0.076270
1736.000000;0.075886
1735.000000;0.075653
1734.000000;0.075529
1733.000000;0.075365
1732.000000;0.074975
1731.000000;0.074368
1730.000000;0.073726
1729.000000;0.073187
1728.000000;0.072713
1727.000000;0.072200
1726.000000;0.071636
1725.000000;0.071109
1724.000000;0.070683
1723.000000;0.070347
1722.000000;0.070049
1721.000000;0.069746
1720.000000;0.069421
1719.000000;0.069089
1718.000000;0.068765
1717.000000;0.068403
1716.000000;0.067935
1715.000000;0.067403
1714.000000;0.066943
1713.000000;0.066615
1712.000000;0.066321
1711.000000;0.065930
1710.000000;0.065439
1709.000000;0.064957
1708.000000;0.064552
1707.000000;0.064178
1706.000000;0.063770
1705.000000;0.063327
1704.000000;0.062901
1703.000000;0.062527
1702.000000;0.062177
1701.000000;0.061805
1700.000000;0.061444
1699.000000;0.061087
1698.000000;0.060680
1697.000000;0.060257
1696.000000;0.059876
1695.000000;0.059559
1694.000000;0.059274
1693.000000;0.058994
1692.000000;0.058741
1691.000000;0.058509
1690.000000;0.058233
1689.000000;0.057824
1688.000000;0.057253
1687.000000;0.056589
1686.000000;0.055951
1685.000000;0.055419
1684.000000;0.055009
1683.000000;0.054645
1682.000000;0.054253
1681.000000;0.053853
1680.000000;0.053471
1679.000000;0.053085
1678.000000;0.052675
1677.000000;0.052259
1676.000000;0.051848
1675.000000;0.051431
1674.000000;0.051004
1673.000000;0.050603
1672.000000;0.050274
1671.000000;0.049980
1670.000000;0.049617
1669.000000;0.049142
1668.000000;0.048615
1667.000000;0.048112
1666.000000;0.047646
1665.000000;0.047193
1664.000000;0.046763
1663.000000;0.046401
1662.000000;0.046107
1661.000000;0.045828
1660.000000;0.045537
1659.000000;0.045244
1658.000000;0.044929
1657.000000;0.044541
1656.000000;0.044062
1655.000000;0.043521
1654.000000;0.042978
1653.000000;0.042517
1652.000000;0.042152
1651.000000;0.041789
1650.000000;0.041431
1649.000000;0.041131
1648.000000;0.040841
1647.000000;0.040479
1646.000000;0.040022
1645.000000;0.039500
1644.000000;0.038967
1643.000000;0.038503
1642.000000;0.038163
1641.000000;0.037938
1640.000000;0.037754
1639.000000;0.037520
1638.000000;0.037185
1637.000000;0.036759
1636.000000;0.036321
1635.000000;0.035937
1634.000000;0.035578
1633.000000;0.035160
1632.000000;0.034695
1631.000000;0.034275
1630.000000;0.033957
1629.000000;0.033712
1628.000000;0.033484
1627.000000;0.033221
1626.000000;0.032867
1625.000000;0.032387
1624.000000;0.031812
1623.000000;0.031245
1622.000000;0.030760
1621.000000;0.030346
1620.000000;0.029962
1619.000000;0.029595
1618.000000;0.029244
1617.000000;0.028910
1616.000000;0.028605
1615.000000;0.028324
1614.000000;0.028039
1613.000000;0.027724
1612.000000;0.027381
1611.000000;0.027048
1610.000000;0.026735
1609.000000;0.026384
1608.000000;0.025945
1607.000000;0.025451
1606.000000;0.024967
1605.000000;0.024507
1604.000000;0.024054
1603.000000;0.023629
1602.000000;0.023271
1601.000000;0.022953
1600.000000;0.022606
1599.000000;0.022220
1598.000000;0.021867
1597.000000;0.021588
1596.000000;0.021341
1595.000000;0.021061
1594.000000;0.020727
1593.000000;0.020351
1592.000000;0.019940
1591.000000;0.019507
1590.000000;0.019074
1589.000000;0.018665
1588.000000;0.018285
1587.000000;0.017928
1586.000000;0.017567
1585.000000;0.017161
1584.000000;0.016718
1583.000000;0.016302
1582.000000;0.015970
1581.000000;0.015694
1580.000000;0.015386
1579.000000;0.015011
1578.000000;0.014607
1577.000000;0.014206
1576.000000;0.013804
1575.000000;0.013389
1574.000000;0.012949
1573.000000;0.012483
1572.000000;0.011995
1571.000000;0.011520
1570.000000;0.011132
1569.000000;0.010863
1568.000000;0.010640
1567.000000;0.010365
1566.000000;0.010022
1565.000000;0.009672
1564.000000;0.009378
1563.000000;0.009148
1562.000000;0.008924
1561.000000;0.008587
1560.000000;0.008089
1559.000000;0.007562
1558.000000;0.007108
1557.000000;0.006719
1556.000000;0.006344
1555.000000;0.005974
1554.000000;0.005621
1553.000000;0.005272
1552.000000;0.004903
1551.000000;0.004540
1550.000000;0.004233
1549.000000;0.003969
1548.000000;0.003672
1547.000000;0.003284
1546.000000;0.002833
1545.000000;0.002391
1544.000000;0.001993
1543.000000;0.001627
1542.000000;0.001278
1541.000000;0.000929
1540.000000;0.000576
1539.000000;0.000233
1538.000000;-0.000091
1537.000000;-0.000424
1536.000000;-0.000782
1535.000000;-0.001154
1534.000000;-0.001501
1533.000000;-0.001796
1532.000000;-0.002094
1531.000000;-0.002466
1530.000000;-0.002927
1529.000000;-0.003431
1528.000000;-0.003899
1527.000000;-0.004256
1526.000000;-0.004495
1525.000000;-0.004692
1524.000000;-0.004943
1523.000000;-0.005264
1522.000000;-0.005585
1521.000000;-0.005855
1520.000000;-0.006114
1519.000000;-0.006428
1518.000000;-0.006800
1517.000000;-0.007216
1516.000000;-0.007695
1515.000000;-0.008229
1514.000000;-0.008731
1513.000000;-0.009100
1512.000000;-0.009332
1511.000000;-0.009526
1510.000000;-0.009784
1509.000000;-0.010130
1508.000000;-0.010517
1507.000000;-0.010890
1506.000000;-0.011218
1505.000000;-0.011501
1504.000000;-0.011834
1503.000000;-0.012249
1502.000000;-0.012685
1501.000000;-0.013087
1500.000000;-0.013432
1499.000000;-0.013731
1498.000000;-0.014042
1497.000000;-0.014452
1496.000000;-0.014976
1495.000000;-0.015497
1494.000000;-0.015862
1493.000000;-0.016025
1492.000000;-0.016094
1491.000000;-0.016216
1490.000000;-0.016484
1489.000000;-0.016909
1488.000000;-0.017415
1487.000000;-0.017885
1486.000000;-0.018273
1485.000000;-0.018645
1484.000000;-0.019078
1483.000000;-0.019550
1482.000000;-0.019957
1481.000000;-0.020241
1480.000000;-0.020444
1479.000000;-0.020651
1478.000000;-0.020920
1477.000000;-0.021281
1476.000000;-0.021741
1475.000000;-0.022252
1474.000000;-0.022729
1473.000000;-0.023103
1472.000000;-0.023370
1471.000000;-0.023576
1470.000000;-0.023794
1469.000000;-0.024086
1468.000000;-0.024465
1467.000000;-0.024864
1466.000000;-0.025205
1465.000000;-0.025510
1464.000000;-0.025875
1463.000000;-0.026337
1462.000000;-0.026797
1461.000000;-0.027133
1460.000000;-0.027346
1459.000000;-0.027544
1458.000000;-0.027813
1457.000000;-0.028150
1456.000000;-0.028503
1455.000000;-0.028850
1454.000000;-0.029210
1453.000000;-0.029625
1452.000000;-0.030148
1451.000000;-0.030749
1450.000000;-0.031284
1449.000000;-0.031622
1448.000000;-0.031788
1447.000000;-0.031949
1446.000000;-0.032257
1445.000000;-0.032696
1444.000000;-0.033117
1443.000000;-0.033382
1442.000000;-0.033499
1441.000000;-0.033613
1440.000000;-0.033858
1439.000000;-0.034239
1438.000000;-0.034665
1437.000000;-0.035069
1436.000000;-0.035453
1435.000000;-0.035834
1434.000000;-0.036185
1433.000000;-0.036476
1432.000000;-0.036746
1431.000000;-0.037063
1430.000000;-0.037449
1429.000000;-0.037867
1428.000000;-0.038271
1427.000000;-0.038645
1426.000000;-0.039003
1425.000000;-0.039346
1424.000000;-0.039646
1423.000000;-0.039872
1422.000000;-0.040043
1421.000000;-0.040240
1420.000000;-0.040527
1419.000000;-0.040875
1418.000000;-0.041219
1417.000000;-0.041558
1416.000000;-0.041929
1415.000000;-0.042334
1414.000000;-0.042717
1413.000000;-0.043023
1412.000000;-0.043274
1411.000000;-0.043545
1410.000000;-0.043895
1409.000000;-0.044323
1408.000000;-0.044766
1407.000000;-0.045137
1406.000000;-0.045395
1405.000000;-0.045594
1404.000000;-0.045834
1403.000000;-0.046159
1402.000000;-0.046528
1401.000000;-0.046879
1400.000000;-0.047190
1399.000000;-0.047477
1398.000000;-0.047772
1397.000000;-0.048111
1396.000000;-0.048504
1395.000000;-0.048919
1394.000000;-0.049307
1393.000000;-0.049656
1392.000000;-0.049988
1391.000000;-0.050310
1390.000000;-0.050619
1389.000000;-0.050944
1388.000000;-0.051327
1387.000000;-0.051739
1386.000000;-0.052080
1385.000000;-0.052311
1384.000000;-0.052519
1383.000000;-0.052806
1382.000000;-0.053167
1381.000000;-0.053526
1380.000000;-0.053861
1379.000000;-0.054205
1378.000000;-0.054548
1377.000000;-0.054831
1376.000000;-0.055045
1375.000000;-0.055267
1374.000000;-0.055569
1373.000000;-0.055927
1372.000000;-0.056253
1371.000000;-0.056503
1370.000000;-0.056701
1369.000000;-0.056899
1368.000000;-0.057147
1367.000000;-0.057482
1366.000000;-0.057903
1365.000000;-0.058352
1364.000000;-0.058746
1363.000000;-0.059052
1362.000000;-0.059317
1361.000000;-0.059599
1360.000000;-0.059910
1359.000000;-0.060212
1358.000000;-0.060475
1357.000000;-0.060706
1356.000000;-0.060936
1355.000000;-0.061211
1354.000000;-0.061581
1353.000000;-0.062066
1352.000000;-0.062617
1351.000000;-0.063117
1350.000000;-0.063465
1349.000000;-0.063658
1348.000000;-0.063786
1347.000000;-0.063958
1346.000000;-0.064238
1345.000000;-0.064627
1344.000000;-0.065075
1343.000000;-0.065496
1342.000000;-0.065792
1341.000000;-0.065913
1340.000000;-0.065919
1339.000000;-0.065979
1338.000000;-0.066260
1337.000000;-0.066773
1336.000000;-0.067343
1335.000000;-0.067771
1334.000000;-0.068033
1333.000000;-0.068295
1332.000000;-0.068703
1331.000000;-0.069222
1330.000000;-0.069694
1329.000000;-0.070024
1328.000000;-0.070274
1327.000000;-0.070586
1326.000000;-0.071028
1325.000000;-0.071515
1324.000000;-0.071869
1323.000000;-0.071998
1322.000000;-0.072024
1321.000000;-0.072178
1320.000000;-0.072549
1319.000000;-0.072989
1318.000000;-0.073299
1317.000000;-0.073461
1316.000000;-0.073612
1315.000000;-0.073836
1314.000000;-0.074095
1313.000000;-0.074339
1312.000000;-0.074600
1311.000000;-0.074929
1310.000000;-0.075315
1309.000000;-0.075715
1308.000000;-0.076110
1307.000000;-0.076500
1306.000000;-0.076854
1305.000000;-0.077125
1304.000000;-0.077315
1303.000000;-0.077498
1302.000000;-0.077759
1301.000000;-0.078103
1300.000000;-0.078458
1299.000000;-0.078766
1298.000000;-0.079050
1297.000000;-0.079376
1296.000000;-0.079753
1295.000000;-0.080137
1294.000000;-0.080521
1293.000000;-0.080941
1292.000000;-0.081376
1291.000000;-0.081714
1290.000000;-0.081871
1289.000000;-0.081913
1288.000000;-0.081993
1287.000000;-0.082196
1286.000000;-0.082495
1285.000000;-0.082821
1284.000000;-0.083112
1283.000000;-0.083337
1282.000000;-0.083529
1281.000000;-0.083783
1280.000000;-0.084152
1279.000000;-0.084558
1278.000000;-0.084882
1277.000000;-0.085131
1276.000000;-0.085434
1275.000000;-0.085859
1274.000000;-0.086316
1273.000000;-0.086668
1272.000000;-0.086878
1271.000000;-0.087020
1270.000000;-0.087194
1269.000000;-0.087466
1268.000000;-0.087837
1267.000000;-0.088242
1266.000000;-0.088585
1265.000000;-0.088828
1264.000000;-0.089022
1263.000000;-0.089251
1262.000000;-0.089550
1261.000000;-0.089890
1260.000000;-0.090208
1259.000000;-0.090468
1258.000000;-0.090696
1257.000000;-0.090963
1256.000000;-0.091318
1255.000000;-0.091731
1254.000000;-0.092133
1253.000000;-0.092508
1252.000000;-0.092902
1251.000000;-0.093332
1250.000000;-0.093723
1249.000000;-0.093982
1248.000000;-0.094112
1247.000000;-0.094223
1246.000000;-0.094424
1245.000000;-0.094718
1244.000000;-0.095018
1243.000000;-0.095262
1242.000000;-0.095492
1241.000000;-0.095794
1240.000000;-0.096175
1239.000000;-0.096561
1238.000000;-0.096893
1237.000000;-0.097192
1236.000000;-0.097488
1235.000000;-0.097762
1234.000000;-0.097991
1233.000000;-0.098201
1232.000000;-0.098435
1231.000000;-0.098694
1230.000000;-0.098961
1229.000000;-0.099250
1228.000000;-0.099566
1227.000000;-0.099858
1226.000000;-0.100077
1225.000000;-0.100258
1224.000000;-0.100473
1223.000000;-0.100732
1222.000000;-0.100994
1221.000000;-0.101270
1220.000000;-0.101630
1219.000000;-0.102069
1218.000000;-0.102470
1217.000000;-0.102725
1216.000000;-0.102867
1215.000000;-0.103020
1214.000000;-0.103268
1213.000000;-0.103590
1212.000000;-0.103915
1211.000000;-0.104200
1210.000000;-0.104466
1209.000000;-0.104756
1208.000000;-0.105077
1207.000000;-0.105388
1206.000000;-0.105675
1205.000000;-0.105970
1204.000000;-0.106295
1203.000000;-0.106595
1202.000000;-0.106799
1201.000000;-0.106923
1200.000000;-0.107063
