Criado como novo conjunto de dados;"e2410_daniel_v2.spp","100447.1 Secs"
cm-1;Abs
10000.000000;0.130027
9999.000000;0.130467
9998.000000;0.131111
9997.000000;0.131909
9996.000000;0.132818
9995.000000;0.133793
9994.000000;0.134738
9993.000000;0.135545
9992.000000;0.136194
9991.000000;0.136769
9990.000000;0.137358
9989.000000;0.137991
9988.000000;0.138655
9987.000000;0.139309
9986.000000;0.139878
9985.000000;0.140337
9984.000000;0.140828
9983.000000;0.141589
9982.000000;0.142683
9981.000000;0.143870
9980.000000;0.144822
9979.000000;0.145417
9978.000000;0.145767
9977.000000;0.146030
9976.000000;0.146319
9975.000000;0.146746
9974.000000;0.147411
9973.000000;0.148294
9972.000000;0.149238
9971.000000;0.150092
9970.000000;0.150827
9969.000000;0.151512
9968.000000;0.152213
9967.000000;0.152948
9966.000000;0.153702
9965.000000;0.154442
9964.000000;0.155106
9963.000000;0.155610
9962.000000;0.155914
9961.000000;0.156103
9960.000000;0.156394
9959.000000;0.156969
9958.000000;0.157790
9957.000000;0.158634
9956.000000;0.159340
9955.000000;0.159966
9954.000000;0.160659
9953.000000;0.161441
9952.000000;0.162218
9951.000000;0.162973
9950.000000;0.163810
9949.000000;0.164779
9948.000000;0.165746
9947.000000;0.166515
9946.000000;0.167063
9945.000000;0.167598
9944.000000;0.168331
9943.000000;0.169247
9942.000000;0.170119
9941.000000;0.170766
9940.000000;0.171250
9939.000000;0.171769
9938.000000;0.172412
9937.000000;0.173087
9936.000000;0.173690
9935.000000;0.174252
9934.000000;0.174881
9933.000000;0.175635
9932.000000;0.176485
9931.000000;0.177353
9930.000000;0.178147
9929.000000;0.178813
9928.000000;0.179403
9927.000000;0.180042
9926.000000;0.180778
9925.000000;0.181520
9924.000000;0.182171
9923.000000;0.182783
9922.000000;0.183505
9921.000000;0.184390
9920.000000;0.185322
9919.000000;0.186123
9918.000000;0.186690
9917.000000;0.187078
9916.000000;0.187494
9915.000000;0.188158
9914.000000;0.189123
9913.000000;0.190242
9912.000000;0.191344
9911.000000;0.192400
9910.000000;0.193432
9909.000000;0.194320
9908.000000;0.194878
9907.000000;0.195131
9906.000000;0.195409
9905.000000;0.196040
9904.000000;0.197006
9903.000000;0.197969
9902.000000;0.198648
9901.000000;0.199117
9900.000000;0.199692
9899.000000;0.200576
9898.000000;0.201666
9897.000000;0.202698
9896.000000;0.203540
9895.000000;0.204292
9894.000000;0.205139
9893.000000;0.206179
9892.000000;0.207371
9891.000000;0.208557
9890.000000;0.209517
9889.000000;0.210119
9888.000000;0.210460
9887.000000;0.210792
9886.000000;0.211274
9885.000000;0.211844
9884.000000;0.212395
9883.000000;0.212980
9882.000000;0.213772
9881.000000;0.214830
9880.000000;0.216023
9879.000000;0.217149
9878.000000;0.218092
9877.000000;0.218874
9876.000000;0.219614
9875.000000;0.220429
9874.000000;0.221325
9873.000000;0.222183
9872.000000;0.222877
9871.000000;0.223399
9870.000000;0.223854
9869.000000;0.224384
9868.000000;0.225096
9867.000000;0.226011
9866.000000;0.227022
9865.000000;0.227977
9864.000000;0.228847
9863.000000;0.229758
9862.000000;0.230807
9861.000000;0.231910
9860.000000;0.232919
9859.000000;0.233808
9858.000000;0.234655
9857.000000;0.235477
9856.000000;0.236208
9855.000000;0.236827
9854.000000;0.237391
9853.000000;0.237948
9852.000000;0.238507
9851.000000;0.239107
9850.000000;0.239828
9849.000000;0.240715
9848.000000;0.241754
9847.000000;0.242911
9846.000000;0.244113
9845.000000;0.245214
9844.000000;0.246065
9843.000000;0.246636
9842.000000;0.247034
9841.000000;0.247410
9840.000000;0.247912
9839.000000;0.248657
9838.000000;0.249637
9837.000000;0.250650
9836.000000;0.251483
9835.000000;0.252169
9834.000000;0.252935
9833.000000;0.253850
9832.000000;0.254698
9831.000000;0.255300
9830.000000;0.255818
9829.000000;0.256586
9828.000000;0.257707
9827.000000;0.258997
9826.000000;0.260255
9825.000000;0.261445
9824.000000;0.262569
9823.000000;0.263548
9822.000000;0.264328
9821.000000;0.265009
9820.000000;0.265743
9819.000000;0.266562
9818.000000;0.267374
9817.000000;0.268127
9816.000000;0.268887
9815.000000;0.269734
9814.000000;0.270668
9813.000000;0.271634
9812.000000;0.272593
9811.000000;0.273513
9810.000000;0.274339
9809.000000;0.275029
9808.000000;0.275632
9807.000000;0.276254
9806.000000;0.276936
9805.000000;0.277636
9804.000000;0.278355
9803.000000;0.279219
9802.000000;0.280372
9801.000000;0.281787
9800.000000;0.283254
9799.000000;0.284555
9798.000000;0.285606
9797.000000;0.286397
9796.000000;0.286915
9795.000000;0.287204
9794.000000;0.287499
9793.000000;0.288158
9792.000000;0.289375
9791.000000;0.290966
9790.000000;0.292491
9789.000000;0.293580
9788.000000;0.294163
9787.000000;0.294424
9786.000000;0.294653
9785.000000;0.295117
9784.000000;0.295957
9783.000000;0.297106
9782.000000;0.298328
9781.000000;0.299421
9780.000000;0.300375
9779.000000;0.301332
9778.000000;0.302406
9777.000000;0.303572
9776.000000;0.304708
9775.000000;0.305701
9774.000000;0.306580
9773.000000;0.307522
9772.000000;0.308643
9771.000000;0.309759
9770.000000;0.310501
9769.000000;0.310770
9768.000000;0.310958
9767.000000;0.311562
9766.000000;0.312640
9765.000000;0.313847
9764.000000;0.314928
9763.000000;0.315949
9762.000000;0.316995
9761.000000;0.317913
9760.000000;0.318537
9759.000000;0.319030
9758.000000;0.319807
9757.000000;0.321130
9756.000000;0.322861
9755.000000;0.324588
9754.000000;0.325938
9753.000000;0.326806
9752.000000;0.327345
9751.000000;0.327760
9750.000000;0.328141
9749.000000;0.328562
9748.000000;0.329237
9747.000000;0.330375
9746.000000;0.331857
9745.000000;0.333244
9744.000000;0.334236
9743.000000;0.334993
9742.000000;0.335880
9741.000000;0.337016
9740.000000;0.338223
9739.000000;0.339338
9738.000000;0.340395
9737.000000;0.341488
9736.000000;0.342585
9735.000000;0.343525
9734.000000;0.344177
9733.000000;0.344623
9732.000000;0.345152
9731.000000;0.345988
9730.000000;0.347002
9729.000000;0.347833
9728.000000;0.348377
9727.000000;0.348973
9726.000000;0.349964
9725.000000;0.351220
9724.000000;0.352316
9723.000000;0.353093
9722.000000;0.353812
9721.000000;0.354760
9720.000000;0.355925
9719.000000;0.357101
9718.000000;0.358130
9717.000000;0.358972
9716.000000;0.359705
9715.000000;0.360531
9714.000000;0.361659
9713.000000;0.363057
9712.000000;0.364418
9711.000000;0.365484
9710.000000;0.366357
9709.000000;0.367380
9708.000000;0.368712
9707.000000;0.370104
9706.000000;0.371125
9705.000000;0.371604
9704.000000;0.371843
9703.000000;0.372395
9702.000000;0.373579
9701.000000;0.375207
9700.000000;0.376783
9699.000000;0.377997
9698.000000;0.378981
9697.000000;0.380088
9696.000000;0.381474
9695.000000;0.382916
9694.000000;0.384018
9693.000000;0.384573
9692.000000;0.384735
9691.000000;0.384869
9690.000000;0.385283
9689.000000;0.386081
9688.000000;0.387205
9687.000000;0.388507
9686.000000;0.389784
9685.000000;0.390857
9684.000000;0.391684
9683.000000;0.392379
9682.000000;0.393095
9681.000000;0.393922
9680.000000;0.394906
9679.000000;0.396052
9678.000000;0.397268
9677.000000;0.398374
9676.000000;0.399258
9675.000000;0.399983
9674.000000;0.400698
9673.000000;0.401503
9672.000000;0.402444
9671.000000;0.403527
9670.000000;0.404659
9669.000000;0.405672
9668.000000;0.406539
9667.000000;0.407472
9666.000000;0.408649
9665.000000;0.409902
9664.000000;0.410845
9663.000000;0.411347
9662.000000;0.411700
9661.000000;0.412291
9660.000000;0.413242
9659.000000;0.414413
9658.000000;0.415629
9657.000000;0.416772
9656.000000;0.417782
9655.000000;0.418688
9654.000000;0.419626
9653.000000;0.420712
9652.000000;0.421901
9651.000000;0.423021
9650.000000;0.423946
9649.000000;0.424686
9648.000000;0.425300
9647.000000;0.425804
9646.000000;0.426216
9645.000000;0.426664
9644.000000;0.427330
9643.000000;0.428260
9642.000000;0.429289
9641.000000;0.430253
9640.000000;0.431230
9639.000000;0.432413
9638.000000;0.433749
9637.000000;0.434901
9636.000000;0.435650
9635.000000;0.436177
9634.000000;0.436811
9633.000000;0.437615
9632.000000;0.438433
9631.000000;0.439278
9630.000000;0.440417
9629.000000;0.442006
9628.000000;0.443860
9627.000000;0.445684
9626.000000;0.447362
9625.000000;0.448842
9624.000000;0.449863
9623.000000;0.450086
9622.000000;0.449580
9621.000000;0.449017
9620.000000;0.449214
9619.000000;0.450457
9618.000000;0.452300
9617.000000;0.454000
9616.000000;0.455139
9615.000000;0.455861
9614.000000;0.456592
9613.000000;0.457589
9612.000000;0.458730
9611.000000;0.459671
9610.000000;0.460204
9609.000000;0.460495
9608.000000;0.460973
9607.000000;0.461938
9606.000000;0.463247
9605.000000;0.464427
9604.000000;0.465154
9603.000000;0.465595
9602.000000;0.466240
9601.000000;0.467360
9600.000000;0.468659
9599.000000;0.469508
9598.000000;0.469592
9597.000000;0.469297
9596.000000;0.469363
9595.000000;0.470172
9594.000000;0.471453
9593.000000;0.472694
9592.000000;0.473675
9591.000000;0.474465
9590.000000;0.475069
9589.000000;0.475387
9588.000000;0.475526
9587.000000;0.475882
9586.000000;0.476760
9585.000000;0.478036
9584.000000;0.479266
9583.000000;0.480045
9582.000000;0.480274
9581.000000;0.480267
9580.000000;0.480659
9579.000000;0.481971
9578.000000;0.484068
9577.000000;0.486165
9576.000000;0.487539
9575.000000;0.488143
9574.000000;0.488370
9573.000000;0.488435
9572.000000;0.488243
9571.000000;0.487811
9570.000000;0.487481
9569.000000;0.487620
9568.000000;0.488285
9567.000000;0.489282
9566.000000;0.490365
9565.000000;0.491296
9564.000000;0.491888
9563.000000;0.492147
9562.000000;0.492353
9561.000000;0.492872
9560.000000;0.493862
9559.000000;0.495161
9558.000000;0.496444
9557.000000;0.497512
9556.000000;0.498425
9555.000000;0.499316
9554.000000;0.500101
9553.000000;0.500514
9552.000000;0.500506
9551.000000;0.500464
9550.000000;0.500824
9549.000000;0.501548
9548.000000;0.502170
9547.000000;0.502357
9546.000000;0.502243
9545.000000;0.502183
9544.000000;0.502371
9543.000000;0.502793
9542.000000;0.503409
9541.000000;0.504244
9540.000000;0.505339
9539.000000;0.506646
9538.000000;0.507917
9537.000000;0.508755
9536.000000;0.508960
9535.000000;0.508868
9534.000000;0.509147
9533.000000;0.510140
9532.000000;0.511549
9531.000000;0.512823
9530.000000;0.513708
9529.000000;0.514255
9528.000000;0.514490
9527.000000;0.514386
9526.000000;0.514113
9525.000000;0.514044
9524.000000;0.514394
9523.000000;0.515016
9522.000000;0.515610
9521.000000;0.516008
9520.000000;0.516208
9519.000000;0.516285
9518.000000;0.516401
9517.000000;0.516757
9516.000000;0.517379
9515.000000;0.517948
9514.000000;0.518044
9513.000000;0.517643
9512.000000;0.517295
9511.000000;0.517682
9510.000000;0.518996
9509.000000;0.520755
9508.000000;0.522238
9507.000000;0.523042
9506.000000;0.523184
9505.000000;0.522820
9504.000000;0.522085
9503.000000;0.521264
9502.000000;0.520819
9501.000000;0.520985
9500.000000;0.521416
9499.000000;0.521507
9498.000000;0.521115
9497.000000;0.520732
9496.000000;0.520860
9495.000000;0.521435
9494.000000;0.522027
9493.000000;0.522425
9492.000000;0.522788
9491.000000;0.523299
9490.000000;0.523882
9489.000000;0.524324
9488.000000;0.524498
9487.000000;0.524427
9486.000000;0.524225
9485.000000;0.524027
9484.000000;0.523909
9483.000000;0.523873
9482.000000;0.523926
9481.000000;0.524082
9480.000000;0.524234
9479.000000;0.524163
9478.000000;0.523809
9477.000000;0.523447
9476.000000;0.523362
9475.000000;0.523460
9474.000000;0.523478
9473.000000;0.523532
9472.000000;0.524067
9471.000000;0.525156
9470.000000;0.526188
9469.000000;0.526505
9468.000000;0.526100
9467.000000;0.525443
9466.000000;0.524869
9465.000000;0.524450
9464.000000;0.524285
9463.000000;0.524493
9462.000000;0.524906
9461.000000;0.525105
9460.000000;0.524847
9459.000000;0.524282
9458.000000;0.523706
9457.000000;0.523287
9456.000000;0.523089
9455.000000;0.523190
9454.000000;0.523637
9453.000000;0.524326
9452.000000;0.524957
9451.000000;0.525160
9450.000000;0.524777
9449.000000;0.524115
9448.000000;0.523758
9447.000000;0.523977
9446.000000;0.524418
9445.000000;0.524532
9444.000000;0.524168
9443.000000;0.523520
9442.000000;0.522661
9441.000000;0.521531
9440.000000;0.520324
9439.000000;0.519465
9438.000000;0.519136
9437.000000;0.519141
9436.000000;0.519319
9435.000000;0.519738
9434.000000;0.520354
9433.000000;0.520824
9432.000000;0.520896
9431.000000;0.520703
9430.000000;0.520466
9429.000000;0.520158
9428.000000;0.519699
9427.000000;0.519231
9426.000000;0.518898
9425.000000;0.518541
9424.000000;0.517928
9423.000000;0.517165
9422.000000;0.516580
9421.000000;0.516270
9420.000000;0.516087
9419.000000;0.515998
9418.000000;0.516113
9417.000000;0.516312
9416.000000;0.516196
9415.000000;0.515544
9414.000000;0.514622
9413.000000;0.513918
9412.000000;0.513706
9411.000000;0.513928
9410.000000;0.514286
9409.000000;0.514355
9408.000000;0.513794
9407.000000;0.512638
9406.000000;0.511318
9405.000000;0.510264
9404.000000;0.509519
9403.000000;0.508833
9402.000000;0.508087
9401.000000;0.507484
9400.000000;0.507291
9399.000000;0.507489
9398.000000;0.507778
9397.000000;0.507898
9396.000000;0.507833
9395.000000;0.507631
9394.000000;0.507157
9393.000000;0.506221
9392.000000;0.504954
9391.000000;0.503831
9390.000000;0.503200
9389.000000;0.502946
9388.000000;0.502725
9387.000000;0.502401
9386.000000;0.502099
9385.000000;0.501913
9384.000000;0.501767
9383.000000;0.501563
9382.000000;0.501288
9381.000000;0.500991
9380.000000;0.500730
9379.000000;0.500496
9378.000000;0.500086
9377.000000;0.499145
9376.000000;0.497568
9375.000000;0.495825
9374.000000;0.494629
9373.000000;0.494231
9372.000000;0.494238
9371.000000;0.494164
9370.000000;0.493937
9369.000000;0.493725
9368.000000;0.493496
9367.000000;0.493035
9366.000000;0.492328
9365.000000;0.491646
9364.000000;0.491190
9363.000000;0.490844
9362.000000;0.490405
9361.000000;0.489917
9360.000000;0.489588
9359.000000;0.489413
9358.000000;0.489023
9357.000000;0.488063
9356.000000;0.486633
9355.000000;0.485241
9354.000000;0.484310
9353.000000;0.483816
9352.000000;0.483431
9351.000000;0.482882
9350.000000;0.482108
9349.000000;0.481233
9348.000000;0.480517
9347.000000;0.480220
9346.000000;0.480272
9345.000000;0.480126
9344.000000;0.479219
9343.000000;0.477663
9342.000000;0.476255
9341.000000;0.475638
9340.000000;0.475632
9339.000000;0.475568
9338.000000;0.475149
9337.000000;0.474698
9336.000000;0.474555
9335.000000;0.474499
9334.000000;0.473972
9333.000000;0.472754
9332.000000;0.471255
9331.000000;0.470110
9330.000000;0.469609
9329.000000;0.469518
9328.000000;0.469339
9327.000000;0.468685
9326.000000;0.467505
9325.000000;0.466124
9324.000000;0.465054
9323.000000;0.464615
9322.000000;0.464630
9321.000000;0.464523
9320.000000;0.463806
9319.000000;0.462500
9318.000000;0.461081
9317.000000;0.460042
9316.000000;0.459540
9315.000000;0.459389
9314.000000;0.459319
9313.000000;0.459234
9312.000000;0.459217
9311.000000;0.459262
9310.000000;0.459083
9309.000000;0.458340
9308.000000;0.457098
9307.000000;0.455900
9306.000000;0.455252
9305.000000;0.455101
9304.000000;0.454922
9303.000000;0.454285
9302.000000;0.453211
9301.000000;0.452027
9300.000000;0.451033
9299.000000;0.450328
9298.000000;0.449786
9297.000000;0.449142
9296.000000;0.448191
9295.000000;0.446980
9294.000000;0.445765
9293.000000;0.444757
9292.000000;0.443958
9291.000000;0.443277
9290.000000;0.442711
9289.000000;0.442363
9288.000000;0.442257
9287.000000;0.442179
9286.000000;0.441757
9285.000000;0.440824
9284.000000;0.439683
9283.000000;0.438867
9282.000000;0.438542
9281.000000;0.438319
9280.000000;0.437768
9279.000000;0.436961
9278.000000;0.436254
9277.000000;0.435689
9276.000000;0.434930
9275.000000;0.433795
9274.000000;0.432530
9273.000000;0.431465
9272.000000;0.430658
9271.000000;0.430010
9270.000000;0.429495
9269.000000;0.429078
9268.000000;0.428576
9267.000000;0.427823
9266.000000;0.426872
9265.000000;0.425910
9264.000000;0.425047
9263.000000;0.424306
9262.000000;0.423710
9261.000000;0.423232
9260.000000;0.422729
9259.000000;0.422078
9258.000000;0.421318
9257.000000;0.420570
9256.000000;0.419849
9255.000000;0.419071
9254.000000;0.418174
9253.000000;0.417146
9252.000000;0.416026
9251.000000;0.414985
9250.000000;0.414277
9249.000000;0.413974
9248.000000;0.413823
9247.000000;0.413524
9246.000000;0.413095
9245.000000;0.412791
9244.000000;0.412709
9243.000000;0.412640
9242.000000;0.412292
9241.000000;0.411510
9240.000000;0.410313
9239.000000;0.408890
9238.000000;0.407538
9237.000000;0.406447
9236.000000;0.405556
9235.000000;0.404768
9234.000000;0.404250
9233.000000;0.404221
9232.000000;0.404441
9231.000000;0.404234
9230.000000;0.403230
9229.000000;0.401885
9228.000000;0.400965
9227.000000;0.400668
9226.000000;0.400487
9225.000000;0.399886
9224.000000;0.398847
9223.000000;0.397714
9222.000000;0.396776
9221.000000;0.396142
9220.000000;0.395822
9219.000000;0.395708
9218.000000;0.395519
9217.000000;0.394992
9216.000000;0.394177
9215.000000;0.393399
9214.000000;0.392844
9213.000000;0.392304
9212.000000;0.391466
9211.000000;0.390359
9210.000000;0.389361
9209.000000;0.388742
9208.000000;0.388383
9207.000000;0.387980
9206.000000;0.387406
9205.000000;0.386755
9204.000000;0.386136
9203.000000;0.385554
9202.000000;0.384978
9201.000000;0.384406
9200.000000;0.383858
9199.000000;0.383349
9198.000000;0.382859
9197.000000;0.382267
9196.000000;0.381389
9195.000000;0.380185
9194.000000;0.378899
9193.000000;0.377892
9192.000000;0.377292
9191.000000;0.376904
9190.000000;0.376473
9189.000000;0.375933
9188.000000;0.375354
9187.000000;0.374740
9186.000000;0.373996
9185.000000;0.373079
9184.000000;0.372109
9183.000000;0.371293
9182.000000;0.370755
9181.000000;0.370450
9180.000000;0.370241
9179.000000;0.370034
9178.000000;0.369810
9177.000000;0.369542
9176.000000;0.369148
9175.000000;0.368563
9174.000000;0.367826
9173.000000;0.367041
9172.000000;0.366236
9171.000000;0.365341
9170.000000;0.364335
9169.000000;0.363350
9168.000000;0.362565
9167.000000;0.362000
9166.000000;0.361464
9165.000000;0.360758
9164.000000;0.359929
9163.000000;0.359247
9162.000000;0.358895
9161.000000;0.358715
9160.000000;0.358370
9159.000000;0.357744
9158.000000;0.357061
9157.000000;0.356561
9156.000000;0.356147
9155.000000;0.355490
9154.000000;0.354431
9153.000000;0.353191
9152.000000;0.352149
9151.000000;0.351474
9150.000000;0.350993
9149.000000;0.350398
9148.000000;0.349576
9147.000000;0.348733
9146.000000;0.348148
9145.000000;0.347851
9144.000000;0.347612
9143.000000;0.347263
9142.000000;0.346882
9141.000000;0.346610
9140.000000;0.346416
9139.000000;0.346151
9138.000000;0.345755
9137.000000;0.345238
9136.000000;0.344547
9135.000000;0.343630
9134.000000;0.342644
9133.000000;0.341918
9132.000000;0.341631
9131.000000;0.341625
9130.000000;0.341566
9129.000000;0.341255
9128.000000;0.340731
9127.000000;0.340155
9126.000000;0.339598
9125.000000;0.338944
9124.000000;0.338014
9123.000000;0.336847
9122.000000;0.335774
9121.000000;0.335093
9120.000000;0.334710
9119.000000;0.334247
9118.000000;0.333506
9117.000000;0.332663
9116.000000;0.331930
9115.000000;0.331239
9114.000000;0.330409
9113.000000;0.329502
9112.000000;0.328816
9111.000000;0.328538
9110.000000;0.328550
9109.000000;0.328583
9108.000000;0.328459
9107.000000;0.328132
9106.000000;0.327618
9105.000000;0.326947
9104.000000;0.326180
9103.000000;0.325414
9102.000000;0.324775
9101.000000;0.324395
9100.000000;0.324330
9099.000000;0.324440
9098.000000;0.324359
9097.000000;0.323722
9096.000000;0.322518
9095.000000;0.321184
9094.000000;0.320251
9093.000000;0.319870
9092.000000;0.319757
9091.000000;0.319572
9090.000000;0.319212
9089.000000;0.318682
9088.000000;0.317922
9087.000000;0.316969
9086.000000;0.316180
9085.000000;0.315987
9084.000000;0.316345
9083.000000;0.316626
9082.000000;0.316235
9081.000000;0.315208
9080.000000;0.314084
9079.000000;0.313287
9078.000000;0.312793
9077.000000;0.312324
9076.000000;0.311699
9075.000000;0.310978
9074.000000;0.310389
9073.000000;0.310150
9072.000000;0.310257
9071.000000;0.310396
9070.000000;0.310132
9069.000000;0.309269
9068.000000;0.308040
9067.000000;0.306914
9066.000000;0.306211
9065.000000;0.305899
9064.000000;0.305725
9063.000000;0.305489
9062.000000;0.305205
9061.000000;0.304989
9060.000000;0.304853
9059.000000;0.304625
9058.000000;0.304090
9057.000000;0.303181
9056.000000;0.302025
9055.000000;0.300847
9054.000000;0.299878
9053.000000;0.299286
9052.000000;0.299091
9051.000000;0.299101
9050.000000;0.299017
9049.000000;0.298685
9048.000000;0.298237
9047.000000;0.297911
9046.000000;0.297754
9045.000000;0.297559
9044.000000;0.297125
9043.000000;0.296487
9042.000000;0.295839
9041.000000;0.295321
9040.000000;0.294952
9039.000000;0.294702
9038.000000;0.294472
9037.000000;0.294041
9036.000000;0.293214
9035.000000;0.292092
9034.000000;0.291082
9033.000000;0.290537
9032.000000;0.290458
9031.000000;0.290614
9030.000000;0.290810
9029.000000;0.290928
9028.000000;0.290783
9027.000000;0.290202
9026.000000;0.289278
9025.000000;0.288397
9024.000000;0.287894
9023.000000;0.287746
9022.000000;0.287641
9021.000000;0.287298
9020.000000;0.286700
9019.000000;0.286052
9018.000000;0.285593
9017.000000;0.285405
9016.000000;0.285358
9015.000000;0.285225
9014.000000;0.284864
9013.000000;0.284308
9012.000000;0.283699
9011.000000;0.283160
9010.000000;0.282716
9009.000000;0.282284
9008.000000;0.281768
9007.000000;0.281185
9006.000000;0.280702
9005.000000;0.280486
9004.000000;0.280510
9003.000000;0.280555
9002.000000;0.280401
9001.000000;0.280031
9000.000000;0.279650
8999.000000;0.279480
8998.000000;0.279501
8997.000000;0.279379
8996.000000;0.278755
8995.000000;0.277656
8994.000000;0.276554
8993.000000;0.275913
8992.000000;0.275743
8991.000000;0.275685
8990.000000;0.275474
8989.000000;0.275166
8988.000000;0.274924
8987.000000;0.274754
8986.000000;0.274525
8985.000000;0.274146
8984.000000;0.273662
8983.000000;0.273208
8982.000000;0.272882
8981.000000;0.272603
8980.000000;0.272127
8979.000000;0.271305
8978.000000;0.270322
8977.000000;0.269582
8976.000000;0.269343
8975.000000;0.269543
8974.000000;0.269940
8973.000000;0.270251
8972.000000;0.270174
8971.000000;0.269535
8970.000000;0.268557
8969.000000;0.267774
8968.000000;0.267511
8967.000000;0.267533
8966.000000;0.267376
8965.000000;0.266908
8964.000000;0.266378
8963.000000;0.265964
8962.000000;0.265536
8961.000000;0.264927
8960.000000;0.264254
8959.000000;0.263829
8958.000000;0.263806
8957.000000;0.264006
8956.000000;0.264086
8955.000000;0.263870
8954.000000;0.263501
8953.000000;0.263229
8952.000000;0.263063
8951.000000;0.262728
8950.000000;0.262024
8949.000000;0.261145
8948.000000;0.260478
8947.000000;0.260170
8946.000000;0.260050
8945.000000;0.259976
8944.000000;0.260021
8943.000000;0.260201
8942.000000;0.260225
8941.000000;0.259733
8940.000000;0.258746
8939.000000;0.257694
8938.000000;0.256977
8937.000000;0.256645
8936.000000;0.256530
8935.000000;0.256510
8934.000000;0.256510
8933.000000;0.256348
8932.000000;0.255833
8931.000000;0.255055
8930.000000;0.254435
8929.000000;0.254319
8928.000000;0.254567
8927.000000;0.254686
8926.000000;0.254375
8925.000000;0.253808
8924.000000;0.253330
8923.000000;0.253007
8922.000000;0.252627
8921.000000;0.252096
8920.000000;0.251632
8919.000000;0.251486
8918.000000;0.251591
8917.000000;0.251602
8916.000000;0.251276
8915.000000;0.250685
8914.000000;0.250083
8913.000000;0.249663
8912.000000;0.249498
8911.000000;0.249609
8910.000000;0.249941
8909.000000;0.250276
8908.000000;0.250288
8907.000000;0.249792
8906.000000;0.248923
8905.000000;0.248021
8904.000000;0.247346
8903.000000;0.246928
8902.000000;0.246649
8901.000000;0.246400
8900.000000;0.246156
8899.000000;0.245943
8898.000000;0.245781
8897.000000;0.245651
8896.000000;0.245504
8895.000000;0.245295
8894.000000;0.245016
8893.000000;0.244698
8892.000000;0.244380
8891.000000;0.244070
8890.000000;0.243735
8889.000000;0.243349
8888.000000;0.242991
8887.000000;0.242836
8886.000000;0.242978
8885.000000;0.243250
8884.000000;0.243313
8883.000000;0.242995
8882.000000;0.242460
8881.000000;0.241959
8880.000000;0.241524
8879.000000;0.241037
8878.000000;0.240549
8877.000000;0.240301
8876.000000;0.240388
8875.000000;0.240551
8874.000000;0.240441
8873.000000;0.239985
8872.000000;0.239397
8871.000000;0.238907
8870.000000;0.238615
8869.000000;0.238555
8868.000000;0.238710
8867.000000;0.238938
8866.000000;0.239006
8865.000000;0.238773
8864.000000;0.238290
8863.000000;0.237683
8862.000000;0.237038
8861.000000;0.236452
8860.000000;0.236110
8859.000000;0.236161
8858.000000;0.236503
8857.000000;0.236790
8856.000000;0.236718
8855.000000;0.236287
8854.000000;0.235745
8853.000000;0.235305
8852.000000;0.234981
8851.000000;0.234687
8850.000000;0.234397
8849.000000;0.234151
8848.000000;0.233946
8847.000000;0.233691
8846.000000;0.233300
8845.000000;0.232802
8844.000000;0.232329
8843.000000;0.232001
8842.000000;0.231826
8841.000000;0.231712
8840.000000;0.231560
8839.000000;0.231353
8838.000000;0.231140
8837.000000;0.230953
8836.000000;0.230753
8835.000000;0.230462
8834.000000;0.230036
8833.000000;0.229518
8832.000000;0.229021
8831.000000;0.228668
8830.000000;0.228501
8829.000000;0.228434
8828.000000;0.228342
8827.000000;0.228220
8826.000000;0.228191
8825.000000;0.228344
8824.000000;0.228597
8823.000000;0.228756
8822.000000;0.228695
8821.000000;0.228429
8820.000000;0.228059
8819.000000;0.227737
8818.000000;0.227612
8817.000000;0.227728
8816.000000;0.227935
8815.000000;0.228011
8814.000000;0.227872
8813.000000;0.227594
8812.000000;0.227238
8811.000000;0.226767
8810.000000;0.226195
8809.000000;0.225689
8808.000000;0.225397
8807.000000;0.225244
8806.000000;0.225051
8805.000000;0.224843
8804.000000;0.224882
8803.000000;0.225296
8802.000000;0.225800
8801.000000;0.225904
8800.000000;0.225395
8799.000000;0.224542
8798.000000;0.223781
8797.000000;0.223293
8796.000000;0.222939
8795.000000;0.222538
8794.000000;0.222107
8793.000000;0.221807
8792.000000;0.221754
8791.000000;0.221924
8790.000000;0.222172
8789.000000;0.222281
8788.000000;0.222056
8787.000000;0.221487
8786.000000;0.220844
8785.000000;0.220496
8784.000000;0.220570
8783.000000;0.220820
8782.000000;0.220874
8781.000000;0.220594
8780.000000;0.220152
8779.000000;0.219771
8778.000000;0.219477
8777.000000;0.219160
8776.000000;0.218811
8775.000000;0.218575
8774.000000;0.218543
8773.000000;0.218577
8772.000000;0.218454
8771.000000;0.218149
8770.000000;0.217844
8769.000000;0.217669
8768.000000;0.217582
8767.000000;0.217550
8766.000000;0.217672
8765.000000;0.217991
8764.000000;0.218279
8763.000000;0.218225
8762.000000;0.217774
8761.000000;0.217158
8760.000000;0.216598
8759.000000;0.216164
8758.000000;0.215880
8757.000000;0.215770
8756.000000;0.215722
8755.000000;0.215497
8754.000000;0.214997
8753.000000;0.214420
8752.000000;0.214041
8751.000000;0.213927
8750.000000;0.213949
8749.000000;0.213970
8748.000000;0.213909
8747.000000;0.213709
8746.000000;0.213390
8745.000000;0.213107
8744.000000;0.213046
8743.000000;0.213247
8742.000000;0.213606
8741.000000;0.213989
8740.000000;0.214262
8739.000000;0.214244
8738.000000;0.213805
8737.000000;0.213044
8736.000000;0.212270
8735.000000;0.211762
8734.000000;0.211595
8733.000000;0.211686
8732.000000;0.211899
8731.000000;0.212076
8730.000000;0.212049
8729.000000;0.211752
8728.000000;0.211293
8727.000000;0.210873
8726.000000;0.210642
8725.000000;0.210637
8724.000000;0.210799
8723.000000;0.210987
8722.000000;0.211009
8721.000000;0.210723
8720.000000;0.210156
8719.000000;0.209511
8718.000000;0.209050
8717.000000;0.208955
8716.000000;0.209225
8715.000000;0.209648
8714.000000;0.209888
8713.000000;0.209716
8712.000000;0.209197
8711.000000;0.208630
8710.000000;0.208261
8709.000000;0.208088
8708.000000;0.207940
8707.000000;0.207724
8706.000000;0.207510
8705.000000;0.207401
8704.000000;0.207362
8703.000000;0.207218
8702.000000;0.206830
8701.000000;0.206274
8700.000000;0.205843
8699.000000;0.205829
8698.000000;0.206218
8697.000000;0.206640
8696.000000;0.206689
8695.000000;0.206322
8694.000000;0.205865
8693.000000;0.205612
8692.000000;0.205531
8691.000000;0.205412
8690.000000;0.205182
8689.000000;0.204953
8688.000000;0.204837
8687.000000;0.204853
8686.000000;0.204986
8685.000000;0.205191
8684.000000;0.205337
8683.000000;0.205278
8682.000000;0.205019
8681.000000;0.204724
8680.000000;0.204519
8679.000000;0.204389
8678.000000;0.204289
8677.000000;0.204241
8676.000000;0.204250
8675.000000;0.204197
8674.000000;0.203937
8673.000000;0.203476
8672.000000;0.202978
8671.000000;0.202621
8670.000000;0.202493
8669.000000;0.202583
8668.000000;0.202778
8667.000000;0.202913
8666.000000;0.202871
8665.000000;0.202674
8664.000000;0.202424
8663.000000;0.202175
8662.000000;0.201905
8661.000000;0.201590
8660.000000;0.201278
8659.000000;0.201051
8658.000000;0.200949
8657.000000;0.200930
8656.000000;0.200912
8655.000000;0.200877
8654.000000;0.200894
8653.000000;0.201005
8652.000000;0.201112
8651.000000;0.201043
8650.000000;0.200763
8649.000000;0.200426
8648.000000;0.200173
8647.000000;0.199978
8646.000000;0.199768
8645.000000;0.199599
8644.000000;0.199586
8643.000000;0.199682
8642.000000;0.199669
8641.000000;0.199405
8640.000000;0.198985
8639.000000;0.198628
8638.000000;0.198457
8637.000000;0.198443
8636.000000;0.198496
8635.000000;0.198567
8634.000000;0.198654
8633.000000;0.198760
8632.000000;0.198871
8631.000000;0.198935
8630.000000;0.198882
8629.000000;0.198643
8628.000000;0.198202
8627.000000;0.197639
8626.000000;0.197135
8625.000000;0.196880
8624.000000;0.196925
8623.000000;0.197127
8622.000000;0.197253
8621.000000;0.197177
8620.000000;0.196965
8619.000000;0.196792
8618.000000;0.196785
8617.000000;0.196924
8616.000000;0.197075
8615.000000;0.197101
8614.000000;0.196952
8613.000000;0.196671
8612.000000;0.196339
8611.000000;0.196046
8610.000000;0.195863
8609.000000;0.195793
8608.000000;0.195729
8607.000000;0.195534
8606.000000;0.195190
8605.000000;0.194837
8604.000000;0.194641
8603.000000;0.194663
8602.000000;0.194853
8601.000000;0.195119
8600.000000;0.195369
8599.000000;0.195536
8598.000000;0.195606
8597.000000;0.195598
8596.000000;0.195487
8595.000000;0.195230
8594.000000;0.194908
8593.000000;0.194745
8592.000000;0.194900
8591.000000;0.195235
8590.000000;0.195412
8589.000000;0.195217
8588.000000;0.194756
8587.000000;0.194312
8586.000000;0.194075
8585.000000;0.194020
8584.000000;0.193981
8583.000000;0.193831
8582.000000;0.193601
8581.000000;0.193429
8580.000000;0.193380
8579.000000;0.193355
8578.000000;0.193203
8577.000000;0.192915
8576.000000;0.192628
8575.000000;0.192446
8574.000000;0.192326
8573.000000;0.192178
8572.000000;0.191996
8571.000000;0.191852
8570.000000;0.191758
8569.000000;0.191629
8568.000000;0.191387
8567.000000;0.191095
8566.000000;0.190936
8565.000000;0.191022
8564.000000;0.191268
8563.000000;0.191483
8562.000000;0.191575
8561.000000;0.191605
8560.000000;0.191627
8559.000000;0.191573
8558.000000;0.191338
8557.000000;0.190947
8556.000000;0.190554
8555.000000;0.190301
8554.000000;0.190230
8553.000000;0.190280
8552.000000;0.190318
8551.000000;0.190194
8550.000000;0.189862
8549.000000;0.189464
8548.000000;0.189226
8547.000000;0.189253
8546.000000;0.189452
8545.000000;0.189650
8544.000000;0.189729
8543.000000;0.189663
8542.000000;0.189469
8541.000000;0.189177
8540.000000;0.188834
8539.000000;0.188523
8538.000000;0.188345
8537.000000;0.188354
8536.000000;0.188465
8535.000000;0.188488
8534.000000;0.188287
8533.000000;0.187895
8532.000000;0.187464
8531.000000;0.187139
8530.000000;0.187014
8529.000000;0.187110
8528.000000;0.187331
8527.000000;0.187505
8526.000000;0.187558
8525.000000;0.187624
8524.000000;0.187850
8523.000000;0.188161
8522.000000;0.188345
8521.000000;0.188343
8520.000000;0.188285
8519.000000;0.188220
8518.000000;0.188021
8517.000000;0.187616
8516.000000;0.187161
8515.000000;0.186855
8514.000000;0.186675
8513.000000;0.186450
8512.000000;0.186122
8511.000000;0.185815
8510.000000;0.185656
8509.000000;0.185628
8508.000000;0.185605
8507.000000;0.185476
8506.000000;0.185234
8505.000000;0.184995
8504.000000;0.184913
8503.000000;0.185032
8502.000000;0.185225
8501.000000;0.185306
8500.000000;0.185193
8499.000000;0.184941
8498.000000;0.184665
8497.000000;0.184470
8496.000000;0.184413
8495.000000;0.184477
8494.000000;0.184587
8493.000000;0.184661
8492.000000;0.184656
8491.000000;0.184552
8490.000000;0.184373
8489.000000;0.184223
8488.000000;0.184209
8487.000000;0.184293
8486.000000;0.184295
8485.000000;0.184113
8484.000000;0.183865
8483.000000;0.183735
8482.000000;0.183737
8481.000000;0.183740
8480.000000;0.183667
8479.000000;0.183563
8478.000000;0.183452
8477.000000;0.183259
8476.000000;0.182907
8475.000000;0.182410
8474.000000;0.181878
8473.000000;0.181473
8472.000000;0.181350
8471.000000;0.181534
8470.000000;0.181849
8469.000000;0.182059
8468.000000;0.182114
8467.000000;0.182176
8466.000000;0.182356
8465.000000;0.182523
8464.000000;0.182453
8463.000000;0.182115
8462.000000;0.181741
8461.000000;0.181618
8460.000000;0.181838
8459.000000;0.182224
8458.000000;0.182450
8457.000000;0.182277
8456.000000;0.181747
8455.000000;0.181152
8454.000000;0.180761
8453.000000;0.180586
8452.000000;0.180446
8451.000000;0.180225
8450.000000;0.180010
8449.000000;0.179939
8448.000000;0.180000
8447.000000;0.180027
8446.000000;0.179906
8445.000000;0.179685
8444.000000;0.179507
8443.000000;0.179454
8442.000000;0.179500
8441.000000;0.179543
8440.000000;0.179466
8439.000000;0.179195
8438.000000;0.178808
8437.000000;0.178543
8436.000000;0.178627
8435.000000;0.179017
8434.000000;0.179391
8433.000000;0.179443
8432.000000;0.179179
8431.000000;0.178858
8430.000000;0.178677
8429.000000;0.178574
8428.000000;0.178370
8427.000000;0.178023
8426.000000;0.177708
8425.000000;0.177650
8424.000000;0.177905
8423.000000;0.178276
8422.000000;0.178439
8421.000000;0.178178
8420.000000;0.177560
8419.000000;0.176887
8418.000000;0.176478
8417.000000;0.176430
8416.000000;0.176559
8415.000000;0.176571
8414.000000;0.176335
8413.000000;0.176012
8412.000000;0.175873
8411.000000;0.176022
8410.000000;0.176293
8409.000000;0.176441
8408.000000;0.176380
8407.000000;0.176214
8406.000000;0.176084
8405.000000;0.176039
8404.000000;0.176028
8403.000000;0.175974
8402.000000;0.175863
8401.000000;0.175773
8400.000000;0.175788
8399.000000;0.175863
8398.000000;0.175825
8397.000000;0.175556
8396.000000;0.175131
8395.000000;0.174739
8394.000000;0.174499
8393.000000;0.174394
8392.000000;0.174345
8391.000000;0.174252
8390.000000;0.174003
8389.000000;0.173553
8388.000000;0.173028
8387.000000;0.172672
8386.000000;0.172637
8385.000000;0.172865
8384.000000;0.173163
8383.000000;0.173373
8382.000000;0.173443
8381.000000;0.173398
8380.000000;0.173268
8379.000000;0.173040
8378.000000;0.172683
8377.000000;0.172244
8376.000000;0.171906
8375.000000;0.171851
8374.000000;0.172051
8373.000000;0.172265
8372.000000;0.172289
8371.000000;0.172157
8370.000000;0.172039
8369.000000;0.172012
8368.000000;0.171998
8367.000000;0.171902
8366.000000;0.171733
8365.000000;0.171557
8364.000000;0.171407
8363.000000;0.171268
8362.000000;0.171127
8361.000000;0.170988
8360.000000;0.170845
8359.000000;0.170655
8358.000000;0.170373
8357.000000;0.170019
8356.000000;0.169683
8355.000000;0.169445
8354.000000;0.169296
8353.000000;0.169169
8352.000000;0.169024
8351.000000;0.168888
8350.000000;0.168806
8349.000000;0.168799
8348.000000;0.168848
8347.000000;0.168903
8346.000000;0.168903
8345.000000;0.168833
8344.000000;0.168770
8343.000000;0.168822
8342.000000;0.168981
8341.000000;0.169079
8340.000000;0.168953
8339.000000;0.168625
8338.000000;0.168293
8337.000000;0.168142
8336.000000;0.168182
8335.000000;0.168275
8334.000000;0.168284
8333.000000;0.168195
8332.000000;0.168088
8331.000000;0.168024
8330.000000;0.167960
8329.000000;0.167809
8328.000000;0.167547
8327.000000;0.167244
8326.000000;0.166975
8325.000000;0.166766
8324.000000;0.166608
8323.000000;0.166481
8322.000000;0.166343
8321.000000;0.166122
8320.000000;0.165789
8319.000000;0.165421
8318.000000;0.165150
8317.000000;0.165049
8316.000000;0.165086
8315.000000;0.165167
8314.000000;0.165195
8313.000000;0.165099
8312.000000;0.164865
8311.000000;0.164559
8310.000000;0.164320
8309.000000;0.164260
8308.000000;0.164362
8307.000000;0.164488
8306.000000;0.164490
8305.000000;0.164322
8304.000000;0.164043
8303.000000;0.163729
8302.000000;0.163412
8301.000000;0.163111
8300.000000;0.162860
8299.000000;0.162695
8298.000000;0.162613
8297.000000;0.162590
8296.000000;0.162624
8295.000000;0.162737
8294.000000;0.162921
8293.000000;0.163092
8292.000000;0.163108
8291.000000;0.162856
8290.000000;0.162349
8289.000000;0.161750
8288.000000;0.161263
8287.000000;0.160987
8286.000000;0.160862
8285.000000;0.160773
8284.000000;0.160664
8283.000000;0.160533
8282.000000;0.160384
8281.000000;0.160219
8280.000000;0.160062
8279.000000;0.159956
8278.000000;0.159931
8277.000000;0.159986
8276.000000;0.160074
8275.000000;0.160082
8274.000000;0.159893
8273.000000;0.159537
8272.000000;0.159207
8271.000000;0.159072
8270.000000;0.159093
8269.000000;0.159116
8268.000000;0.159087
8267.000000;0.159069
8266.000000;0.159063
8265.000000;0.158943
8264.000000;0.158608
8263.000000;0.158106
8262.000000;0.157582
8261.000000;0.157180
8260.000000;0.157011
8259.000000;0.157094
8258.000000;0.157286
8257.000000;0.157363
8256.000000;0.157243
8255.000000;0.157086
8254.000000;0.157079
8253.000000;0.157191
8252.000000;0.157208
8251.000000;0.156976
8250.000000;0.156541
8249.000000;0.156069
8248.000000;0.155687
8247.000000;0.155417
8246.000000;0.155211
8245.000000;0.155034
8244.000000;0.154906
8243.000000;0.154847
8242.000000;0.154802
8241.000000;0.154678
8240.000000;0.154460
8239.000000;0.154250
8238.000000;0.154169
8237.000000;0.154263
8236.000000;0.154487
8235.000000;0.154712
8234.000000;0.154726
8233.000000;0.154350
8232.000000;0.153628
8231.000000;0.152850
8230.000000;0.152325
8229.000000;0.152138
8228.000000;0.152164
8227.000000;0.152236
8226.000000;0.152227
8225.000000;0.152064
8224.000000;0.151747
8223.000000;0.151373
8222.000000;0.151040
8221.000000;0.150768
8220.000000;0.150532
8219.000000;0.150365
8218.000000;0.150323
8217.000000;0.150372
8216.000000;0.150383
8215.000000;0.150255
8214.000000;0.150014
8213.000000;0.149781
8212.000000;0.149655
8211.000000;0.149642
8210.000000;0.149630
8209.000000;0.149483
8208.000000;0.149165
8207.000000;0.148788
8206.000000;0.148498
8205.000000;0.148367
8204.000000;0.148379
8203.000000;0.148491
8202.000000;0.148632
8201.000000;0.148715
8200.000000;0.148706
8199.000000;0.148646
8198.000000;0.148553
8197.000000;0.148353
8196.000000;0.147979
8195.000000;0.147520
8194.000000;0.147150
8193.000000;0.146921
8192.000000;0.146700
8191.000000;0.146349
8190.000000;0.145879
8189.000000;0.145422
8188.000000;0.145106
8187.000000;0.144995
8186.000000;0.145078
8185.000000;0.145248
8184.000000;0.145316
8183.000000;0.145120
8182.000000;0.144649
8181.000000;0.144084
8180.000000;0.143683
8179.000000;0.143595
8178.000000;0.143753
8177.000000;0.143959
8176.000000;0.144076
8175.000000;0.144111
8174.000000;0.144102
8173.000000;0.144001
8172.000000;0.143734
8171.000000;0.143328
8170.000000;0.142902
8169.000000;0.142550
8168.000000;0.142281
8167.000000;0.142064
8166.000000;0.141868
8165.000000;0.141642
8164.000000;0.141350
8163.000000;0.141030
8162.000000;0.140777
8161.000000;0.140632
8160.000000;0.140535
8159.000000;0.140383
8158.000000;0.140124
8157.000000;0.139786
8156.000000;0.139447
8155.000000;0.139187
8154.000000;0.139037
8153.000000;0.138981
8152.000000;0.138991
8151.000000;0.139054
8150.000000;0.139117
8149.000000;0.139063
8148.000000;0.138804
8147.000000;0.138389
8146.000000;0.137969
8145.000000;0.137647
8144.000000;0.137426
8143.000000;0.137267
8142.000000;0.137120
8141.000000;0.136906
8140.000000;0.136563
8139.000000;0.136146
8138.000000;0.135820
8137.000000;0.135696
8136.000000;0.135692
8135.000000;0.135628
8134.000000;0.135424
8133.000000;0.135180
8132.000000;0.135048
8131.000000;0.135061
8130.000000;0.135088
8129.000000;0.134967
8128.000000;0.134674
8127.000000;0.134341
8126.000000;0.134104
8125.000000;0.133947
8124.000000;0.133755
8123.000000;0.133474
8122.000000;0.133186
8121.000000;0.132986
8120.000000;0.132867
8119.000000;0.132751
8118.000000;0.132591
8117.000000;0.132407
8116.000000;0.132223
8115.000000;0.132024
8114.000000;0.131778
8113.000000;0.131469
8112.000000;0.131112
8111.000000;0.130744
8110.000000;0.130422
8109.000000;0.130226
8108.000000;0.130203
8107.000000;0.130303
8106.000000;0.130380
8105.000000;0.130308
8104.000000;0.130080
8103.000000;0.129754
8102.000000;0.129342
8101.000000;0.128829
8100.000000;0.128303
8099.000000;0.127955
8098.000000;0.127878
8097.000000;0.127949
8096.000000;0.127974
8095.000000;0.127895
8094.000000;0.127771
8093.000000;0.127611
8092.000000;0.127341
8091.000000;0.126936
8090.000000;0.126483
8089.000000;0.126070
8088.000000;0.125718
8087.000000;0.125413
8086.000000;0.125159
8085.000000;0.124956
8084.000000;0.124793
8083.000000;0.124683
8082.000000;0.124648
8081.000000;0.124641
8080.000000;0.124568
8079.000000;0.124398
8078.000000;0.124198
8077.000000;0.124026
8076.000000;0.123841
8075.000000;0.123581
8074.000000;0.123290
8073.000000;0.123090
8072.000000;0.123027
8071.000000;0.123001
8070.000000;0.122873
8069.000000;0.122593
8068.000000;0.122223
8067.000000;0.121837
8066.000000;0.121457
8065.000000;0.121079
8064.000000;0.120746
8063.000000;0.120516
8062.000000;0.120373
8061.000000;0.120222
8060.000000;0.120024
8059.000000;0.119873
8058.000000;0.119862
8057.000000;0.119901
8056.000000;0.119762
8055.000000;0.119328
8054.000000;0.118723
8053.000000;0.118173
8052.000000;0.117812
8051.000000;0.117646
8050.000000;0.117627
8049.000000;0.117680
8048.000000;0.117673
8047.000000;0.117468
8046.000000;0.117051
8045.000000;0.116577
8044.000000;0.116249
8043.000000;0.116132
8042.000000;0.116092
8041.000000;0.115946
8040.000000;0.115642
8039.000000;0.115284
8038.000000;0.114973
8037.000000;0.114700
8036.000000;0.114409
8035.000000;0.114106
8034.000000;0.113851
8033.000000;0.113647
8032.000000;0.113415
8031.000000;0.113088
8030.000000;0.112678
8029.000000;0.112262
8028.000000;0.111925
8027.000000;0.111713
8026.000000;0.111573
8025.000000;0.111366
8024.000000;0.111011
8023.000000;0.110614
8022.000000;0.110398
8021.000000;0.110441
8020.000000;0.110573
8019.000000;0.110557
8018.000000;0.110334
8017.000000;0.110026
8016.000000;0.109753
8015.000000;0.109526
8014.000000;0.109303
8013.000000;0.109074
8012.000000;0.108861
8011.000000;0.108675
8010.000000;0.108499
8009.000000;0.108323
8008.000000;0.108143
8007.000000;0.107940
8006.000000;0.107661
8005.000000;0.107266
8004.000000;0.106795
8003.000000;0.106349
8002.000000;0.106002
8001.000000;0.105719
8000.000000;0.105427
7999.000000;0.105132
7998.000000;0.104927
7997.000000;0.104852
7996.000000;0.104807
7995.000000;0.104631
7994.000000;0.104264
7993.000000;0.103808
7992.000000;0.103409
7991.000000;0.103109
7990.000000;0.102814
7989.000000;0.102419
7988.000000;0.101954
7987.000000;0.101561
7986.000000;0.101329
7985.000000;0.101191
7984.000000;0.101024
7983.000000;0.100810
7982.000000;0.100626
7981.000000;0.100498
7980.000000;0.100340
7979.000000;0.100059
7978.000000;0.099667
7977.000000;0.099253
7976.000000;0.098882
7975.000000;0.098564
7974.000000;0.098282
7973.000000;0.098028
7972.000000;0.097818
7971.000000;0.097679
7970.000000;0.097617
7969.000000;0.097574
7968.000000;0.097442
7967.000000;0.097143
7966.000000;0.096702
7965.000000;0.096226
7964.000000;0.095830
7963.000000;0.095570
7962.000000;0.095439
7961.000000;0.095381
7960.000000;0.095314
7959.000000;0.095144
7958.000000;0.094803
7957.000000;0.094315
7956.000000;0.093814
7955.000000;0.093458
7954.000000;0.093286
7953.000000;0.093194
7952.000000;0.093063
7951.000000;0.092879
7950.000000;0.092693
7949.000000;0.092525
7948.000000;0.092342
7947.000000;0.092107
7946.000000;0.091784
7945.000000;0.091333
7944.000000;0.090766
7943.000000;0.090203
7942.000000;0.089785
7941.000000;0.089518
7940.000000;0.089269
7939.000000;0.088946
7938.000000;0.088602
7937.000000;0.088342
7936.000000;0.088178
7935.000000;0.088037
7934.000000;0.087863
7933.000000;0.087671
7932.000000;0.087501
7931.000000;0.087364
7930.000000;0.087216
7929.000000;0.086988
7928.000000;0.086636
7927.000000;0.086208
7926.000000;0.085809
7925.000000;0.085511
7924.000000;0.085293
7923.000000;0.085078
7922.000000;0.084816
7921.000000;0.084494
7920.000000;0.084125
7919.000000;0.083743
7918.000000;0.083392
7917.000000;0.083087
7916.000000;0.082778
7915.000000;0.082389
7914.000000;0.081904
7913.000000;0.081408
7912.000000;0.081043
7911.000000;0.080889
7910.000000;0.080886
7909.000000;0.080872
7908.000000;0.080727
7907.000000;0.080472
7906.000000;0.080203
7905.000000;0.079953
7904.000000;0.079649
7903.000000;0.079232
7902.000000;0.078761
7901.000000;0.078372
7900.000000;0.078139
7899.000000;0.078000
7898.000000;0.077817
7897.000000;0.077517
7896.000000;0.077168
7895.000000;0.076919
7894.000000;0.076846
7893.000000;0.076857
7892.000000;0.076771
7891.000000;0.076481
7890.000000;0.076033
7889.000000;0.075532
7888.000000;0.075040
7887.000000;0.074559
7886.000000;0.074086
7885.000000;0.073651
7884.000000;0.073300
7883.000000;0.073055
7882.000000;0.072904
7881.000000;0.072817
7880.000000;0.072757
7879.000000;0.072676
7878.000000;0.072519
7877.000000;0.072263
7876.000000;0.071961
7875.000000;0.071684
7874.000000;0.071431
7873.000000;0.071113
7872.000000;0.070684
7871.000000;0.070222
7870.000000;0.069851
7869.000000;0.069606
7868.000000;0.069425
7867.000000;0.069236
7866.000000;0.068999
7865.000000;0.068681
7864.000000;0.068284
7863.000000;0.067877
7862.000000;0.067552
7861.000000;0.067327
7860.000000;0.067150
7859.000000;0.066981
7858.000000;0.066805
7857.000000;0.066583
7856.000000;0.066257
7855.000000;0.065834
7854.000000;0.065405
7853.000000;0.065044
7852.000000;0.064746
7851.000000;0.064484
7850.000000;0.064261
7849.000000;0.064054
7848.000000;0.063786
7847.000000;0.063402
7846.000000;0.062946
7845.000000;0.062506
7844.000000;0.062126
7843.000000;0.061801
7842.000000;0.061530
7841.000000;0.061308
7840.000000;0.061096
7839.000000;0.060854
7838.000000;0.060598
7837.000000;0.060385
7836.000000;0.060212
7835.000000;0.059989
7834.000000;0.059617
7833.000000;0.059110
7832.000000;0.058613
7831.000000;0.058287
7830.000000;0.058166
7829.000000;0.058113
7828.000000;0.057959
7827.000000;0.057674
7826.000000;0.057367
7825.000000;0.057123
7824.000000;0.056888
7823.000000;0.056560
7822.000000;0.056144
7821.000000;0.055753
7820.000000;0.055480
7819.000000;0.055307
7818.000000;0.055146
7817.000000;0.054926
7816.000000;0.054638
7815.000000;0.054323
7814.000000;0.054031
7813.000000;0.053776
7812.000000;0.053520
7811.000000;0.053208
7810.000000;0.052826
7809.000000;0.052421
7808.000000;0.052064
7807.000000;0.051794
7806.000000;0.051582
7805.000000;0.051365
7804.000000;0.051112
7803.000000;0.050870
7802.000000;0.050696
7801.000000;0.050555
7800.000000;0.050329
7799.000000;0.049950
7798.000000;0.049502
7797.000000;0.049135
7796.000000;0.048894
7795.000000;0.048685
7794.000000;0.048414
7793.000000;0.048106
7792.000000;0.047852
7791.000000;0.047677
7790.000000;0.047506
7789.000000;0.047257
7788.000000;0.046928
7787.000000;0.046578
7786.000000;0.046258
7785.000000;0.045977
7784.000000;0.045713
7783.000000;0.045433
7782.000000;0.045112
7781.000000;0.044761
7780.000000;0.044443
7779.000000;0.044231
7778.000000;0.044141
7777.000000;0.044093
7776.000000;0.043965
7775.000000;0.043667
7774.000000;0.043201
7773.000000;0.042658
7772.000000;0.042169
7771.000000;0.041824
7770.000000;0.041618
7769.000000;0.041480
7768.000000;0.041335
7767.000000;0.041129
7766.000000;0.040823
7765.000000;0.040429
7764.000000;0.040052
7763.000000;0.039817
7762.000000;0.039725
7761.000000;0.039626
7760.000000;0.039377
7759.000000;0.038980
7758.000000;0.038530
7757.000000;0.038089
7756.000000;0.037664
7755.000000;0.037277
7754.000000;0.036968
7753.000000;0.036719
7752.000000;0.036456
7751.000000;0.036157
7750.000000;0.035895
7749.000000;0.035743
7748.000000;0.035661
7747.000000;0.035524
7746.000000;0.035248
7745.000000;0.034872
7744.000000;0.034514
7743.000000;0.034249
7742.000000;0.034037
7741.000000;0.033776
7740.000000;0.033428
7739.000000;0.033056
7738.000000;0.032746
7737.000000;0.032514
7736.000000;0.032320
7735.000000;0.032119
7734.000000;0.031881
7733.000000;0.031574
7732.000000;0.031198
7731.000000;0.030823
7730.000000;0.030554
7729.000000;0.030428
7728.000000;0.030373
7727.000000;0.030270
7726.000000;0.030046
7725.000000;0.029721
7724.000000;0.029390
7723.000000;0.029137
7722.000000;0.028945
7721.000000;0.028716
7720.000000;0.028381
7719.000000;0.027979
7718.000000;0.027602
7717.000000;0.027295
7716.000000;0.027037
7715.000000;0.026791
7714.000000;0.026523
7713.000000;0.026198
7712.000000;0.025820
7711.000000;0.025462
7710.000000;0.025202
7709.000000;0.025044
7708.000000;0.024919
7707.000000;0.024771
7706.000000;0.024598
7705.000000;0.024409
7704.000000;0.024195
7703.000000;0.023946
7702.000000;0.023662
7701.000000;0.023369
7700.000000;0.023116
7699.000000;0.022939
7698.000000;0.022805
7697.000000;0.022621
7696.000000;0.022337
7695.000000;0.022001
7694.000000;0.021681
7693.000000;0.021382
7692.000000;0.021082
7691.000000;0.020792
7690.000000;0.020522
7689.000000;0.020233
7688.000000;0.019906
7687.000000;0.019612
7686.000000;0.019428
7685.000000;0.019295
7684.000000;0.019074
7683.000000;0.018735
7682.000000;0.018380
7681.000000;0.018067
7680.000000;0.017745
7679.000000;0.017374
7678.000000;0.017024
7677.000000;0.016779
7676.000000;0.016637
7675.000000;0.016526
7674.000000;0.016391
7673.000000;0.016194
7672.000000;0.015906
7671.000000;0.015552
7670.000000;0.015228
7669.000000;0.015013
7668.000000;0.014889
7667.000000;0.014769
7666.000000;0.014570
7665.000000;0.014257
7664.000000;0.013845
7663.000000;0.013402
7662.000000;0.013012
7661.000000;0.012711
7660.000000;0.012468
7659.000000;0.012251
7658.000000;0.012076
7657.000000;0.011969
7656.000000;0.011908
7655.000000;0.011825
7654.000000;0.011642
7653.000000;0.011308
7652.000000;0.010846
7651.000000;0.010362
7650.000000;0.009984
7649.000000;0.009765
7648.000000;0.009677
7647.000000;0.009664
7646.000000;0.009680
7645.000000;0.009654
7644.000000;0.009513
7643.000000;0.009243
7642.000000;0.008901
7641.000000;0.008562
7640.000000;0.008272
7639.000000;0.008046
7638.000000;0.007869
7637.000000;0.007689
7636.000000;0.007450
7635.000000;0.007143
7634.000000;0.006783
7633.000000;0.006364
7632.000000;0.005885
7631.000000;0.005415
7630.000000;0.005049
7629.000000;0.004792
7628.000000;0.004570
7627.000000;0.004346
7626.000000;0.004167
7625.000000;0.004065
7624.000000;0.003991
7623.000000;0.003889
7622.000000;0.003760
7621.000000;0.003629
7620.000000;0.003504
7619.000000;0.003393
7618.000000;0.003311
7617.000000;0.003224
7616.000000;0.003058
7615.000000;0.002797
7614.000000;0.002505
7613.000000;0.002220
7612.000000;0.001889
7611.000000;0.001477
7610.000000;0.001055
7609.000000;0.000734
7608.000000;0.000529
7607.000000;0.000362
7606.000000;0.000155
7605.000000;-0.000118
7604.000000;-0.000428
7603.000000;-0.000716
7602.000000;-0.000930
7601.000000;-0.001103
7600.000000;-0.001341
7599.000000;-0.001694
7598.000000;-0.002077
7597.000000;-0.002361
7596.000000;-0.002524
7595.000000;-0.002666
7594.000000;-0.002868
7593.000000;-0.003109
7592.000000;-0.003302
7591.000000;-0.003404
7590.000000;-0.003468
7589.000000;-0.003604
7588.000000;-0.003874
7587.000000;-0.004237
7586.000000;-0.004600
7585.000000;-0.004909
7584.000000;-0.005160
7583.000000;-0.005358
7582.000000;-0.005523
7581.000000;-0.005728
7580.000000;-0.006053
7579.000000;-0.006471
7578.000000;-0.006836
7577.000000;-0.007027
7576.000000;-0.007065
7575.000000;-0.007078
7574.000000;-0.007191
7573.000000;-0.007470
7572.000000;-0.007885
7571.000000;-0.008309
7570.000000;-0.008595
7569.000000;-0.008710
7568.000000;-0.008768
7567.000000;-0.008900
7566.000000;-0.009138
7565.000000;-0.009429
7564.000000;-0.009726
7563.000000;-0.010003
7562.000000;-0.010247
7561.000000;-0.010458
7560.000000;-0.010654
7559.000000;-0.010833
7558.000000;-0.010964
7557.000000;-0.011042
7556.000000;-0.011113
7555.000000;-0.011236
7554.000000;-0.011435
7553.000000;-0.011711
7552.000000;-0.012049
7551.000000;-0.012402
7550.000000;-0.012719
7549.000000;-0.013002
7548.000000;-0.013308
7547.000000;-0.013658
7546.000000;-0.014000
7545.000000;-0.014263
7544.000000;-0.014407
7543.000000;-0.014426
7542.000000;-0.014360
7541.000000;-0.014328
7540.000000;-0.014481
7539.000000;-0.014863
7538.000000;-0.015362
7537.000000;-0.015822
7536.000000;-0.016167
7535.000000;-0.016398
7534.000000;-0.016541
7533.000000;-0.016638
7532.000000;-0.016754
7531.000000;-0.016921
7530.000000;-0.017110
7529.000000;-0.017285
7528.000000;-0.017446
7527.000000;-0.017597
7526.000000;-0.017722
7525.000000;-0.017836
7524.000000;-0.018017
7523.000000;-0.018328
7522.000000;-0.018741
7521.000000;-0.019173
7520.000000;-0.019550
7519.000000;-0.019833
7518.000000;-0.020017
7517.000000;-0.020154
7516.000000;-0.020320
7515.000000;-0.020522
7514.000000;-0.020673
7513.000000;-0.020709
7512.000000;-0.020701
7511.000000;-0.020800
7510.000000;-0.021083
7509.000000;-0.021492
7508.000000;-0.021902
7507.000000;-0.022224
7506.000000;-0.022456
7505.000000;-0.022661
7504.000000;-0.022891
7503.000000;-0.023126
7502.000000;-0.023309
7501.000000;-0.023444
7500.000000;-0.023600
7499.000000;-0.023827
7498.000000;-0.024085
7497.000000;-0.024369
7496.000000;-0.024524
7495.000000;-0.024669
7494.000000;-0.024870
7493.000000;-0.025138
7492.000000;-0.025414
7491.000000;-0.025635
7490.000000;-0.025807
7489.000000;-0.025996
7488.000000;-0.026232
7487.000000;-0.026458
7486.000000;-0.026635
7485.000000;-0.026835
7484.000000;-0.027157
7483.000000;-0.027566
7482.000000;-0.027919
7481.000000;-0.028123
7480.000000;-0.028218
7479.000000;-0.028292
7478.000000;-0.028418
7477.000000;-0.028652
7476.000000;-0.028999
7475.000000;-0.029366
7474.000000;-0.029623
7473.000000;-0.029751
7472.000000;-0.029857
7471.000000;-0.030043
7470.000000;-0.030318
7469.000000;-0.030617
7468.000000;-0.030868
7467.000000;-0.031024
7466.000000;-0.031109
7465.000000;-0.031213
7464.000000;-0.031375
7463.000000;-0.031528
7462.000000;-0.031620
7461.000000;-0.031741
7460.000000;-0.032006
7459.000000;-0.032360
7458.000000;-0.032640
7457.000000;-0.032793
7456.000000;-0.032892
7455.000000;-0.032982
7454.000000;-0.033059
7453.000000;-0.033204
7452.000000;-0.033546
7451.000000;-0.034053
7450.000000;-0.034530
7449.000000;-0.034850
7448.000000;-0.035056
7447.000000;-0.035203
7446.000000;-0.035287
7445.000000;-0.035358
7444.000000;-0.035525
7443.000000;-0.035795
7442.000000;-0.036056
7441.000000;-0.036272
7440.000000;-0.036517
7439.000000;-0.036784
7438.000000;-0.036953
7437.000000;-0.037006
7436.000000;-0.037100
7435.000000;-0.037329
7434.000000;-0.037582
7433.000000;-0.037756
7432.000000;-0.037920
7431.000000;-0.038165
7430.000000;-0.038443
7429.000000;-0.038678
7428.000000;-0.038905
7427.000000;-0.039166
7426.000000;-0.039405
7425.000000;-0.039594
7424.000000;-0.039813
7423.000000;-0.040067
7422.000000;-0.040172
7421.000000;-0.040013
7420.000000;-0.039772
7419.000000;-0.039736
7418.000000;-0.039957
7417.000000;-0.040286
7416.000000;-0.040617
7415.000000;-0.040955
7414.000000;-0.041296
7413.000000;-0.041603
7412.000000;-0.041886
7411.000000;-0.042212
7410.000000;-0.042631
7409.000000;-0.043110
7408.000000;-0.043495
7407.000000;-0.043581
7406.000000;-0.043349
7405.000000;-0.043100
7404.000000;-0.043178
7403.000000;-0.043565
7402.000000;-0.043932
7401.000000;-0.044042
7400.000000;-0.043933
7399.000000;-0.043793
7398.000000;-0.043819
7397.000000;-0.044094
7396.000000;-0.044471
7395.000000;-0.044718
7394.000000;-0.044900
7393.000000;-0.045389
7392.000000;-0.046297
7391.000000;-0.047163
7390.000000;-0.047502
7389.000000;-0.047444
7388.000000;-0.047417
7387.000000;-0.047443
7386.000000;-0.047254
7385.000000;-0.046961
7384.000000;-0.046899
7383.000000;-0.046823
7382.000000;-0.046124
7381.000000;-0.045076
7380.000000;-0.044959
7379.000000;-0.046274
7378.000000;-0.047695
7377.000000;-0.047656
7376.000000;-0.046372
7375.000000;-0.045510
7374.000000;-0.046140
7373.000000;-0.047777
7372.000000;-0.049266
7371.000000;-0.049847
7370.000000;-0.049467
7369.000000;-0.048746
7368.000000;-0.048570
7367.000000;-0.049217
7366.000000;-0.050042
7365.000000;-0.050420
7364.000000;-0.050527
7363.000000;-0.050715
7362.000000;-0.050762
7361.000000;-0.050490
7360.000000;-0.050564
7359.000000;-0.051498
7358.000000;-0.052394
7357.000000;-0.051974
7356.000000;-0.050548
7355.000000;-0.049770
7354.000000;-0.050449
7353.000000;-0.051810
7352.000000;-0.052863
7351.000000;-0.053226
7350.000000;-0.052700
7349.000000;-0.051465
7348.000000;-0.050646
7347.000000;-0.051234
7346.000000;-0.052498
7345.000000;-0.052873
7344.000000;-0.052226
7343.000000;-0.051571
7342.000000;-0.050829
7341.000000;-0.048968
7340.000000;-0.046700
7339.000000;-0.046668
7338.000000;-0.049770
7337.000000;-0.053565
7336.000000;-0.055526
7335.000000;-0.055772
7334.000000;-0.055703
7333.000000;-0.055859
7332.000000;-0.056183
7331.000000;-0.056678
7330.000000;-0.056661
7329.000000;-0.055057
7328.000000;-0.052583
7327.000000;-0.051899
7326.000000;-0.054070
7325.000000;-0.056743
7324.000000;-0.057485
7323.000000;-0.057002
7322.000000;-0.057460
7321.000000;-0.059060
7320.000000;-0.060130
7319.000000;-0.059882
7318.000000;-0.059065
7317.000000;-0.058392
7316.000000;-0.058056
7315.000000;-0.058334
7314.000000;-0.059059
7313.000000;-0.058995
7312.000000;-0.057462
7311.000000;-0.056008
7310.000000;-0.056502
7309.000000;-0.058149
7308.000000;-0.058577
7307.000000;-0.057490
7306.000000;-0.057090
7305.000000;-0.058663
7304.000000;-0.060886
7303.000000;-0.062192
7302.000000;-0.062605
7301.000000;-0.062604
7300.000000;-0.062158
7299.000000;-0.061711
7298.000000;-0.062373
7297.000000;-0.063903
7296.000000;-0.064275
7295.000000;-0.062455
7294.000000;-0.060284
7293.000000;-0.060215
7292.000000;-0.061991
7291.000000;-0.063265
7290.000000;-0.062794
7289.000000;-0.061399
7288.000000;-0.060440
7287.000000;-0.060534
7286.000000;-0.061595
7285.000000;-0.063124
7284.000000;-0.064331
7283.000000;-0.064694
7282.000000;-0.064494
7281.000000;-0.064416
7280.000000;-0.064659
7279.000000;-0.064898
7278.000000;-0.064982
7277.000000;-0.065058
7276.000000;-0.065104
7275.000000;-0.064874
7274.000000;-0.064354
7273.000000;-0.063937
7272.000000;-0.064007
7271.000000;-0.064506
7270.000000;-0.065001
7269.000000;-0.065104
7268.000000;-0.064843
7267.000000;-0.064665
7266.000000;-0.064890
7265.000000;-0.065149
7264.000000;-0.064706
7263.000000;-0.063499
7262.000000;-0.062493
7261.000000;-0.062651
7260.000000;-0.063789
7259.000000;-0.064921
7258.000000;-0.065469
7257.000000;-0.065575
7256.000000;-0.065363
7255.000000;-0.064618
7254.000000;-0.063409
7253.000000;-0.062427
7252.000000;-0.062415
7251.000000;-0.063380
7250.000000;-0.064523
7249.000000;-0.065001
7248.000000;-0.064777
7247.000000;-0.064541
7246.000000;-0.064500
7245.000000;-0.063663
7244.000000;-0.061076
7243.000000;-0.057705
7242.000000;-0.056147
7241.000000;-0.057759
7240.000000;-0.060911
7239.000000;-0.063019
7238.000000;-0.063438
7237.000000;-0.063470
7236.000000;-0.064012
7235.000000;-0.064129
7234.000000;-0.062333
7233.000000;-0.058847
7232.000000;-0.056154
7231.000000;-0.056776
7230.000000;-0.060392
7229.000000;-0.064034
7228.000000;-0.065232
7227.000000;-0.064239
7226.000000;-0.063166
7225.000000;-0.063603
7224.000000;-0.065363
7223.000000;-0.067120
7222.000000;-0.067777
7221.000000;-0.067251
7220.000000;-0.066420
7219.000000;-0.066357
7218.000000;-0.067320
7217.000000;-0.068553
7216.000000;-0.069219
7215.000000;-0.069341
7214.000000;-0.069602
7213.000000;-0.070308
7212.000000;-0.070986
7211.000000;-0.071163
7210.000000;-0.071047
7209.000000;-0.071069
7208.000000;-0.071092
7207.000000;-0.070551
7206.000000;-0.069247
7205.000000;-0.067766
7204.000000;-0.067093
7203.000000;-0.067773
7202.000000;-0.069426
7201.000000;-0.071097
7200.000000;-0.072136
7199.000000;-0.072691
7198.000000;-0.073249
7197.000000;-0.073839
7196.000000;-0.074045
7195.000000;-0.073842
7194.000000;-0.073890
7193.000000;-0.074618
7192.000000;-0.075527
7191.000000;-0.075898
7190.000000;-0.075810
7189.000000;-0.075811
7188.000000;-0.075939
7187.000000;-0.075897
7186.000000;-0.075920
7185.000000;-0.076471
7184.000000;-0.077096
7183.000000;-0.076699
7182.000000;-0.075271
7181.000000;-0.074356
7180.000000;-0.075137
7179.000000;-0.076874
7178.000000;-0.078050
7177.000000;-0.078278
7176.000000;-0.078238
7175.000000;-0.078434
7174.000000;-0.078827
7173.000000;-0.079287
7172.000000;-0.079611
7171.000000;-0.079265
7170.000000;-0.077977
7169.000000;-0.076397
7168.000000;-0.075510
7167.000000;-0.075624
7166.000000;-0.076485
7165.000000;-0.077949
7164.000000;-0.079675
7163.000000;-0.080715
7162.000000;-0.080432
7161.000000;-0.079665
7160.000000;-0.079952
7159.000000;-0.081459
7158.000000;-0.082776
7157.000000;-0.082988
7156.000000;-0.082779
7155.000000;-0.083141
7154.000000;-0.083999
7153.000000;-0.084615
7152.000000;-0.084725
7151.000000;-0.084686
7150.000000;-0.084866
7149.000000;-0.085275
7148.000000;-0.085630
7147.000000;-0.085559
7146.000000;-0.084869
7145.000000;-0.083907
7144.000000;-0.083462
7143.000000;-0.083904
7142.000000;-0.084506
7141.000000;-0.084211
7140.000000;-0.083131
7139.000000;-0.082671
7138.000000;-0.083766
7137.000000;-0.085585
7136.000000;-0.086648
7135.000000;-0.086709
7134.000000;-0.086786
7133.000000;-0.087576
7132.000000;-0.088649
7131.000000;-0.089338
7130.000000;-0.089655
7129.000000;-0.089930
7128.000000;-0.090137
7127.000000;-0.090148
7126.000000;-0.090189
7125.000000;-0.090419
7124.000000;-0.090469
7123.000000;-0.090059
7122.000000;-0.089731
7121.000000;-0.090169
7120.000000;-0.090923
7119.000000;-0.090802
7118.000000;-0.089683
7117.000000;-0.089032
7116.000000;-0.090009
7115.000000;-0.091850
7114.000000;-0.092990
7113.000000;-0.093050
7112.000000;-0.092858
7111.000000;-0.093001
7110.000000;-0.093218
7109.000000;-0.093139
7108.000000;-0.092834
7107.000000;-0.092546
7106.000000;-0.092483
7105.000000;-0.092889
7104.000000;-0.093858
7103.000000;-0.094998
7102.000000;-0.095696
7101.000000;-0.095792
7100.000000;-0.095741
7099.000000;-0.096036
7098.000000;-0.096589
7097.000000;-0.096901
7096.000000;-0.096765
7095.000000;-0.096551
7094.000000;-0.096734
7093.000000;-0.097329
7092.000000;-0.097940
7091.000000;-0.098290
7090.000000;-0.098494
7089.000000;-0.098822
7088.000000;-0.099295
7087.000000;-0.099682
7086.000000;-0.099849
7085.000000;-0.099953
7084.000000;-0.100192
7083.000000;-0.100514
7082.000000;-0.100724
7081.000000;-0.100809
7080.000000;-0.101001
7079.000000;-0.101420
7078.000000;-0.101812
7077.000000;-0.101879
7076.000000;-0.101749
7075.000000;-0.101826
7074.000000;-0.102196
7073.000000;-0.102510
7072.000000;-0.102520
7071.000000;-0.102421
7070.000000;-0.102531
7069.000000;-0.102861
7068.000000;-0.103195
7067.000000;-0.103450
7066.000000;-0.103728
7065.000000;-0.104077
7064.000000;-0.104419
7063.000000;-0.104714
7062.000000;-0.105032
7061.000000;-0.105391
7060.000000;-0.105718
7059.000000;-0.106015
7058.000000;-0.106372
7057.000000;-0.106791
7056.000000;-0.107150
7055.000000;-0.107361
7054.000000;-0.107475
7053.000000;-0.107622
7052.000000;-0.107888
7051.000000;-0.108233
7050.000000;-0.108527
7049.000000;-0.108657
7048.000000;-0.108665
7047.000000;-0.108747
7046.000000;-0.109051
7045.000000;-0.109473
7044.000000;-0.109783
7043.000000;-0.109929
7042.000000;-0.110084
7041.000000;-0.110368
7040.000000;-0.110711
7039.000000;-0.111031
7038.000000;-0.111381
7037.000000;-0.111802
7036.000000;-0.112206
7035.000000;-0.112501
7034.000000;-0.112738
7033.000000;-0.113022
7032.000000;-0.113354
7031.000000;-0.113656
7030.000000;-0.113892
7029.000000;-0.114085
7028.000000;-0.114244
7027.000000;-0.114373
7026.000000;-0.114497
7025.000000;-0.114615
7024.000000;-0.114702
7023.000000;-0.114818
7022.000000;-0.115117
7021.000000;-0.115652
7020.000000;-0.116254
7019.000000;-0.116716
7018.000000;-0.117021
7017.000000;-0.117295
7016.000000;-0.117574
7015.000000;-0.117793
7014.000000;-0.117965
7013.000000;-0.118204
7012.000000;-0.118557
7011.000000;-0.118943
7010.000000;-0.119279
7009.000000;-0.119543
7008.000000;-0.119719
7007.000000;-0.119810
7006.000000;-0.119893
7005.000000;-0.120067
7004.000000;-0.120319
7003.000000;-0.120547
7002.000000;-0.120734
7001.000000;-0.120975
7000.000000;-0.121315
6999.000000;-0.121672
6998.000000;-0.121968
6997.000000;-0.122231
6996.000000;-0.122502
6995.000000;-0.122754
6994.000000;-0.122973
6993.000000;-0.123231
6992.000000;-0.123590
6991.000000;-0.123983
6990.000000;-0.124282
6989.000000;-0.124453
6988.000000;-0.124555
6987.000000;-0.124644
6986.000000;-0.124768
6985.000000;-0.124991
6984.000000;-0.125317
6983.000000;-0.125638
6982.000000;-0.125853
6981.000000;-0.126032
6980.000000;-0.126368
6979.000000;-0.126914
6978.000000;-0.127486
6977.000000;-0.127869
6976.000000;-0.128067
6975.000000;-0.128234
6974.000000;-0.128418
6973.000000;-0.128536
6972.000000;-0.128580
6971.000000;-0.128689
6970.000000;-0.128955
6969.000000;-0.129293
6968.000000;-0.129581
6967.000000;-0.129840
6966.000000;-0.130171
6965.000000;-0.130576
6964.000000;-0.130959
6963.000000;-0.131285
6962.000000;-0.131601
6961.000000;-0.131904
6960.000000;-0.132127
6959.000000;-0.132267
6958.000000;-0.132383
6957.000000;-0.132477
6956.000000;-0.132529
6955.000000;-0.132638
6954.000000;-0.132982
6953.000000;-0.133563
6952.000000;-0.134157
6951.000000;-0.134568
6950.000000;-0.134814
6949.000000;-0.134999
6948.000000;-0.135153
6947.000000;-0.135301
6946.000000;-0.135557
6945.000000;-0.136000
6944.000000;-0.136512
6943.000000;-0.136888
6942.000000;-0.137069
6941.000000;-0.137146
6940.000000;-0.137181
6939.000000;-0.137197
6938.000000;-0.137284
6937.000000;-0.137567
6936.000000;-0.138027
6935.000000;-0.138505
6934.000000;-0.138876
6933.000000;-0.139135
6932.000000;-0.139321
6931.000000;-0.139467
6930.000000;-0.139642
6929.000000;-0.139920
6928.000000;-0.140289
6927.000000;-0.140656
6926.000000;-0.140975
6925.000000;-0.141286
6924.000000;-0.141599
6923.000000;-0.141860
6922.000000;-0.142066
6921.000000;-0.142287
6920.000000;-0.142497
6919.000000;-0.142557
6918.000000;-0.142448
6917.000000;-0.142405
6916.000000;-0.142684
6915.000000;-0.143251
6914.000000;-0.143824
6913.000000;-0.144186
6912.000000;-0.144375
6911.000000;-0.144560
6910.000000;-0.144838
6909.000000;-0.145176
6908.000000;-0.145506
6907.000000;-0.145803
6906.000000;-0.146091
6905.000000;-0.146405
6904.000000;-0.146738
6903.000000;-0.147052
6902.000000;-0.147339
6901.000000;-0.147627
6900.000000;-0.147914
6899.000000;-0.148165
6898.000000;-0.148366
6897.000000;-0.148528
6896.000000;-0.148636
6895.000000;-0.148670
6894.000000;-0.148691
6893.000000;-0.148832
6892.000000;-0.149166
6891.000000;-0.149629
6890.000000;-0.150101
6889.000000;-0.150504
6888.000000;-0.150812
6887.000000;-0.151026
6886.000000;-0.151198
6885.000000;-0.151417
6884.000000;-0.151731
6883.000000;-0.152101
6882.000000;-0.152467
6881.000000;-0.152814
6880.000000;-0.153150
6879.000000;-0.153465
6878.000000;-0.153746
6877.000000;-0.154013
6876.000000;-0.154301
6875.000000;-0.154611
6874.000000;-0.154900
6873.000000;-0.155126
6872.000000;-0.155306
6871.000000;-0.155503
6870.000000;-0.155763
6869.000000;-0.156057
6868.000000;-0.156315
6867.000000;-0.156517
6866.000000;-0.156721
6865.000000;-0.156985
6864.000000;-0.157298
6863.000000;-0.157595
6862.000000;-0.157837
6861.000000;-0.158032
6860.000000;-0.158209
6859.000000;-0.158398
6858.000000;-0.158627
6857.000000;-0.158901
6856.000000;-0.159201
6855.000000;-0.159497
6854.000000;-0.159774
6853.000000;-0.160043
6852.000000;-0.160314
6851.000000;-0.160590
6850.000000;-0.160872
6849.000000;-0.161156
6848.000000;-0.161437
6847.000000;-0.161724
6846.000000;-0.162029
6845.000000;-0.162349
6844.000000;-0.162648
6843.000000;-0.162897
6842.000000;-0.163113
6841.000000;-0.163319
6840.000000;-0.163506
6839.000000;-0.163660
6838.000000;-0.163813
6837.000000;-0.164020
6836.000000;-0.164291
6835.000000;-0.164601
6834.000000;-0.164948
6833.000000;-0.165332
6832.000000;-0.165701
6831.000000;-0.165965
6830.000000;-0.166114
6829.000000;-0.166244
6828.000000;-0.166436
6827.000000;-0.166671
6826.000000;-0.166905
6825.000000;-0.167166
6824.000000;-0.167501
6823.000000;-0.167887
6822.000000;-0.168254
6821.000000;-0.168584
6820.000000;-0.168907
6819.000000;-0.169214
6818.000000;-0.169459
6817.000000;-0.169632
6816.000000;-0.169792
6815.000000;-0.169995
6814.000000;-0.170240
6813.000000;-0.170506
6812.000000;-0.170798
6811.000000;-0.171116
6810.000000;-0.171431
6809.000000;-0.171715
6808.000000;-0.171972
6807.000000;-0.172196
6806.000000;-0.172360
6805.000000;-0.172481
6804.000000;-0.172648
6803.000000;-0.172933
6802.000000;-0.173278
6801.000000;-0.173555
6800.000000;-0.173737
6799.000000;-0.173948
6798.000000;-0.174289
6797.000000;-0.174712
6796.000000;-0.175082
6795.000000;-0.175331
6794.000000;-0.175490
6793.000000;-0.175607
6792.000000;-0.175733
6791.000000;-0.175930
6790.000000;-0.176240
6789.000000;-0.176608
6788.000000;-0.176925
6787.000000;-0.177152
6786.000000;-0.177382
6785.000000;-0.177719
6784.000000;-0.178147
6783.000000;-0.178558
6782.000000;-0.178870
6781.000000;-0.179093
6780.000000;-0.179291
6779.000000;-0.179518
6778.000000;-0.179775
6777.000000;-0.180014
6776.000000;-0.180200
6775.000000;-0.180369
6774.000000;-0.180596
6773.000000;-0.180888
6772.000000;-0.181159
6771.000000;-0.181350
6770.000000;-0.181507
6769.000000;-0.181716
6768.000000;-0.181983
6767.000000;-0.182252
6766.000000;-0.182509
6765.000000;-0.182781
6764.000000;-0.183071
6763.000000;-0.183344
6762.000000;-0.183577
6761.000000;-0.183782
6760.000000;-0.183990
6759.000000;-0.184238
6758.000000;-0.184542
6757.000000;-0.184864
6756.000000;-0.185132
6755.000000;-0.185333
6754.000000;-0.185570
6753.000000;-0.185937
6752.000000;-0.186383
6751.000000;-0.186766
6750.000000;-0.187026
6749.000000;-0.187230
6748.000000;-0.187459
6747.000000;-0.187706
6746.000000;-0.187926
6745.000000;-0.188119
6744.000000;-0.188331
6743.000000;-0.188613
6742.000000;-0.188985
6741.000000;-0.189406
6740.000000;-0.189785
6739.000000;-0.190037
6738.000000;-0.190165
6737.000000;-0.190257
6736.000000;-0.190391
6735.000000;-0.190580
6734.000000;-0.190798
6733.000000;-0.191027
6732.000000;-0.191263
6731.000000;-0.191506
6730.000000;-0.191764
6729.000000;-0.192039
6728.000000;-0.192306
6727.000000;-0.192525
6726.000000;-0.192695
6725.000000;-0.192854
6724.000000;-0.193039
6723.000000;-0.193251
6722.000000;-0.193479
6721.000000;-0.193728
6720.000000;-0.194010
6719.000000;-0.194334
6718.000000;-0.194698
6717.000000;-0.195080
6716.000000;-0.195418
6715.000000;-0.195662
6714.000000;-0.195847
6713.000000;-0.196061
6712.000000;-0.196393
6711.000000;-0.196810
6710.000000;-0.197198
6709.000000;-0.197484
6708.000000;-0.197650
6707.000000;-0.197722
6706.000000;-0.197801
6705.000000;-0.198015
6704.000000;-0.198367
6703.000000;-0.198620
6702.000000;-0.198987
6701.000000;-0.199293
6700.000000;-0.199553
6699.000000;-0.199790
6698.000000;-0.200013
6697.000000;-0.200234
6696.000000;-0.200474
6695.000000;-0.200745
6694.000000;-0.201039
6693.000000;-0.201332
6692.000000;-0.201592
6691.000000;-0.201791
6690.000000;-0.201933
6689.000000;-0.202053
6688.000000;-0.202196
6687.000000;-0.202397
6686.000000;-0.202654
6685.000000;-0.202931
6684.000000;-0.203182
6683.000000;-0.203403
6682.000000;-0.203643
6681.000000;-0.203940
6680.000000;-0.204275
6679.000000;-0.204595
6678.000000;-0.204884
6677.000000;-0.205160
6676.000000;-0.205425
6675.000000;-0.205657
6674.000000;-0.205855
6673.000000;-0.206060
6672.000000;-0.206300
6671.000000;-0.206565
6670.000000;-0.206824
6669.000000;-0.207050
6668.000000;-0.207229
6667.000000;-0.207364
6666.000000;-0.207493
6665.000000;-0.207668
6664.000000;-0.207906
6663.000000;-0.208172
6662.000000;-0.208432
6661.000000;-0.208683
6660.000000;-0.208940
6659.000000;-0.209208
6658.000000;-0.209493
6657.000000;-0.209806
6656.000000;-0.210142
6655.000000;-0.210472
6654.000000;-0.210760
6653.000000;-0.210986
6652.000000;-0.211147
6651.000000;-0.211272
6650.000000;-0.211431
6649.000000;-0.211694
6648.000000;-0.212062
6647.000000;-0.212455
6646.000000;-0.212790
6645.000000;-0.213052
6644.000000;-0.213267
6643.000000;-0.213451
6642.000000;-0.213604
6641.000000;-0.213748
6640.000000;-0.213930
6639.000000;-0.214187
6638.000000;-0.214511
6637.000000;-0.214858
6636.000000;-0.215169
6635.000000;-0.215412
6634.000000;-0.215596
6633.000000;-0.215771
6632.000000;-0.215987
6631.000000;-0.216263
6630.000000;-0.216585
6629.000000;-0.216915
6628.000000;-0.217212
6627.000000;-0.217450
6626.000000;-0.217633
6625.000000;-0.217796
6624.000000;-0.217968
6623.000000;-0.218157
6622.000000;-0.218359
6621.000000;-0.218576
6620.000000;-0.218825
6619.000000;-0.219113
6618.000000;-0.219421
6617.000000;-0.219704
6616.000000;-0.219932
6615.000000;-0.220111
6614.000000;-0.220283
6613.000000;-0.220483
6612.000000;-0.220713
6611.000000;-0.220951
6610.000000;-0.221177
6609.000000;-0.221387
6608.000000;-0.221592
6607.000000;-0.221817
6606.000000;-0.222081
6605.000000;-0.222373
6604.000000;-0.222661
6603.000000;-0.222939
6602.000000;-0.223224
6601.000000;-0.223512
6600.000000;-0.223759
6599.000000;-0.223937
6598.000000;-0.224085
6597.000000;-0.224267
6596.000000;-0.224500
6595.000000;-0.224758
6594.000000;-0.225026
6593.000000;-0.225314
6592.000000;-0.225621
6591.000000;-0.225919
6590.000000;-0.226181
6589.000000;-0.226412
6588.000000;-0.226636
6587.000000;-0.226881
6586.000000;-0.227171
6585.000000;-0.227497
6584.000000;-0.227815
6583.000000;-0.228090
6582.000000;-0.228333
6581.000000;-0.228578
6580.000000;-0.228830
6579.000000;-0.229068
6578.000000;-0.229295
6577.000000;-0.229545
6576.000000;-0.229821
6575.000000;-0.230083
6574.000000;-0.230295
6573.000000;-0.230474
6572.000000;-0.230664
6571.000000;-0.230891
6570.000000;-0.231155
6569.000000;-0.231444
6568.000000;-0.231739
6567.000000;-0.232021
6566.000000;-0.232277
6565.000000;-0.232510
6564.000000;-0.232724
6563.000000;-0.232919
6562.000000;-0.233098
6561.000000;-0.233274
6560.000000;-0.233464
6559.000000;-0.233682
6558.000000;-0.233939
6557.000000;-0.234239
6556.000000;-0.234563
6555.000000;-0.234873
6554.000000;-0.235135
6553.000000;-0.235345
6552.000000;-0.235535
6551.000000;-0.235755
6550.000000;-0.236034
6549.000000;-0.236352
6548.000000;-0.236656
6547.000000;-0.236905
6546.000000;-0.237099
6545.000000;-0.237261
6544.000000;-0.237414
6543.000000;-0.237585
6542.000000;-0.237798
6541.000000;-0.238048
6540.000000;-0.238298
6539.000000;-0.238523
6538.000000;-0.238744
6537.000000;-0.239003
6536.000000;-0.239303
6535.000000;-0.239602
6534.000000;-0.239863
6533.000000;-0.240092
6532.000000;-0.240319
6531.000000;-0.240563
6530.000000;-0.240811
6529.000000;-0.241035
6528.000000;-0.241237
6527.000000;-0.241462
6526.000000;-0.241753
6525.000000;-0.242084
6524.000000;-0.242371
6523.000000;-0.242570
6522.000000;-0.242726
6521.000000;-0.242910
6520.000000;-0.243132
6519.000000;-0.243361
6518.000000;-0.243592
6517.000000;-0.243851
6516.000000;-0.244131
6515.000000;-0.244392
6514.000000;-0.244613
6513.000000;-0.244821
6512.000000;-0.245044
6511.000000;-0.245266
6510.000000;-0.245458
6509.000000;-0.245626
6508.000000;-0.245805
6507.000000;-0.246018
6506.000000;-0.246257
6505.000000;-0.246503
6504.000000;-0.246751
6503.000000;-0.247011
6502.000000;-0.247290
6501.000000;-0.247567
6500.000000;-0.247816
6499.000000;-0.248029
6498.000000;-0.248229
6497.000000;-0.248441
6496.000000;-0.248670
6495.000000;-0.248908
6494.000000;-0.249142
6493.000000;-0.249361
6492.000000;-0.249558
6491.000000;-0.249748
6490.000000;-0.249959
6489.000000;-0.250198
6488.000000;-0.250443
6487.000000;-0.250681
6486.000000;-0.250917
6485.000000;-0.251156
6484.000000;-0.251388
6483.000000;-0.251615
6482.000000;-0.251852
6481.000000;-0.252098
6480.000000;-0.252328
6479.000000;-0.252550
6478.000000;-0.252818
6477.000000;-0.253169
6476.000000;-0.253550
6475.000000;-0.253867
6474.000000;-0.254083
6473.000000;-0.254246
6472.000000;-0.254414
6471.000000;-0.254609
6470.000000;-0.254823
6469.000000;-0.255041
6468.000000;-0.255242
6467.000000;-0.255416
6466.000000;-0.255567
6465.000000;-0.255717
6464.000000;-0.255900
6463.000000;-0.256157
6462.000000;-0.256505
6461.000000;-0.256894
6460.000000;-0.257226
6459.000000;-0.257449
6458.000000;-0.257601
6457.000000;-0.257750
6456.000000;-0.257911
6455.000000;-0.258074
6454.000000;-0.258264
6453.000000;-0.258521
6452.000000;-0.258834
6451.000000;-0.259148
6450.000000;-0.259428
6449.000000;-0.259680
6448.000000;-0.259917
6447.000000;-0.260153
6446.000000;-0.260410
6445.000000;-0.260691
6444.000000;-0.260955
6443.000000;-0.261164
6442.000000;-0.261339
6441.000000;-0.261533
6440.000000;-0.261753
6439.000000;-0.261965
6438.000000;-0.262172
6437.000000;-0.262422
6436.000000;-0.262728
6435.000000;-0.263033
6434.000000;-0.263281
6433.000000;-0.263465
6432.000000;-0.263607
6431.000000;-0.263722
6430.000000;-0.263838
6429.000000;-0.264005
6428.000000;-0.264245
6427.000000;-0.264524
6426.000000;-0.264783
6425.000000;-0.265004
6424.000000;-0.265200
6423.000000;-0.265387
6422.000000;-0.265568
6421.000000;-0.265755
6420.000000;-0.265965
6419.000000;-0.266201
6418.000000;-0.266459
6417.000000;-0.266733
6416.000000;-0.267027
6415.000000;-0.267334
6414.000000;-0.267624
6413.000000;-0.267859
6412.000000;-0.268026
6411.000000;-0.268159
6410.000000;-0.268305
6409.000000;-0.268484
6408.000000;-0.268687
6407.000000;-0.268908
6406.000000;-0.269164
6405.000000;-0.269458
6404.000000;-0.269760
6403.000000;-0.270046
6402.000000;-0.270320
6401.000000;-0.270586
6400.000000;-0.270823
6399.000000;-0.271018
6398.000000;-0.271201
6397.000000;-0.271426
6396.000000;-0.271699
6395.000000;-0.271970
6394.000000;-0.272194
6393.000000;-0.272367
6392.000000;-0.272527
6391.000000;-0.272704
6390.000000;-0.272893
6389.000000;-0.273067
6388.000000;-0.273218
6387.000000;-0.273375
6386.000000;-0.273572
6385.000000;-0.273792
6384.000000;-0.273997
6383.000000;-0.274201
6382.000000;-0.274463
6381.000000;-0.274790
6380.000000;-0.275104
6379.000000;-0.275336
6378.000000;-0.275510
6377.000000;-0.275688
6376.000000;-0.275891
6375.000000;-0.276102
6374.000000;-0.276318
6373.000000;-0.276539
6372.000000;-0.276743
6371.000000;-0.276920
6370.000000;-0.277119
6369.000000;-0.277383
6368.000000;-0.277688
6367.000000;-0.277976
6366.000000;-0.278239
6365.000000;-0.278501
6364.000000;-0.278750
6363.000000;-0.278954
6362.000000;-0.279130
6361.000000;-0.279335
6360.000000;-0.279580
6359.000000;-0.279826
6358.000000;-0.280053
6357.000000;-0.280276
6356.000000;-0.280504
6355.000000;-0.280723
6354.000000;-0.280944
6353.000000;-0.281189
6352.000000;-0.281438
6351.000000;-0.281638
6350.000000;-0.281786
6349.000000;-0.281945
6348.000000;-0.282167
6347.000000;-0.282428
6346.000000;-0.282680
6345.000000;-0.282906
6344.000000;-0.283103
6343.000000;-0.283265
6342.000000;-0.283390
6341.000000;-0.283511
6340.000000;-0.283662
6339.000000;-0.283858
6338.000000;-0.284089
6337.000000;-0.284341
6336.000000;-0.284596
6335.000000;-0.284846
6334.000000;-0.285108
6333.000000;-0.285390
6332.000000;-0.285667
6331.000000;-0.285904
6330.000000;-0.286118
6329.000000;-0.286347
6328.000000;-0.286582
6327.000000;-0.286762
6326.000000;-0.286862
6325.000000;-0.286935
6324.000000;-0.287064
6323.000000;-0.287270
6322.000000;-0.287514
6321.000000;-0.287744
6320.000000;-0.287946
6319.000000;-0.288148
6318.000000;-0.288386
6317.000000;-0.288659
6316.000000;-0.288910
6315.000000;-0.289096
6314.000000;-0.289239
6313.000000;-0.289413
6312.000000;-0.289650
6311.000000;-0.289919
6310.000000;-0.290178
6309.000000;-0.290421
6308.000000;-0.290671
6307.000000;-0.290941
6306.000000;-0.291219
6305.000000;-0.291472
6304.000000;-0.291666
6303.000000;-0.291810
6302.000000;-0.291948
6301.000000;-0.292116
6300.000000;-0.292299
6299.000000;-0.292471
6298.000000;-0.292652
6297.000000;-0.292889
6296.000000;-0.293180
6295.000000;-0.293473
6294.000000;-0.293722
6293.000000;-0.293927
6292.000000;-0.294110
6291.000000;-0.294294
6290.000000;-0.294509
6289.000000;-0.294777
6288.000000;-0.295076
6287.000000;-0.295359
6286.000000;-0.295606
6285.000000;-0.295839
6284.000000;-0.296070
6283.000000;-0.296285
6282.000000;-0.296472
6281.000000;-0.296640
6280.000000;-0.296802
6279.000000;-0.296962
6278.000000;-0.297130
6277.000000;-0.297326
6276.000000;-0.297558
6275.000000;-0.297827
6274.000000;-0.298133
6273.000000;-0.298458
6272.000000;-0.298753
6271.000000;-0.298972
6270.000000;-0.299115
6269.000000;-0.299231
6268.000000;-0.299362
6267.000000;-0.299528
6266.000000;-0.299730
6265.000000;-0.299948
6264.000000;-0.300135
6263.000000;-0.300270
6262.000000;-0.300389
6261.000000;-0.300549
6260.000000;-0.300754
6259.000000;-0.300959
6258.000000;-0.301143
6257.000000;-0.301334
6256.000000;-0.301552
6255.000000;-0.301795
6254.000000;-0.302054
6253.000000;-0.302325
6252.000000;-0.302593
6251.000000;-0.302846
6250.000000;-0.303102
6249.000000;-0.303389
6248.000000;-0.303692
6247.000000;-0.303954
6246.000000;-0.304156
6245.000000;-0.304334
6244.000000;-0.304524
6243.000000;-0.304719
6242.000000;-0.304897
6241.000000;-0.305055
6240.000000;-0.305216
6239.000000;-0.305405
6238.000000;-0.305649
6237.000000;-0.305939
6236.000000;-0.306217
6235.000000;-0.306413
6234.000000;-0.306526
6233.000000;-0.306617
6232.000000;-0.306736
6231.000000;-0.306887
6230.000000;-0.307074
6229.000000;-0.307320
6228.000000;-0.307619
6227.000000;-0.307917
6226.000000;-0.308163
6225.000000;-0.308362
6224.000000;-0.308556
6223.000000;-0.308775
6222.000000;-0.309029
6221.000000;-0.309304
6220.000000;-0.309570
6219.000000;-0.309804
6218.000000;-0.310022
6217.000000;-0.310251
6216.000000;-0.310487
6215.000000;-0.310691
6214.000000;-0.310851
6213.000000;-0.311010
6212.000000;-0.311218
6211.000000;-0.311472
6210.000000;-0.311740
6209.000000;-0.311997
6208.000000;-0.312240
6207.000000;-0.312470
6206.000000;-0.312687
6205.000000;-0.312886
6204.000000;-0.313054
6203.000000;-0.313190
6202.000000;-0.313329
6201.000000;-0.313517
6200.000000;-0.313749
6199.000000;-0.313968
6198.000000;-0.314137
6197.000000;-0.314288
6196.000000;-0.314474
6195.000000;-0.314702
6194.000000;-0.314928
6193.000000;-0.315121
6192.000000;-0.315288
6191.000000;-0.315467
6190.000000;-0.315696
6189.000000;-0.315979
6188.000000;-0.316282
6187.000000;-0.316554
6186.000000;-0.316774
6185.000000;-0.316964
6184.000000;-0.317166
6183.000000;-0.317404
6182.000000;-0.317670
6181.000000;-0.317932
6180.000000;-0.318160
6179.000000;-0.318350
6178.000000;-0.318531
6177.000000;-0.318725
6176.000000;-0.318924
6175.000000;-0.319102
6174.000000;-0.319255
6173.000000;-0.319410
6172.000000;-0.319596
6171.000000;-0.319829
6170.000000;-0.320116
6169.000000;-0.320445
6168.000000;-0.320771
6167.000000;-0.321041
6166.000000;-0.321235
6165.000000;-0.321371
6164.000000;-0.321483
6163.000000;-0.321610
6162.000000;-0.321784
6161.000000;-0.322024
6160.000000;-0.322321
6159.000000;-0.322649
6158.000000;-0.322984
6157.000000;-0.323294
6156.000000;-0.323540
6155.000000;-0.323712
6154.000000;-0.323857
6153.000000;-0.324037
6152.000000;-0.324268
6151.000000;-0.324518
6150.000000;-0.324754
6149.000000;-0.324963
6148.000000;-0.325134
6147.000000;-0.325265
6146.000000;-0.325383
6145.000000;-0.325530
6144.000000;-0.325726
6143.000000;-0.325962
6142.000000;-0.326223
6141.000000;-0.326498
6140.000000;-0.326765
6139.000000;-0.327002
6138.000000;-0.327220
6137.000000;-0.327455
6136.000000;-0.327723
6135.000000;-0.328002
6134.000000;-0.328266
6133.000000;-0.328508
6132.000000;-0.328727
6131.000000;-0.328915
6130.000000;-0.329071
6129.000000;-0.329211
6128.000000;-0.329357
6127.000000;-0.329528
6126.000000;-0.329726
6125.000000;-0.329939
6124.000000;-0.330155
6123.000000;-0.330370
6122.000000;-0.330576
6121.000000;-0.330755
6120.000000;-0.330902
6119.000000;-0.331063
6118.000000;-0.331304
6117.000000;-0.331629
6116.000000;-0.331958
6115.000000;-0.332227
6114.000000;-0.332454
6113.000000;-0.332687
6112.000000;-0.332929
6111.000000;-0.333148
6110.000000;-0.333339
6109.000000;-0.333512
6108.000000;-0.333658
6107.000000;-0.333775
6106.000000;-0.333911
6105.000000;-0.334123
6104.000000;-0.334399
6103.000000;-0.334679
6102.000000;-0.334935
6101.000000;-0.335185
6100.000000;-0.335427
6099.000000;-0.335630
6098.000000;-0.335789
6097.000000;-0.335947
6096.000000;-0.336140
6095.000000;-0.336375
6094.000000;-0.336648
6093.000000;-0.336953
6092.000000;-0.337266
6091.000000;-0.337548
6090.000000;-0.337790
6089.000000;-0.338010
6088.000000;-0.338214
6087.000000;-0.338392
6086.000000;-0.338558
6085.000000;-0.338739
6084.000000;-0.338941
6083.000000;-0.339145
6082.000000;-0.339351
6081.000000;-0.339573
6080.000000;-0.339802
6079.000000;-0.340007
6078.000000;-0.340187
6077.000000;-0.340369
6076.000000;-0.340571
6075.000000;-0.340780
6074.000000;-0.340989
6073.000000;-0.341210
6072.000000;-0.341450
6071.000000;-0.341704
6070.000000;-0.341979
6069.000000;-0.342274
6068.000000;-0.342546
6067.000000;-0.342747
6066.000000;-0.342887
6065.000000;-0.343031
6064.000000;-0.343215
6063.000000;-0.343421
6062.000000;-0.343625
6061.000000;-0.343827
6060.000000;-0.344028
6059.000000;-0.344216
6058.000000;-0.344407
6057.000000;-0.344645
6056.000000;-0.344941
6055.000000;-0.345252
6054.000000;-0.345535
6053.000000;-0.345786
6052.000000;-0.346013
6051.000000;-0.346203
6050.000000;-0.346352
6049.000000;-0.346502
6048.000000;-0.346700
6047.000000;-0.346949
6046.000000;-0.347208
6045.000000;-0.347436
6044.000000;-0.347625
6043.000000;-0.347800
6042.000000;-0.348002
6041.000000;-0.348257
6040.000000;-0.348545
6039.000000;-0.348821
6038.000000;-0.349057
6037.000000;-0.349258
6036.000000;-0.349445
6035.000000;-0.349635
6034.000000;-0.349842
6033.000000;-0.350069
6032.000000;-0.350301
6031.000000;-0.350525
6030.000000;-0.350751
6029.000000;-0.350982
6028.000000;-0.351189
6027.000000;-0.351334
6026.000000;-0.351430
6025.000000;-0.351541
6024.000000;-0.351715
6023.000000;-0.351958
6022.000000;-0.352253
6021.000000;-0.352578
6020.000000;-0.352890
6019.000000;-0.353134
6018.000000;-0.353292
6017.000000;-0.353400
6016.000000;-0.353518
6015.000000;-0.353689
6014.000000;-0.353923
6013.000000;-0.354189
6012.000000;-0.354442
6011.000000;-0.354657
6010.000000;-0.354855
6009.000000;-0.355078
6008.000000;-0.355334
6007.000000;-0.355602
6006.000000;-0.355859
6005.000000;-0.356092
6004.000000;-0.356288
6003.000000;-0.356455
6002.000000;-0.356629
6001.000000;-0.356840
6000.000000;-0.357080
5999.000000;-0.357329
5998.000000;-0.357596
5997.000000;-0.357895
5996.000000;-0.358187
5995.000000;-0.358415
5994.000000;-0.358582
5993.000000;-0.358754
5992.000000;-0.358982
5991.000000;-0.359261
5990.000000;-0.359560
5989.000000;-0.359846
5988.000000;-0.360082
5987.000000;-0.360254
5986.000000;-0.360399
5985.000000;-0.360575
5984.000000;-0.360789
5983.000000;-0.361000
5982.000000;-0.361193
5981.000000;-0.361401
5980.000000;-0.361640
5979.000000;-0.361881
5978.000000;-0.362088
5977.000000;-0.362263
5976.000000;-0.362423
5975.000000;-0.362579
5974.000000;-0.362740
5973.000000;-0.362928
5972.000000;-0.363160
5971.000000;-0.363422
5970.000000;-0.363687
5969.000000;-0.363924
5968.000000;-0.364119
5967.000000;-0.364278
5966.000000;-0.364436
5965.000000;-0.364618
5964.000000;-0.364821
5963.000000;-0.365039
5962.000000;-0.365295
5961.000000;-0.365618
5960.000000;-0.365991
5959.000000;-0.366358
5958.000000;-0.366669
5957.000000;-0.366891
5956.000000;-0.366998
5955.000000;-0.367007
5954.000000;-0.367007
5953.000000;-0.367109
5952.000000;-0.367342
5951.000000;-0.367641
5950.000000;-0.367940
5949.000000;-0.368221
5948.000000;-0.368488
5947.000000;-0.368730
5946.000000;-0.368947
5945.000000;-0.369174
5944.000000;-0.369434
5943.000000;-0.369714
5942.000000;-0.369993
5941.000000;-0.370264
5940.000000;-0.370526
5939.000000;-0.370767
5938.000000;-0.370982
5937.000000;-0.371180
5936.000000;-0.371368
5935.000000;-0.371545
5934.000000;-0.371721
5933.000000;-0.371919
5932.000000;-0.372142
5931.000000;-0.372373
5930.000000;-0.372599
5929.000000;-0.372837
5928.000000;-0.373096
5927.000000;-0.373362
5926.000000;-0.373616
5925.000000;-0.373855
5924.000000;-0.374088
5923.000000;-0.374322
5922.000000;-0.374548
5921.000000;-0.374745
5920.000000;-0.374897
5919.000000;-0.375019
5918.000000;-0.375157
5917.000000;-0.375352
5916.000000;-0.375592
5915.000000;-0.375837
5914.000000;-0.376056
5913.000000;-0.376248
5912.000000;-0.376421
5911.000000;-0.376598
5910.000000;-0.376816
5909.000000;-0.377093
5908.000000;-0.377395
5907.000000;-0.377663
5906.000000;-0.377874
5905.000000;-0.378059
5904.000000;-0.378264
5903.000000;-0.378521
5902.000000;-0.378832
5901.000000;-0.379168
5900.000000;-0.379473
5899.000000;-0.379719
5898.000000;-0.379937
5897.000000;-0.380172
5896.000000;-0.380419
5895.000000;-0.380642
5894.000000;-0.380835
5893.000000;-0.381027
5892.000000;-0.381234
5891.000000;-0.381434
5890.000000;-0.381607
5889.000000;-0.381771
5888.000000;-0.381964
5887.000000;-0.382207
5886.000000;-0.382492
5885.000000;-0.382780
5884.000000;-0.383038
5883.000000;-0.383265
5882.000000;-0.383497
5881.000000;-0.383756
5880.000000;-0.384021
5879.000000;-0.384269
5878.000000;-0.384504
5877.000000;-0.384740
5876.000000;-0.384961
5875.000000;-0.385149
5874.000000;-0.385323
5873.000000;-0.385512
5872.000000;-0.385721
5871.000000;-0.385936
5870.000000;-0.386159
5869.000000;-0.386402
5868.000000;-0.386660
5867.000000;-0.386929
5866.000000;-0.387222
5865.000000;-0.387541
5864.000000;-0.387854
5863.000000;-0.388132
5862.000000;-0.388392
5861.000000;-0.388672
5860.000000;-0.388962
5859.000000;-0.389215
5858.000000;-0.389403
5857.000000;-0.389553
5856.000000;-0.389712
5855.000000;-0.389921
5854.000000;-0.390188
5853.000000;-0.390476
5852.000000;-0.390730
5851.000000;-0.390941
5850.000000;-0.391159
5849.000000;-0.391413
5848.000000;-0.391664
5847.000000;-0.391865
5846.000000;-0.392035
5845.000000;-0.392226
5844.000000;-0.392439
5843.000000;-0.392637
5842.000000;-0.392812
5841.000000;-0.393001
5840.000000;-0.393222
5839.000000;-0.393467
5838.000000;-0.393725
5837.000000;-0.393983
5836.000000;-0.394214
5835.000000;-0.394401
5834.000000;-0.394569
5833.000000;-0.394764
5832.000000;-0.394996
5831.000000;-0.395245
5830.000000;-0.395499
5829.000000;-0.395752
5828.000000;-0.395992
5827.000000;-0.396238
5826.000000;-0.396539
5825.000000;-0.396904
5824.000000;-0.397258
5823.000000;-0.397517
5822.000000;-0.397691
5821.000000;-0.397861
5820.000000;-0.398076
5819.000000;-0.398329
5818.000000;-0.398601
5817.000000;-0.398876
5816.000000;-0.399120
5815.000000;-0.399314
5814.000000;-0.399494
5813.000000;-0.399715
5812.000000;-0.399974
5811.000000;-0.400228
5810.000000;-0.400465
5809.000000;-0.400706
5808.000000;-0.400951
5807.000000;-0.401183
5806.000000;-0.401416
5805.000000;-0.401675
5804.000000;-0.401941
5803.000000;-0.402168
5802.000000;-0.402367
5801.000000;-0.402592
5800.000000;-0.402861
5799.000000;-0.403130
5798.000000;-0.403363
5797.000000;-0.403573
5796.000000;-0.403790
5795.000000;-0.404028
5794.000000;-0.404295
5793.000000;-0.404585
5792.000000;-0.404865
5791.000000;-0.405107
5790.000000;-0.405325
5789.000000;-0.405560
5788.000000;-0.405827
5787.000000;-0.406116
5786.000000;-0.406418
5785.000000;-0.406709
5784.000000;-0.406951
5783.000000;-0.407142
5782.000000;-0.407338
5781.000000;-0.407585
5780.000000;-0.407855
5779.000000;-0.408105
5778.000000;-0.408345
5777.000000;-0.408603
5776.000000;-0.408847
5775.000000;-0.409030
5774.000000;-0.409181
5773.000000;-0.409376
5772.000000;-0.409636
5771.000000;-0.409925
5770.000000;-0.410222
5769.000000;-0.410529
5768.000000;-0.410820
5767.000000;-0.411066
5766.000000;-0.411295
5765.000000;-0.411557
5764.000000;-0.411840
5763.000000;-0.412092
5762.000000;-0.412303
5761.000000;-0.412506
5760.000000;-0.412703
5759.000000;-0.412877
5758.000000;-0.413063
5757.000000;-0.413322
5756.000000;-0.413638
5755.000000;-0.413936
5754.000000;-0.414192
5753.000000;-0.414456
5752.000000;-0.414757
5751.000000;-0.415053
5750.000000;-0.415311
5749.000000;-0.415546
5748.000000;-0.415776
5747.000000;-0.415997
5746.000000;-0.416219
5745.000000;-0.416479
5744.000000;-0.416784
5743.000000;-0.417097
5742.000000;-0.417382
5741.000000;-0.417634
5740.000000;-0.417853
5739.000000;-0.418049
5738.000000;-0.418266
5737.000000;-0.418540
5736.000000;-0.418842
5735.000000;-0.419110
5734.000000;-0.419338
5733.000000;-0.419586
5732.000000;-0.419883
5731.000000;-0.420194
5730.000000;-0.420486
5729.000000;-0.420766
5728.000000;-0.421045
5727.000000;-0.421312
5726.000000;-0.421557
5725.000000;-0.421778
5724.000000;-0.421966
5723.000000;-0.422131
5722.000000;-0.422337
5721.000000;-0.422642
5720.000000;-0.423015
5719.000000;-0.423361
5718.000000;-0.423633
5717.000000;-0.423863
5716.000000;-0.424096
5715.000000;-0.424348
5714.000000;-0.424635
5713.000000;-0.424959
5712.000000;-0.425279
5711.000000;-0.425545
5710.000000;-0.425770
5709.000000;-0.426015
5708.000000;-0.426297
5707.000000;-0.426581
5706.000000;-0.426845
5705.000000;-0.427096
5704.000000;-0.427331
5703.000000;-0.427542
5702.000000;-0.427754
5701.000000;-0.427996
5700.000000;-0.428236
5699.000000;-0.428417
5698.000000;-0.428597
5697.000000;-0.428772
5696.000000;-0.429009
5695.000000;-0.429289
5694.000000;-0.429595
5693.000000;-0.429921
5692.000000;-0.430236
5691.000000;-0.430494
5690.000000;-0.430713
5689.000000;-0.430959
5688.000000;-0.431255
5687.000000;-0.431566
5686.000000;-0.431873
5685.000000;-0.432191
5684.000000;-0.432509
5683.000000;-0.432788
5682.000000;-0.433019
5681.000000;-0.433233
5680.000000;-0.433436
5679.000000;-0.433602
5678.000000;-0.433738
5677.000000;-0.433900
5676.000000;-0.434123
5675.000000;-0.434397
5674.000000;-0.434704
5673.000000;-0.435034
5672.000000;-0.435354
5671.000000;-0.435627
5670.000000;-0.435869
5669.000000;-0.436128
5668.000000;-0.436414
5667.000000;-0.436690
5666.000000;-0.436940
5665.000000;-0.437183
5664.000000;-0.437421
5663.000000;-0.437645
5662.000000;-0.437878
5661.000000;-0.438162
5660.000000;-0.438481
5659.000000;-0.438780
5658.000000;-0.439050
5657.000000;-0.439332
5656.000000;-0.439632
5655.000000;-0.439907
5654.000000;-0.440141
5653.000000;-0.440367
5652.000000;-0.440609
5651.000000;-0.440869
5650.000000;-0.441150
5649.000000;-0.441459
5648.000000;-0.441761
5647.000000;-0.442012
5646.000000;-0.442218
5645.000000;-0.442433
5644.000000;-0.442687
5643.000000;-0.442968
5642.000000;-0.443258
5641.000000;-0.443532
5640.000000;-0.443747
5639.000000;-0.443888
5638.000000;-0.444029
5637.000000;-0.444253
5636.000000;-0.444539
5635.000000;-0.444798
5634.000000;-0.444995
5633.000000;-0.445174
5632.000000;-0.445370
5631.000000;-0.445587
5630.000000;-0.445853
5629.000000;-0.446201
5628.000000;-0.446593
5627.000000;-0.446945
5626.000000;-0.447234
5625.000000;-0.447504
5624.000000;-0.447785
5623.000000;-0.448062
5622.000000;-0.448332
5621.000000;-0.448612
5620.000000;-0.448876
5619.000000;-0.449089
5618.000000;-0.449283
5617.000000;-0.449525
5616.000000;-0.449821
5615.000000;-0.450108
5614.000000;-0.450367
5613.000000;-0.450635
5612.000000;-0.450915
5611.000000;-0.451160
5610.000000;-0.451358
5609.000000;-0.451550
5608.000000;-0.451764
5607.000000;-0.451996
5606.000000;-0.452253
5605.000000;-0.452543
5604.000000;-0.452820
5603.000000;-0.453025
5602.000000;-0.453177
5601.000000;-0.453355
5600.000000;-0.453590
5599.000000;-0.453847
5598.000000;-0.454104
5597.000000;-0.454365
5596.000000;-0.454610
5595.000000;-0.454829
5594.000000;-0.455073
5593.000000;-0.455396
5592.000000;-0.455751
5591.000000;-0.456050
5590.000000;-0.456297
5589.000000;-0.456562
5588.000000;-0.456842
5587.000000;-0.457075
5586.000000;-0.457264
5585.000000;-0.457484
5584.000000;-0.457753
5583.000000;-0.458007
5582.000000;-0.458224
5581.000000;-0.458445
5580.000000;-0.458681
5579.000000;-0.458894
5578.000000;-0.459095
5577.000000;-0.459338
5576.000000;-0.459614
5575.000000;-0.459861
5574.000000;-0.460077
5573.000000;-0.460309
5572.000000;-0.460537
5571.000000;-0.460694
5570.000000;-0.460819
5569.000000;-0.461039
5568.000000;-0.461377
5567.000000;-0.461716
5566.000000;-0.461978
5565.000000;-0.462214
5564.000000;-0.462465
5563.000000;-0.462686
5562.000000;-0.462855
5561.000000;-0.463029
5560.000000;-0.463243
5559.000000;-0.463446
5558.000000;-0.463607
5557.000000;-0.463783
5556.000000;-0.464025
5555.000000;-0.464302
5554.000000;-0.464580
5553.000000;-0.464887
5552.000000;-0.465230
5551.000000;-0.465537
5550.000000;-0.465740
5549.000000;-0.465871
5548.000000;-0.466003
5547.000000;-0.466181
5546.000000;-0.466427
5545.000000;-0.466734
5544.000000;-0.467047
5543.000000;-0.467308
5542.000000;-0.467546
5541.000000;-0.467849
5540.000000;-0.468222
5539.000000;-0.468549
5538.000000;-0.468762
5537.000000;-0.468934
5536.000000;-0.469156
5535.000000;-0.469408
5534.000000;-0.469631
5533.000000;-0.469838
5532.000000;-0.470085
5531.000000;-0.470390
5530.000000;-0.470727
5529.000000;-0.471065
5528.000000;-0.471349
5527.000000;-0.471546
5526.000000;-0.471706
5525.000000;-0.471899
5524.000000;-0.472107
5523.000000;-0.472260
5522.000000;-0.472375
5521.000000;-0.472587
5520.000000;-0.472936
5519.000000;-0.473282
5518.000000;-0.473517
5517.000000;-0.473704
5516.000000;-0.473961
5515.000000;-0.474279
5514.000000;-0.474540
5513.000000;-0.474715
5512.000000;-0.474906
5511.000000;-0.475174
5510.000000;-0.475443
5509.000000;-0.475616
5508.000000;-0.475726
5507.000000;-0.475929
5506.000000;-0.476303
5505.000000;-0.476694
5504.000000;-0.476944
5503.000000;-0.477136
5502.000000;-0.477463
5501.000000;-0.477937
5500.000000;-0.478288
5499.000000;-0.478320
5498.000000;-0.478274
5497.000000;-0.478491
5496.000000;-0.478872
5495.000000;-0.479020
5494.000000;-0.478856
5493.000000;-0.478812
5492.000000;-0.479245
5491.000000;-0.479872
5490.000000;-0.480197
5489.000000;-0.480211
5488.000000;-0.480336
5487.000000;-0.480807
5486.000000;-0.481437
5485.000000;-0.481928
5484.000000;-0.482255
5483.000000;-0.482558
5482.000000;-0.482762
5481.000000;-0.482749
5480.000000;-0.482717
5479.000000;-0.482960
5478.000000;-0.483403
5477.000000;-0.483605
5476.000000;-0.483370
5475.000000;-0.483198
5474.000000;-0.483628
5473.000000;-0.484364
5472.000000;-0.484748
5471.000000;-0.484738
5470.000000;-0.484850
5469.000000;-0.485368
5468.000000;-0.485952
5467.000000;-0.486165
5466.000000;-0.486135
5465.000000;-0.486227
5464.000000;-0.486460
5463.000000;-0.486648
5462.000000;-0.486744
5461.000000;-0.486872
5460.000000;-0.487143
5459.000000;-0.487537
5458.000000;-0.487963
5457.000000;-0.488330
5456.000000;-0.488563
5455.000000;-0.488762
5454.000000;-0.489185
5453.000000;-0.489757
5452.000000;-0.490011
5451.000000;-0.489748
5450.000000;-0.489427
5449.000000;-0.489577
5448.000000;-0.489968
5447.000000;-0.489912
5446.000000;-0.489491
5445.000000;-0.489525
5444.000000;-0.490260
5443.000000;-0.491011
5442.000000;-0.491174
5441.000000;-0.490989
5440.000000;-0.491188
5439.000000;-0.491967
5438.000000;-0.492735
5437.000000;-0.492974
5436.000000;-0.492712
5435.000000;-0.492382
5434.000000;-0.492501
5433.000000;-0.493097
5432.000000;-0.493626
5431.000000;-0.493674
5430.000000;-0.493399
5429.000000;-0.493359
5428.000000;-0.493937
5427.000000;-0.494896
5426.000000;-0.495734
5425.000000;-0.496274
5424.000000;-0.496672
5423.000000;-0.497159
5422.000000;-0.497812
5421.000000;-0.498320
5420.000000;-0.498305
5419.000000;-0.497955
5418.000000;-0.497822
5417.000000;-0.497984
5416.000000;-0.497881
5415.000000;-0.497184
5414.000000;-0.496512
5413.000000;-0.496661
5412.000000;-0.497390
5411.000000;-0.497869
5410.000000;-0.498009
5409.000000;-0.498455
5408.000000;-0.499400
5407.000000;-0.500309
5406.000000;-0.500792
5405.000000;-0.501128
5404.000000;-0.501644
5403.000000;-0.502088
5402.000000;-0.502260
5401.000000;-0.502399
5400.000000;-0.502533
5399.000000;-0.502444
5398.000000;-0.502195
5397.000000;-0.502141
5396.000000;-0.502339
5395.000000;-0.502353
5394.000000;-0.502092
5393.000000;-0.502106
5392.000000;-0.502635
5391.000000;-0.503175
5390.000000;-0.503372
5389.000000;-0.503551
5388.000000;-0.504049
5387.000000;-0.504582
5386.000000;-0.504770
5385.000000;-0.504930
5384.000000;-0.505425
5383.000000;-0.505781
5382.000000;-0.505602
5381.000000;-0.505414
5380.000000;-0.505754
5379.000000;-0.506258
5378.000000;-0.506265
5377.000000;-0.506003
5376.000000;-0.506267
5375.000000;-0.506994
5374.000000;-0.507423
5373.000000;-0.507486
5372.000000;-0.507832
5371.000000;-0.508638
5370.000000;-0.509328
5369.000000;-0.509561
5368.000000;-0.509726
5367.000000;-0.510098
5366.000000;-0.510355
5365.000000;-0.510324
5364.000000;-0.510347
5363.000000;-0.510597
5362.000000;-0.510818
5361.000000;-0.510796
5360.000000;-0.510646
5359.000000;-0.510549
5358.000000;-0.510561
5357.000000;-0.510766
5356.000000;-0.511188
5355.000000;-0.511481
5354.000000;-0.511281
5353.000000;-0.510971
5352.000000;-0.511203
5351.000000;-0.511651
5350.000000;-0.511524
5349.000000;-0.511040
5348.000000;-0.511123
5347.000000;-0.511852
5346.000000;-0.512171
5345.000000;-0.511530
5344.000000;-0.510948
5343.000000;-0.511414
5342.000000;-0.512211
5341.000000;-0.512244
5340.000000;-0.511728
5339.000000;-0.511584
5338.000000;-0.512107
5337.000000;-0.512797
5336.000000;-0.513304
5335.000000;-0.513739
5334.000000;-0.514053
5333.000000;-0.514115
5332.000000;-0.514274
5331.000000;-0.514863
5330.000000;-0.515507
5329.000000;-0.515616
5328.000000;-0.515265
5327.000000;-0.515171
5326.000000;-0.515636
5325.000000;-0.516144
5324.000000;-0.516308
5323.000000;-0.516384
5322.000000;-0.516641
5321.000000;-0.516978
5320.000000;-0.517255
5319.000000;-0.517510
5318.000000;-0.517792
5317.000000;-0.518019
5316.000000;-0.518171
5315.000000;-0.518347
5314.000000;-0.518474
5313.000000;-0.518377
5312.000000;-0.518202
5311.000000;-0.518269
5310.000000;-0.518544
5309.000000;-0.518667
5308.000000;-0.518544
5307.000000;-0.518530
5306.000000;-0.518823
5305.000000;-0.519125
5304.000000;-0.519169
5303.000000;-0.519143
5302.000000;-0.519329
5301.000000;-0.519656
5300.000000;-0.519857
5299.000000;-0.519923
5298.000000;-0.520076
5297.000000;-0.520281
5296.000000;-0.520300
5295.000000;-0.520188
5294.000000;-0.520220
5293.000000;-0.520417
5292.000000;-0.520472
5291.000000;-0.520221
5290.000000;-0.519996
5289.000000;-0.520173
5288.000000;-0.520586
5287.000000;-0.520764
5286.000000;-0.520602
5285.000000;-0.520480
5284.000000;-0.520692
5283.000000;-0.521046
5282.000000;-0.521212
5281.000000;-0.521221
5280.000000;-0.521327
5279.000000;-0.521555
5278.000000;-0.521724
5277.000000;-0.521772
5276.000000;-0.521787
5275.000000;-0.521825
5274.000000;-0.521847
5273.000000;-0.521846
5272.000000;-0.521900
5271.000000;-0.521916
5270.000000;-0.521679
5269.000000;-0.521300
5268.000000;-0.521141
5267.000000;-0.521232
5266.000000;-0.521205
5265.000000;-0.520888
5264.000000;-0.520618
5263.000000;-0.520776
5262.000000;-0.521175
5261.000000;-0.521315
5260.000000;-0.521188
5259.000000;-0.521235
5258.000000;-0.521596
5257.000000;-0.521941
5256.000000;-0.521977
5255.000000;-0.521802
5254.000000;-0.521682
5253.000000;-0.521664
5252.000000;-0.521683
5251.000000;-0.521682
5250.000000;-0.521540
5249.000000;-0.521282
5248.000000;-0.521198
5247.000000;-0.521487
5246.000000;-0.521898
5245.000000;-0.522018
5244.000000;-0.521893
5243.000000;-0.522034
5242.000000;-0.522630
5241.000000;-0.523164
5240.000000;-0.523196
5239.000000;-0.523019
5238.000000;-0.523093
5237.000000;-0.523291
5236.000000;-0.523249
5235.000000;-0.523042
5234.000000;-0.523022
5233.000000;-0.523164
5232.000000;-0.523081
5231.000000;-0.522713
5230.000000;-0.522498
5229.000000;-0.522632
5228.000000;-0.522728
5227.000000;-0.522469
5226.000000;-0.522117
5225.000000;-0.522081
5224.000000;-0.522329
5223.000000;-0.522534
5222.000000;-0.522633
5221.000000;-0.522791
5220.000000;-0.523036
5219.000000;-0.523274
5218.000000;-0.523471
5217.000000;-0.523642
5216.000000;-0.523713
5215.000000;-0.523569
5214.000000;-0.523326
5213.000000;-0.523192
5212.000000;-0.523124
5211.000000;-0.522981
5210.000000;-0.522807
5209.000000;-0.522708
5208.000000;-0.522612
5207.000000;-0.522414
5206.000000;-0.522289
5205.000000;-0.522511
5204.000000;-0.522950
5203.000000;-0.523184
5202.000000;-0.523131
5201.000000;-0.523134
5200.000000;-0.523384
5199.000000;-0.523598
5198.000000;-0.523478
5197.000000;-0.523234
5196.000000;-0.523223
5195.000000;-0.523350
5194.000000;-0.523328
5193.000000;-0.523189
5192.000000;-0.523154
5191.000000;-0.523218
5190.000000;-0.523199
5189.000000;-0.523136
5188.000000;-0.523224
5187.000000;-0.523371
5186.000000;-0.523272
5185.000000;-0.522963
5184.000000;-0.522842
5183.000000;-0.523040
5182.000000;-0.523235
5181.000000;-0.523205
5180.000000;-0.523148
5179.000000;-0.523263
5178.000000;-0.523390
5177.000000;-0.523307
5176.000000;-0.523122
5175.000000;-0.523068
5174.000000;-0.523112
5173.000000;-0.523072
5172.000000;-0.522934
5171.000000;-0.522810
5170.000000;-0.522714
5169.000000;-0.522619
5168.000000;-0.522594
5167.000000;-0.522676
5166.000000;-0.522727
5165.000000;-0.522613
5164.000000;-0.522420
5163.000000;-0.522298
5162.000000;-0.522207
5161.000000;-0.522034
5160.000000;-0.521856
5159.000000;-0.521828
5158.000000;-0.521915
5157.000000;-0.521935
5156.000000;-0.521848
5155.000000;-0.521785
5154.000000;-0.521782
5153.000000;-0.521739
5152.000000;-0.521639
5151.000000;-0.521603
5150.000000;-0.521678
5149.000000;-0.521759
5148.000000;-0.521747
5147.000000;-0.521663
5146.000000;-0.521574
5145.000000;-0.521494
5144.000000;-0.521415
5143.000000;-0.521340
5142.000000;-0.521277
5141.000000;-0.521221
5140.000000;-0.521165
5139.000000;-0.521090
5138.000000;-0.520977
5137.000000;-0.520860
5136.000000;-0.520810
5135.000000;-0.520829
5134.000000;-0.520819
5133.000000;-0.520708
5132.000000;-0.520556
5131.000000;-0.520437
5130.000000;-0.520340
5129.000000;-0.520235
5128.000000;-0.520174
5127.000000;-0.520210
5126.000000;-0.520278
5125.000000;-0.520270
5124.000000;-0.520192
5123.000000;-0.520108
5122.000000;-0.520005
5121.000000;-0.519831
5120.000000;-0.519631
5119.000000;-0.519498
5118.000000;-0.519426
5117.000000;-0.519329
5116.000000;-0.519198
5115.000000;-0.519112
5114.000000;-0.519100
5113.000000;-0.519100
5112.000000;-0.519063
5111.000000;-0.518990
5110.000000;-0.518874
5109.000000;-0.518690
5108.000000;-0.518462
5107.000000;-0.518272
5106.000000;-0.518162
5105.000000;-0.518125
5104.000000;-0.518148
5103.000000;-0.518200
5102.000000;-0.518205
5101.000000;-0.518099
5100.000000;-0.517918
5099.000000;-0.517759
5098.000000;-0.517666
5097.000000;-0.517613
5096.000000;-0.517569
5095.000000;-0.517516
5094.000000;-0.517418
5093.000000;-0.517251
5092.000000;-0.517063
5091.000000;-0.516927
5090.000000;-0.516844
5089.000000;-0.516768
5088.000000;-0.516686
5087.000000;-0.516622
5086.000000;-0.516554
5085.000000;-0.516437
5084.000000;-0.516277
5083.000000;-0.516127
5082.000000;-0.516002
5081.000000;-0.515868
5080.000000;-0.515700
5079.000000;-0.515513
5078.000000;-0.515330
5077.000000;-0.515173
5076.000000;-0.515083
5075.000000;-0.515075
5074.000000;-0.515095
5073.000000;-0.515064
5072.000000;-0.514955
5071.000000;-0.514788
5070.000000;-0.514587
5069.000000;-0.514389
5068.000000;-0.514265
5067.000000;-0.514252
5066.000000;-0.514284
5065.000000;-0.514259
5064.000000;-0.514150
5063.000000;-0.513995
5062.000000;-0.513819
5061.000000;-0.513637
5060.000000;-0.513489
5059.000000;-0.513391
5058.000000;-0.513279
5057.000000;-0.513077
5056.000000;-0.512816
5055.000000;-0.512612
5054.000000;-0.512516
5053.000000;-0.512484
5052.000000;-0.512457
5051.000000;-0.512414
5050.000000;-0.512344
5049.000000;-0.512232
5048.000000;-0.512086
5047.000000;-0.511931
5046.000000;-0.511773
5045.000000;-0.511605
5044.000000;-0.511441
5043.000000;-0.511291
5042.000000;-0.511127
5041.000000;-0.510927
5040.000000;-0.510716
5039.000000;-0.510542
5038.000000;-0.510411
5037.000000;-0.510312
5036.000000;-0.510254
5035.000000;-0.510229
5034.000000;-0.510179
5033.000000;-0.510054
5032.000000;-0.509882
5031.000000;-0.509723
5030.000000;-0.509577
5029.000000;-0.509409
5028.000000;-0.509222
5027.000000;-0.509038
5026.000000;-0.508851
5025.000000;-0.508651
5024.000000;-0.508484
5023.000000;-0.508396
5022.000000;-0.508342
5021.000000;-0.508235
5020.000000;-0.508063
5019.000000;-0.507877
5018.000000;-0.507693
5017.000000;-0.507486
5016.000000;-0.507270
5015.000000;-0.507109
5014.000000;-0.507018
5013.000000;-0.506946
5012.000000;-0.506855
5011.000000;-0.506738
5010.000000;-0.506582
5009.000000;-0.506363
5008.000000;-0.506114
5007.000000;-0.505904
5006.000000;-0.505758
5005.000000;-0.505631
5004.000000;-0.505482
5003.000000;-0.505308
5002.000000;-0.505077
5001.000000;-0.504852
5000.000000;-0.504608
4999.000000;-0.504386
4998.000000;-0.504202
4997.000000;-0.504028
4996.000000;-0.503842
4995.000000;-0.503647
4994.000000;-0.503442
4993.000000;-0.503220
4992.000000;-0.502999
4991.000000;-0.502806
4990.000000;-0.502642
4989.000000;-0.502490
4988.000000;-0.502355
4987.000000;-0.502252
4986.000000;-0.502165
4985.000000;-0.502062
4984.000000;-0.501950
4983.000000;-0.501858
4982.000000;-0.501782
4981.000000;-0.501682
4980.000000;-0.501544
4979.000000;-0.501391
4978.000000;-0.501241
4977.000000;-0.501089
4976.000000;-0.500938
4975.000000;-0.500797
4974.000000;-0.500653
4973.000000;-0.500477
4972.000000;-0.500264
4971.000000;-0.500037
4970.000000;-0.499809
4969.000000;-0.499583
4968.000000;-0.499373
4967.000000;-0.499194
4966.000000;-0.499031
4965.000000;-0.498864
4964.000000;-0.498699
4963.000000;-0.498546
4962.000000;-0.498384
4961.000000;-0.498195
4960.000000;-0.498002
4959.000000;-0.497840
4958.000000;-0.497692
4957.000000;-0.497503
4956.000000;-0.497261
4955.000000;-0.497012
4954.000000;-0.496801
4953.000000;-0.496642
4952.000000;-0.496535
4951.000000;-0.496459
4950.000000;-0.496363
4949.000000;-0.496200
4948.000000;-0.495988
4947.000000;-0.495802
4946.000000;-0.495695
4945.000000;-0.495651
4944.000000;-0.495611
4943.000000;-0.495514
4942.000000;-0.495327
4941.000000;-0.495066
4940.000000;-0.494801
4939.000000;-0.494600
4938.000000;-0.494485
4937.000000;-0.494435
4936.000000;-0.494417
4935.000000;-0.494384
4934.000000;-0.494265
4933.000000;-0.494025
4932.000000;-0.493720
4931.000000;-0.493440
4930.000000;-0.493209
4929.000000;-0.492986
4928.000000;-0.492738
4927.000000;-0.492480
4926.000000;-0.492242
4925.000000;-0.492036
4924.000000;-0.491869
4923.000000;-0.491735
4922.000000;-0.491611
4921.000000;-0.491466
4920.000000;-0.491295
4919.000000;-0.491105
4918.000000;-0.490893
4917.000000;-0.490666
4916.000000;-0.490464
4915.000000;-0.490314
4914.000000;-0.490190
4913.000000;-0.490038
4912.000000;-0.489834
4911.000000;-0.489596
4910.000000;-0.489353
4909.000000;-0.489135
4908.000000;-0.488983
4907.000000;-0.488917
4906.000000;-0.488892
4905.000000;-0.488840
4904.000000;-0.488723
4903.000000;-0.488549
4902.000000;-0.488331
4901.000000;-0.488099
4900.000000;-0.487906
4899.000000;-0.487788
4898.000000;-0.487708
4897.000000;-0.487581
4896.000000;-0.487362
4895.000000;-0.487074
4894.000000;-0.486767
4893.000000;-0.486493
4892.000000;-0.486298
4891.000000;-0.486194
4890.000000;-0.486128
4889.000000;-0.486035
4888.000000;-0.485898
4887.000000;-0.485740
4886.000000;-0.485564
4885.000000;-0.485344
4884.000000;-0.485081
4883.000000;-0.484818
4882.000000;-0.484589
4881.000000;-0.484385
4880.000000;-0.484175
4879.000000;-0.483945
4878.000000;-0.483711
4877.000000;-0.483503
4876.000000;-0.483347
4875.000000;-0.483239
4874.000000;-0.483134
4873.000000;-0.482978
4872.000000;-0.482743
4871.000000;-0.482439
4870.000000;-0.482108
4869.000000;-0.481816
4868.000000;-0.481613
4867.000000;-0.481487
4866.000000;-0.481373
4865.000000;-0.481221
4864.000000;-0.481025
4863.000000;-0.480791
4862.000000;-0.480516
4861.000000;-0.480232
4860.000000;-0.480008
4859.000000;-0.479867
4858.000000;-0.479730
4857.000000;-0.479502
4856.000000;-0.479181
4855.000000;-0.478843
4854.000000;-0.478554
4853.000000;-0.478335
4852.000000;-0.478186
4851.000000;-0.478061
4850.000000;-0.477877
4849.000000;-0.477584
4848.000000;-0.477244
4847.000000;-0.476972
4846.000000;-0.476807
4845.000000;-0.476684
4844.000000;-0.476517
4843.000000;-0.476270
4842.000000;-0.475961
4841.000000;-0.475637
4840.000000;-0.475362
4839.000000;-0.475163
4838.000000;-0.475005
4837.000000;-0.474835
4836.000000;-0.474639
4835.000000;-0.474421
4834.000000;-0.474164
4833.000000;-0.473855
4832.000000;-0.473536
4831.000000;-0.473279
4830.000000;-0.473109
4829.000000;-0.472981
4828.000000;-0.472839
4827.000000;-0.472656
4826.000000;-0.472428
4825.000000;-0.472172
4824.000000;-0.471924
4823.000000;-0.471713
4822.000000;-0.471522
4821.000000;-0.471325
4820.000000;-0.471126
4819.000000;-0.470936
4818.000000;-0.470727
4817.000000;-0.470460
4816.000000;-0.470157
4815.000000;-0.469878
4814.000000;-0.469648
4813.000000;-0.469423
4812.000000;-0.469145
4811.000000;-0.468798
4810.000000;-0.468408
4809.000000;-0.468040
4808.000000;-0.467759
4807.000000;-0.467578
4806.000000;-0.467432
4805.000000;-0.467235
4804.000000;-0.466949
4803.000000;-0.466583
4802.000000;-0.466165
4801.000000;-0.465737
4800.000000;-0.465375
4799.000000;-0.465126
4798.000000;-0.464951
4797.000000;-0.464762
4796.000000;-0.464520
4795.000000;-0.464250
4794.000000;-0.463977
4793.000000;-0.463700
4792.000000;-0.463424
4791.000000;-0.463146
4790.000000;-0.462837
4789.000000;-0.462458
4788.000000;-0.462026
4787.000000;-0.461616
4786.000000;-0.461289
4785.000000;-0.461053
4784.000000;-0.460878
4783.000000;-0.460714
4782.000000;-0.460490
4781.000000;-0.460150
4780.000000;-0.459706
4779.000000;-0.459239
4778.000000;-0.458833
4777.000000;-0.458519
4776.000000;-0.458277
4775.000000;-0.458055
4774.000000;-0.457790
4773.000000;-0.457448
4772.000000;-0.457050
4771.000000;-0.456656
4770.000000;-0.456321
4769.000000;-0.456082
4768.000000;-0.455945
4767.000000;-0.455852
4766.000000;-0.455685
4765.000000;-0.455347
4764.000000;-0.454856
4763.000000;-0.454324
4762.000000;-0.453857
4761.000000;-0.453486
4760.000000;-0.453182
4759.000000;-0.452891
4758.000000;-0.452568
4757.000000;-0.452207
4756.000000;-0.451848
4755.000000;-0.451529
4754.000000;-0.451252
4753.000000;-0.450998
4752.000000;-0.450763
4751.000000;-0.450533
4750.000000;-0.450244
4749.000000;-0.449839
4748.000000;-0.449351
4747.000000;-0.448894
4746.000000;-0.448554
4745.000000;-0.448317
4744.000000;-0.448094
4743.000000;-0.447805
4742.000000;-0.447420
4741.000000;-0.446962
4740.000000;-0.446486
4739.000000;-0.446042
4738.000000;-0.445653
4737.000000;-0.445322
4736.000000;-0.445047
4735.000000;-0.444795
4734.000000;-0.444511
4733.000000;-0.444159
4732.000000;-0.443760
4731.000000;-0.443357
4730.000000;-0.442980
4729.000000;-0.442648
4728.000000;-0.442381
4727.000000;-0.442154
4726.000000;-0.441881
4725.000000;-0.441491
4724.000000;-0.441016
4723.000000;-0.440542
4722.000000;-0.440118
4721.000000;-0.439732
4720.000000;-0.439375
4719.000000;-0.439055
4718.000000;-0.438753
4717.000000;-0.438420
4716.000000;-0.438034
4715.000000;-0.437616
4714.000000;-0.437191
4713.000000;-0.436769
4712.000000;-0.436359
4711.000000;-0.435973
4710.000000;-0.435608
4709.000000;-0.435249
4708.000000;-0.434892
4707.000000;-0.434544
4706.000000;-0.434192
4705.000000;-0.433811
4704.000000;-0.433384
4703.000000;-0.432909
4702.000000;-0.432393
4701.000000;-0.431879
4700.000000;-0.431453
4699.000000;-0.431157
4698.000000;-0.430910
4697.000000;-0.430563
4696.000000;-0.430054
4695.000000;-0.429467
4694.000000;-0.428932
4693.000000;-0.428500
4692.000000;-0.428144
4691.000000;-0.427810
4690.000000;-0.427453
4689.000000;-0.427036
4688.000000;-0.426548
4687.000000;-0.426009
4686.000000;-0.425468
4685.000000;-0.424982
4684.000000;-0.424578
4683.000000;-0.424232
4682.000000;-0.423879
4681.000000;-0.423467
4680.000000;-0.423000
4679.000000;-0.422517
4678.000000;-0.422051
4677.000000;-0.421624
4676.000000;-0.421257
4675.000000;-0.420941
4674.000000;-0.420614
4673.000000;-0.420198
4672.000000;-0.419668
4671.000000;-0.419064
4670.000000;-0.418449
4669.000000;-0.417868
4668.000000;-0.417345
4667.000000;-0.416866
4666.000000;-0.416390
4665.000000;-0.415878
4664.000000;-0.415334
4663.000000;-0.414786
4662.000000;-0.414251
4661.000000;-0.413725
4660.000000;-0.413205
4659.000000;-0.412674
4658.000000;-0.412102
4657.000000;-0.411474
4656.000000;-0.410811
4655.000000;-0.410163
4654.000000;-0.409575
4653.000000;-0.409069
4652.000000;-0.408645
4651.000000;-0.408254
4650.000000;-0.407807
4649.000000;-0.407251
4648.000000;-0.406622
4647.000000;-0.406000
4646.000000;-0.405423
4645.000000;-0.404870
4644.000000;-0.404321
4643.000000;-0.403783
4642.000000;-0.403254
4641.000000;-0.402702
4640.000000;-0.402104
4639.000000;-0.401470
4638.000000;-0.400836
4637.000000;-0.400236
4636.000000;-0.399676
4635.000000;-0.399117
4634.000000;-0.398505
4633.000000;-0.397820
4632.000000;-0.397102
4631.000000;-0.396412
4630.000000;-0.395782
4629.000000;-0.395211
4628.000000;-0.394673
4627.000000;-0.394133
4626.000000;-0.393560
4625.000000;-0.392963
4624.000000;-0.392378
4623.000000;-0.391803
4622.000000;-0.391185
4621.000000;-0.390499
4620.000000;-0.389789
4619.000000;-0.389112
4618.000000;-0.388461
4617.000000;-0.387792
4616.000000;-0.387098
4615.000000;-0.386405
4614.000000;-0.385723
4613.000000;-0.385050
4612.000000;-0.384389
4611.000000;-0.383724
4610.000000;-0.382997
4609.000000;-0.382166
4608.000000;-0.381287
4607.000000;-0.380481
4606.000000;-0.379808
4605.000000;-0.379218
4604.000000;-0.378611
4603.000000;-0.377910
4602.000000;-0.377089
4601.000000;-0.376180
4600.000000;-0.375272
4599.000000;-0.374440
4598.000000;-0.373685
4597.000000;-0.372947
4596.000000;-0.372179
4595.000000;-0.371375
4594.000000;-0.370535
4593.000000;-0.369656
4592.000000;-0.368761
4591.000000;-0.367894
4590.000000;-0.367082
4589.000000;-0.366310
4588.000000;-0.365536
4587.000000;-0.364702
4586.000000;-0.363767
4585.000000;-0.362748
4584.000000;-0.361723
4583.000000;-0.360751
4582.000000;-0.359795
4581.000000;-0.358773
4580.000000;-0.357670
4579.000000;-0.356537
4578.000000;-0.355423
4577.000000;-0.354339
4576.000000;-0.353294
4575.000000;-0.352296
4574.000000;-0.351309
4573.000000;-0.350263
4572.000000;-0.349121
4571.000000;-0.347912
4570.000000;-0.346695
4569.000000;-0.345517
4568.000000;-0.344399
4567.000000;-0.343325
4566.000000;-0.342230
4565.000000;-0.341046
4564.000000;-0.339777
4563.000000;-0.338489
4562.000000;-0.337219
4561.000000;-0.335940
4560.000000;-0.334609
4559.000000;-0.333226
4558.000000;-0.331803
4557.000000;-0.330331
4556.000000;-0.328794
4555.000000;-0.327210
4554.000000;-0.325622
4553.000000;-0.324065
4552.000000;-0.322543
4551.000000;-0.321021
4550.000000;-0.319449
4549.000000;-0.317806
4548.000000;-0.316124
4547.000000;-0.314462
4546.000000;-0.312851
4545.000000;-0.311278
4544.000000;-0.309715
4543.000000;-0.308143
4542.000000;-0.306552
4541.000000;-0.304958
4540.000000;-0.303394
4539.000000;-0.301887
4538.000000;-0.300431
4537.000000;-0.299004
4536.000000;-0.297587
4535.000000;-0.296156
4534.000000;-0.294670
4533.000000;-0.293123
4532.000000;-0.291571
4531.000000;-0.290092
4530.000000;-0.288714
4529.000000;-0.287401
4528.000000;-0.286113
4527.000000;-0.284828
4526.000000;-0.283534
4525.000000;-0.282240
4524.000000;-0.280987
4523.000000;-0.279811
4522.000000;-0.278691
4521.000000;-0.277566
4520.000000;-0.276401
4519.000000;-0.275213
4518.000000;-0.274027
4517.000000;-0.272853
4516.000000;-0.271699
4515.000000;-0.270581
4514.000000;-0.269493
4513.000000;-0.268413
4512.000000;-0.267326
4511.000000;-0.266227
4510.000000;-0.265116
4509.000000;-0.264000
4508.000000;-0.262909
4507.000000;-0.261877
4506.000000;-0.260894
4505.000000;-0.259911
4504.000000;-0.258883
4503.000000;-0.257789
4502.000000;-0.256619
4501.000000;-0.255377
4500.000000;-0.254103
4499.000000;-0.252867
4498.000000;-0.251715
4497.000000;-0.250635
4496.000000;-0.249565
4495.000000;-0.248443
4494.000000;-0.247250
4493.000000;-0.246036
4492.000000;-0.244868
4491.000000;-0.243756
4490.000000;-0.242628
4489.000000;-0.241416
4488.000000;-0.240124
4487.000000;-0.238807
4486.000000;-0.237508
4485.000000;-0.236243
4484.000000;-0.235016
4483.000000;-0.233817
4482.000000;-0.232601
4481.000000;-0.231316
4480.000000;-0.229944
4479.000000;-0.228496
4478.000000;-0.226979
4477.000000;-0.225414
4476.000000;-0.223861
4475.000000;-0.222382
4474.000000;-0.220985
4473.000000;-0.219613
4472.000000;-0.218195
4471.000000;-0.216691
4470.000000;-0.215118
4469.000000;-0.213544
4468.000000;-0.212047
4467.000000;-0.210623
4466.000000;-0.209182
4465.000000;-0.207646
4464.000000;-0.206036
4463.000000;-0.204428
4462.000000;-0.202855
4461.000000;-0.201300
4460.000000;-0.199751
4459.000000;-0.198201
4458.000000;-0.196619
4457.000000;-0.194977
4456.000000;-0.193306
4455.000000;-0.191671
4454.000000;-0.190080
4453.000000;-0.188467
4452.000000;-0.186779
4451.000000;-0.185045
4450.000000;-0.183334
4449.000000;-0.181685
4448.000000;-0.180068
4447.000000;-0.178401
4446.000000;-0.176623
4445.000000;-0.174760
4444.000000;-0.172916
4443.000000;-0.171174
4442.000000;-0.169516
4441.000000;-0.167862
4440.000000;-0.166174
4439.000000;-0.164471
4438.000000;-0.162776
4437.000000;-0.161088
4436.000000;-0.159397
4435.000000;-0.157678
4434.000000;-0.155882
4433.000000;-0.153981
4432.000000;-0.152020
4431.000000;-0.150090
4430.000000;-0.148226
4429.000000;-0.146381
4428.000000;-0.144488
4427.000000;-0.142524
4426.000000;-0.140509
4425.000000;-0.138481
4424.000000;-0.136479
4423.000000;-0.134538
4422.000000;-0.132661
4421.000000;-0.130814
4420.000000;-0.128936
4419.000000;-0.126968
4418.000000;-0.124877
4417.000000;-0.122690
4416.000000;-0.120479
4415.000000;-0.118298
4414.000000;-0.116142
4413.000000;-0.113977
4412.000000;-0.111799
4411.000000;-0.109631
4410.000000;-0.107488
4409.000000;-0.105349
4408.000000;-0.103173
4407.000000;-0.100922
4406.000000;-0.098599
4405.000000;-0.096265
4404.000000;-0.093993
4403.000000;-0.091785
4402.000000;-0.089566
4401.000000;-0.087276
4400.000000;-0.084909
4399.000000;-0.082485
4398.000000;-0.080006
4397.000000;-0.077488
4396.000000;-0.074975
4395.000000;-0.072486
4394.000000;-0.069982
4393.000000;-0.067418
4392.000000;-0.064788
4391.000000;-0.062102
4390.000000;-0.059370
4389.000000;-0.056644
4388.000000;-0.053996
4387.000000;-0.051427
4386.000000;-0.048824
4385.000000;-0.046084
4384.000000;-0.043221
4383.000000;-0.040313
4382.000000;-0.037395
4381.000000;-0.034477
4380.000000;-0.031599
4379.000000;-0.028787
4378.000000;-0.025987
4377.000000;-0.023105
4376.000000;-0.020093
4375.000000;-0.016949
4374.000000;-0.013681
4373.000000;-0.010344
4372.000000;-0.007062
4371.000000;-0.003920
4370.000000;-0.000848
4369.000000;0.002306
4368.000000;0.005617
4367.000000;0.009036
4366.000000;0.012476
4365.000000;0.015867
4364.000000;0.019166
4363.000000;0.022412
4362.000000;0.025756
4361.000000;0.029341
4360.000000;0.033139
4359.000000;0.036972
4358.000000;0.040697
4357.000000;0.044328
4356.000000;0.047980
4355.000000;0.051738
4354.000000;0.055592
4353.000000;0.059461
4352.000000;0.063276
4351.000000;0.067058
4350.000000;0.070896
4349.000000;0.074840
4348.000000;0.078881
4347.000000;0.083032
4346.000000;0.087351
4345.000000;0.091831
4344.000000;0.096342
4343.000000;0.100749
4342.000000;0.105031
4341.000000;0.109240
4340.000000;0.113430
4339.000000;0.117693
4338.000000;0.122178
4337.000000;0.126948
4336.000000;0.131887
4335.000000;0.136829
4334.000000;0.141730
4333.000000;0.146629
4332.000000;0.151525
4331.000000;0.156409
4330.000000;0.161344
4329.000000;0.166395
4328.000000;0.171514
4327.000000;0.176598
4326.000000;0.181623
4325.000000;0.186640
4324.000000;0.191710
4323.000000;0.196934
4322.000000;0.202446
4321.000000;0.208246
4320.000000;0.214110
4319.000000;0.219818
4318.000000;0.225406
4317.000000;0.231077
4316.000000;0.236944
4315.000000;0.243007
4314.000000;0.249246
4313.000000;0.255561
4312.000000;0.261716
4311.000000;0.267590
4310.000000;0.273417
4309.000000;0.279570
4308.000000;0.286138
4307.000000;0.292921
4306.000000;0.299768
4305.000000;0.306680
4304.000000;0.313591
4303.000000;0.320342
4302.000000;0.326926
4301.000000;0.333571
4300.000000;0.340520
4299.000000;0.347892
4298.000000;0.355721
4297.000000;0.363910
4296.000000;0.372151
4295.000000;0.380148
4294.000000;0.387950
4293.000000;0.395885
4292.000000;0.404152
4291.000000;0.412680
4290.000000;0.421350
4289.000000;0.430077
4288.000000;0.438679
4287.000000;0.447024
4286.000000;0.455387
4285.000000;0.464339
4284.000000;0.474145
4283.000000;0.484517
4282.000000;0.495041
4281.000000;0.505556
4280.000000;0.516030
4279.000000;0.526388
4278.000000;0.536722
4277.000000;0.547408
4276.000000;0.558787
4275.000000;0.570858
4274.000000;0.583400
4273.000000;0.596198
4272.000000;0.608998
4271.000000;0.621514
4270.000000;0.633789
4269.000000;0.646410
4268.000000;0.660055
4267.000000;0.674805
4266.000000;0.689993
4265.000000;0.704773
4264.000000;0.718898
4263.000000;0.733081
4262.000000;0.748560
4261.000000;0.766145
4260.000000;0.785615
4259.000000;0.806073
4258.000000;0.826746
4257.000000;0.847358
4256.000000;0.868046
4255.000000;0.889399
4254.000000;0.912325
4253.000000;0.937215
4252.000000;0.963282
4251.000000;0.989497
4250.000000;1.016318
4249.000000;1.045691
4248.000000;1.079129
4247.000000;1.116622
4246.000000;1.157701
4245.000000;1.202736
4244.000000;1.252586
4243.000000;1.307824
4242.000000;1.369217
4241.000000;1.438730
4240.000000;1.520048
4239.000000;1.618636
4238.000000;1.747922
4237.000000;1.925271
4236.000000;2.157536
4235.000000;2.166803
4234.000000;1.951969
4233.000000;1.778338
4232.000000;1.644347
4231.000000;1.538576
4230.000000;1.452647
4229.000000;1.381517
4228.000000;1.321105
4227.000000;1.268817
4226.000000;1.222773
4225.000000;1.181297
4224.000000;1.142938
4223.000000;1.106441
4222.000000;1.070968
4221.000000;1.036725
4220.000000;1.005013
4219.000000;0.977069
4218.000000;0.952849
4217.000000;0.931187
4216.000000;0.910862
4215.000000;0.891158
4214.000000;0.871736
4213.000000;0.852587
4212.000000;0.834111
4211.000000;0.816764
4210.000000;0.800553
4209.000000;0.785137
4208.000000;0.770304
4207.000000;0.756018
4206.000000;0.742064
4205.000000;0.728110
4204.000000;0.714197
4203.000000;0.700823
4202.000000;0.688405
4201.000000;0.676878
4200.000000;0.665821
4199.000000;0.654754
4198.000000;0.643329
4197.000000;0.631556
4196.000000;0.619938
4195.000000;0.609145
4194.000000;0.599444
4193.000000;0.590556
4192.000000;0.582047
4191.000000;0.573670
4190.000000;0.565342
4189.000000;0.557033
4188.000000;0.548788
4187.000000;0.540685
4186.000000;0.532683
4185.000000;0.524644
4184.000000;0.516539
4183.000000;0.508520
4182.000000;0.500758
4181.000000;0.493327
4180.000000;0.486268
4179.000000;0.479602
4178.000000;0.473236
4177.000000;0.466976
4176.000000;0.460706
4175.000000;0.454450
4174.000000;0.448267
4173.000000;0.442195
4172.000000;0.436312
4171.000000;0.430712
4170.000000;0.425351
4169.000000;0.420028
4168.000000;0.414597
4167.000000;0.409135
4166.000000;0.403839
4165.000000;0.398802
4164.000000;0.393937
4163.000000;0.389074
4162.000000;0.384130
4161.000000;0.379202
4160.000000;0.374489
4159.000000;0.370078
4158.000000;0.365824
4157.000000;0.361528
4156.000000;0.357176
4155.000000;0.352940
4154.000000;0.348943
4153.000000;0.345155
4152.000000;0.341492
4151.000000;0.337927
4150.000000;0.334432
4149.000000;0.330923
4148.000000;0.327317
4147.000000;0.323614
4146.000000;0.319898
4145.000000;0.316276
4144.000000;0.312826
4143.000000;0.309583
4142.000000;0.306531
4141.000000;0.303613
4140.000000;0.300750
4139.000000;0.297842
4138.000000;0.294820
4137.000000;0.291717
4136.000000;0.288645
4135.000000;0.285674
4134.000000;0.282780
4133.000000;0.279948
4132.000000;0.277225
4131.000000;0.274624
4130.000000;0.272053
4129.000000;0.269445
4128.000000;0.266897
4127.000000;0.264565
4126.000000;0.262435
4125.000000;0.260323
4124.000000;0.258092
4123.000000;0.255775
4122.000000;0.253508
4121.000000;0.251406
4120.000000;0.249505
4119.000000;0.247703
4118.000000;0.245782
4117.000000;0.243597
4116.000000;0.241285
4115.000000;0.239178
4114.000000;0.237459
4113.000000;0.235965
4112.000000;0.234360
4111.000000;0.232452
4110.000000;0.230309
4109.000000;0.228147
4108.000000;0.226180
4107.000000;0.224531
4106.000000;0.223197
4105.000000;0.222028
4104.000000;0.220792
4103.000000;0.219306
4102.000000;0.217561
4101.000000;0.215736
4100.000000;0.214034
4099.000000;0.212514
4098.000000;0.211096
4097.000000;0.209729
4096.000000;0.208464
4095.000000;0.207333
4094.000000;0.206243
4093.000000;0.205047
4092.000000;0.203694
4091.000000;0.202262
4090.000000;0.200872
4089.000000;0.199630
4088.000000;0.198572
4087.000000;0.197615
4086.000000;0.196581
4085.000000;0.195359
4084.000000;0.194018
4083.000000;0.192703
4082.000000;0.191470
4081.000000;0.190283
4080.000000;0.189126
4079.000000;0.188035
4078.000000;0.187033
4077.000000;0.186114
4076.000000;0.185281
4075.000000;0.184517
4074.000000;0.183745
4073.000000;0.182875
4072.000000;0.181908
4071.000000;0.180939
4070.000000;0.180066
4069.000000;0.179317
4068.000000;0.178654
4067.000000;0.177986
4066.000000;0.177202
4065.000000;0.176266
4064.000000;0.175264
4063.000000;0.174316
4062.000000;0.173447
4061.000000;0.172609
4060.000000;0.171798
4059.000000;0.171085
4058.000000;0.170512
4057.000000;0.170022
4056.000000;0.169504
4055.000000;0.168886
4054.000000;0.168175
4053.000000;0.167428
4052.000000;0.166699
4051.000000;0.165983
4050.000000;0.165236
4049.000000;0.164432
4048.000000;0.163596
4047.000000;0.162762
4046.000000;0.161977
4045.000000;0.161310
4044.000000;0.160813
4043.000000;0.160398
4042.000000;0.159878
4041.000000;0.159176
4040.000000;0.158434
4039.000000;0.157844
4038.000000;0.157411
4037.000000;0.156996
4036.000000;0.156519
4035.000000;0.156019
4034.000000;0.155532
4033.000000;0.155018
4032.000000;0.154439
4031.000000;0.153832
4030.000000;0.153274
4029.000000;0.152810
4028.000000;0.152416
4027.000000;0.152013
4026.000000;0.151539
4025.000000;0.151033
4024.000000;0.150608
4023.000000;0.150297
4022.000000;0.149981
4021.000000;0.149532
4020.000000;0.148972
4019.000000;0.148423
4018.000000;0.147952
4017.000000;0.147538
4016.000000;0.147156
4015.000000;0.146796
4014.000000;0.146426
4013.000000;0.146035
4012.000000;0.145689
4011.000000;0.145446
4010.000000;0.145239
4009.000000;0.144935
4008.000000;0.144528
4007.000000;0.144145
4006.000000;0.143861
4005.000000;0.143586
4004.000000;0.143210
4003.000000;0.142771
4002.000000;0.142419
4001.000000;0.142236
4000.000000;0.142139
3999.000000;0.141950
3998.000000;0.141562
3997.000000;0.141051
3996.000000;0.140616
3995.000000;0.140406
3994.000000;0.140391
3993.000000;0.140414
3992.000000;0.140341
3991.000000;0.140165
3990.000000;0.139980
3989.000000;0.139875
3988.000000;0.139836
3987.000000;0.139734
3986.000000;0.139453
3985.000000;0.139032
3984.000000;0.138625
3983.000000;0.138319
3982.000000;0.138071
3981.000000;0.137851
3980.000000;0.137711
3979.000000;0.137636
3978.000000;0.137451
3977.000000;0.137006
3976.000000;0.136418
3975.000000;0.135993
3974.000000;0.135903
3973.000000;0.136038
3972.000000;0.136164
3971.000000;0.136126
3970.000000;0.135905
3969.000000;0.135603
3968.000000;0.135385
3967.000000;0.135368
3966.000000;0.135504
3965.000000;0.135606
3964.000000;0.135515
3963.000000;0.135236
3962.000000;0.134909
3961.000000;0.134690
3960.000000;0.134643
3959.000000;0.134678
3958.000000;0.134626
3957.000000;0.134405
3956.000000;0.134108
3955.000000;0.133889
3954.000000;0.133782
3953.000000;0.133691
3952.000000;0.133517
3951.000000;0.133237
3950.000000;0.132899
3949.000000;0.132601
3948.000000;0.132465
3947.000000;0.132542
3946.000000;0.132733
3945.000000;0.132829
3944.000000;0.132673
3943.000000;0.132292
3942.000000;0.131892
3941.000000;0.131709
3940.000000;0.131817
3939.000000;0.132036
3938.000000;0.132102
3937.000000;0.131900
3936.000000;0.131517
3935.000000;0.131054
3934.000000;0.130520
3933.000000;0.129956
3932.000000;0.129528
3931.000000;0.129394
3930.000000;0.129502
3929.000000;0.129625
3928.000000;0.129588
3927.000000;0.129385
3926.000000;0.129092
3925.000000;0.128754
3924.000000;0.128389
3923.000000;0.128040
3922.000000;0.127761
3921.000000;0.127594
3920.000000;0.127559
3919.000000;0.127612
3918.000000;0.127674
3917.000000;0.127715
3916.000000;0.127792
3915.000000;0.127926
3914.000000;0.128020
3913.000000;0.127976
3912.000000;0.127858
3911.000000;0.127765
3910.000000;0.127649
3909.000000;0.127375
3908.000000;0.126938
3907.000000;0.126431
3906.000000;0.125867
3905.000000;0.125217
3904.000000;0.124610
3903.000000;0.124315
3902.000000;0.124452
3901.000000;0.124865
3900.000000;0.125339
3899.000000;0.125826
3898.000000;0.126356
3897.000000;0.126841
3896.000000;0.127124
3895.000000;0.127162
3894.000000;0.127077
3893.000000;0.127011
3892.000000;0.127061
3891.000000;0.127244
3890.000000;0.127534
3889.000000;0.127870
3888.000000;0.128148
3887.000000;0.128311
3886.000000;0.128401
3885.000000;0.128519
3884.000000;0.128827
3883.000000;0.129389
3882.000000;0.130037
3881.000000;0.130524
3880.000000;0.130772
3879.000000;0.130908
3878.000000;0.131121
3877.000000;0.131462
3876.000000;0.131851
3875.000000;0.132185
3874.000000;0.132382
3873.000000;0.132469
3872.000000;0.132620
3871.000000;0.132969
3870.000000;0.133425
3869.000000;0.133823
3868.000000;0.134274
3867.000000;0.135016
3866.000000;0.135991
3865.000000;0.136863
3864.000000;0.137405
3863.000000;0.137701
3862.000000;0.137985
3861.000000;0.138391
3860.000000;0.138924
3859.000000;0.139451
3858.000000;0.139766
3857.000000;0.139779
3856.000000;0.139692
3855.000000;0.139863
3854.000000;0.140388
3853.000000;0.141004
3852.000000;0.141659
3851.000000;0.142601
3850.000000;0.143800
3849.000000;0.144934
3848.000000;0.145849
3847.000000;0.146663
3846.000000;0.147487
3845.000000;0.148226
3844.000000;0.148708
3843.000000;0.148859
3842.000000;0.148790
3841.000000;0.148714
3840.000000;0.148803
3839.000000;0.149109
3838.000000;0.149640
3837.000000;0.150403
3836.000000;0.151338
3835.000000;0.152257
3834.000000;0.152967
3833.000000;0.153470
3832.000000;0.153968
3831.000000;0.154634
3830.000000;0.155475
3829.000000;0.156392
3828.000000;0.157314
3827.000000;0.158144
3826.000000;0.158692
3825.000000;0.158868
3824.000000;0.158916
3823.000000;0.159272
3822.000000;0.160121
3821.000000;0.161150
3820.000000;0.161959
3819.000000;0.162584
3818.000000;0.163326
3817.000000;0.164320
3816.000000;0.165366
3815.000000;0.166198
3814.000000;0.166869
3813.000000;0.167601
3812.000000;0.168398
3811.000000;0.169099
3810.000000;0.169643
3809.000000;0.170164
3808.000000;0.170793
3807.000000;0.171396
3806.000000;0.171748
3805.000000;0.171948
3804.000000;0.172369
3803.000000;0.173210
3802.000000;0.174265
3801.000000;0.175143
3800.000000;0.175806
3799.000000;0.176574
3798.000000;0.177545
3797.000000;0.178464
3796.000000;0.179105
3795.000000;0.179549
3794.000000;0.180057
3793.000000;0.180767
3792.000000;0.181621
3791.000000;0.182521
3790.000000;0.183415
3789.000000;0.184265
3788.000000;0.185040
3787.000000;0.185747
3786.000000;0.186401
3785.000000;0.186969
3784.000000;0.187398
3783.000000;0.187738
3782.000000;0.188189
3781.000000;0.188928
3780.000000;0.189933
3779.000000;0.190974
3778.000000;0.191865
3777.000000;0.192655
3776.000000;0.193494
3775.000000;0.194365
3774.000000;0.195107
3773.000000;0.195715
3772.000000;0.196419
3771.000000;0.197344
3770.000000;0.198265
3769.000000;0.198902
3768.000000;0.199343
3767.000000;0.199929
3766.000000;0.200769
3765.000000;0.201607
3764.000000;0.202229
3763.000000;0.202790
3762.000000;0.203575
3761.000000;0.204547
3760.000000;0.205385
3759.000000;0.205891
3758.000000;0.206170
3757.000000;0.206407
3756.000000;0.206684
3755.000000;0.207024
3754.000000;0.207475
3753.000000;0.208087
3752.000000;0.208853
3751.000000;0.209718
3750.000000;0.210559
3749.000000;0.211214
3748.000000;0.211714
3747.000000;0.212356
3746.000000;0.213428
3745.000000;0.214851
3744.000000;0.216085
3743.000000;0.216865
3742.000000;0.217552
3741.000000;0.218354
3740.000000;0.219103
3739.000000;0.219741
3738.000000;0.220504
3737.000000;0.221620
3736.000000;0.222934
3735.000000;0.224048
3734.000000;0.224782
3733.000000;0.225281
3732.000000;0.225760
3731.000000;0.226346
3730.000000;0.227113
3729.000000;0.228083
3728.000000;0.229153
3727.000000;0.230082
3726.000000;0.230681
3725.000000;0.231067
3724.000000;0.231561
3723.000000;0.232304
3722.000000;0.233190
3721.000000;0.234110
3720.000000;0.235082
3719.000000;0.236083
3718.000000;0.236960
3717.000000;0.237633
3716.000000;0.238282
3715.000000;0.239115
3714.000000;0.240033
3713.000000;0.240747
3712.000000;0.241208
3711.000000;0.241698
3710.000000;0.242456
3709.000000;0.243392
3708.000000;0.244283
3707.000000;0.245075
3706.000000;0.245876
3705.000000;0.246758
3704.000000;0.247709
3703.000000;0.248720
3702.000000;0.249799
3701.000000;0.250875
3700.000000;0.251800
3699.000000;0.252523
3698.000000;0.253173
3697.000000;0.253900
3696.000000;0.254688
3695.000000;0.255380
3694.000000;0.255852
3693.000000;0.256119
3692.000000;0.256322
3691.000000;0.256661
3690.000000;0.257347
3689.000000;0.258463
3688.000000;0.259820
3687.000000;0.261089
3686.000000;0.262123
3685.000000;0.263035
3684.000000;0.264009
3683.000000;0.265082
3682.000000;0.266143
3681.000000;0.267079
3680.000000;0.267799
3679.000000;0.268261
3678.000000;0.268604
3677.000000;0.269127
3676.000000;0.269905
3675.000000;0.270598
3674.000000;0.271005
3673.000000;0.271490
3672.000000;0.272521
3671.000000;0.274063
3670.000000;0.275554
3669.000000;0.276526
3668.000000;0.277106
3667.000000;0.277689
3666.000000;0.278451
3665.000000;0.279356
3664.000000;0.280373
3663.000000;0.281471
3662.000000;0.282515
3661.000000;0.283347
3660.000000;0.283967
3659.000000;0.284561
3658.000000;0.285322
3657.000000;0.286301
3656.000000;0.287354
3655.000000;0.288278
3654.000000;0.288993
3653.000000;0.289601
3652.000000;0.290282
3651.000000;0.291101
3650.000000;0.291963
3649.000000;0.292842
3648.000000;0.293854
3647.000000;0.294982
3646.000000;0.296011
3645.000000;0.296766
3644.000000;0.297298
3643.000000;0.297769
3642.000000;0.298301
3641.000000;0.298999
3640.000000;0.299982
3639.000000;0.301186
3638.000000;0.302287
3637.000000;0.303070
3636.000000;0.303761
3635.000000;0.304731
3634.000000;0.305945
3633.000000;0.307002
3632.000000;0.307681
3631.000000;0.308183
3630.000000;0.308810
3629.000000;0.309575
3628.000000;0.310348
3627.000000;0.311193
3626.000000;0.312167
3625.000000;0.313133
3624.000000;0.314028
3623.000000;0.314966
3622.000000;0.315998
3621.000000;0.316996
3620.000000;0.317838
3619.000000;0.318540
3618.000000;0.319177
3617.000000;0.319818
3616.000000;0.320579
3615.000000;0.321581
3614.000000;0.322773
3613.000000;0.323941
3612.000000;0.324964
3611.000000;0.325932
3610.000000;0.326938
3609.000000;0.327892
3608.000000;0.328669
3607.000000;0.329315
3606.000000;0.330004
3605.000000;0.330839
3604.000000;0.331825
3603.000000;0.332918
3602.000000;0.334028
3601.000000;0.335031
3600.000000;0.335862
3599.000000;0.336572
3598.000000;0.337211
3597.000000;0.337792
3596.000000;0.338404
3595.000000;0.339201
3594.000000;0.340201
3593.000000;0.341229
3592.000000;0.342140
3591.000000;0.343014
3590.000000;0.344029
3589.000000;0.345224
3588.000000;0.346483
3587.000000;0.347738
3586.000000;0.349022
3585.000000;0.350288
3584.000000;0.351338
3583.000000;0.352058
3582.000000;0.352610
3581.000000;0.353299
3580.000000;0.354261
3579.000000;0.355370
3578.000000;0.356385
3577.000000;0.357169
3576.000000;0.357786
3575.000000;0.358432
3574.000000;0.359268
3573.000000;0.360277
3572.000000;0.361300
3571.000000;0.362215
3570.000000;0.363084
3569.000000;0.364051
3568.000000;0.365125
3567.000000;0.366167
3566.000000;0.367123
3565.000000;0.368095
3564.000000;0.369123
3563.000000;0.370046
3562.000000;0.370713
3561.000000;0.371239
3560.000000;0.371899
3559.000000;0.372799
3558.000000;0.373769
3557.000000;0.374601
3556.000000;0.375269
3555.000000;0.375916
3554.000000;0.376722
3553.000000;0.377791
3552.000000;0.379052
3551.000000;0.380251
3550.000000;0.381190
3549.000000;0.381990
3548.000000;0.383009
3547.000000;0.384422
3546.000000;0.386020
3545.000000;0.387466
3544.000000;0.388618
3543.000000;0.389484
3542.000000;0.390052
3541.000000;0.390340
3540.000000;0.390552
3539.000000;0.390980
3538.000000;0.391735
3537.000000;0.392710
3536.000000;0.393780
3535.000000;0.394932
3534.000000;0.396149
3533.000000;0.397309
3532.000000;0.398262
3531.000000;0.399004
3530.000000;0.399734
3529.000000;0.400712
3528.000000;0.402020
3527.000000;0.403447
3526.000000;0.404655
3525.000000;0.405490
3524.000000;0.406090
3523.000000;0.406708
3522.000000;0.407509
3521.000000;0.408536
3520.000000;0.409727
3519.000000;0.410889
3518.000000;0.411775
3517.000000;0.412338
3516.000000;0.412866
3515.000000;0.413739
3514.000000;0.415060
3513.000000;0.416590
3512.000000;0.418007
3511.000000;0.419139
3510.000000;0.420013
3509.000000;0.420773
3508.000000;0.421578
3507.000000;0.422492
3506.000000;0.423480
3505.000000;0.424522
3504.000000;0.425662
3503.000000;0.426903
3502.000000;0.428115
3501.000000;0.429159
3500.000000;0.430031
3499.000000;0.430802
3498.000000;0.431468
3497.000000;0.432004
3496.000000;0.432559
3495.000000;0.433443
3494.000000;0.434837
3493.000000;0.436560
3492.000000;0.438167
3491.000000;0.439290
3490.000000;0.439914
3489.000000;0.440369
3488.000000;0.441042
3487.000000;0.442090
3486.000000;0.443387
3485.000000;0.444715
3484.000000;0.445924
3483.000000;0.446933
3482.000000;0.447721
3481.000000;0.448394
3480.000000;0.449147
3479.000000;0.450047
3478.000000;0.450928
3477.000000;0.451626
3476.000000;0.452260
3475.000000;0.453142
3474.000000;0.454406
3473.000000;0.455872
3472.000000;0.457287
3471.000000;0.458565
3470.000000;0.459731
3469.000000;0.460765
3468.000000;0.461642
3467.000000;0.462497
3466.000000;0.463579
3465.000000;0.464973
3464.000000;0.466421
3463.000000;0.467541
3462.000000;0.468207
3461.000000;0.468649
3460.000000;0.469156
3459.000000;0.469814
3458.000000;0.470569
3457.000000;0.471406
3456.000000;0.472326
3455.000000;0.473211
3454.000000;0.473895
3453.000000;0.474403
3452.000000;0.474998
3451.000000;0.475963
3450.000000;0.477359
3449.000000;0.478987
3448.000000;0.480530
3447.000000;0.481768
3446.000000;0.482742
3445.000000;0.483681
3444.000000;0.484713
3443.000000;0.485735
3442.000000;0.486629
3441.000000;0.487458
3440.000000;0.488316
3439.000000;0.489124
3438.000000;0.489811
3437.000000;0.490595
3436.000000;0.491784
3435.000000;0.493302
3434.000000;0.494710
3433.000000;0.495753
3432.000000;0.496625
3431.000000;0.497607
3430.000000;0.498718
3429.000000;0.499838
3428.000000;0.500943
3427.000000;0.502034
3426.000000;0.503035
3425.000000;0.503948
3424.000000;0.504939
3423.000000;0.506101
3422.000000;0.507283
3421.000000;0.508335
3420.000000;0.509401
3419.000000;0.510735
3418.000000;0.512295
3417.000000;0.513717
3416.000000;0.514691
3415.000000;0.515228
3414.000000;0.515581
3413.000000;0.516030
3412.000000;0.516747
3411.000000;0.517762
3410.000000;0.519006
3409.000000;0.520399
3408.000000;0.521886
3407.000000;0.523397
3406.000000;0.524825
3405.000000;0.526078
3404.000000;0.527092
3403.000000;0.527829
3402.000000;0.528360
3401.000000;0.528916
3400.000000;0.529707
3399.000000;0.530665
3398.000000;0.531530
3397.000000;0.532204
3396.000000;0.532820
3395.000000;0.533477
3394.000000;0.534135
3393.000000;0.534840
3392.000000;0.535797
3391.000000;0.537086
3390.000000;0.538507
3389.000000;0.539877
3388.000000;0.541234
3387.000000;0.542611
3386.000000;0.543829
3385.000000;0.544755
3384.000000;0.545582
3383.000000;0.546574
3382.000000;0.547665
3381.000000;0.548588
3380.000000;0.549341
3379.000000;0.550242
3378.000000;0.551507
3377.000000;0.552961
3376.000000;0.554226
3375.000000;0.555061
3374.000000;0.555514
3373.000000;0.555875
3372.000000;0.556489
3371.000000;0.557561
3370.000000;0.559082
3369.000000;0.560891
3368.000000;0.562710
3367.000000;0.564145
3366.000000;0.564896
3365.000000;0.565105
3364.000000;0.565343
3363.000000;0.566081
3362.000000;0.567262
3361.000000;0.568501
3360.000000;0.569580
3359.000000;0.570598
3358.000000;0.571734
3357.000000;0.573060
3356.000000;0.574486
3355.000000;0.575775
3354.000000;0.576692
3353.000000;0.577258
3352.000000;0.577795
3351.000000;0.578586
3350.000000;0.579610
3349.000000;0.580724
3348.000000;0.581905
3347.000000;0.583142
3346.000000;0.584234
3345.000000;0.584987
3344.000000;0.585556
3343.000000;0.586331
3342.000000;0.587496
3341.000000;0.588886
3340.000000;0.590249
3339.000000;0.591429
3338.000000;0.592314
3337.000000;0.592867
3336.000000;0.593290
3335.000000;0.594004
3334.000000;0.595335
3333.000000;0.597195
3332.000000;0.599081
3331.000000;0.600373
3330.000000;0.600795
3329.000000;0.600723
3328.000000;0.600982
3327.000000;0.602146
3326.000000;0.604037
3325.000000;0.605984
3324.000000;0.607517
3323.000000;0.608658
3322.000000;0.609619
3321.000000;0.610473
3320.000000;0.611180
3319.000000;0.611708
3318.000000;0.612068
3317.000000;0.612344
3316.000000;0.612791
3315.000000;0.613746
3314.000000;0.615310
3313.000000;0.617123
3312.000000;0.618582
3311.000000;0.619365
3310.000000;0.619771
3309.000000;0.620480
3308.000000;0.621886
3307.000000;0.623646
3306.000000;0.625011
3305.000000;0.625641
3304.000000;0.625963
3303.000000;0.626605
3302.000000;0.627703
3301.000000;0.628936
3300.000000;0.630072
3299.000000;0.631134
3298.000000;0.632080
3297.000000;0.632711
3296.000000;0.633037
3295.000000;0.633465
3294.000000;0.634384
3293.000000;0.635733
3292.000000;0.637107
3291.000000;0.638193
3290.000000;0.638945
3289.000000;0.639434
3288.000000;0.639770
3287.000000;0.640142
3286.000000;0.640756
3285.000000;0.641682
3284.000000;0.642865
3283.000000;0.644284
3282.000000;0.645940
3281.000000;0.647643
3280.000000;0.648988
3279.000000;0.649702
3278.000000;0.649969
3277.000000;0.650263
3276.000000;0.650886
3275.000000;0.651788
3274.000000;0.652792
3273.000000;0.653804
3272.000000;0.654754
3271.000000;0.655508
3270.000000;0.656037
3269.000000;0.656586
3268.000000;0.657480
3267.000000;0.658699
3266.000000;0.659796
3265.000000;0.660377
3264.000000;0.660635
3263.000000;0.661270
3262.000000;0.662776
3261.000000;0.664838
3260.000000;0.666555
3259.000000;0.667307
3258.000000;0.667339
3257.000000;0.667376
3256.000000;0.667807
3255.000000;0.668455
3254.000000;0.669050
3253.000000;0.669585
3252.000000;0.670115
3251.000000;0.670548
3250.000000;0.670883
3249.000000;0.671441
3248.000000;0.672537
3247.000000;0.674026
3246.000000;0.675471
3245.000000;0.676711
3244.000000;0.677940
3243.000000;0.679222
3242.000000;0.680267
3241.000000;0.680788
3240.000000;0.680846
3239.000000;0.680731
3238.000000;0.680705
3237.000000;0.680983
3236.000000;0.681761
3235.000000;0.683059
3234.000000;0.684604
3233.000000;0.685968
3232.000000;0.686831
3231.000000;0.687128
3230.000000;0.687105
3229.000000;0.687197
3228.000000;0.687670
3227.000000;0.688344
3226.000000;0.688843
3225.000000;0.689164
3224.000000;0.689762
3223.000000;0.690972
3222.000000;0.692563
3221.000000;0.694027
3220.000000;0.695126
3219.000000;0.695961
3218.000000;0.696673
3217.000000;0.697348
3216.000000;0.698099
3215.000000;0.698990
3214.000000;0.699887
3213.000000;0.700618
3212.000000;0.701289
3211.000000;0.702188
3210.000000;0.703334
3209.000000;0.704334
3208.000000;0.704807
3207.000000;0.704815
3206.000000;0.704729
3205.000000;0.704820
3204.000000;0.705172
3203.000000;0.705888
3202.000000;0.707056
3201.000000;0.708424
3200.000000;0.709397
3199.000000;0.709611
3198.000000;0.709400
3197.000000;0.709465
3196.000000;0.710126
3195.000000;0.711160
3194.000000;0.712260
3193.000000;0.713325
3192.000000;0.714272
3191.000000;0.714964
3190.000000;0.715505
3189.000000;0.716277
3188.000000;0.717389
3187.000000;0.718382
3186.000000;0.718829
3185.000000;0.719002
3184.000000;0.719517
3183.000000;0.720419
3182.000000;0.721065
3181.000000;0.720915
3180.000000;0.720044
3179.000000;0.718848
3178.000000;0.717693
3177.000000;0.716985
3176.000000;0.717171
3175.000000;0.718381
3174.000000;0.720280
3173.000000;0.722444
3172.000000;0.724651
3171.000000;0.726640
3170.000000;0.727872
3169.000000;0.727936
3168.000000;0.727110
3167.000000;0.726224
3166.000000;0.725962
3165.000000;0.726429
3164.000000;0.727264
3163.000000;0.727986
3162.000000;0.728278
3161.000000;0.728154
3160.000000;0.727933
3159.000000;0.727988
3158.000000;0.728523
3157.000000;0.729514
3156.000000;0.730704
3155.000000;0.731613
3154.000000;0.731818
3153.000000;0.731446
3152.000000;0.731240
3151.000000;0.731846
3150.000000;0.733095
3149.000000;0.734145
3148.000000;0.734343
3147.000000;0.733810
3146.000000;0.733221
3145.000000;0.733206
3144.000000;0.733945
3143.000000;0.735092
3142.000000;0.735970
3141.000000;0.735999
3140.000000;0.735120
3139.000000;0.733867
3138.000000;0.733061
3137.000000;0.733375
3136.000000;0.734984
3135.000000;0.737362
3134.000000;0.739439
3133.000000;0.740256
3132.000000;0.739693
3131.000000;0.738555
3130.000000;0.737870
3129.000000;0.738116
3128.000000;0.739009
3127.000000;0.739851
3126.000000;0.740065
3125.000000;0.739584
3124.000000;0.738895
3123.000000;0.738725
3122.000000;0.739530
3121.000000;0.741177
3120.000000;0.743036
3119.000000;0.744356
3118.000000;0.744679
3117.000000;0.744067
3116.000000;0.743018
3115.000000;0.742085
3114.000000;0.741507
3113.000000;0.741204
3112.000000;0.741119
3111.000000;0.741445
3110.000000;0.742365
3109.000000;0.743672
3108.000000;0.744828
3107.000000;0.745460
3106.000000;0.745667
3105.000000;0.745772
3104.000000;0.745888
3103.000000;0.745860
3102.000000;0.745556
3101.000000;0.745088
3100.000000;0.744711
3099.000000;0.744566
3098.000000;0.744568
3097.000000;0.744546
3096.000000;0.744448
3095.000000;0.744384
3094.000000;0.744524
3093.000000;0.744999
3092.000000;0.745894
3091.000000;0.747176
3090.000000;0.748509
3089.000000;0.749233
3088.000000;0.748803
3087.000000;0.747415
3086.000000;0.746010
3085.000000;0.745437
3084.000000;0.745592
3083.000000;0.745542
3082.000000;0.744600
3081.000000;0.743147
3080.000000;0.742233
3079.000000;0.742458
3078.000000;0.743420
3077.000000;0.744261
3076.000000;0.744526
3075.000000;0.744374
3074.000000;0.744150
3073.000000;0.744105
3072.000000;0.744472
3071.000000;0.745410
3070.000000;0.746651
3069.000000;0.747432
3068.000000;0.747186
3067.000000;0.746278
3066.000000;0.745717
3065.000000;0.746042
3064.000000;0.746750
3063.000000;0.746930
3062.000000;0.746261
3061.000000;0.745188
3060.000000;0.744281
3059.000000;0.743711
3058.000000;0.743310
3057.000000;0.742901
3056.000000;0.742499
3055.000000;0.742292
3054.000000;0.742483
3053.000000;0.743053
3052.000000;0.743629
3051.000000;0.743692
3050.000000;0.743025
3049.000000;0.741981
3048.000000;0.741206
3047.000000;0.741059
3046.000000;0.741300
3045.000000;0.741418
3044.000000;0.741216
3043.000000;0.740977
3042.000000;0.740962
3041.000000;0.740964
3040.000000;0.740616
3039.000000;0.740038
3038.000000;0.739845
3037.000000;0.740408
3036.000000;0.741340
3035.000000;0.741901
3034.000000;0.741778
3033.000000;0.741260
3032.000000;0.740770
3031.000000;0.740467
3030.000000;0.740242
3029.000000;0.739877
3028.000000;0.739164
3027.000000;0.738040
3026.000000;0.736675
3025.000000;0.735419
3024.000000;0.734653
3023.000000;0.734626
3022.000000;0.735272
3021.000000;0.736097
3020.000000;0.736445
3019.000000;0.736053
3018.000000;0.735244
3017.000000;0.734468
3016.000000;0.733844
3015.000000;0.733324
3014.000000;0.733041
3013.000000;0.733144
3012.000000;0.733396
3011.000000;0.733324
3010.000000;0.732807
3009.000000;0.732165
3008.000000;0.731661
3007.000000;0.731244
3006.000000;0.730877
3005.000000;0.730716
3004.000000;0.730752
3003.000000;0.730630
3002.000000;0.730118
3001.000000;0.729499
3000.000000;0.729160
2999.000000;0.728973
2998.000000;0.728484
2997.000000;0.727679
2996.000000;0.727154
2995.000000;0.727415
2994.000000;0.728286
2993.000000;0.729155
2992.000000;0.729544
2991.000000;0.729273
2990.000000;0.728298
2989.000000;0.726729
2988.000000;0.724991
2987.000000;0.723703
2986.000000;0.723222
2985.000000;0.723332
2984.000000;0.723442
2983.000000;0.723125
2982.000000;0.722482
2981.000000;0.721936
2980.000000;0.721694
2979.000000;0.721503
2978.000000;0.720994
2977.000000;0.720186
2976.000000;0.719505
2975.000000;0.719259
2974.000000;0.719239
2973.000000;0.718991
2972.000000;0.718378
2971.000000;0.717751
2970.000000;0.717565
2969.000000;0.717936
2968.000000;0.718514
2967.000000;0.718693
2966.000000;0.718046
2965.000000;0.716725
2964.000000;0.715379
2963.000000;0.714520
2962.000000;0.714037
2961.000000;0.713535
2960.000000;0.713019
2959.000000;0.712896
2958.000000;0.713278
2957.000000;0.713674
2956.000000;0.713540
2955.000000;0.712857
2954.000000;0.711942
2953.000000;0.710988
2952.000000;0.710059
2951.000000;0.709279
2950.000000;0.708690
2949.000000;0.708075
2948.000000;0.707286
2947.000000;0.706626
2946.000000;0.706551
2945.000000;0.707009
2944.000000;0.707399
2943.000000;0.707191
2942.000000;0.706350
2941.000000;0.705167
2940.000000;0.703993
2939.000000;0.703210
2938.000000;0.703094
2937.000000;0.703505
2936.000000;0.703829
2935.000000;0.703457
2934.000000;0.702334
2933.000000;0.701013
2932.000000;0.700166
2931.000000;0.700018
2930.000000;0.700146
2929.000000;0.699903
2928.000000;0.699085
2927.000000;0.698086
2926.000000;0.697296
2925.000000;0.696627
2924.000000;0.695866
2923.000000;0.695230
2922.000000;0.695126
2921.000000;0.695468
2920.000000;0.695670
2919.000000;0.695371
2918.000000;0.694762
2917.000000;0.694132
2916.000000;0.693496
2915.000000;0.692814
2914.000000;0.692215
2913.000000;0.691741
2912.000000;0.691140
2911.000000;0.690169
2910.000000;0.688985
2909.000000;0.688057
2908.000000;0.687762
2907.000000;0.688093
2906.000000;0.688637
2905.000000;0.688798
2904.000000;0.688208
2903.000000;0.686986
2902.000000;0.685507
2901.000000;0.684016
2900.000000;0.682649
2899.000000;0.681691
2898.000000;0.681423
2897.000000;0.681692
2896.000000;0.681976
2895.000000;0.681950
2894.000000;0.681709
2893.000000;0.681379
2892.000000;0.680905
2891.000000;0.680326
2890.000000;0.679901
2889.000000;0.679731
2888.000000;0.679549
2887.000000;0.679088
2886.000000;0.678421
2885.000000;0.677789
2884.000000;0.677318
2883.000000;0.677054
2882.000000;0.676986
2881.000000;0.676858
2880.000000;0.676250
2879.000000;0.675046
2878.000000;0.673621
2877.000000;0.672386
2876.000000;0.671382
2875.000000;0.670489
2874.000000;0.669773
2873.000000;0.669416
2872.000000;0.669456
2871.000000;0.669753
2870.000000;0.670027
2869.000000;0.669841
2868.000000;0.668873
2867.000000;0.667410
2866.000000;0.666266
2865.000000;0.665940
2864.000000;0.666095
2863.000000;0.666044
2862.000000;0.665486
2861.000000;0.664523
2860.000000;0.663262
2859.000000;0.661837
2858.000000;0.660636
2857.000000;0.660047
2856.000000;0.659983
2855.000000;0.659952
2854.000000;0.659612
2853.000000;0.659027
2852.000000;0.658364
2851.000000;0.657591
2850.000000;0.656557
2849.000000;0.655266
2848.000000;0.653982
2847.000000;0.653060
2846.000000;0.652617
2845.000000;0.652422
2844.000000;0.652233
2843.000000;0.652177
2842.000000;0.652515
2841.000000;0.653015
2840.000000;0.652954
2839.000000;0.651943
2838.000000;0.650437
2837.000000;0.649210
2836.000000;0.648572
2835.000000;0.648295
2834.000000;0.648008
2833.000000;0.647393
2832.000000;0.646254
2831.000000;0.644709
2830.000000;0.643189
2829.000000;0.642013
2828.000000;0.641136
2827.000000;0.640464
2826.000000;0.640165
2825.000000;0.640372
2824.000000;0.640811
2823.000000;0.641049
2822.000000;0.640974
2821.000000;0.640712
2820.000000;0.640219
2819.000000;0.639319
2818.000000;0.638102
2817.000000;0.636959
2816.000000;0.636193
2815.000000;0.635782
2814.000000;0.635476
2813.000000;0.634957
2812.000000;0.634028
2811.000000;0.632833
2810.000000;0.631805
2809.000000;0.631240
2808.000000;0.631025
2807.000000;0.630898
2806.000000;0.630779
2805.000000;0.630669
2804.000000;0.630451
2803.000000;0.630067
2802.000000;0.629694
2801.000000;0.629431
2800.000000;0.629019
2799.000000;0.628160
2798.000000;0.626978
2797.000000;0.625795
2796.000000;0.624654
2795.000000;0.623452
2794.000000;0.622401
2793.000000;0.621894
2792.000000;0.621929
2791.000000;0.622080
2790.000000;0.622028
2789.000000;0.621752
2788.000000;0.621203
2787.000000;0.620258
2786.000000;0.619096
2785.000000;0.618184
2784.000000;0.617697
2783.000000;0.617267
2782.000000;0.616478
2781.000000;0.615374
2780.000000;0.614312
2779.000000;0.613554
2778.000000;0.613185
2777.000000;0.613174
2776.000000;0.613296
2775.000000;0.613165
2774.000000;0.612586
2773.000000;0.611751
2772.000000;0.610964
2771.000000;0.610290
2770.000000;0.609647
2769.000000;0.609079
2768.000000;0.608725
2767.000000;0.608579
2766.000000;0.608465
2765.000000;0.608258
2764.000000;0.607968
2763.000000;0.607571
2762.000000;0.606922
2761.000000;0.605936
2760.000000;0.604787
2759.000000;0.603799
2758.000000;0.603140
2757.000000;0.602687
2756.000000;0.602225
2755.000000;0.601693
2754.000000;0.601203
2753.000000;0.600837
2752.000000;0.600530
2751.000000;0.600084
2750.000000;0.599270
2749.000000;0.597977
2748.000000;0.596437
2747.000000;0.595240
2746.000000;0.594896
2745.000000;0.595306
2744.000000;0.595777
2743.000000;0.595639
2742.000000;0.594768
2741.000000;0.593513
2740.000000;0.592305
2739.000000;0.591426
2738.000000;0.590913
2737.000000;0.590477
2736.000000;0.589662
2735.000000;0.588313
2734.000000;0.586857
2733.000000;0.585950
2732.000000;0.585824
2731.000000;0.586073
2730.000000;0.586064
2729.000000;0.585493
2728.000000;0.584588
2727.000000;0.583829
2726.000000;0.583431
2725.000000;0.583128
2724.000000;0.582534
2723.000000;0.581702
2722.000000;0.581125
2721.000000;0.581121
2720.000000;0.581403
2719.000000;0.581404
2718.000000;0.580858
2717.000000;0.579895
2716.000000;0.578711
2715.000000;0.577390
2714.000000;0.576045
2713.000000;0.574886
2712.000000;0.574060
2711.000000;0.573496
2710.000000;0.572986
2709.000000;0.572428
2708.000000;0.571985
2707.000000;0.571925
2706.000000;0.572244
2705.000000;0.572499
2704.000000;0.572188
2703.000000;0.571300
2702.000000;0.570313
2701.000000;0.569633
2700.000000;0.569235
2699.000000;0.568888
2698.000000;0.568491
2697.000000;0.568045
2696.000000;0.567517
2695.000000;0.566892
2694.000000;0.566237
2693.000000;0.565562
2692.000000;0.564762
2691.000000;0.563821
2690.000000;0.562924
2689.000000;0.562223
2688.000000;0.561661
2687.000000;0.561170
2686.000000;0.560831
2685.000000;0.560645
2684.000000;0.560312
2683.000000;0.559497
2682.000000;0.558233
2681.000000;0.556872
2680.000000;0.555754
2679.000000;0.555080
2678.000000;0.554925
2677.000000;0.555088
2676.000000;0.555048
2675.000000;0.554392
2674.000000;0.553283
2673.000000;0.552273
2672.000000;0.551676
2671.000000;0.551369
2670.000000;0.551137
2669.000000;0.550904
2668.000000;0.550571
2667.000000;0.549922
2666.000000;0.548863
2665.000000;0.547620
2664.000000;0.546558
2663.000000;0.545880
2662.000000;0.545531
2661.000000;0.545318
2660.000000;0.545068
2659.000000;0.544723
2658.000000;0.544331
2657.000000;0.543937
2656.000000;0.543492
2655.000000;0.542908
2654.000000;0.542154
2653.000000;0.541253
2652.000000;0.540237
2651.000000;0.539198
2650.000000;0.538300
2649.000000;0.537630
2648.000000;0.537076
2647.000000;0.536501
2646.000000;0.536005
2645.000000;0.535873
2644.000000;0.536178
2643.000000;0.536535
2642.000000;0.536352
2641.000000;0.535356
2640.000000;0.533858
2639.000000;0.532495
2638.000000;0.531689
2637.000000;0.531382
2636.000000;0.531252
2635.000000;0.531076
2634.000000;0.530769
2633.000000;0.530189
2632.000000;0.529198
2631.000000;0.527972
2630.000000;0.526994
2629.000000;0.526563
2628.000000;0.526455
2627.000000;0.526217
2626.000000;0.525687
2625.000000;0.525061
2624.000000;0.524542
2623.000000;0.524126
2622.000000;0.523714
2621.000000;0.523255
2620.000000;0.522718
2619.000000;0.522049
2618.000000;0.521221
2617.000000;0.520304
2616.000000;0.519469
2615.000000;0.518881
2614.000000;0.518541
2613.000000;0.518220
2612.000000;0.517610
2611.000000;0.516596
2610.000000;0.515352
2609.000000;0.514221
2608.000000;0.513554
2607.000000;0.513554
2606.000000;0.514051
2605.000000;0.514436
2604.000000;0.514071
2603.000000;0.512863
2602.000000;0.511317
2601.000000;0.510013
2600.000000;0.509177
2599.000000;0.508763
2598.000000;0.508626
2597.000000;0.508525
2596.000000;0.508196
2595.000000;0.507646
2594.000000;0.507170
2593.000000;0.506902
2592.000000;0.506529
2591.000000;0.505673
2590.000000;0.504396
2589.000000;0.503117
2588.000000;0.502121
2587.000000;0.501413
2586.000000;0.500935
2585.000000;0.500659
2584.000000;0.500464
2583.000000;0.500155
2582.000000;0.499675
2581.000000;0.499139
2580.000000;0.498600
2579.000000;0.497924
2578.000000;0.496975
2577.000000;0.495874
2576.000000;0.494990
2575.000000;0.494614
2574.000000;0.494624
2573.000000;0.494537
2572.000000;0.493998
2571.000000;0.493179
2570.000000;0.492558
2569.000000;0.492333
2568.000000;0.492248
2567.000000;0.491950
2566.000000;0.491296
2565.000000;0.490273
2564.000000;0.488934
2563.000000;0.487549
2562.000000;0.486535
2561.000000;0.486038
2560.000000;0.485780
2559.000000;0.485481
2558.000000;0.485202
2557.000000;0.485031
2556.000000;0.484685
2555.000000;0.483791
2554.000000;0.482473
2553.000000;0.481321
2552.000000;0.480770
2551.000000;0.480731
2550.000000;0.480768
2549.000000;0.480429
2548.000000;0.479482
2547.000000;0.478095
2546.000000;0.476824
2545.000000;0.476196
2544.000000;0.476249
2543.000000;0.476580
2542.000000;0.476790
2541.000000;0.476733
2540.000000;0.476418
2539.000000;0.475883
2538.000000;0.475198
2537.000000;0.474438
2536.000000;0.473635
2535.000000;0.472872
2534.000000;0.472343
2533.000000;0.472148
2532.000000;0.472059
2531.000000;0.471703
2530.000000;0.470952
2529.000000;0.469991
2528.000000;0.469024
2527.000000;0.468094
2526.000000;0.467173
2525.000000;0.466253
2524.000000;0.465326
2523.000000;0.464420
2522.000000;0.463638
2521.000000;0.463031
2520.000000;0.462459
2519.000000;0.461741
2518.000000;0.460917
2517.000000;0.460202
2516.000000;0.459713
2515.000000;0.459399
2514.000000;0.459229
2513.000000;0.459237
2512.000000;0.459368
2511.000000;0.459449
2510.000000;0.459339
2509.000000;0.458969
2508.000000;0.458233
2507.000000;0.457072
2506.000000;0.455716
2505.000000;0.454665
2504.000000;0.454271
2503.000000;0.454397
2502.000000;0.454541
2501.000000;0.454243
2500.000000;0.453382
2499.000000;0.452188
2498.000000;0.451053
2497.000000;0.450254
2496.000000;0.449791
2495.000000;0.449502
2494.000000;0.449247
2493.000000;0.448945
2492.000000;0.448500
2491.000000;0.447853
2490.000000;0.447102
2489.000000;0.446428
2488.000000;0.445885
2487.000000;0.445348
2486.000000;0.444691
2485.000000;0.443915
2484.000000;0.443141
2483.000000;0.442543
2482.000000;0.442258
2481.000000;0.442226
2480.000000;0.442140
2479.000000;0.441696
2478.000000;0.440912
2477.000000;0.440067
2476.000000;0.439326
2475.000000;0.438600
2474.000000;0.437792
2473.000000;0.437023
2472.000000;0.436488
2471.000000;0.436174
2470.000000;0.435840
2469.000000;0.435273
2468.000000;0.434524
2467.000000;0.433867
2466.000000;0.433510
2465.000000;0.433361
2464.000000;0.433132
2463.000000;0.432692
2462.000000;0.432186
2461.000000;0.431769
2460.000000;0.431383
2459.000000;0.430892
2458.000000;0.430309
2457.000000;0.429688
2456.000000;0.428936
2455.000000;0.427957
2454.000000;0.426886
2453.000000;0.425956
2452.000000;0.425173
2451.000000;0.424388
2450.000000;0.423663
2449.000000;0.423248
2448.000000;0.423161
2447.000000;0.423087
2446.000000;0.422796
2445.000000;0.422382
2444.000000;0.421949
2443.000000;0.421339
2442.000000;0.420395
2441.000000;0.419286
2440.000000;0.418318
2439.000000;0.417544
2438.000000;0.416802
2437.000000;0.416054
2436.000000;0.415442
2435.000000;0.415043
2434.000000;0.414772
2433.000000;0.414540
2432.000000;0.414354
2431.000000;0.414202
2430.000000;0.413965
2429.000000;0.413506
2428.000000;0.412797
2427.000000;0.411980
2426.000000;0.411324
2425.000000;0.411045
2424.000000;0.411048
2423.000000;0.410898
2422.000000;0.410214
2421.000000;0.409083
2420.000000;0.407981
2419.000000;0.407263
2418.000000;0.406855
2417.000000;0.406436
2416.000000;0.405810
2415.000000;0.405040
2414.000000;0.404333
2413.000000;0.403866
2412.000000;0.403640
2411.000000;0.403406
2410.000000;0.402826
2409.000000;0.401819
2408.000000;0.400729
2407.000000;0.400055
2406.000000;0.399961
2405.000000;0.400099
2404.000000;0.399928
2403.000000;0.399211
2402.000000;0.398189
2401.000000;0.397278
2400.000000;0.396636
2399.000000;0.396083
2398.000000;0.395433
2397.000000;0.394808
2396.000000;0.394469
2395.000000;0.394378
2394.000000;0.394122
2393.000000;0.393382
2392.000000;0.392354
2391.000000;0.391509
2390.000000;0.391030
2389.000000;0.390655
2388.000000;0.390086
2387.000000;0.389348
2386.000000;0.388645
2385.000000;0.388057
2384.000000;0.387511
2383.000000;0.386983
2382.000000;0.386548
2381.000000;0.386235
2380.000000;0.385949
2379.000000;0.385575
2378.000000;0.385075
2377.000000;0.384469
2376.000000;0.383771
2375.000000;0.382974
2374.000000;0.382082
2373.000000;0.381161
2372.000000;0.380358
2371.000000;0.379840
2370.000000;0.379658
2369.000000;0.379677
2368.000000;0.379661
2367.000000;0.379436
2366.000000;0.378960
2365.000000;0.378265
2364.000000;0.377401
2363.000000;0.376462
2362.000000;0.375589
2361.000000;0.374893
2360.000000;0.374411
2359.000000;0.374061
2358.000000;0.373679
2357.000000;0.373156
2356.000000;0.372535
2355.000000;0.371974
2354.000000;0.371503
2353.000000;0.370942
2352.000000;0.370112
2351.000000;0.369091
2350.000000;0.368217
2349.000000;0.367750
2348.000000;0.367707
2347.000000;0.367899
2346.000000;0.368000
2345.000000;0.367692
2344.000000;0.366855
2343.000000;0.365761
2342.000000;0.364830
2341.000000;0.364251
2340.000000;0.363895
2339.000000;0.363520
2338.000000;0.363029
2337.000000;0.362424
2336.000000;0.361720
2335.000000;0.360925
2334.000000;0.360124
2333.000000;0.359396
2332.000000;0.358820
2331.000000;0.358423
2330.000000;0.358239
2329.000000;0.358138
2328.000000;0.357885
2327.000000;0.357284
2326.000000;0.356376
2325.000000;0.355419
2324.000000;0.354661
2323.000000;0.354190
2322.000000;0.353873
2321.000000;0.353482
2320.000000;0.352918
2319.000000;0.352288
2318.000000;0.351778
2317.000000;0.351371
2316.000000;0.350878
2315.000000;0.350135
2314.000000;0.349222
2313.000000;0.348343
2312.000000;0.347690
2311.000000;0.347314
2310.000000;0.347147
2309.000000;0.347003
2308.000000;0.346705
2307.000000;0.346196
2306.000000;0.345570
2305.000000;0.344928
2304.000000;0.344319
2303.000000;0.343750
2302.000000;0.343219
2301.000000;0.342684
2300.000000;0.342128
2299.000000;0.341618
2298.000000;0.341248
2297.000000;0.340958
2296.000000;0.340540
2295.000000;0.339851
2294.000000;0.338973
2293.000000;0.338118
2292.000000;0.337471
2291.000000;0.337117
2290.000000;0.337001
2289.000000;0.336917
2288.000000;0.336626
2287.000000;0.336070
2286.000000;0.335392
2285.000000;0.334730
2284.000000;0.334082
2283.000000;0.333434
2282.000000;0.332881
2281.000000;0.332521
2280.000000;0.332270
2279.000000;0.331911
2278.000000;0.331307
2277.000000;0.330533
2276.000000;0.329821
2275.000000;0.329371
2274.000000;0.329153
2273.000000;0.328898
2272.000000;0.328358
2271.000000;0.327586
2270.000000;0.326852
2269.000000;0.326269
2268.000000;0.325668
2267.000000;0.324883
2266.000000;0.324005
2265.000000;0.323218
2264.000000;0.322543
2263.000000;0.321892
2262.000000;0.321290
2261.000000;0.320847
2260.000000;0.320546
2259.000000;0.320254
2258.000000;0.319929
2257.000000;0.319682
2256.000000;0.319568
2255.000000;0.319439
2254.000000;0.319078
2253.000000;0.318415
2252.000000;0.317576
2251.000000;0.316745
2250.000000;0.316033
2249.000000;0.315456
2248.000000;0.314985
2247.000000;0.314580
2246.000000;0.314171
2245.000000;0.313641
2244.000000;0.312932
2243.000000;0.312138
2242.000000;0.311430
2241.000000;0.310855
2240.000000;0.310294
2239.000000;0.309664
2238.000000;0.309069
2237.000000;0.308671
2236.000000;0.308464
2235.000000;0.308266
2234.000000;0.307901
2233.000000;0.307333
2232.000000;0.306670
2231.000000;0.306090
2230.000000;0.305726
2229.000000;0.305521
2228.000000;0.305238
2227.000000;0.304675
2226.000000;0.303876
2225.000000;0.303056
2224.000000;0.302364
2223.000000;0.301799
2222.000000;0.301311
2221.000000;0.300861
2220.000000;0.300384
2219.000000;0.299805
2218.000000;0.299124
2217.000000;0.298420
2216.000000;0.297756
2215.000000;0.297138
2214.000000;0.296585
2213.000000;0.296143
2212.000000;0.295784
2211.000000;0.295371
2210.000000;0.294807
2209.000000;0.294180
2208.000000;0.293688
2207.000000;0.293406
2206.000000;0.293198
2205.000000;0.292842
2204.000000;0.292218
2203.000000;0.291396
2202.000000;0.290602
2201.000000;0.290084
2200.000000;0.289913
2199.000000;0.289871
2198.000000;0.289604
2197.000000;0.288954
2196.000000;0.288096
2195.000000;0.287311
2194.000000;0.286681
2193.000000;0.286095
2192.000000;0.285487
2191.000000;0.284921
2190.000000;0.284435
2189.000000;0.283977
2188.000000;0.283539
2187.000000;0.283235
2186.000000;0.283113
2185.000000;0.283007
2184.000000;0.282693
2183.000000;0.282148
2182.000000;0.281524
2181.000000;0.280924
2180.000000;0.280317
2179.000000;0.279644
2178.000000;0.278897
2177.000000;0.278102
2176.000000;0.277346
2175.000000;0.276776
2174.000000;0.276475
2173.000000;0.276322
2172.000000;0.276086
2171.000000;0.275662
2170.000000;0.275115
2169.000000;0.274511
2168.000000;0.273852
2167.000000;0.273190
2166.000000;0.272651
2165.000000;0.272275
2164.000000;0.271942
2163.000000;0.271504
2162.000000;0.270927
2161.000000;0.270269
2160.000000;0.269598
2159.000000;0.268983
2158.000000;0.268459
2157.000000;0.267953
2156.000000;0.267333
2155.000000;0.266584
2154.000000;0.265862
2153.000000;0.265310
2152.000000;0.264898
2151.000000;0.264500
2150.000000;0.264061
2149.000000;0.263613
2148.000000;0.263178
2147.000000;0.262741
2146.000000;0.262280
2145.000000;0.261775
2144.000000;0.261206
2143.000000;0.260595
2142.000000;0.260038
2141.000000;0.259624
2140.000000;0.259345
2139.000000;0.259098
2138.000000;0.258788
2137.000000;0.258412
2136.000000;0.258037
2135.000000;0.257682
2134.000000;0.257242
2133.000000;0.256561
2132.000000;0.255623
2131.000000;0.254623
2130.000000;0.253770
2129.000000;0.253070
2128.000000;0.252406
2127.000000;0.251780
2126.000000;0.251348
2125.000000;0.251189
2124.000000;0.251142
2123.000000;0.250960
2122.000000;0.250547
2121.000000;0.250019
2120.000000;0.249563
2119.000000;0.249274
2118.000000;0.249066
2117.000000;0.248728
2116.000000;0.248126
2115.000000;0.247355
2114.000000;0.246639
2113.000000;0.246087
2112.000000;0.245623
2111.000000;0.245148
2110.000000;0.244645
2109.000000;0.244128
2108.000000;0.243579
2107.000000;0.243006
2106.000000;0.242460
2105.000000;0.241968
2104.000000;0.241490
2103.000000;0.240975
2102.000000;0.240401
2101.000000;0.239758
2100.000000;0.239078
2099.000000;0.238470
2098.000000;0.238029
2097.000000;0.237689
2096.000000;0.237282
2095.000000;0.236753
2094.000000;0.236218
2093.000000;0.235764
2092.000000;0.235320
2091.000000;0.234790
2090.000000;0.234201
2089.000000;0.233657
2088.000000;0.233216
2087.000000;0.232880
2086.000000;0.232617
2085.000000;0.232326
2084.000000;0.231881
2083.000000;0.231260
2082.000000;0.230583
2081.000000;0.229975
2080.000000;0.229442
2079.000000;0.228937
2078.000000;0.228439
2077.000000;0.227935
2076.000000;0.227394
2075.000000;0.226813
2074.000000;0.226240
2073.000000;0.225699
2072.000000;0.225174
2071.000000;0.224692
2070.000000;0.224306
2069.000000;0.223965
2068.000000;0.223522
2067.000000;0.222939
2066.000000;0.222380
2065.000000;0.221998
2064.000000;0.221721
2063.000000;0.221351
2062.000000;0.220799
2061.000000;0.220143
2060.000000;0.219511
2059.000000;0.218998
2058.000000;0.218624
2057.000000;0.218293
2056.000000;0.217844
2055.000000;0.217232
2054.000000;0.216608
2053.000000;0.216148
2052.000000;0.215847
2051.000000;0.215550
2050.000000;0.215128
2049.000000;0.214552
2048.000000;0.213865
2047.000000;0.213163
2046.000000;0.212563
2045.000000;0.212117
2044.000000;0.211771
2043.000000;0.211448
2042.000000;0.211101
2041.000000;0.210655
2040.000000;0.210011
2039.000000;0.209214
2038.000000;0.208510
2037.000000;0.208121
2036.000000;0.207993
2035.000000;0.207862
2034.000000;0.207519
2033.000000;0.206923
2032.000000;0.206142
2031.000000;0.205342
2030.000000;0.204753
2029.000000;0.204481
2028.000000;0.204321
2027.000000;0.203909
2026.000000;0.203129
2025.000000;0.202265
2024.000000;0.201701
2023.000000;0.201532
2022.000000;0.201495
2021.000000;0.201235
2020.000000;0.200614
2019.000000;0.199795
2018.000000;0.199061
2017.000000;0.198557
2016.000000;0.198214
2015.000000;0.197881
2014.000000;0.197479
2013.000000;0.197006
2012.000000;0.196500
2011.000000;0.196030
2010.000000;0.195653
2009.000000;0.195305
2008.000000;0.194808
2007.000000;0.194096
2006.000000;0.193372
2005.000000;0.192918
2004.000000;0.192790
2003.000000;0.192782
2002.000000;0.192661
2001.000000;0.192325
2000.000000;0.191756
1999.000000;0.191003
1998.000000;0.190230
1997.000000;0.189649
1996.000000;0.189309
1995.000000;0.189033
1994.000000;0.188623
1993.000000;0.188083
1992.000000;0.187554
1991.000000;0.187090
1990.000000;0.186581
1989.000000;0.185911
1988.000000;0.185127
1987.000000;0.184414
1986.000000;0.183910
1985.000000;0.183565
1984.000000;0.183198
1983.000000;0.182676
1982.000000;0.182033
1981.000000;0.181414
1980.000000;0.180932
1979.000000;0.180588
1978.000000;0.180295
1977.000000;0.179956
1976.000000;0.179535
1975.000000;0.179061
1974.000000;0.178563
1973.000000;0.178024
1972.000000;0.177435
1971.000000;0.176865
1970.000000;0.176410
1969.000000;0.176073
1968.000000;0.175753
1967.000000;0.175377
1966.000000;0.174963
1965.000000;0.174547
1964.000000;0.174113
1963.000000;0.173639
1962.000000;0.173161
1961.000000;0.172721
1960.000000;0.172306
1959.000000;0.171869
1958.000000;0.171365
1957.000000;0.170748
1956.000000;0.170005
1955.000000;0.169238
1954.000000;0.168632
1953.000000;0.168268
1952.000000;0.168013
1951.000000;0.167666
1950.000000;0.167180
1949.000000;0.166651
1948.000000;0.166158
1947.000000;0.165707
1946.000000;0.165306
1945.000000;0.164986
1944.000000;0.164722
1943.000000;0.164418
1942.000000;0.163997
1941.000000;0.163468
1940.000000;0.162900
1939.000000;0.162366
1938.000000;0.161911
1937.000000;0.161530
1936.000000;0.161174
1935.000000;0.160799
1934.000000;0.160391
1933.000000;0.159917
1932.000000;0.159321
1931.000000;0.158602
1930.000000;0.157873
1929.000000;0.157261
1928.000000;0.156767
1927.000000;0.156302
1926.000000;0.155849
1925.000000;0.155492
1924.000000;0.155269
1923.000000;0.155078
1922.000000;0.154775
1921.000000;0.154324
1920.000000;0.153798
1919.000000;0.153278
1918.000000;0.152788
1917.000000;0.152313
1916.000000;0.151840
1915.000000;0.151364
1914.000000;0.150867
1913.000000;0.150326
1912.000000;0.149731
1911.000000;0.149115
1910.000000;0.148528
1909.000000;0.147998
1908.000000;0.147517
1907.000000;0.147080
1906.000000;0.146708
1905.000000;0.146418
1904.000000;0.146201
1903.000000;0.146008
1902.000000;0.145749
1901.000000;0.145326
1900.000000;0.144725
1899.000000;0.144079
1898.000000;0.143564
1897.000000;0.143208
1896.000000;0.142856
1895.000000;0.142361
1894.000000;0.141751
1893.000000;0.141170
1892.000000;0.140701
1891.000000;0.140307
1890.000000;0.139892
1889.000000;0.139374
1888.000000;0.138728
1887.000000;0.138024
1886.000000;0.137403
1885.000000;0.136960
1884.000000;0.136661
1883.000000;0.136388
1882.000000;0.136061
1881.000000;0.135676
1880.000000;0.135271
1879.000000;0.134882
1878.000000;0.134522
1877.000000;0.134145
1876.000000;0.133682
1875.000000;0.133142
1874.000000;0.132632
1873.000000;0.132228
1872.000000;0.131870
1871.000000;0.131439
1870.000000;0.130922
1869.000000;0.130424
1868.000000;0.130044
1867.000000;0.129775
1866.000000;0.129520
1865.000000;0.129160
1864.000000;0.128642
1863.000000;0.128030
1862.000000;0.127452
1861.000000;0.126948
1860.000000;0.126438
1859.000000;0.125857
1858.000000;0.125285
1857.000000;0.124841
1856.000000;0.124514
1855.000000;0.124181
1854.000000;0.123776
1853.000000;0.123350
1852.000000;0.122954
1851.000000;0.122568
1850.000000;0.122159
1849.000000;0.121734
1848.000000;0.121299
1847.000000;0.120835
1846.000000;0.120341
1845.000000;0.119862
1844.000000;0.119426
1843.000000;0.119020
1842.000000;0.118634
1841.000000;0.118282
1840.000000;0.117965
1839.000000;0.117656
1838.000000;0.117324
1837.000000;0.116957
1836.000000;0.116534
1835.000000;0.116018
1834.000000;0.115385
1833.000000;0.114665
1832.000000;0.113930
1831.000000;0.113269
1830.000000;0.112757
1829.000000;0.112412
1828.000000;0.112169
1827.000000;0.111907
1826.000000;0.111555
1825.000000;0.111159
1824.000000;0.110791
1823.000000;0.110445
1822.000000;0.110044
1821.000000;0.109561
1820.000000;0.109074
1819.000000;0.108675
1818.000000;0.108362
1817.000000;0.108027
1816.000000;0.107566
1815.000000;0.106979
1814.000000;0.106367
1813.000000;0.105840
1812.000000;0.105432
1811.000000;0.105081
1810.000000;0.104691
1809.000000;0.104216
1808.000000;0.103686
1807.000000;0.103158
1806.000000;0.102668
1805.000000;0.102222
1804.000000;0.101826
1803.000000;0.101504
1802.000000;0.101265
1801.000000;0.101062
1800.000000;0.100815
1799.000000;0.100464
1798.000000;0.099990
1797.000000;0.099396
1796.000000;0.098723
1795.000000;0.098052
1794.000000;0.097481
1793.000000;0.097049
1792.000000;0.096728
1791.000000;0.096485
1790.000000;0.096303
1789.000000;0.096114
1788.000000;0.095784
1787.000000;0.095237
1786.000000;0.094567
1785.000000;0.093955
1784.000000;0.093490
1783.000000;0.093107
1782.000000;0.092690
1781.000000;0.092193
1780.000000;0.091653
1779.000000;0.091139
1778.000000;0.090692
1777.000000;0.090303
1776.000000;0.089923
1775.000000;0.089508
1774.000000;0.089050
1773.000000;0.088565
1772.000000;0.088076
1771.000000;0.087617
1770.000000;0.087244
1769.000000;0.086967
1768.000000;0.086714
1767.000000;0.086392
1766.000000;0.085967
1765.000000;0.085479
1764.000000;0.084968
1763.000000;0.084439
1762.000000;0.083891
1761.000000;0.083359
1760.000000;0.082915
1759.000000;0.082598
1758.000000;0.082369
1757.000000;0.082143
1756.000000;0.081854
1755.000000;0.081495
1754.000000;0.081112
1753.000000;0.080749
1752.000000;0.080424
1751.000000;0.080112
1750.000000;0.079753
1749.000000;0.079306
1748.000000;0.078782
1747.000000;0.078234
1746.000000;0.077717
1745.000000;0.077250
1744.000000;0.076832
1743.000000;0.076466
1742.000000;0.076145
1741.000000;0.075831
1740.000000;0.075478
1739.000000;0.075079
1738.000000;0.074665
1737.000000;0.074251
1736.000000;0.073821
1735.000000;0.073365
1734.000000;0.072869
1733.000000;0.072305
1732.000000;0.071700
1731.000000;0.071139
1730.000000;0.070695
1729.000000;0.070367
1728.000000;0.070067
1727.000000;0.069726
1726.000000;0.069351
1725.000000;0.068972
1724.000000;0.068550
1723.000000;0.068035
1722.000000;0.067486
1721.000000;0.067055
1720.000000;0.066806
1719.000000;0.066616
1718.000000;0.066276
1717.000000;0.065711
1716.000000;0.065078
1715.000000;0.064611
1714.000000;0.064373
1713.000000;0.064217
1712.000000;0.063953
1711.000000;0.063533
1710.000000;0.063050
1709.000000;0.062606
1708.000000;0.062208
1707.000000;0.061812
1706.000000;0.061409
1705.000000;0.061014
1704.000000;0.060611
1703.000000;0.060168
1702.000000;0.059705
1701.000000;0.059313
1700.000000;0.059001
1699.000000;0.058634
1698.000000;0.058089
1697.000000;0.057388
1696.000000;0.056707
1695.000000;0.056221
1694.000000;0.055947
1693.000000;0.055738
1692.000000;0.055433
1691.000000;0.055000
1690.000000;0.054522
1689.000000;0.054079
1688.000000;0.053688
1687.000000;0.053336
1686.000000;0.053028
1685.000000;0.052781
1684.000000;0.052541
1683.000000;0.052196
1682.000000;0.051731
1681.000000;0.051214
1680.000000;0.050719
1679.000000;0.050280
1678.000000;0.049887
1677.000000;0.049540
1676.000000;0.049267
1675.000000;0.049047
1674.000000;0.048780
1673.000000;0.048378
1672.000000;0.047854
1671.000000;0.047296
1670.000000;0.046781
1669.000000;0.046326
1668.000000;0.045942
1667.000000;0.045623
1666.000000;0.045289
1665.000000;0.044844
1664.000000;0.044320
1663.000000;0.043848
1662.000000;0.043477
1661.000000;0.043101
1660.000000;0.042619
1659.000000;0.042084
1658.000000;0.041647
1657.000000;0.041359
1656.000000;0.041122
1655.000000;0.040825
1654.000000;0.040448
1653.000000;0.039995
1652.000000;0.039505
1651.000000;0.039122
1650.000000;0.038870
1649.000000;0.038638
1648.000000;0.038327
1647.000000;0.037910
1646.000000;0.037429
1645.000000;0.036968
1644.000000;0.036574
1643.000000;0.036207
1642.000000;0.035791
1641.000000;0.035288
1640.000000;0.034748
1639.000000;0.034282
1638.000000;0.033966
1637.000000;0.033755
1636.000000;0.033514
1635.000000;0.033154
1634.000000;0.032719
1633.000000;0.032293
1632.000000;0.031883
1631.000000;0.031460
1630.000000;0.031029
1629.000000;0.030623
1628.000000;0.030258
1627.000000;0.029922
1626.000000;0.029580
1625.000000;0.029196
1624.000000;0.028769
1623.000000;0.028345
1622.000000;0.027965
1621.000000;0.027622
1620.000000;0.027275
1619.000000;0.026909
1618.000000;0.026545
1617.000000;0.026182
1616.000000;0.025782
1615.000000;0.025334
1614.000000;0.024891
1613.000000;0.024511
1612.000000;0.024212
1611.000000;0.023963
1610.000000;0.023686
1609.000000;0.023309
1608.000000;0.022838
1607.000000;0.022367
1606.000000;0.021971
1605.000000;0.021619
1604.000000;0.021227
1603.000000;0.020773
1602.000000;0.020314
1601.000000;0.019917
1600.000000;0.019617
1599.000000;0.019418
1598.000000;0.019260
1597.000000;0.019000
1596.000000;0.018528
1595.000000;0.017929
1594.000000;0.017422
1593.000000;0.017118
1592.000000;0.016889
1591.000000;0.016554
1590.000000;0.016100
1589.000000;0.015655
1588.000000;0.015297
1587.000000;0.014961
1586.000000;0.014545
1585.000000;0.014034
1584.000000;0.013505
1583.000000;0.013038
1582.000000;0.012650
1581.000000;0.012295
1580.000000;0.011921
1579.000000;0.011517
1578.000000;0.011104
1577.000000;0.010697
1576.000000;0.010294
1575.000000;0.009922
1574.000000;0.009619
1573.000000;0.009359
1572.000000;0.009064
1571.000000;0.008711
1570.000000;0.008356
1569.000000;0.008034
1568.000000;0.007702
1567.000000;0.007299
1566.000000;0.006819
1565.000000;0.006333
1564.000000;0.005918
1563.000000;0.005577
1562.000000;0.005234
1561.000000;0.004821
1560.000000;0.004359
1559.000000;0.003894
1558.000000;0.003424
1557.000000;0.003058
1556.000000;0.002843
1555.000000;0.002671
1554.000000;0.002445
1553.000000;0.002131
1552.000000;0.001753
1551.000000;0.001353
1550.000000;0.000952
1549.000000;0.000548
1548.000000;0.000143
1547.000000;-0.000235
1546.000000;-0.000572
1545.000000;-0.000902
1544.000000;-0.001281
1543.000000;-0.001714
1542.000000;-0.002144
1541.000000;-0.002534
1540.000000;-0.002909
1539.000000;-0.003292
1538.000000;-0.003642
1537.000000;-0.003962
1536.000000;-0.004323
1535.000000;-0.004731
1534.000000;-0.005112
1533.000000;-0.005440
1532.000000;-0.005774
1531.000000;-0.006158
1530.000000;-0.006562
1529.000000;-0.006931
1528.000000;-0.007266
1527.000000;-0.007614
1526.000000;-0.007989
1525.000000;-0.008344
1524.000000;-0.008644
1523.000000;-0.008924
1522.000000;-0.009261
1521.000000;-0.009690
1520.000000;-0.010131
1519.000000;-0.010435
1518.000000;-0.010567
1517.000000;-0.010675
1516.000000;-0.010959
1515.000000;-0.011469
1514.000000;-0.012069
1513.000000;-0.012591
1512.000000;-0.012976
1511.000000;-0.013278
1510.000000;-0.013584
1509.000000;-0.013931
1508.000000;-0.014298
1507.000000;-0.014670
1506.000000;-0.015062
1505.000000;-0.015440
1504.000000;-0.015799
1503.000000;-0.016189
1502.000000;-0.016601
1501.000000;-0.016982
1500.000000;-0.017317
1499.000000;-0.017616
1498.000000;-0.017892
1497.000000;-0.018178
1496.000000;-0.018536
1495.000000;-0.018980
1494.000000;-0.019416
1493.000000;-0.019715
1492.000000;-0.019847
1491.000000;-0.019925
1490.000000;-0.020123
1489.000000;-0.020527
1488.000000;-0.021077
1487.000000;-0.021643
1486.000000;-0.022143
1485.000000;-0.022566
1484.000000;-0.022929
1483.000000;-0.023250
1482.000000;-0.023542
1481.000000;-0.023831
1480.000000;-0.024158
1479.000000;-0.024551
1478.000000;-0.024992
1477.000000;-0.025426
1476.000000;-0.025820
1475.000000;-0.026191
1474.000000;-0.026568
1473.000000;-0.026930
1472.000000;-0.027217
1471.000000;-0.027414
1470.000000;-0.027608
1469.000000;-0.027934
1468.000000;-0.028399
1467.000000;-0.028876
1466.000000;-0.029265
1465.000000;-0.029618
1464.000000;-0.030030
1463.000000;-0.030481
1462.000000;-0.030863
1461.000000;-0.031134
1460.000000;-0.031366
1459.000000;-0.031640
1458.000000;-0.031971
1457.000000;-0.032340
1456.000000;-0.032713
1455.000000;-0.033018
1454.000000;-0.033257
1453.000000;-0.033534
1452.000000;-0.033948
1451.000000;-0.034500
1450.000000;-0.035091
1449.000000;-0.035596
1448.000000;-0.035946
1447.000000;-0.036163
1446.000000;-0.036332
1445.000000;-0.036544
1444.000000;-0.036822
1443.000000;-0.037122
1442.000000;-0.037405
1441.000000;-0.037700
1440.000000;-0.038059
1439.000000;-0.038480
1438.000000;-0.038916
1437.000000;-0.039343
1436.000000;-0.039766
1435.000000;-0.040148
1434.000000;-0.040451
1433.000000;-0.040716
1432.000000;-0.041015
1431.000000;-0.041355
1430.000000;-0.041692
1429.000000;-0.042018
1428.000000;-0.042364
1427.000000;-0.042714
1426.000000;-0.043012
1425.000000;-0.043247
1424.000000;-0.043485
1423.000000;-0.043796
1422.000000;-0.044172
1421.000000;-0.044550
1420.000000;-0.044868
1419.000000;-0.045100
1418.000000;-0.045297
1417.000000;-0.045551
1416.000000;-0.045934
1415.000000;-0.046424
1414.000000;-0.046917
1413.000000;-0.047343
1412.000000;-0.047730
1411.000000;-0.048118
1410.000000;-0.048482
1409.000000;-0.048784
1408.000000;-0.049040
1407.000000;-0.049298
1406.000000;-0.049570
1405.000000;-0.049852
1404.000000;-0.050156
1403.000000;-0.050489
1402.000000;-0.050819
1401.000000;-0.051120
1400.000000;-0.051414
1399.000000;-0.051758
1398.000000;-0.052170
1397.000000;-0.052607
1396.000000;-0.053021
1395.000000;-0.053392
1394.000000;-0.053731
1393.000000;-0.054060
1392.000000;-0.054399
1391.000000;-0.054747
1390.000000;-0.055073
1389.000000;-0.055349
1388.000000;-0.055604
1387.000000;-0.055900
1386.000000;-0.056253
1385.000000;-0.056613
1384.000000;-0.056935
1383.000000;-0.057222
1382.000000;-0.057513
1381.000000;-0.057844
1380.000000;-0.058217
1379.000000;-0.058597
1378.000000;-0.058932
1377.000000;-0.059193
1376.000000;-0.059408
1375.000000;-0.059649
1374.000000;-0.059975
1373.000000;-0.060382
1372.000000;-0.060811
1371.000000;-0.061206
1370.000000;-0.061537
1369.000000;-0.061804
1368.000000;-0.062027
1367.000000;-0.062259
1366.000000;-0.062563
1365.000000;-0.062960
1364.000000;-0.063396
1363.000000;-0.063784
1362.000000;-0.064099
1361.000000;-0.064380
1360.000000;-0.064667
1359.000000;-0.064962
1358.000000;-0.065257
1357.000000;-0.065577
1356.000000;-0.065942
1355.000000;-0.066327
1354.000000;-0.066684
1353.000000;-0.067024
1352.000000;-0.067409
1351.000000;-0.067854
1350.000000;-0.068278
1349.000000;-0.068566
1348.000000;-0.068686
1347.000000;-0.068719
1346.000000;-0.068806
1345.000000;-0.069055
1344.000000;-0.069469
1343.000000;-0.069949
1342.000000;-0.070355
1341.000000;-0.070602
1340.000000;-0.070726
1339.000000;-0.070868
1338.000000;-0.071173
1337.000000;-0.071661
1336.000000;-0.072200
1335.000000;-0.072621
1334.000000;-0.072878
1333.000000;-0.073072
1332.000000;-0.073316
1331.000000;-0.073621
1330.000000;-0.073948
1329.000000;-0.074290
1328.000000;-0.074670
1327.000000;-0.075070
1326.000000;-0.075447
1325.000000;-0.075784
1324.000000;-0.076098
1323.000000;-0.076403
1322.000000;-0.076697
1321.000000;-0.076984
1320.000000;-0.077245
1319.000000;-0.077438
1318.000000;-0.077566
1317.000000;-0.077724
1316.000000;-0.078009
1315.000000;-0.078393
1314.000000;-0.078756
1313.000000;-0.079056
1312.000000;-0.079376
1311.000000;-0.079794
1310.000000;-0.080276
1309.000000;-0.080742
1308.000000;-0.081172
1307.000000;-0.081586
1306.000000;-0.081963
1305.000000;-0.082249
1304.000000;-0.082438
1303.000000;-0.082611
1302.000000;-0.082855
1301.000000;-0.083174
1300.000000;-0.083488
1299.000000;-0.083731
1298.000000;-0.083941
1297.000000;-0.084225
1296.000000;-0.084636
1295.000000;-0.085113
1294.000000;-0.085562
1293.000000;-0.085951
1292.000000;-0.086282
1291.000000;-0.086529
1290.000000;-0.086685
1289.000000;-0.086837
1288.000000;-0.087109
1287.000000;-0.087506
1286.000000;-0.087900
1285.000000;-0.088190
1284.000000;-0.088403
1283.000000;-0.088607
1282.000000;-0.088821
1281.000000;-0.089047
1280.000000;-0.089328
1279.000000;-0.089700
1278.000000;-0.090118
1277.000000;-0.090502
1276.000000;-0.090837
1275.000000;-0.091159
1274.000000;-0.091479
1273.000000;-0.091766
1272.000000;-0.092010
1271.000000;-0.092258
1270.000000;-0.092558
1269.000000;-0.092919
1268.000000;-0.093311
1267.000000;-0.093688
1266.000000;-0.094007
1265.000000;-0.094247
1264.000000;-0.094441
1263.000000;-0.094661
1262.000000;-0.094967
1261.000000;-0.095348
1260.000000;-0.095733
1259.000000;-0.096044
1258.000000;-0.096256
1257.000000;-0.096419
1256.000000;-0.096624
1255.000000;-0.096930
1254.000000;-0.097338
1253.000000;-0.097810
1252.000000;-0.098306
1251.000000;-0.098772
1250.000000;-0.099135
1249.000000;-0.099337
1248.000000;-0.099406
1247.000000;-0.099452
1246.000000;-0.099580
1245.000000;-0.099809
1244.000000;-0.100100
1243.000000;-0.100431
1242.000000;-0.100817
1241.000000;-0.101231
1240.000000;-0.101589
1239.000000;-0.101823
1238.000000;-0.101969
1237.000000;-0.102133
1236.000000;-0.102378
1235.000000;-0.102687
1234.000000;-0.103018
1233.000000;-0.103361
1232.000000;-0.103709
1231.000000;-0.104042
1230.000000;-0.104338
1229.000000;-0.104599
1228.000000;-0.104834
1227.000000;-0.105052
1226.000000;-0.105273
1225.000000;-0.105524
1224.000000;-0.105801
1223.000000;-0.106083
1222.000000;-0.106383
1221.000000;-0.106749
1220.000000;-0.107180
1219.000000;-0.107582
1218.000000;-0.107863
1217.000000;-0.108045
1216.000000;-0.108240
1215.000000;-0.108519
1214.000000;-0.108851
1213.000000;-0.109158
1212.000000;-0.109404
1211.000000;-0.109619
1210.000000;-0.109860
1209.000000;-0.110159
1208.000000;-0.110482
1207.000000;-0.110776
1206.000000;-0.111047
1205.000000;-0.111368
1204.000000;-0.111779
1203.000000;-0.112209
1202.000000;-0.112538
1201.000000;-0.112726
1200.000000;-0.112841
