Criado como novo conjunto de dados;"e2410_daniel_v2.spp","28803.5 Secs"
cm-1;Abs
10000.000000;0.527548
9999.000000;0.527141
9998.000000;0.526734
9997.000000;0.526330
9996.000000;0.525921
9995.000000;0.525523
9994.000000;0.525097
9993.000000;0.524624
9992.000000;0.524211
9991.000000;0.523773
9990.000000;0.523217
9989.000000;0.522548
9988.000000;0.521888
9987.000000;0.521359
9986.000000;0.520988
9985.000000;0.520661
9984.000000;0.520226
9983.000000;0.519683
9982.000000;0.519194
9981.000000;0.518842
9980.000000;0.518477
9979.000000;0.517884
9978.000000;0.517044
9977.000000;0.516144
9976.000000;0.515402
9975.000000;0.514937
9974.000000;0.514731
9973.000000;0.514628
9972.000000;0.514424
9971.000000;0.514046
9970.000000;0.513578
9969.000000;0.513062
9968.000000;0.512412
9967.000000;0.511602
9966.000000;0.510811
9965.000000;0.510245
9964.000000;0.509891
9963.000000;0.509576
9962.000000;0.509170
9961.000000;0.508652
9960.000000;0.508058
9959.000000;0.507476
9958.000000;0.507009
9957.000000;0.506605
9956.000000;0.506065
9955.000000;0.505324
9954.000000;0.504613
9953.000000;0.504197
9952.000000;0.504046
9951.000000;0.503924
9950.000000;0.503678
9949.000000;0.503288
9948.000000;0.502745
9947.000000;0.502089
9946.000000;0.501464
9945.000000;0.500954
9944.000000;0.500433
9943.000000;0.499778
9942.000000;0.499133
9941.000000;0.498724
9940.000000;0.498462
9939.000000;0.498006
9938.000000;0.497239
9937.000000;0.496451
9936.000000;0.495980
9935.000000;0.495844
9934.000000;0.495813
9933.000000;0.495673
9932.000000;0.495343
9931.000000;0.494849
9930.000000;0.494268
9929.000000;0.493685
9928.000000;0.493143
9927.000000;0.492650
9926.000000;0.492189
9925.000000;0.491697
9924.000000;0.491095
9923.000000;0.490402
9922.000000;0.489746
9921.000000;0.489227
9920.000000;0.488815
9919.000000;0.488456
9918.000000;0.488162
9917.000000;0.487896
9916.000000;0.487507
9915.000000;0.486909
9914.000000;0.486229
9913.000000;0.485624
9912.000000;0.485078
9911.000000;0.484504
9910.000000;0.483950
9909.000000;0.483506
9908.000000;0.483087
9907.000000;0.482540
9906.000000;0.481910
9905.000000;0.481402
9904.000000;0.481077
9903.000000;0.480786
9902.000000;0.480413
9901.000000;0.479996
9900.000000;0.479568
9899.000000;0.479060
9898.000000;0.478430
9897.000000;0.477765
9896.000000;0.477208
9895.000000;0.476840
9894.000000;0.476650
9893.000000;0.476521
9892.000000;0.476233
9891.000000;0.475597
9890.000000;0.474643
9889.000000;0.473633
9888.000000;0.472851
9887.000000;0.472405
9886.000000;0.472183
9885.000000;0.471965
9884.000000;0.471631
9883.000000;0.471284
9882.000000;0.471109
9881.000000;0.471081
9880.000000;0.470917
9879.000000;0.470415
9878.000000;0.469683
9877.000000;0.468930
9876.000000;0.468173
9875.000000;0.467315
9874.000000;0.466431
9873.000000;0.465730
9872.000000;0.465293
9871.000000;0.465012
9870.000000;0.464781
9869.000000;0.464574
9868.000000;0.464334
9867.000000;0.463959
9866.000000;0.463449
9865.000000;0.462912
9864.000000;0.462409
9863.000000;0.461906
9862.000000;0.461387
9861.000000;0.460895
9860.000000;0.460418
9859.000000;0.459865
9858.000000;0.459204
9857.000000;0.458550
9856.000000;0.458070
9855.000000;0.457834
9854.000000;0.457759
9853.000000;0.457643
9852.000000;0.457293
9851.000000;0.456673
9850.000000;0.455921
9849.000000;0.455184
9848.000000;0.454511
9847.000000;0.453916
9846.000000;0.453466
9845.000000;0.453155
9844.000000;0.452794
9843.000000;0.452174
9842.000000;0.451333
9841.000000;0.450535
9840.000000;0.449977
9839.000000;0.449619
9838.000000;0.449320
9837.000000;0.448995
9836.000000;0.448633
9835.000000;0.448226
9834.000000;0.447763
9833.000000;0.447264
9832.000000;0.446797
9831.000000;0.446430
9830.000000;0.446134
9829.000000;0.445749
9828.000000;0.445137
9827.000000;0.444377
9826.000000;0.443715
9825.000000;0.443278
9824.000000;0.442975
9823.000000;0.442698
9822.000000;0.442469
9821.000000;0.442270
9820.000000;0.441916
9819.000000;0.441261
9818.000000;0.440458
9817.000000;0.439808
9816.000000;0.439412
9815.000000;0.439128
9814.000000;0.438814
9813.000000;0.438438
9812.000000;0.437968
9811.000000;0.437325
9810.000000;0.436503
9809.000000;0.435623
9808.000000;0.434846
9807.000000;0.434296
9806.000000;0.434042
9805.000000;0.434026
9804.000000;0.434017
9803.000000;0.433740
9802.000000;0.433117
9801.000000;0.432334
9800.000000;0.431672
9799.000000;0.431297
9798.000000;0.431140
9797.000000;0.430950
9796.000000;0.430498
9795.000000;0.429817
9794.000000;0.429179
9793.000000;0.428781
9792.000000;0.428550
9791.000000;0.428288
9790.000000;0.427916
9789.000000;0.427455
9788.000000;0.426899
9787.000000;0.426233
9786.000000;0.425520
9785.000000;0.424844
9784.000000;0.424219
9783.000000;0.423661
9782.000000;0.423266
9781.000000;0.423077
9780.000000;0.422946
9779.000000;0.422682
9778.000000;0.422279
9777.000000;0.421851
9776.000000;0.421399
9775.000000;0.420826
9774.000000;0.420152
9773.000000;0.419538
9772.000000;0.419077
9771.000000;0.418711
9770.000000;0.418354
9769.000000;0.417980
9768.000000;0.417569
9767.000000;0.417093
9766.000000;0.416597
9765.000000;0.416177
9764.000000;0.415859
9763.000000;0.415568
9762.000000;0.415224
9761.000000;0.414795
9760.000000;0.414277
9759.000000;0.413719
9758.000000;0.413238
9757.000000;0.412910
9756.000000;0.412650
9755.000000;0.412299
9754.000000;0.411795
9753.000000;0.411177
9752.000000;0.410450
9751.000000;0.409608
9750.000000;0.408756
9749.000000;0.408082
9748.000000;0.407673
9747.000000;0.407453
9746.000000;0.407313
9745.000000;0.407175
9744.000000;0.406903
9743.000000;0.406326
9742.000000;0.405436
9741.000000;0.404490
9740.000000;0.403823
9739.000000;0.403555
9738.000000;0.403520
9737.000000;0.403431
9736.000000;0.403103
9735.000000;0.402552
9734.000000;0.401946
9733.000000;0.401476
9732.000000;0.401255
9731.000000;0.401281
9730.000000;0.401436
9729.000000;0.401507
9728.000000;0.401285
9727.000000;0.400698
9726.000000;0.399852
9725.000000;0.398942
9724.000000;0.398137
9723.000000;0.397542
9722.000000;0.397157
9721.000000;0.396852
9720.000000;0.396455
9719.000000;0.395927
9718.000000;0.395378
9717.000000;0.394884
9716.000000;0.394379
9715.000000;0.393785
9714.000000;0.393172
9713.000000;0.392671
9712.000000;0.392307
9711.000000;0.391980
9710.000000;0.391576
9709.000000;0.391060
9708.000000;0.390505
9707.000000;0.390074
9706.000000;0.389895
9705.000000;0.389893
9704.000000;0.389802
9703.000000;0.389439
9702.000000;0.388886
9701.000000;0.388344
9700.000000;0.387894
9699.000000;0.387479
9698.000000;0.387047
9697.000000;0.386600
9696.000000;0.386153
9695.000000;0.385720
9694.000000;0.385317
9693.000000;0.384907
9692.000000;0.384419
9691.000000;0.383867
9690.000000;0.383370
9689.000000;0.382973
9688.000000;0.382547
9687.000000;0.381979
9686.000000;0.381368
9685.000000;0.380896
9684.000000;0.380578
9683.000000;0.380254
9682.000000;0.379797
9681.000000;0.379199
9680.000000;0.378497
9679.000000;0.377767
9678.000000;0.377166
9677.000000;0.376851
9676.000000;0.376800
9675.000000;0.376792
9674.000000;0.376599
9673.000000;0.376161
9672.000000;0.375594
9671.000000;0.375096
9670.000000;0.374803
9669.000000;0.374656
9668.000000;0.374418
9667.000000;0.373886
9666.000000;0.373107
9665.000000;0.372334
9664.000000;0.371771
9663.000000;0.371394
9662.000000;0.371020
9661.000000;0.370517
9660.000000;0.369963
9659.000000;0.369573
9658.000000;0.369431
9657.000000;0.369327
9656.000000;0.368954
9655.000000;0.368256
9654.000000;0.367488
9653.000000;0.366908
9652.000000;0.366528
9651.000000;0.366216
9650.000000;0.365889
9649.000000;0.365530
9648.000000;0.365116
9647.000000;0.364644
9646.000000;0.364173
9645.000000;0.363763
9644.000000;0.363410
9643.000000;0.363092
9642.000000;0.362810
9641.000000;0.362536
9640.000000;0.362202
9639.000000;0.361778
9638.000000;0.361300
9637.000000;0.360787
9636.000000;0.360227
9635.000000;0.359662
9634.000000;0.359159
9633.000000;0.358681
9632.000000;0.358125
9631.000000;0.357530
9630.000000;0.357085
9629.000000;0.356842
9628.000000;0.356602
9627.000000;0.356205
9626.000000;0.355770
9625.000000;0.355502
9624.000000;0.355376
9623.000000;0.355175
9622.000000;0.354753
9621.000000;0.354126
9620.000000;0.353393
9619.000000;0.352691
9618.000000;0.352150
9617.000000;0.351787
9616.000000;0.351490
9615.000000;0.351213
9614.000000;0.351054
9613.000000;0.351059
9612.000000;0.351056
9611.000000;0.350838
9610.000000;0.350403
9609.000000;0.349879
9608.000000;0.349311
9607.000000;0.348679
9606.000000;0.348046
9605.000000;0.347513
9604.000000;0.347084
9603.000000;0.346708
9602.000000;0.346375
9601.000000;0.346053
9600.000000;0.345622
9599.000000;0.345021
9598.000000;0.344404
9597.000000;0.343973
9596.000000;0.343730
9595.000000;0.343516
9594.000000;0.343235
9593.000000;0.342889
9592.000000;0.342456
9591.000000;0.341917
9590.000000;0.341378
9589.000000;0.340979
9588.000000;0.340701
9587.000000;0.340403
9586.000000;0.340022
9585.000000;0.339602
9584.000000;0.339144
9583.000000;0.338599
9582.000000;0.337998
9581.000000;0.337461
9580.000000;0.337041
9579.000000;0.336686
9578.000000;0.336354
9577.000000;0.336053
9576.000000;0.335766
9575.000000;0.335446
9574.000000;0.335093
9573.000000;0.334768
9572.000000;0.334506
9571.000000;0.334271
9570.000000;0.333988
9569.000000;0.333556
9568.000000;0.332916
9567.000000;0.332158
9566.000000;0.331512
9565.000000;0.331124
9564.000000;0.330890
9563.000000;0.330606
9562.000000;0.330213
9561.000000;0.329783
9560.000000;0.329340
9559.000000;0.328879
9558.000000;0.328492
9557.000000;0.328324
9556.000000;0.328362
9555.000000;0.328392
9554.000000;0.328201
9553.000000;0.327723
9552.000000;0.327020
9551.000000;0.326213
9550.000000;0.325456
9549.000000;0.324866
9548.000000;0.324454
9547.000000;0.324164
9546.000000;0.323956
9545.000000;0.323796
9544.000000;0.323616
9543.000000;0.323351
9542.000000;0.323010
9541.000000;0.322635
9540.000000;0.322246
9539.000000;0.321866
9538.000000;0.321541
9537.000000;0.321269
9536.000000;0.320959
9535.000000;0.320553
9534.000000;0.320111
9533.000000;0.319710
9532.000000;0.319323
9531.000000;0.318902
9530.000000;0.318479
9529.000000;0.318098
9528.000000;0.317709
9527.000000;0.317237
9526.000000;0.316707
9525.000000;0.316197
9524.000000;0.315742
9523.000000;0.315371
9522.000000;0.315143
9521.000000;0.315016
9520.000000;0.314787
9519.000000;0.314319
9518.000000;0.313760
9517.000000;0.313360
9516.000000;0.313136
9515.000000;0.312883
9514.000000;0.312487
9513.000000;0.312029
9512.000000;0.311603
9511.000000;0.311188
9510.000000;0.310745
9509.000000;0.310286
9508.000000;0.309823
9507.000000;0.309366
9506.000000;0.308961
9505.000000;0.308649
9504.000000;0.308382
9503.000000;0.308077
9502.000000;0.307749
9501.000000;0.307461
9500.000000;0.307189
9499.000000;0.306849
9498.000000;0.306457
9497.000000;0.306116
9496.000000;0.305852
9495.000000;0.305591
9494.000000;0.305308
9493.000000;0.305047
9492.000000;0.304780
9491.000000;0.304386
9490.000000;0.303833
9489.000000;0.303256
9488.000000;0.302789
9487.000000;0.302418
9486.000000;0.302051
9485.000000;0.301655
9484.000000;0.301268
9483.000000;0.300921
9482.000000;0.300614
9481.000000;0.300311
9480.000000;0.299956
9479.000000;0.299509
9478.000000;0.298996
9477.000000;0.298489
9476.000000;0.298024
9475.000000;0.297600
9474.000000;0.297233
9473.000000;0.296974
9472.000000;0.296836
9471.000000;0.296759
9470.000000;0.296647
9469.000000;0.296427
9468.000000;0.296075
9467.000000;0.295628
9466.000000;0.295168
9465.000000;0.294761
9464.000000;0.294408
9463.000000;0.294045
9462.000000;0.293601
9461.000000;0.293054
9460.000000;0.292483
9459.000000;0.292048
9458.000000;0.291851
9457.000000;0.291794
9456.000000;0.291655
9455.000000;0.291324
9454.000000;0.290892
9453.000000;0.290478
9452.000000;0.290069
9451.000000;0.289606
9450.000000;0.289133
9449.000000;0.288752
9448.000000;0.288478
9447.000000;0.288237
9446.000000;0.287945
9445.000000;0.287552
9444.000000;0.287049
9443.000000;0.286512
9442.000000;0.286092
9441.000000;0.285882
9440.000000;0.285828
9439.000000;0.285799
9438.000000;0.285696
9437.000000;0.285460
9436.000000;0.285065
9435.000000;0.284585
9434.000000;0.284164
9433.000000;0.283849
9432.000000;0.283508
9431.000000;0.283002
9430.000000;0.282375
9429.000000;0.281794
9428.000000;0.281367
9427.000000;0.281086
9426.000000;0.280882
9425.000000;0.280655
9424.000000;0.280310
9423.000000;0.279860
9422.000000;0.279435
9421.000000;0.279143
9420.000000;0.278958
9419.000000;0.278813
9418.000000;0.278687
9417.000000;0.278530
9416.000000;0.278227
9415.000000;0.277738
9414.000000;0.277191
9413.000000;0.276713
9412.000000;0.276272
9411.000000;0.275798
9410.000000;0.275360
9409.000000;0.275065
9408.000000;0.274874
9407.000000;0.274666
9406.000000;0.274424
9405.000000;0.274212
9404.000000;0.274007
9403.000000;0.273720
9402.000000;0.273356
9401.000000;0.272996
9400.000000;0.272661
9399.000000;0.272315
9398.000000;0.272004
9397.000000;0.271811
9396.000000;0.271688
9395.000000;0.271471
9394.000000;0.271075
9393.000000;0.270563
9392.000000;0.270019
9391.000000;0.269489
9390.000000;0.269051
9389.000000;0.268792
9388.000000;0.268687
9387.000000;0.268585
9386.000000;0.268354
9385.000000;0.267976
9384.000000;0.267504
9383.000000;0.267013
9382.000000;0.266609
9381.000000;0.266377
9380.000000;0.266281
9379.000000;0.266180
9378.000000;0.265940
9377.000000;0.265522
9376.000000;0.264975
9375.000000;0.264422
9374.000000;0.264011
9373.000000;0.263779
9372.000000;0.263593
9371.000000;0.263312
9370.000000;0.262969
9369.000000;0.262707
9368.000000;0.262562
9367.000000;0.262421
9366.000000;0.262193
9365.000000;0.261895
9364.000000;0.261550
9363.000000;0.261130
9362.000000;0.260633
9361.000000;0.260148
9360.000000;0.259787
9359.000000;0.259580
9358.000000;0.259461
9357.000000;0.259332
9356.000000;0.259124
9355.000000;0.258831
9354.000000;0.258483
9353.000000;0.258079
9352.000000;0.257600
9351.000000;0.257077
9350.000000;0.256594
9349.000000;0.256180
9348.000000;0.255766
9347.000000;0.255329
9346.000000;0.254975
9345.000000;0.254815
9344.000000;0.254805
9343.000000;0.254802
9342.000000;0.254718
9341.000000;0.254534
9340.000000;0.254230
9339.000000;0.253824
9338.000000;0.253425
9337.000000;0.253137
9336.000000;0.252912
9335.000000;0.252619
9334.000000;0.252241
9333.000000;0.251891
9332.000000;0.251649
9331.000000;0.251458
9330.000000;0.251205
9329.000000;0.250811
9328.000000;0.250261
9327.000000;0.249637
9326.000000;0.249104
9325.000000;0.248797
9324.000000;0.248680
9323.000000;0.248590
9322.000000;0.248418
9321.000000;0.248180
9320.000000;0.247945
9319.000000;0.247746
9318.000000;0.247563
9317.000000;0.247339
9316.000000;0.247019
9315.000000;0.246631
9314.000000;0.246279
9313.000000;0.246020
9312.000000;0.245792
9311.000000;0.245518
9310.000000;0.245225
9309.000000;0.244977
9308.000000;0.244767
9307.000000;0.244562
9306.000000;0.244385
9305.000000;0.244244
9304.000000;0.244020
9303.000000;0.243562
9302.000000;0.242903
9301.000000;0.242249
9300.000000;0.241766
9299.000000;0.241457
9298.000000;0.241240
9297.000000;0.241046
9296.000000;0.240814
9295.000000;0.240511
9294.000000;0.240173
9293.000000;0.239863
9292.000000;0.239579
9291.000000;0.239294
9290.000000;0.239064
9289.000000;0.238985
9288.000000;0.239007
9287.000000;0.238930
9286.000000;0.238624
9285.000000;0.238190
9284.000000;0.237817
9283.000000;0.237562
9282.000000;0.237311
9281.000000;0.236956
9280.000000;0.236524
9279.000000;0.236141
9278.000000;0.235878
9277.000000;0.235670
9276.000000;0.235396
9275.000000;0.235027
9274.000000;0.234667
9273.000000;0.234411
9272.000000;0.234216
9271.000000;0.233954
9270.000000;0.233571
9269.000000;0.233150
9268.000000;0.232822
9267.000000;0.232651
9266.000000;0.232583
9265.000000;0.232493
9264.000000;0.232298
9263.000000;0.232049
9262.000000;0.231865
9261.000000;0.231768
9260.000000;0.231630
9259.000000;0.231341
9258.000000;0.230946
9257.000000;0.230582
9256.000000;0.230320
9255.000000;0.230137
9254.000000;0.229980
9253.000000;0.229793
9252.000000;0.229510
9251.000000;0.229113
9250.000000;0.228675
9249.000000;0.228291
9248.000000;0.227976
9247.000000;0.227676
9246.000000;0.227352
9245.000000;0.227024
9244.000000;0.226736
9243.000000;0.226524
9242.000000;0.226385
9241.000000;0.226256
9240.000000;0.226065
9239.000000;0.225819
9238.000000;0.225587
9237.000000;0.225378
9236.000000;0.225110
9235.000000;0.224749
9234.000000;0.224370
9233.000000;0.224028
9232.000000;0.223655
9231.000000;0.223177
9230.000000;0.222650
9229.000000;0.222192
9228.000000;0.221847
9227.000000;0.221625
9226.000000;0.221586
9225.000000;0.221744
9224.000000;0.221937
9223.000000;0.221926
9222.000000;0.221651
9221.000000;0.221264
9220.000000;0.220931
9219.000000;0.220684
9218.000000;0.220463
9217.000000;0.220216
9216.000000;0.219925
9215.000000;0.219622
9214.000000;0.219374
9213.000000;0.219212
9212.000000;0.219082
9211.000000;0.218908
9210.000000;0.218684
9209.000000;0.218445
9208.000000;0.218189
9207.000000;0.217898
9206.000000;0.217605
9205.000000;0.217357
9204.000000;0.217140
9203.000000;0.216913
9202.000000;0.216702
9201.000000;0.216554
9200.000000;0.216408
9199.000000;0.216104
9198.000000;0.215556
9197.000000;0.214871
9196.000000;0.214289
9195.000000;0.214025
9194.000000;0.214118
9193.000000;0.214383
9192.000000;0.214514
9191.000000;0.214324
9190.000000;0.213879
9189.000000;0.213391
9188.000000;0.213006
9187.000000;0.212744
9186.000000;0.212575
9185.000000;0.212445
9184.000000;0.212274
9183.000000;0.212007
9182.000000;0.211700
9181.000000;0.211472
9180.000000;0.211362
9179.000000;0.211269
9178.000000;0.211051
9177.000000;0.210637
9176.000000;0.210087
9175.000000;0.209564
9174.000000;0.209233
9173.000000;0.209124
9172.000000;0.209107
9171.000000;0.209021
9170.000000;0.208823
9169.000000;0.208569
9168.000000;0.208325
9167.000000;0.208123
9166.000000;0.207981
9165.000000;0.207886
9164.000000;0.207769
9163.000000;0.207564
9162.000000;0.207288
9161.000000;0.207011
9160.000000;0.206773
9159.000000;0.206549
9158.000000;0.206283
9157.000000;0.205953
9156.000000;0.205609
9155.000000;0.205367
9154.000000;0.205305
9153.000000;0.205340
9152.000000;0.205275
9151.000000;0.205013
9150.000000;0.204661
9149.000000;0.204388
9148.000000;0.204232
9147.000000;0.204106
9146.000000;0.203924
9145.000000;0.203651
9144.000000;0.203293
9143.000000;0.202912
9142.000000;0.202603
9141.000000;0.202395
9140.000000;0.202212
9139.000000;0.201990
9138.000000;0.201756
9137.000000;0.201548
9136.000000;0.201323
9135.000000;0.201045
9134.000000;0.200787
9133.000000;0.200629
9132.000000;0.200515
9131.000000;0.200314
9130.000000;0.200036
9129.000000;0.199831
9128.000000;0.199780
9127.000000;0.199775
9126.000000;0.199646
9125.000000;0.199338
9124.000000;0.198943
9123.000000;0.198600
9122.000000;0.198381
9121.000000;0.198254
9120.000000;0.198126
9119.000000;0.197949
9118.000000;0.197736
9117.000000;0.197506
9116.000000;0.197263
9115.000000;0.197046
9114.000000;0.196926
9113.000000;0.196884
9112.000000;0.196773
9111.000000;0.196468
9110.000000;0.196025
9109.000000;0.195621
9108.000000;0.195373
9107.000000;0.195261
9106.000000;0.195187
9105.000000;0.195030
9104.000000;0.194732
9103.000000;0.194374
9102.000000;0.194141
9101.000000;0.194121
9100.000000;0.194180
9099.000000;0.194110
9098.000000;0.193866
9097.000000;0.193572
9096.000000;0.193350
9095.000000;0.193210
9094.000000;0.193100
9093.000000;0.192953
9092.000000;0.192721
9091.000000;0.192409
9090.000000;0.192081
9089.000000;0.191774
9088.000000;0.191457
9087.000000;0.191130
9086.000000;0.190903
9085.000000;0.190883
9084.000000;0.191022
9083.000000;0.191153
9082.000000;0.191160
9081.000000;0.191025
9080.000000;0.190767
9079.000000;0.190419
9078.000000;0.190056
9077.000000;0.189753
9076.000000;0.189522
9075.000000;0.189345
9074.000000;0.189222
9073.000000;0.189133
9072.000000;0.188995
9071.000000;0.188750
9070.000000;0.188471
9069.000000;0.188270
9068.000000;0.188121
9067.000000;0.187886
9066.000000;0.187521
9065.000000;0.187145
9064.000000;0.186904
9063.000000;0.186825
9062.000000;0.186821
9061.000000;0.186776
9060.000000;0.186623
9059.000000;0.186384
9058.000000;0.186147
9057.000000;0.185950
9056.000000;0.185712
9055.000000;0.185357
9054.000000;0.184961
9053.000000;0.184689
9052.000000;0.184586
9051.000000;0.184531
9050.000000;0.184406
9049.000000;0.184219
9048.000000;0.184036
9047.000000;0.183890
9046.000000;0.183774
9045.000000;0.183674
9044.000000;0.183547
9043.000000;0.183332
9042.000000;0.183026
9041.000000;0.182713
9040.000000;0.182485
9039.000000;0.182344
9038.000000;0.182228
9037.000000;0.182095
9036.000000;0.181969
9035.000000;0.181890
9034.000000;0.181852
9033.000000;0.181794
9032.000000;0.181661
9031.000000;0.181461
9030.000000;0.181235
9029.000000;0.180979
9028.000000;0.180633
9027.000000;0.180173
9026.000000;0.179682
9025.000000;0.179298
9024.000000;0.179112
9023.000000;0.179126
9022.000000;0.179260
9021.000000;0.179371
9020.000000;0.179313
9019.000000;0.179037
9018.000000;0.178629
9017.000000;0.178227
9016.000000;0.177931
9015.000000;0.177775
9014.000000;0.177735
9013.000000;0.177720
9012.000000;0.177623
9011.000000;0.177427
9010.000000;0.177233
9009.000000;0.177135
9008.000000;0.177108
9007.000000;0.177072
9006.000000;0.176994
9005.000000;0.176878
9004.000000;0.176704
9003.000000;0.176446
9002.000000;0.176147
9001.000000;0.175894
9000.000000;0.175716
8999.000000;0.175563
8998.000000;0.175387
8997.000000;0.175186
8996.000000;0.174986
8995.000000;0.174813
8994.000000;0.174668
8993.000000;0.174513
8992.000000;0.174295
8991.000000;0.174025
8990.000000;0.173791
8989.000000;0.173671
8988.000000;0.173643
8987.000000;0.173624
8986.000000;0.173564
8985.000000;0.173462
8984.000000;0.173314
8983.000000;0.173106
8982.000000;0.172846
8981.000000;0.172555
8980.000000;0.172247
8979.000000;0.171957
8978.000000;0.171756
8977.000000;0.171675
8976.000000;0.171633
8975.000000;0.171475
8974.000000;0.171122
8973.000000;0.170656
8972.000000;0.170266
8971.000000;0.170112
8970.000000;0.170218
8969.000000;0.170447
8968.000000;0.170607
8967.000000;0.170601
8966.000000;0.170476
8965.000000;0.170328
8964.000000;0.170179
8963.000000;0.169972
8962.000000;0.169660
8961.000000;0.169281
8960.000000;0.168963
8959.000000;0.168834
8958.000000;0.168896
8957.000000;0.168985
8956.000000;0.168902
8955.000000;0.168614
8954.000000;0.168268
8953.000000;0.168023
8952.000000;0.167915
8951.000000;0.167893
8950.000000;0.167897
8949.000000;0.167863
8948.000000;0.167720
8947.000000;0.167457
8946.000000;0.167155
8945.000000;0.166929
8944.000000;0.166842
8943.000000;0.166874
8942.000000;0.166910
8941.000000;0.166777
8940.000000;0.166385
8939.000000;0.165872
8938.000000;0.165510
8937.000000;0.165417
8936.000000;0.165449
8935.000000;0.165411
8934.000000;0.165287
8933.000000;0.165190
8932.000000;0.165154
8931.000000;0.165104
8930.000000;0.164990
8929.000000;0.164850
8928.000000;0.164743
8927.000000;0.164678
8926.000000;0.164608
8925.000000;0.164457
8924.000000;0.164169
8923.000000;0.163782
8922.000000;0.163431
8921.000000;0.163247
8920.000000;0.163265
8919.000000;0.163424
8918.000000;0.163602
8917.000000;0.163666
8916.000000;0.163552
8915.000000;0.163341
8914.000000;0.163185
8913.000000;0.163116
8912.000000;0.162998
8911.000000;0.162722
8910.000000;0.162358
8909.000000;0.162058
8908.000000;0.161875
8907.000000;0.161750
8906.000000;0.161618
8905.000000;0.161451
8904.000000;0.161238
8903.000000;0.161011
8902.000000;0.160867
8901.000000;0.160883
8900.000000;0.160999
8899.000000;0.161061
8898.000000;0.160948
8897.000000;0.160663
8896.000000;0.160310
8895.000000;0.160032
8894.000000;0.159922
8893.000000;0.159947
8892.000000;0.159966
8891.000000;0.159867
8890.000000;0.159663
8889.000000;0.159462
8888.000000;0.159371
8887.000000;0.159429
8886.000000;0.159569
8885.000000;0.159645
8884.000000;0.159535
8883.000000;0.159279
8882.000000;0.159026
8881.000000;0.158872
8880.000000;0.158795
8879.000000;0.158751
8878.000000;0.158719
8877.000000;0.158634
8876.000000;0.158403
8875.000000;0.158059
8874.000000;0.157782
8873.000000;0.157685
8872.000000;0.157680
8871.000000;0.157632
8870.000000;0.157561
8869.000000;0.157571
8868.000000;0.157665
8867.000000;0.157727
8866.000000;0.157660
8865.000000;0.157453
8864.000000;0.157153
8863.000000;0.156854
8862.000000;0.156662
8861.000000;0.156591
8860.000000;0.156545
8859.000000;0.156461
8858.000000;0.156398
8857.000000;0.156418
8856.000000;0.156454
8855.000000;0.156401
8854.000000;0.156281
8853.000000;0.156205
8852.000000;0.156202
8851.000000;0.156201
8850.000000;0.156145
8849.000000;0.156040
8848.000000;0.155887
8847.000000;0.155690
8846.000000;0.155504
8845.000000;0.155396
8844.000000;0.155368
8843.000000;0.155382
8842.000000;0.155440
8841.000000;0.155548
8840.000000;0.155637
8839.000000;0.155608
8838.000000;0.155470
8837.000000;0.155339
8836.000000;0.155312
8835.000000;0.155383
8834.000000;0.155489
8833.000000;0.155570
8832.000000;0.155579
8831.000000;0.155502
8830.000000;0.155369
8829.000000;0.155225
8828.000000;0.155095
8827.000000;0.154996
8826.000000;0.154949
8825.000000;0.154954
8824.000000;0.154997
8823.000000;0.155097
8822.000000;0.155305
8821.000000;0.155588
8820.000000;0.155795
8819.000000;0.155811
8818.000000;0.155706
8817.000000;0.155659
8816.000000;0.155784
8815.000000;0.156068
8814.000000;0.156431
8813.000000;0.156752
8812.000000;0.156878
8811.000000;0.156725
8810.000000;0.156371
8809.000000;0.155992
8808.000000;0.155722
8807.000000;0.155599
8806.000000;0.155611
8805.000000;0.155719
8804.000000;0.155850
8803.000000;0.155944
8802.000000;0.156001
8801.000000;0.156037
8800.000000;0.156036
8799.000000;0.155988
8798.000000;0.155943
8797.000000;0.155950
8796.000000;0.155985
8795.000000;0.155999
8794.000000;0.156010
8793.000000;0.156074
8792.000000;0.156191
8791.000000;0.156319
8790.000000;0.156451
8789.000000;0.156607
8788.000000;0.156758
8787.000000;0.156849
8786.000000;0.156878
8785.000000;0.156883
8784.000000;0.156865
8783.000000;0.156804
8782.000000;0.156744
8781.000000;0.156781
8780.000000;0.156928
8779.000000;0.157074
8778.000000;0.157117
8777.000000;0.157088
8776.000000;0.157110
8775.000000;0.157259
8774.000000;0.157486
8773.000000;0.157676
8772.000000;0.157760
8771.000000;0.157780
8770.000000;0.157829
8769.000000;0.157959
8768.000000;0.158172
8767.000000;0.158469
8766.000000;0.158837
8765.000000;0.159175
8764.000000;0.159321
8763.000000;0.159220
8762.000000;0.159001
8761.000000;0.158847
8760.000000;0.158831
8759.000000;0.158924
8758.000000;0.159092
8757.000000;0.159329
8756.000000;0.159603
8755.000000;0.159868
8754.000000;0.160101
8753.000000;0.160294
8752.000000;0.160418
8751.000000;0.160459
8750.000000;0.160456
8749.000000;0.160470
8748.000000;0.160518
8747.000000;0.160578
8746.000000;0.160639
8745.000000;0.160709
8744.000000;0.160797
8743.000000;0.160924
8742.000000;0.161126
8741.000000;0.161420
8740.000000;0.161772
8739.000000;0.162107
8738.000000;0.162343
8737.000000;0.162425
8736.000000;0.162378
8735.000000;0.162324
8734.000000;0.162381
8733.000000;0.162534
8732.000000;0.162687
8731.000000;0.162818
8730.000000;0.162994
8729.000000;0.163212
8728.000000;0.163347
8727.000000;0.163331
8726.000000;0.163274
8725.000000;0.163323
8724.000000;0.163489
8723.000000;0.163695
8722.000000;0.163896
8721.000000;0.164068
8720.000000;0.164147
8719.000000;0.164098
8718.000000;0.164000
8717.000000;0.163976
8716.000000;0.164047
8715.000000;0.164155
8714.000000;0.164271
8713.000000;0.164405
8712.000000;0.164534
8711.000000;0.164610
8710.000000;0.164635
8709.000000;0.164658
8708.000000;0.164704
8707.000000;0.164770
8706.000000;0.164865
8705.000000;0.164993
8704.000000;0.165124
8703.000000;0.165217
8702.000000;0.165281
8701.000000;0.165348
8700.000000;0.165446
8699.000000;0.165601
8698.000000;0.165840
8697.000000;0.166129
8696.000000;0.166354
8695.000000;0.166426
8694.000000;0.166369
8693.000000;0.166270
8692.000000;0.166195
8691.000000;0.166189
8690.000000;0.166289
8689.000000;0.166468
8688.000000;0.166630
8687.000000;0.166710
8686.000000;0.166740
8685.000000;0.166745
8684.000000;0.166676
8683.000000;0.166518
8682.000000;0.166388
8681.000000;0.166409
8680.000000;0.166536
8679.000000;0.166628
8678.000000;0.166664
8677.000000;0.166738
8676.000000;0.166865
8675.000000;0.166917
8674.000000;0.166801
8673.000000;0.166591
8672.000000;0.166431
8671.000000;0.166380
8670.000000;0.166387
8669.000000;0.166389
8668.000000;0.166379
8667.000000;0.166397
8666.000000;0.166457
8665.000000;0.166514
8664.000000;0.166501
8663.000000;0.166413
8662.000000;0.166300
8661.000000;0.166184
8660.000000;0.166041
8659.000000;0.165878
8658.000000;0.165762
8657.000000;0.165718
8656.000000;0.165680
8655.000000;0.165604
8654.000000;0.165550
8653.000000;0.165594
8652.000000;0.165703
8651.000000;0.165786
8650.000000;0.165821
8649.000000;0.165839
8648.000000;0.165831
8647.000000;0.165752
8646.000000;0.165606
8645.000000;0.165434
8644.000000;0.165242
8643.000000;0.165013
8642.000000;0.164779
8641.000000;0.164610
8640.000000;0.164521
8639.000000;0.164474
8638.000000;0.164445
8637.000000;0.164444
8636.000000;0.164460
8635.000000;0.164442
8634.000000;0.164353
8633.000000;0.164202
8632.000000;0.164020
8631.000000;0.163853
8630.000000;0.163743
8629.000000;0.163682
8628.000000;0.163608
8627.000000;0.163475
8626.000000;0.163314
8625.000000;0.163174
8624.000000;0.163056
8623.000000;0.162937
8622.000000;0.162839
8621.000000;0.162799
8620.000000;0.162807
8619.000000;0.162810
8618.000000;0.162766
8617.000000;0.162650
8616.000000;0.162442
8615.000000;0.162156
8614.000000;0.161862
8613.000000;0.161626
8612.000000;0.161442
8611.000000;0.161274
8610.000000;0.161129
8609.000000;0.161054
8608.000000;0.161063
8607.000000;0.161119
8606.000000;0.161156
8605.000000;0.161103
8604.000000;0.160916
8603.000000;0.160646
8602.000000;0.160432
8601.000000;0.160371
8600.000000;0.160413
8599.000000;0.160434
8598.000000;0.160363
8597.000000;0.160206
8596.000000;0.159985
8595.000000;0.159730
8594.000000;0.159509
8593.000000;0.159384
8592.000000;0.159342
8591.000000;0.159315
8590.000000;0.159239
8589.000000;0.159087
8588.000000;0.158858
8587.000000;0.158609
8586.000000;0.158438
8585.000000;0.158379
8584.000000;0.158336
8583.000000;0.158190
8582.000000;0.157946
8581.000000;0.157710
8580.000000;0.157535
8579.000000;0.157366
8578.000000;0.157149
8577.000000;0.156916
8576.000000;0.156746
8575.000000;0.156689
8574.000000;0.156728
8573.000000;0.156795
8572.000000;0.156800
8571.000000;0.156688
8570.000000;0.156463
8569.000000;0.156167
8568.000000;0.155852
8567.000000;0.155570
8566.000000;0.155382
8565.000000;0.155313
8564.000000;0.155329
8563.000000;0.155362
8562.000000;0.155348
8561.000000;0.155232
8560.000000;0.154983
8559.000000;0.154635
8558.000000;0.154299
8557.000000;0.154093
8556.000000;0.154050
8555.000000;0.154113
8554.000000;0.154168
8553.000000;0.154103
8552.000000;0.153871
8551.000000;0.153542
8550.000000;0.153245
8549.000000;0.153047
8548.000000;0.152921
8547.000000;0.152832
8546.000000;0.152778
8545.000000;0.152735
8544.000000;0.152623
8543.000000;0.152395
8542.000000;0.152109
8541.000000;0.151863
8540.000000;0.151702
8539.000000;0.151597
8538.000000;0.151491
8537.000000;0.151331
8536.000000;0.151099
8535.000000;0.150860
8534.000000;0.150708
8533.000000;0.150656
8532.000000;0.150613
8531.000000;0.150513
8530.000000;0.150395
8529.000000;0.150298
8528.000000;0.150169
8527.000000;0.149930
8526.000000;0.149604
8525.000000;0.149302
8524.000000;0.149107
8523.000000;0.149017
8522.000000;0.148989
8521.000000;0.148970
8520.000000;0.148917
8519.000000;0.148830
8518.000000;0.148738
8517.000000;0.148638
8516.000000;0.148490
8515.000000;0.148295
8514.000000;0.148109
8513.000000;0.147955
8512.000000;0.147779
8511.000000;0.147550
8510.000000;0.147338
8509.000000;0.147229
8508.000000;0.147207
8507.000000;0.147178
8506.000000;0.147084
8505.000000;0.146920
8504.000000;0.146695
8503.000000;0.146426
8502.000000;0.146170
8501.000000;0.145983
8500.000000;0.145877
8499.000000;0.145816
8498.000000;0.145760
8497.000000;0.145665
8496.000000;0.145511
8495.000000;0.145335
8494.000000;0.145197
8493.000000;0.145087
8492.000000;0.144924
8491.000000;0.144698
8490.000000;0.144519
8489.000000;0.144449
8488.000000;0.144379
8487.000000;0.144162
8486.000000;0.143817
8485.000000;0.143507
8484.000000;0.143333
8483.000000;0.143245
8482.000000;0.143145
8481.000000;0.142988
8480.000000;0.142795
8479.000000;0.142620
8478.000000;0.142525
8477.000000;0.142520
8476.000000;0.142530
8475.000000;0.142467
8474.000000;0.142321
8473.000000;0.142146
8472.000000;0.141988
8471.000000;0.141850
8470.000000;0.141727
8469.000000;0.141598
8468.000000;0.141424
8467.000000;0.141194
8466.000000;0.140961
8465.000000;0.140782
8464.000000;0.140645
8463.000000;0.140510
8462.000000;0.140387
8461.000000;0.140315
8460.000000;0.140292
8459.000000;0.140270
8458.000000;0.140214
8457.000000;0.140114
8456.000000;0.139964
8455.000000;0.139776
8454.000000;0.139608
8453.000000;0.139523
8452.000000;0.139504
8451.000000;0.139459
8450.000000;0.139307
8449.000000;0.139043
8448.000000;0.138733
8447.000000;0.138469
8446.000000;0.138310
8445.000000;0.138246
8444.000000;0.138206
8443.000000;0.138132
8442.000000;0.138020
8441.000000;0.137886
8440.000000;0.137729
8439.000000;0.137551
8438.000000;0.137375
8437.000000;0.137223
8436.000000;0.137090
8435.000000;0.136970
8434.000000;0.136863
8433.000000;0.136753
8432.000000;0.136591
8431.000000;0.136362
8430.000000;0.136121
8429.000000;0.135943
8428.000000;0.135845
8427.000000;0.135778
8426.000000;0.135682
8425.000000;0.135537
8424.000000;0.135383
8423.000000;0.135282
8422.000000;0.135249
8421.000000;0.135208
8420.000000;0.135083
8419.000000;0.134908
8418.000000;0.134786
8417.000000;0.134734
8416.000000;0.134651
8415.000000;0.134479
8414.000000;0.134290
8413.000000;0.134181
8412.000000;0.134153
8411.000000;0.134150
8410.000000;0.134144
8409.000000;0.134117
8408.000000;0.134028
8407.000000;0.133861
8406.000000;0.133672
8405.000000;0.133512
8404.000000;0.133349
8403.000000;0.133116
8402.000000;0.132817
8401.000000;0.132527
8400.000000;0.132304
8399.000000;0.132167
8398.000000;0.132108
8397.000000;0.132081
8396.000000;0.132014
8395.000000;0.131868
8394.000000;0.131674
8393.000000;0.131467
8392.000000;0.131243
8391.000000;0.130994
8390.000000;0.130771
8389.000000;0.130627
8388.000000;0.130550
8387.000000;0.130487
8386.000000;0.130410
8385.000000;0.130313
8384.000000;0.130185
8383.000000;0.130019
8382.000000;0.129833
8381.000000;0.129644
8380.000000;0.129460
8379.000000;0.129316
8378.000000;0.129262
8377.000000;0.129278
8376.000000;0.129268
8375.000000;0.129171
8374.000000;0.129030
8373.000000;0.128891
8372.000000;0.128728
8371.000000;0.128500
8370.000000;0.128245
8369.000000;0.128032
8368.000000;0.127866
8367.000000;0.127713
8366.000000;0.127578
8365.000000;0.127485
8364.000000;0.127414
8363.000000;0.127320
8362.000000;0.127187
8361.000000;0.127008
8360.000000;0.126759
8359.000000;0.126462
8358.000000;0.126222
8357.000000;0.126133
8356.000000;0.126140
8355.000000;0.126092
8354.000000;0.125900
8353.000000;0.125596
8352.000000;0.125270
8351.000000;0.125001
8350.000000;0.124860
8349.000000;0.124870
8348.000000;0.124962
8347.000000;0.125009
8346.000000;0.124932
8345.000000;0.124736
8344.000000;0.124460
8343.000000;0.124153
8342.000000;0.123874
8341.000000;0.123675
8340.000000;0.123555
8339.000000;0.123473
8338.000000;0.123387
8337.000000;0.123277
8336.000000;0.123134
8335.000000;0.122953
8334.000000;0.122738
8333.000000;0.122487
8332.000000;0.122198
8331.000000;0.121916
8330.000000;0.121721
8329.000000;0.121636
8328.000000;0.121589
8327.000000;0.121497
8326.000000;0.121375
8325.000000;0.121292
8324.000000;0.121252
8323.000000;0.121177
8322.000000;0.121022
8321.000000;0.120821
8320.000000;0.120626
8319.000000;0.120437
8318.000000;0.120228
8317.000000;0.119998
8316.000000;0.119774
8315.000000;0.119577
8314.000000;0.119408
8313.000000;0.119267
8312.000000;0.119157
8311.000000;0.119070
8310.000000;0.118974
8309.000000;0.118841
8308.000000;0.118679
8307.000000;0.118516
8306.000000;0.118336
8305.000000;0.118077
8304.000000;0.117736
8303.000000;0.117427
8302.000000;0.117269
8301.000000;0.117231
8300.000000;0.117163
8299.000000;0.116980
8298.000000;0.116731
8297.000000;0.116495
8296.000000;0.116275
8295.000000;0.116059
8294.000000;0.115874
8293.000000;0.115740
8292.000000;0.115610
8291.000000;0.115430
8290.000000;0.115210
8289.000000;0.115005
8288.000000;0.114842
8287.000000;0.114737
8286.000000;0.114707
8285.000000;0.114720
8284.000000;0.114672
8283.000000;0.114460
8282.000000;0.114094
8281.000000;0.113693
8280.000000;0.113379
8279.000000;0.113200
8278.000000;0.113132
8277.000000;0.113103
8276.000000;0.113042
8275.000000;0.112914
8274.000000;0.112716
8273.000000;0.112460
8272.000000;0.112169
8271.000000;0.111904
8270.000000;0.111724
8269.000000;0.111614
8268.000000;0.111496
8267.000000;0.111322
8266.000000;0.111121
8265.000000;0.110929
8264.000000;0.110751
8263.000000;0.110588
8262.000000;0.110462
8261.000000;0.110373
8260.000000;0.110278
8259.000000;0.110147
8258.000000;0.109982
8257.000000;0.109781
8256.000000;0.109536
8255.000000;0.109276
8254.000000;0.109069
8253.000000;0.108935
8252.000000;0.108834
8251.000000;0.108747
8250.000000;0.108693
8249.000000;0.108638
8248.000000;0.108477
8247.000000;0.108173
8246.000000;0.107832
8245.000000;0.107577
8244.000000;0.107400
8243.000000;0.107213
8242.000000;0.106993
8241.000000;0.106796
8240.000000;0.106656
8239.000000;0.106550
8238.000000;0.106454
8237.000000;0.106364
8236.000000;0.106261
8235.000000;0.106108
8234.000000;0.105897
8233.000000;0.105664
8232.000000;0.105452
8231.000000;0.105286
8230.000000;0.105166
8229.000000;0.105061
8228.000000;0.104925
8227.000000;0.104746
8226.000000;0.104544
8225.000000;0.104324
8224.000000;0.104065
8223.000000;0.103765
8222.000000;0.103473
8221.000000;0.103239
8220.000000;0.103083
8219.000000;0.102998
8218.000000;0.102966
8217.000000;0.102934
8216.000000;0.102841
8215.000000;0.102673
8214.000000;0.102470
8213.000000;0.102259
8212.000000;0.102027
8211.000000;0.101774
8210.000000;0.101537
8209.000000;0.101336
8208.000000;0.101159
8207.000000;0.101007
8206.000000;0.100907
8205.000000;0.100828
8204.000000;0.100675
8203.000000;0.100397
8202.000000;0.100063
8201.000000;0.099781
8200.000000;0.099596
8199.000000;0.099491
8198.000000;0.099436
8197.000000;0.099379
8196.000000;0.099246
8195.000000;0.099012
8194.000000;0.098744
8193.000000;0.098518
8192.000000;0.098335
8191.000000;0.098156
8190.000000;0.097972
8189.000000;0.097807
8188.000000;0.097659
8187.000000;0.097505
8186.000000;0.097330
8185.000000;0.097136
8184.000000;0.096932
8183.000000;0.096759
8182.000000;0.096658
8181.000000;0.096604
8180.000000;0.096509
8179.000000;0.096315
8178.000000;0.096056
8177.000000;0.095799
8176.000000;0.095582
8175.000000;0.095425
8174.000000;0.095326
8173.000000;0.095229
8172.000000;0.095047
8171.000000;0.094776
8170.000000;0.094530
8169.000000;0.094401
8168.000000;0.094355
8167.000000;0.094303
8166.000000;0.094213
8165.000000;0.094098
8164.000000;0.093948
8163.000000;0.093738
8162.000000;0.093496
8161.000000;0.093273
8160.000000;0.093086
8159.000000;0.092917
8158.000000;0.092752
8157.000000;0.092574
8156.000000;0.092354
8155.000000;0.092100
8154.000000;0.091872
8153.000000;0.091707
8152.000000;0.091566
8151.000000;0.091384
8150.000000;0.091148
8149.000000;0.090881
8148.000000;0.090600
8147.000000;0.090323
8146.000000;0.090090
8145.000000;0.089920
8144.000000;0.089775
8143.000000;0.089628
8142.000000;0.089515
8141.000000;0.089463
8140.000000;0.089416
8139.000000;0.089288
8138.000000;0.089080
8137.000000;0.088873
8136.000000;0.088722
8135.000000;0.088606
8134.000000;0.088458
8133.000000;0.088231
8132.000000;0.087926
8131.000000;0.087600
8130.000000;0.087326
8129.000000;0.087110
8128.000000;0.086886
8127.000000;0.086622
8126.000000;0.086387
8125.000000;0.086268
8124.000000;0.086257
8123.000000;0.086267
8122.000000;0.086223
8121.000000;0.086109
8120.000000;0.085939
8119.000000;0.085737
8118.000000;0.085543
8117.000000;0.085370
8116.000000;0.085193
8115.000000;0.084978
8114.000000;0.084743
8113.000000;0.084532
8112.000000;0.084357
8111.000000;0.084191
8110.000000;0.084001
8109.000000;0.083782
8108.000000;0.083564
8107.000000;0.083396
8106.000000;0.083299
8105.000000;0.083215
8104.000000;0.083057
8103.000000;0.082807
8102.000000;0.082534
8101.000000;0.082294
8100.000000;0.082077
8099.000000;0.081869
8098.000000;0.081711
8097.000000;0.081628
8096.000000;0.081550
8095.000000;0.081381
8094.000000;0.081107
8093.000000;0.080802
8092.000000;0.080532
8091.000000;0.080313
8090.000000;0.080134
8089.000000;0.079987
8088.000000;0.079865
8087.000000;0.079762
8086.000000;0.079663
8085.000000;0.079524
8084.000000;0.079309
8083.000000;0.079052
8082.000000;0.078850
8081.000000;0.078753
8080.000000;0.078689
8079.000000;0.078540
8078.000000;0.078265
8077.000000;0.077932
8076.000000;0.077642
8075.000000;0.077466
8074.000000;0.077416
8073.000000;0.077437
8072.000000;0.077439
8071.000000;0.077354
8070.000000;0.077163
8069.000000;0.076865
8068.000000;0.076479
8067.000000;0.076060
8066.000000;0.075696
8065.000000;0.075435
8064.000000;0.075258
8063.000000;0.075126
8062.000000;0.075017
8061.000000;0.074906
8060.000000;0.074761
8059.000000;0.074579
8058.000000;0.074390
8057.000000;0.074206
8056.000000;0.074004
8055.000000;0.073786
8054.000000;0.073599
8053.000000;0.073469
8052.000000;0.073353
8051.000000;0.073198
8050.000000;0.073000
8049.000000;0.072786
8048.000000;0.072572
8047.000000;0.072369
8046.000000;0.072191
8045.000000;0.072023
8044.000000;0.071828
8043.000000;0.071616
8042.000000;0.071438
8041.000000;0.071310
8040.000000;0.071177
8039.000000;0.070998
8038.000000;0.070800
8037.000000;0.070611
8036.000000;0.070406
8035.000000;0.070176
8034.000000;0.069969
8033.000000;0.069826
8032.000000;0.069711
8031.000000;0.069558
8030.000000;0.069361
8029.000000;0.069152
8028.000000;0.068945
8027.000000;0.068750
8026.000000;0.068592
8025.000000;0.068467
8024.000000;0.068309
8023.000000;0.068070
8022.000000;0.067793
8021.000000;0.067570
8020.000000;0.067431
8019.000000;0.067327
8018.000000;0.067192
8017.000000;0.066980
8016.000000;0.066678
8015.000000;0.066333
8014.000000;0.066048
8013.000000;0.065884
8012.000000;0.065802
8011.000000;0.065716
8010.000000;0.065591
8009.000000;0.065434
8008.000000;0.065236
8007.000000;0.064997
8006.000000;0.064764
8005.000000;0.064603
8004.000000;0.064506
8003.000000;0.064396
8002.000000;0.064199
8001.000000;0.063914
8000.000000;0.063597
7999.000000;0.063329
7998.000000;0.063174
7997.000000;0.063121
7996.000000;0.063083
7995.000000;0.062976
7994.000000;0.062795
7993.000000;0.062594
7992.000000;0.062409
7991.000000;0.062223
7990.000000;0.062006
7989.000000;0.061757
7988.000000;0.061508
7987.000000;0.061303
7986.000000;0.061151
7985.000000;0.061000
7984.000000;0.060791
7983.000000;0.060532
7982.000000;0.060286
7981.000000;0.060095
7980.000000;0.059934
7979.000000;0.059765
7978.000000;0.059579
7977.000000;0.059374
7976.000000;0.059142
7975.000000;0.058902
7974.000000;0.058706
7973.000000;0.058571
7972.000000;0.058464
7971.000000;0.058358
7970.000000;0.058262
7969.000000;0.058160
7968.000000;0.057984
7967.000000;0.057687
7966.000000;0.057323
7965.000000;0.056993
7964.000000;0.056755
7963.000000;0.056607
7962.000000;0.056512
7961.000000;0.056409
7960.000000;0.056236
7959.000000;0.055987
7958.000000;0.055732
7957.000000;0.055527
7956.000000;0.055358
7955.000000;0.055179
7954.000000;0.054987
7953.000000;0.054808
7952.000000;0.054648
7951.000000;0.054491
7950.000000;0.054331
7949.000000;0.054162
7948.000000;0.053975
7947.000000;0.053770
7946.000000;0.053562
7945.000000;0.053347
7944.000000;0.053097
7943.000000;0.052817
7942.000000;0.052566
7941.000000;0.052392
7940.000000;0.052284
7939.000000;0.052194
7938.000000;0.052090
7937.000000;0.051944
7936.000000;0.051739
7935.000000;0.051506
7934.000000;0.051320
7933.000000;0.051205
7932.000000;0.051099
7931.000000;0.050938
7930.000000;0.050735
7929.000000;0.050548
7928.000000;0.050400
7927.000000;0.050279
7926.000000;0.050159
7925.000000;0.050007
7924.000000;0.049786
7923.000000;0.049507
7922.000000;0.049242
7921.000000;0.049039
7920.000000;0.048867
7919.000000;0.048673
7918.000000;0.048462
7917.000000;0.048261
7916.000000;0.048067
7915.000000;0.047862
7914.000000;0.047665
7913.000000;0.047509
7912.000000;0.047381
7911.000000;0.047245
7910.000000;0.047093
7909.000000;0.046944
7908.000000;0.046806
7907.000000;0.046666
7906.000000;0.046514
7905.000000;0.046329
7904.000000;0.046079
7903.000000;0.045759
7902.000000;0.045424
7901.000000;0.045144
7900.000000;0.044958
7899.000000;0.044879
7898.000000;0.044896
7897.000000;0.044946
7896.000000;0.044916
7895.000000;0.044734
7894.000000;0.044446
7893.000000;0.044153
7892.000000;0.043910
7891.000000;0.043713
7890.000000;0.043544
7889.000000;0.043386
7888.000000;0.043200
7887.000000;0.042963
7886.000000;0.042707
7885.000000;0.042493
7884.000000;0.042344
7883.000000;0.042228
7882.000000;0.042109
7881.000000;0.041978
7880.000000;0.041842
7879.000000;0.041708
7878.000000;0.041581
7877.000000;0.041446
7876.000000;0.041286
7875.000000;0.041112
7874.000000;0.040955
7873.000000;0.040820
7872.000000;0.040669
7871.000000;0.040478
7870.000000;0.040271
7869.000000;0.040075
7868.000000;0.039880
7867.000000;0.039666
7866.000000;0.039450
7865.000000;0.039270
7864.000000;0.039133
7863.000000;0.039018
7862.000000;0.038902
7861.000000;0.038763
7860.000000;0.038585
7859.000000;0.038379
7858.000000;0.038186
7857.000000;0.038030
7856.000000;0.037894
7855.000000;0.037748
7854.000000;0.037593
7853.000000;0.037446
7852.000000;0.037305
7851.000000;0.037153
7850.000000;0.036981
7849.000000;0.036777
7848.000000;0.036531
7847.000000;0.036253
7846.000000;0.035989
7845.000000;0.035783
7844.000000;0.035638
7843.000000;0.035537
7842.000000;0.035467
7841.000000;0.035422
7840.000000;0.035379
7839.000000;0.035312
7838.000000;0.035209
7837.000000;0.035070
7836.000000;0.034899
7835.000000;0.034697
7834.000000;0.034463
7833.000000;0.034202
7832.000000;0.033950
7831.000000;0.033778
7830.000000;0.033718
7829.000000;0.033710
7828.000000;0.033658
7827.000000;0.033528
7826.000000;0.033367
7825.000000;0.033219
7824.000000;0.033072
7823.000000;0.032901
7822.000000;0.032698
7821.000000;0.032468
7820.000000;0.032226
7819.000000;0.032027
7818.000000;0.031924
7817.000000;0.031894
7816.000000;0.031842
7815.000000;0.031705
7814.000000;0.031516
7813.000000;0.031347
7812.000000;0.031227
7811.000000;0.031138
7810.000000;0.031042
7809.000000;0.030905
7808.000000;0.030720
7807.000000;0.030532
7806.000000;0.030399
7805.000000;0.030319
7804.000000;0.030238
7803.000000;0.030125
7802.000000;0.029998
7801.000000;0.029866
7800.000000;0.029707
7799.000000;0.029520
7798.000000;0.029353
7797.000000;0.029236
7796.000000;0.029143
7795.000000;0.029027
7794.000000;0.028870
7793.000000;0.028677
7792.000000;0.028468
7791.000000;0.028285
7790.000000;0.028162
7789.000000;0.028082
7788.000000;0.027997
7787.000000;0.027896
7786.000000;0.027813
7785.000000;0.027741
7784.000000;0.027632
7783.000000;0.027468
7782.000000;0.027292
7781.000000;0.027138
7780.000000;0.026998
7779.000000;0.026870
7778.000000;0.026779
7777.000000;0.026717
7776.000000;0.026628
7775.000000;0.026497
7774.000000;0.026376
7773.000000;0.026301
7772.000000;0.026228
7771.000000;0.026106
7770.000000;0.025949
7769.000000;0.025799
7768.000000;0.025677
7767.000000;0.025586
7766.000000;0.025528
7765.000000;0.025469
7764.000000;0.025347
7763.000000;0.025157
7762.000000;0.024966
7761.000000;0.024817
7760.000000;0.024666
7759.000000;0.024470
7758.000000;0.024280
7757.000000;0.024183
7756.000000;0.024180
7755.000000;0.024181
7754.000000;0.024105
7753.000000;0.023931
7752.000000;0.023694
7751.000000;0.023455
7750.000000;0.023273
7749.000000;0.023156
7748.000000;0.023058
7747.000000;0.022943
7746.000000;0.022834
7745.000000;0.022764
7744.000000;0.022732
7743.000000;0.022712
7742.000000;0.022687
7741.000000;0.022644
7740.000000;0.022571
7739.000000;0.022477
7738.000000;0.022388
7737.000000;0.022302
7736.000000;0.022195
7735.000000;0.022064
7734.000000;0.021934
7733.000000;0.021806
7732.000000;0.021660
7731.000000;0.021522
7730.000000;0.021465
7729.000000;0.021505
7728.000000;0.021558
7727.000000;0.021541
7726.000000;0.021459
7725.000000;0.021366
7724.000000;0.021284
7723.000000;0.021210
7722.000000;0.021152
7721.000000;0.021122
7720.000000;0.021105
7719.000000;0.021080
7718.000000;0.021033
7717.000000;0.020934
7716.000000;0.020761
7715.000000;0.020542
7714.000000;0.020357
7713.000000;0.020240
7712.000000;0.020149
7711.000000;0.020049
7710.000000;0.019959
7709.000000;0.019901
7708.000000;0.019852
7707.000000;0.019799
7706.000000;0.019765
7705.000000;0.019761
7704.000000;0.019742
7703.000000;0.019679
7702.000000;0.019615
7701.000000;0.019595
7700.000000;0.019594
7699.000000;0.019562
7698.000000;0.019499
7697.000000;0.019426
7696.000000;0.019333
7695.000000;0.019220
7694.000000;0.019134
7693.000000;0.019112
7692.000000;0.019110
7691.000000;0.019059
7690.000000;0.018963
7689.000000;0.018895
7688.000000;0.018891
7687.000000;0.018914
7686.000000;0.018912
7685.000000;0.018858
7684.000000;0.018753
7683.000000;0.018625
7682.000000;0.018517
7681.000000;0.018456
7680.000000;0.018432
7679.000000;0.018419
7678.000000;0.018413
7677.000000;0.018407
7676.000000;0.018383
7675.000000;0.018336
7674.000000;0.018289
7673.000000;0.018255
7672.000000;0.018212
7671.000000;0.018135
7670.000000;0.018046
7669.000000;0.017986
7668.000000;0.017975
7667.000000;0.018007
7666.000000;0.018059
7665.000000;0.018096
7664.000000;0.018075
7663.000000;0.017984
7662.000000;0.017848
7661.000000;0.017704
7660.000000;0.017592
7659.000000;0.017558
7658.000000;0.017622
7657.000000;0.017738
7656.000000;0.017816
7655.000000;0.017816
7654.000000;0.017778
7653.000000;0.017758
7652.000000;0.017774
7651.000000;0.017820
7650.000000;0.017886
7649.000000;0.017937
7648.000000;0.017930
7647.000000;0.017871
7646.000000;0.017812
7645.000000;0.017781
7644.000000;0.017749
7643.000000;0.017702
7642.000000;0.017669
7641.000000;0.017675
7640.000000;0.017698
7639.000000;0.017714
7638.000000;0.017735
7637.000000;0.017775
7636.000000;0.017820
7635.000000;0.017853
7634.000000;0.017875
7633.000000;0.017884
7632.000000;0.017877
7631.000000;0.017888
7630.000000;0.017960
7629.000000;0.018070
7628.000000;0.018137
7627.000000;0.018123
7626.000000;0.018086
7625.000000;0.018094
7624.000000;0.018155
7623.000000;0.018249
7622.000000;0.018367
7621.000000;0.018477
7620.000000;0.018519
7619.000000;0.018473
7618.000000;0.018386
7617.000000;0.018319
7616.000000;0.018298
7615.000000;0.018343
7614.000000;0.018474
7613.000000;0.018656
7612.000000;0.018798
7611.000000;0.018853
7610.000000;0.018856
7609.000000;0.018857
7608.000000;0.018861
7607.000000;0.018870
7606.000000;0.018914
7605.000000;0.019011
7604.000000;0.019129
7603.000000;0.019244
7602.000000;0.019364
7601.000000;0.019476
7600.000000;0.019528
7599.000000;0.019512
7598.000000;0.019501
7597.000000;0.019558
7596.000000;0.019655
7595.000000;0.019731
7594.000000;0.019779
7593.000000;0.019830
7592.000000;0.019898
7591.000000;0.019988
7590.000000;0.020115
7589.000000;0.020276
7588.000000;0.020437
7587.000000;0.020582
7586.000000;0.020732
7585.000000;0.020882
7584.000000;0.020978
7583.000000;0.021000
7582.000000;0.021003
7581.000000;0.021046
7580.000000;0.021119
7579.000000;0.021193
7578.000000;0.021274
7577.000000;0.021387
7576.000000;0.021529
7575.000000;0.021703
7574.000000;0.021919
7573.000000;0.022139
7572.000000;0.022273
7571.000000;0.022289
7570.000000;0.022277
7569.000000;0.022349
7568.000000;0.022513
7567.000000;0.022701
7566.000000;0.022867
7565.000000;0.023001
7564.000000;0.023093
7563.000000;0.023154
7562.000000;0.023238
7561.000000;0.023378
7560.000000;0.023542
7559.000000;0.023685
7558.000000;0.023826
7557.000000;0.024006
7556.000000;0.024217
7555.000000;0.024404
7554.000000;0.024546
7553.000000;0.024665
7552.000000;0.024797
7551.000000;0.024959
7550.000000;0.025148
7549.000000;0.025338
7548.000000;0.025499
7547.000000;0.025641
7546.000000;0.025797
7545.000000;0.025969
7544.000000;0.026119
7543.000000;0.026238
7542.000000;0.026360
7541.000000;0.026506
7540.000000;0.026656
7539.000000;0.026804
7538.000000;0.026975
7537.000000;0.027175
7536.000000;0.027373
7535.000000;0.027558
7534.000000;0.027753
7533.000000;0.027956
7532.000000;0.028129
7531.000000;0.028276
7530.000000;0.028463
7529.000000;0.028723
7528.000000;0.028993
7527.000000;0.029190
7526.000000;0.029303
7525.000000;0.029376
7524.000000;0.029454
7523.000000;0.029571
7522.000000;0.029745
7521.000000;0.029955
7520.000000;0.030163
7519.000000;0.030383
7518.000000;0.030665
7517.000000;0.031001
7516.000000;0.031314
7515.000000;0.031575
7514.000000;0.031845
7513.000000;0.032153
7512.000000;0.032429
7511.000000;0.032593
7510.000000;0.032665
7509.000000;0.032729
7508.000000;0.032840
7507.000000;0.033028
7506.000000;0.033312
7505.000000;0.033662
7504.000000;0.033982
7503.000000;0.034199
7502.000000;0.034329
7501.000000;0.034438
7500.000000;0.034563
7499.000000;0.034720
7498.000000;0.034922
7497.000000;0.035161
7496.000000;0.035400
7495.000000;0.035648
7494.000000;0.035908
7493.000000;0.036209
7492.000000;0.036528
7491.000000;0.036809
7490.000000;0.037095
7489.000000;0.037382
7488.000000;0.037644
7487.000000;0.037871
7486.000000;0.038099
7485.000000;0.038326
7484.000000;0.038513
7483.000000;0.038664
7482.000000;0.038849
7481.000000;0.039096
7480.000000;0.039359
7479.000000;0.039615
7478.000000;0.039900
7477.000000;0.040215
7476.000000;0.040479
7475.000000;0.040659
7474.000000;0.040829
7473.000000;0.041063
7472.000000;0.041340
7471.000000;0.041609
7470.000000;0.041867
7469.000000;0.042109
7468.000000;0.042302
7467.000000;0.042458
7466.000000;0.042673
7465.000000;0.042992
7464.000000;0.043338
7463.000000;0.043625
7462.000000;0.043882
7461.000000;0.044173
7460.000000;0.044477
7459.000000;0.044730
7458.000000;0.044918
7457.000000;0.045064
7456.000000;0.045187
7455.000000;0.045331
7454.000000;0.045569
7453.000000;0.045899
7452.000000;0.046218
7451.000000;0.046454
7450.000000;0.046658
7449.000000;0.046904
7448.000000;0.047177
7447.000000;0.047433
7446.000000;0.047681
7445.000000;0.047954
7444.000000;0.048240
7443.000000;0.048523
7442.000000;0.048810
7441.000000;0.049076
7440.000000;0.049254
7439.000000;0.049345
7438.000000;0.049455
7437.000000;0.049665
7436.000000;0.049933
7435.000000;0.050190
7434.000000;0.050432
7433.000000;0.050672
7432.000000;0.050878
7431.000000;0.051049
7430.000000;0.051255
7429.000000;0.051525
7428.000000;0.051791
7427.000000;0.051993
7426.000000;0.052169
7425.000000;0.052376
7424.000000;0.052614
7423.000000;0.052890
7422.000000;0.053239
7421.000000;0.053631
7420.000000;0.053951
7419.000000;0.054143
7418.000000;0.054285
7417.000000;0.054467
7416.000000;0.054676
7415.000000;0.054881
7414.000000;0.055120
7413.000000;0.055418
7412.000000;0.055689
7411.000000;0.055852
7410.000000;0.055972
7409.000000;0.056157
7408.000000;0.056390
7407.000000;0.056576
7406.000000;0.056704
7405.000000;0.056863
7404.000000;0.057121
7403.000000;0.057458
7402.000000;0.057817
7401.000000;0.058138
7400.000000;0.058364
7399.000000;0.058522
7398.000000;0.058739
7397.000000;0.059046
7396.000000;0.059276
7395.000000;0.059342
7394.000000;0.059372
7393.000000;0.059448
7392.000000;0.059432
7391.000000;0.059237
7390.000000;0.059088
7389.000000;0.059295
7388.000000;0.059870
7387.000000;0.060564
7386.000000;0.061177
7385.000000;0.061629
7384.000000;0.061887
7383.000000;0.062000
7382.000000;0.062085
7381.000000;0.062226
7380.000000;0.062442
7379.000000;0.062748
7378.000000;0.063137
7377.000000;0.063482
7376.000000;0.063652
7375.000000;0.063740
7374.000000;0.063973
7373.000000;0.064383
7372.000000;0.064735
7371.000000;0.064821
7370.000000;0.064713
7369.000000;0.064627
7368.000000;0.064673
7367.000000;0.064916
7366.000000;0.065450
7365.000000;0.066136
7364.000000;0.066561
7363.000000;0.066539
7362.000000;0.066324
7361.000000;0.066310
7360.000000;0.066708
7359.000000;0.067457
7358.000000;0.068236
7357.000000;0.068615
7356.000000;0.068443
7355.000000;0.068080
7354.000000;0.068140
7353.000000;0.068847
7352.000000;0.069780
7351.000000;0.070338
7350.000000;0.070321
7349.000000;0.070029
7348.000000;0.069910
7347.000000;0.070183
7346.000000;0.070653
7345.000000;0.070925
7344.000000;0.070908
7343.000000;0.071067
7342.000000;0.071915
7341.000000;0.073240
7340.000000;0.074244
7339.000000;0.074498
7338.000000;0.074429
7337.000000;0.074592
7336.000000;0.074965
7335.000000;0.075248
7334.000000;0.075368
7333.000000;0.075512
7332.000000;0.075908
7331.000000;0.076543
7330.000000;0.077117
7329.000000;0.077354
7328.000000;0.077360
7327.000000;0.077531
7326.000000;0.078085
7325.000000;0.078802
7324.000000;0.079236
7323.000000;0.079272
7322.000000;0.079345
7321.000000;0.079954
7320.000000;0.081059
7319.000000;0.082167
7318.000000;0.082985
7317.000000;0.083645
7316.000000;0.084299
7315.000000;0.084881
7314.000000;0.085271
7313.000000;0.085540
7312.000000;0.085991
7311.000000;0.086829
7310.000000;0.087858
7309.000000;0.088626
7308.000000;0.088841
7307.000000;0.088672
7306.000000;0.088631
7305.000000;0.089198
7304.000000;0.090423
7303.000000;0.091758
7302.000000;0.092552
7301.000000;0.092684
7300.000000;0.092609
7299.000000;0.092978
7298.000000;0.094110
7297.000000;0.095706
7296.000000;0.097049
7295.000000;0.097689
7294.000000;0.097947
7293.000000;0.098556
7292.000000;0.099929
7291.000000;0.101773
7290.000000;0.103440
7289.000000;0.104621
7288.000000;0.105542
7287.000000;0.106507
7286.000000;0.107506
7285.000000;0.108381
7284.000000;0.109183
7283.000000;0.110049
7282.000000;0.110992
7281.000000;0.111987
7280.000000;0.113067
7279.000000;0.114295
7278.000000;0.115629
7277.000000;0.116946
7276.000000;0.118223
7275.000000;0.119541
7274.000000;0.120884
7273.000000;0.122157
7272.000000;0.123373
7271.000000;0.124640
7270.000000;0.125998
7269.000000;0.127408
7268.000000;0.128855
7267.000000;0.130370
7266.000000;0.131969
7265.000000;0.133657
7264.000000;0.135456
7263.000000;0.137342
7262.000000;0.139170
7261.000000;0.140803
7260.000000;0.142284
7259.000000;0.143769
7258.000000;0.145361
7257.000000;0.147085
7256.000000;0.148943
7255.000000;0.150928
7254.000000;0.152984
7253.000000;0.155032
7252.000000;0.157010
7251.000000;0.158970
7250.000000;0.161026
7249.000000;0.163121
7248.000000;0.165180
7247.000000;0.167321
7246.000000;0.169637
7245.000000;0.171958
7244.000000;0.174058
7243.000000;0.176002
7242.000000;0.178135
7241.000000;0.180721
7240.000000;0.183640
7239.000000;0.186458
7238.000000;0.188874
7237.000000;0.191066
7236.000000;0.193475
7235.000000;0.196302
7234.000000;0.199327
7233.000000;0.202190
7232.000000;0.204704
7231.000000;0.207109
7230.000000;0.209853
7229.000000;0.212948
7228.000000;0.216043
7227.000000;0.218975
7226.000000;0.221828
7225.000000;0.224722
7224.000000;0.227768
7223.000000;0.231000
7222.000000;0.234261
7221.000000;0.237357
7220.000000;0.240375
7219.000000;0.243604
7218.000000;0.247160
7217.000000;0.250869
7216.000000;0.254501
7215.000000;0.257967
7214.000000;0.261340
7213.000000;0.264803
7212.000000;0.268501
7211.000000;0.272429
7210.000000;0.276457
7209.000000;0.280474
7208.000000;0.284548
7207.000000;0.288837
7206.000000;0.293307
7205.000000;0.297747
7204.000000;0.302058
7203.000000;0.306326
7202.000000;0.310609
7201.000000;0.314846
7200.000000;0.319020
7199.000000;0.323216
7198.000000;0.327527
7197.000000;0.332006
7196.000000;0.336673
7195.000000;0.341480
7194.000000;0.346282
7193.000000;0.350980
7192.000000;0.355635
7191.000000;0.360380
7190.000000;0.365256
7189.000000;0.370221
7188.000000;0.375268
7187.000000;0.380404
7186.000000;0.385618
7185.000000;0.390867
7184.000000;0.396051
7183.000000;0.401071
7182.000000;0.405961
7181.000000;0.410992
7180.000000;0.416535
7179.000000;0.422658
7178.000000;0.428902
7177.000000;0.434732
7176.000000;0.440148
7175.000000;0.445543
7174.000000;0.451123
7173.000000;0.456789
7172.000000;0.462430
7171.000000;0.468153
7170.000000;0.474117
7169.000000;0.480288
7168.000000;0.486405
7167.000000;0.492188
7166.000000;0.497755
7165.000000;0.503541
7164.000000;0.509673
7163.000000;0.515735
7162.000000;0.521318
7161.000000;0.526624
7160.000000;0.532308
7159.000000;0.538744
7158.000000;0.545625
7157.000000;0.552362
7156.000000;0.558715
7155.000000;0.564837
7154.000000;0.570909
7153.000000;0.577016
7152.000000;0.583153
7151.000000;0.589273
7150.000000;0.595415
7149.000000;0.601640
7148.000000;0.607826
7147.000000;0.613776
7146.000000;0.619537
7145.000000;0.625444
7144.000000;0.631839
7143.000000;0.638709
7142.000000;0.645594
7141.000000;0.651951
7140.000000;0.657688
7139.000000;0.663274
7138.000000;0.669256
7137.000000;0.675718
7136.000000;0.682282
7135.000000;0.688628
7134.000000;0.694786
7133.000000;0.700949
7132.000000;0.707126
7131.000000;0.713129
7130.000000;0.718904
7129.000000;0.724631
7128.000000;0.730503
7127.000000;0.736549
7126.000000;0.742627
7125.000000;0.748548
7124.000000;0.754213
7123.000000;0.759720
7122.000000;0.765319
7121.000000;0.771130
7120.000000;0.776927
7119.000000;0.782341
7118.000000;0.787301
7117.000000;0.792231
7116.000000;0.797711
7115.000000;0.803863
7114.000000;0.810162
7113.000000;0.815986
7112.000000;0.821209
7111.000000;0.826178
7110.000000;0.831247
7109.000000;0.836492
7108.000000;0.841812
7107.000000;0.847113
7106.000000;0.852324
7105.000000;0.857377
7104.000000;0.862221
7103.000000;0.866972
7102.000000;0.871857
7101.000000;0.876857
7100.000000;0.881676
7099.000000;0.886159
7098.000000;0.890425
7097.000000;0.894589
7096.000000;0.898643
7095.000000;0.902696
7094.000000;0.907021
7093.000000;0.911647
7092.000000;0.916121
7091.000000;0.919993
7090.000000;0.923403
7089.000000;0.926939
7088.000000;0.930974
7087.000000;0.935323
7086.000000;0.939528
7085.000000;0.943316
7084.000000;0.946799
7083.000000;0.950373
7082.000000;0.954363
7081.000000;0.958699
7080.000000;0.962985
7079.000000;0.966949
7078.000000;0.970607
7077.000000;0.974050
7076.000000;0.977301
7075.000000;0.980360
7074.000000;0.983211
7073.000000;0.985830
7072.000000;0.988296
7071.000000;0.990939
7070.000000;0.994100
7069.000000;0.997655
7068.000000;1.001004
7067.000000;1.003690
7066.000000;1.005915
7065.000000;1.008308
7064.000000;1.011235
7063.000000;1.014491
7062.000000;1.017598
7061.000000;1.020261
7060.000000;1.022547
7059.000000;1.024752
7058.000000;1.027017
7057.000000;1.029136
7056.000000;1.030919
7055.000000;1.032606
7054.000000;1.034694
7053.000000;1.037419
7052.000000;1.040518
7051.000000;1.043503
7050.000000;1.046039
7049.000000;1.048042
7048.000000;1.049624
7047.000000;1.051047
7046.000000;1.052540
7045.000000;1.054089
7044.000000;1.055555
7043.000000;1.056978
7042.000000;1.058594
7041.000000;1.060473
7040.000000;1.062353
7039.000000;1.063920
7038.000000;1.065077
7037.000000;1.065900
7036.000000;1.066584
7035.000000;1.067485
7034.000000;1.068966
7033.000000;1.070997
7032.000000;1.073052
7031.000000;1.074553
7030.000000;1.075442
7029.000000;1.076230
7028.000000;1.077508
7027.000000;1.079422
7026.000000;1.081513
7025.000000;1.083102
7024.000000;1.083951
7023.000000;1.084537
7022.000000;1.085513
7021.000000;1.086991
7020.000000;1.088519
7019.000000;1.089658
7018.000000;1.090325
7017.000000;1.090646
7016.000000;1.090786
7015.000000;1.090997
7014.000000;1.091526
7013.000000;1.092325
7012.000000;1.093041
7011.000000;1.093421
7010.000000;1.093594
7009.000000;1.093868
7008.000000;1.094456
7007.000000;1.095431
7006.000000;1.096720
7005.000000;1.098013
7004.000000;1.098885
7003.000000;1.099139
7002.000000;1.098973
7001.000000;1.098788
7000.000000;1.098940
6999.000000;1.099626
6998.000000;1.100785
6997.000000;1.102047
6996.000000;1.102962
6995.000000;1.103415
6994.000000;1.103670
6993.000000;1.103995
6992.000000;1.104376
6991.000000;1.104600
6990.000000;1.104478
6989.000000;1.104012
6988.000000;1.103470
6987.000000;1.103301
6986.000000;1.103835
6985.000000;1.104985
6984.000000;1.106339
6983.000000;1.107482
6982.000000;1.108127
6981.000000;1.108079
6980.000000;1.107376
6979.000000;1.106404
6978.000000;1.105624
6977.000000;1.105166
6976.000000;1.104869
6975.000000;1.104625
6974.000000;1.104445
6973.000000;1.104277
6972.000000;1.104080
6971.000000;1.104022
6970.000000;1.104309
6969.000000;1.104824
6968.000000;1.105170
6967.000000;1.105109
6966.000000;1.104722
6965.000000;1.104134
6964.000000;1.103343
6963.000000;1.102410
6962.000000;1.101589
6961.000000;1.101173
6960.000000;1.101302
6959.000000;1.101818
6958.000000;1.102178
6957.000000;1.101771
6956.000000;1.100640
6955.000000;1.099651
6954.000000;1.099523
6953.000000;1.099861
6952.000000;1.099618
6951.000000;1.098469
6950.000000;1.097157
6949.000000;1.096432
6948.000000;1.096225
6947.000000;1.096068
6946.000000;1.095833
6945.000000;1.095653
6944.000000;1.095416
6943.000000;1.094779
6942.000000;1.093702
6941.000000;1.092643
6940.000000;1.092112
6939.000000;1.092124
6938.000000;1.092163
6937.000000;1.091705
6936.000000;1.090762
6935.000000;1.089785
6934.000000;1.089063
6933.000000;1.088484
6932.000000;1.087966
6931.000000;1.087730
6930.000000;1.087876
6929.000000;1.088001
6928.000000;1.087636
6927.000000;1.086860
6926.000000;1.086063
6925.000000;1.085259
6924.000000;1.084094
6923.000000;1.082463
6922.000000;1.080727
6921.000000;1.079299
6920.000000;1.078336
6919.000000;1.077816
6918.000000;1.077513
6917.000000;1.076928
6916.000000;1.075704
6915.000000;1.074181
6914.000000;1.073121
6913.000000;1.072840
6912.000000;1.072949
6911.000000;1.072937
6910.000000;1.072611
6909.000000;1.071919
6908.000000;1.070788
6907.000000;1.069359
6906.000000;1.068034
6905.000000;1.067115
6904.000000;1.066591
6903.000000;1.066292
6902.000000;1.066009
6901.000000;1.065414
6900.000000;1.064230
6899.000000;1.062644
6898.000000;1.061242
6897.000000;1.060377
6896.000000;1.059826
6895.000000;1.059128
6894.000000;1.058058
6893.000000;1.056708
6892.000000;1.055398
6891.000000;1.054544
6890.000000;1.054304
6889.000000;1.054280
6888.000000;1.053873
6887.000000;1.053027
6886.000000;1.052287
6885.000000;1.052036
6884.000000;1.052004
6883.000000;1.051654
6882.000000;1.050761
6881.000000;1.049446
6880.000000;1.047912
6879.000000;1.046367
6878.000000;1.045007
6877.000000;1.043881
6876.000000;1.042896
6875.000000;1.042009
6874.000000;1.041272
6873.000000;1.040684
6872.000000;1.040174
6871.000000;1.039685
6870.000000;1.039101
6869.000000;1.038160
6868.000000;1.036724
6867.000000;1.035074
6866.000000;1.033613
6865.000000;1.032341
6864.000000;1.030972
6863.000000;1.029522
6862.000000;1.028364
6861.000000;1.027627
6860.000000;1.026963
6859.000000;1.026040
6858.000000;1.024924
6857.000000;1.023819
6856.000000;1.022756
6855.000000;1.021674
6854.000000;1.020551
6853.000000;1.019328
6852.000000;1.017935
6851.000000;1.016485
6850.000000;1.015226
6849.000000;1.014205
6848.000000;1.013177
6847.000000;1.011891
6846.000000;1.010279
6845.000000;1.008371
6844.000000;1.006267
6843.000000;1.004224
6842.000000;1.002478
6841.000000;1.000955
6840.000000;0.999384
6839.000000;0.997716
6838.000000;0.996132
6837.000000;0.994608
6836.000000;0.992813
6835.000000;0.990560
6834.000000;0.988064
6833.000000;0.985649
6832.000000;0.983434
6831.000000;0.981396
6830.000000;0.979532
6829.000000;0.977821
6828.000000;0.976179
6827.000000;0.974513
6826.000000;0.972739
6825.000000;0.970768
6824.000000;0.968653
6823.000000;0.966658
6822.000000;0.964945
6821.000000;0.963257
6820.000000;0.961179
6819.000000;0.958687
6818.000000;0.956144
6817.000000;0.953773
6816.000000;0.951464
6815.000000;0.949091
6814.000000;0.946653
6813.000000;0.944064
6812.000000;0.941201
6811.000000;0.938255
6810.000000;0.935681
6809.000000;0.933615
6808.000000;0.931622
6807.000000;0.929205
6806.000000;0.926359
6805.000000;0.923460
6804.000000;0.920807
6803.000000;0.918434
6802.000000;0.916179
6801.000000;0.913784
6800.000000;0.911041
6799.000000;0.908012
6798.000000;0.905031
6797.000000;0.902404
6796.000000;0.900136
6795.000000;0.897956
6794.000000;0.895526
6793.000000;0.892667
6792.000000;0.889522
6791.000000;0.886481
6790.000000;0.883827
6789.000000;0.881465
6788.000000;0.879092
6787.000000;0.876558
6786.000000;0.873898
6785.000000;0.871136
6784.000000;0.868274
6783.000000;0.865425
6782.000000;0.862689
6781.000000;0.859934
6780.000000;0.856939
6779.000000;0.853749
6778.000000;0.850641
6777.000000;0.847769
6776.000000;0.845052
6775.000000;0.842367
6774.000000;0.839626
6773.000000;0.836678
6772.000000;0.833448
6771.000000;0.830185
6770.000000;0.827270
6769.000000;0.824730
6768.000000;0.822183
6767.000000;0.819353
6766.000000;0.816358
6765.000000;0.813422
6764.000000;0.810574
6763.000000;0.807747
6762.000000;0.804913
6761.000000;0.802020
6760.000000;0.799007
6759.000000;0.795974
6758.000000;0.793169
6757.000000;0.790657
6756.000000;0.788198
6755.000000;0.785527
6754.000000;0.782622
6753.000000;0.779591
6752.000000;0.776501
6751.000000;0.773412
6750.000000;0.770426
6749.000000;0.767573
6748.000000;0.764759
6747.000000;0.761893
6746.000000;0.758962
6745.000000;0.755954
6744.000000;0.752853
6743.000000;0.749755
6742.000000;0.746803
6741.000000;0.743984
6740.000000;0.741135
6739.000000;0.738192
6738.000000;0.735276
6737.000000;0.732482
6736.000000;0.729736
6735.000000;0.726931
6734.000000;0.724058
6733.000000;0.721137
6732.000000;0.718161
6731.000000;0.715186
6730.000000;0.712334
6729.000000;0.709638
6728.000000;0.706983
6727.000000;0.704251
6726.000000;0.701431
6725.000000;0.698565
6724.000000;0.695680
6723.000000;0.692827
6722.000000;0.690063
6721.000000;0.687377
6720.000000;0.684712
6719.000000;0.682046
6718.000000;0.679345
6717.000000;0.676493
6716.000000;0.673427
6715.000000;0.670327
6714.000000;0.667484
6713.000000;0.664956
6712.000000;0.662492
6711.000000;0.659845
6710.000000;0.656937
6709.000000;0.653841
6708.000000;0.650696
6707.000000;0.647649
6706.000000;0.644882
6705.000000;0.642382
6704.000000;0.639936
6703.000000;0.637405
6702.000000;0.634825
6701.000000;0.632176
6700.000000;0.629388
6699.000000;0.626414
6698.000000;0.623460
6697.000000;0.620676
6696.000000;0.617997
6695.000000;0.615315
6694.000000;0.612632
6693.000000;0.609990
6692.000000;0.607359
6691.000000;0.604713
6690.000000;0.602100
6689.000000;0.599564
6688.000000;0.597048
6687.000000;0.594470
6686.000000;0.591814
6685.000000;0.589095
6684.000000;0.586328
6683.000000;0.583581
6682.000000;0.580956
6681.000000;0.578464
6680.000000;0.576008
6679.000000;0.573525
6678.000000;0.571045
6677.000000;0.568562
6676.000000;0.565992
6675.000000;0.563320
6674.000000;0.560656
6673.000000;0.558068
6672.000000;0.555488
6671.000000;0.552849
6670.000000;0.550219
6669.000000;0.547676
6668.000000;0.545167
6667.000000;0.542588
6666.000000;0.539944
6665.000000;0.537316
6664.000000;0.534762
6663.000000;0.532309
6662.000000;0.530000
6661.000000;0.527816
6660.000000;0.525621
6659.000000;0.523282
6658.000000;0.520803
6657.000000;0.518284
6656.000000;0.515773
6655.000000;0.513248
6654.000000;0.510700
6653.000000;0.508166
6652.000000;0.505664
6651.000000;0.503181
6650.000000;0.500711
6649.000000;0.498269
6648.000000;0.495859
6647.000000;0.493463
6646.000000;0.491060
6645.000000;0.488646
6644.000000;0.486239
6643.000000;0.483864
6642.000000;0.481510
6641.000000;0.479116
6640.000000;0.476643
6639.000000;0.474146
6638.000000;0.471728
6637.000000;0.469437
6636.000000;0.467228
6635.000000;0.465021
6634.000000;0.462741
6633.000000;0.460351
6632.000000;0.457896
6631.000000;0.455498
6630.000000;0.453231
6629.000000;0.451026
6628.000000;0.448754
6627.000000;0.446406
6626.000000;0.444096
6625.000000;0.441885
6624.000000;0.439717
6623.000000;0.437520
6622.000000;0.435284
6621.000000;0.433016
6620.000000;0.430710
6619.000000;0.428395
6618.000000;0.426135
6617.000000;0.423947
6616.000000;0.421778
6615.000000;0.419592
6614.000000;0.417423
6613.000000;0.415316
6612.000000;0.413263
6611.000000;0.411224
6610.000000;0.409147
6609.000000;0.406979
6608.000000;0.404706
6607.000000;0.402403
6606.000000;0.400188
6605.000000;0.398104
6604.000000;0.396104
6603.000000;0.394127
6602.000000;0.392137
6601.000000;0.390086
6600.000000;0.387933
6599.000000;0.385722
6598.000000;0.383544
6597.000000;0.381409
6596.000000;0.379231
6595.000000;0.376971
6594.000000;0.374711
6593.000000;0.372561
6592.000000;0.370535
6591.000000;0.368559
6590.000000;0.366544
6589.000000;0.364440
6588.000000;0.362260
6587.000000;0.360097
6586.000000;0.358053
6585.000000;0.356140
6584.000000;0.354282
6583.000000;0.352419
6582.000000;0.350550
6581.000000;0.348681
6580.000000;0.346786
6579.000000;0.344848
6578.000000;0.342882
6577.000000;0.340900
6576.000000;0.338900
6575.000000;0.336913
6574.000000;0.334989
6573.000000;0.333119
6572.000000;0.331241
6571.000000;0.329325
6570.000000;0.327394
6569.000000;0.325458
6568.000000;0.323499
6567.000000;0.321525
6566.000000;0.319591
6565.000000;0.317722
6564.000000;0.315882
6563.000000;0.314034
6562.000000;0.312176
6561.000000;0.310306
6560.000000;0.308415
6559.000000;0.306532
6558.000000;0.304711
6557.000000;0.302932
6556.000000;0.301104
6555.000000;0.299196
6554.000000;0.297306
6553.000000;0.295565
6552.000000;0.293992
6551.000000;0.292490
6550.000000;0.290947
6549.000000;0.289282
6548.000000;0.287464
6547.000000;0.285521
6546.000000;0.283543
6545.000000;0.281621
6544.000000;0.279794
6543.000000;0.278046
6542.000000;0.276336
6541.000000;0.274622
6540.000000;0.272894
6539.000000;0.271178
6538.000000;0.269497
6537.000000;0.267821
6536.000000;0.266106
6535.000000;0.264375
6534.000000;0.262706
6533.000000;0.261133
6532.000000;0.259592
6531.000000;0.257991
6530.000000;0.256287
6529.000000;0.254512
6528.000000;0.252736
6527.000000;0.251025
6526.000000;0.249397
6525.000000;0.247814
6524.000000;0.246233
6523.000000;0.244653
6522.000000;0.243083
6521.000000;0.241480
6520.000000;0.239791
6519.000000;0.238045
6518.000000;0.236331
6517.000000;0.234710
6516.000000;0.233173
6515.000000;0.231698
6514.000000;0.230265
6513.000000;0.228818
6512.000000;0.227289
6511.000000;0.225679
6510.000000;0.224067
6509.000000;0.222514
6508.000000;0.220998
6507.000000;0.219455
6506.000000;0.217843
6505.000000;0.216160
6504.000000;0.214456
6503.000000;0.212812
6502.000000;0.211269
6501.000000;0.209767
6500.000000;0.208226
6499.000000;0.206660
6498.000000;0.205150
6497.000000;0.203708
6496.000000;0.202256
6495.000000;0.200760
6494.000000;0.199298
6493.000000;0.197942
6492.000000;0.196655
6491.000000;0.195338
6490.000000;0.193939
6489.000000;0.192454
6488.000000;0.190898
6487.000000;0.189313
6486.000000;0.187773
6485.000000;0.186336
6484.000000;0.184982
6483.000000;0.183641
6482.000000;0.182259
6481.000000;0.180826
6480.000000;0.179364
6479.000000;0.177919
6478.000000;0.176535
6477.000000;0.175210
6476.000000;0.173901
6475.000000;0.172567
6474.000000;0.171193
6473.000000;0.169776
6472.000000;0.168325
6471.000000;0.166884
6470.000000;0.165499
6469.000000;0.164168
6468.000000;0.162834
6467.000000;0.161474
6466.000000;0.160120
6465.000000;0.158802
6464.000000;0.157500
6463.000000;0.156177
6462.000000;0.154838
6461.000000;0.153504
6460.000000;0.152183
6459.000000;0.150877
6458.000000;0.149592
6457.000000;0.148332
6456.000000;0.147078
6455.000000;0.145811
6454.000000;0.144528
6453.000000;0.143242
6452.000000;0.141970
6451.000000;0.140729
6450.000000;0.139511
6449.000000;0.138278
6448.000000;0.137012
6447.000000;0.135743
6446.000000;0.134517
6445.000000;0.133326
6444.000000;0.132129
6443.000000;0.130918
6442.000000;0.129720
6441.000000;0.128529
6440.000000;0.127302
6439.000000;0.126023
6438.000000;0.124726
6437.000000;0.123438
6436.000000;0.122148
6435.000000;0.120863
6434.000000;0.119621
6433.000000;0.118435
6432.000000;0.117270
6431.000000;0.116100
6430.000000;0.114946
6429.000000;0.113826
6428.000000;0.112707
6427.000000;0.111550
6426.000000;0.110364
6425.000000;0.109196
6424.000000;0.108070
6423.000000;0.106969
6422.000000;0.105852
6421.000000;0.104688
6420.000000;0.103476
6419.000000;0.102265
6418.000000;0.101105
6417.000000;0.099988
6416.000000;0.098858
6415.000000;0.097690
6414.000000;0.096537
6413.000000;0.095464
6412.000000;0.094477
6411.000000;0.093532
6410.000000;0.092581
6409.000000;0.091579
6408.000000;0.090494
6407.000000;0.089325
6406.000000;0.088122
6405.000000;0.086948
6404.000000;0.085838
6403.000000;0.084794
6402.000000;0.083799
6401.000000;0.082818
6400.000000;0.081809
6399.000000;0.080758
6398.000000;0.079690
6397.000000;0.078634
6396.000000;0.077587
6395.000000;0.076531
6394.000000;0.075472
6393.000000;0.074436
6392.000000;0.073448
6391.000000;0.072503
6390.000000;0.071559
6389.000000;0.070558
6388.000000;0.069467
6387.000000;0.068320
6386.000000;0.067183
6385.000000;0.066106
6384.000000;0.065101
6383.000000;0.064160
6382.000000;0.063257
6381.000000;0.062342
6380.000000;0.061365
6379.000000;0.060336
6378.000000;0.059316
6377.000000;0.058355
6376.000000;0.057441
6375.000000;0.056535
6374.000000;0.055617
6373.000000;0.054689
6372.000000;0.053742
6371.000000;0.052770
6370.000000;0.051780
6369.000000;0.050793
6368.000000;0.049823
6367.000000;0.048861
6366.000000;0.047896
6365.000000;0.046925
6364.000000;0.045962
6363.000000;0.045026
6362.000000;0.044112
6361.000000;0.043200
6360.000000;0.042275
6359.000000;0.041350
6358.000000;0.040439
6357.000000;0.039534
6356.000000;0.038630
6355.000000;0.037749
6354.000000;0.036912
6353.000000;0.036092
6352.000000;0.035239
6351.000000;0.034333
6350.000000;0.033406
6349.000000;0.032499
6348.000000;0.031637
6347.000000;0.030825
6346.000000;0.030052
6345.000000;0.029290
6344.000000;0.028515
6343.000000;0.027721
6342.000000;0.026909
6341.000000;0.026061
6340.000000;0.025165
6339.000000;0.024240
6338.000000;0.023319
6337.000000;0.022418
6336.000000;0.021543
6335.000000;0.020723
6334.000000;0.019971
6333.000000;0.019243
6332.000000;0.018460
6331.000000;0.017593
6330.000000;0.016692
6329.000000;0.015812
6328.000000;0.014961
6327.000000;0.014124
6326.000000;0.013294
6325.000000;0.012477
6324.000000;0.011680
6323.000000;0.010915
6322.000000;0.010184
6321.000000;0.009457
6320.000000;0.008696
6319.000000;0.007892
6318.000000;0.007077
6317.000000;0.006280
6316.000000;0.005506
6315.000000;0.004753
6314.000000;0.004008
6313.000000;0.003243
6312.000000;0.002443
6311.000000;0.001636
6310.000000;0.000874
6309.000000;0.000170
6308.000000;-0.000517
6307.000000;-0.001228
6306.000000;-0.001974
6305.000000;-0.002753
6304.000000;-0.003568
6303.000000;-0.004410
6302.000000;-0.005249
6301.000000;-0.006058
6300.000000;-0.006833
6299.000000;-0.007578
6298.000000;-0.008292
6297.000000;-0.008975
6296.000000;-0.009633
6295.000000;-0.010280
6294.000000;-0.010936
6293.000000;-0.011623
6292.000000;-0.012334
6291.000000;-0.013038
6290.000000;-0.013721
6289.000000;-0.014412
6288.000000;-0.015140
6287.000000;-0.015880
6286.000000;-0.016583
6285.000000;-0.017249
6284.000000;-0.017919
6283.000000;-0.018610
6282.000000;-0.019297
6281.000000;-0.019967
6280.000000;-0.020642
6279.000000;-0.021328
6278.000000;-0.022004
6277.000000;-0.022657
6276.000000;-0.023314
6275.000000;-0.024002
6274.000000;-0.024714
6273.000000;-0.025425
6272.000000;-0.026117
6271.000000;-0.026776
6270.000000;-0.027394
6269.000000;-0.027984
6268.000000;-0.028580
6267.000000;-0.029215
6266.000000;-0.029893
6265.000000;-0.030602
6264.000000;-0.031317
6263.000000;-0.032008
6262.000000;-0.032661
6261.000000;-0.033295
6260.000000;-0.033944
6259.000000;-0.034616
6258.000000;-0.035291
6257.000000;-0.035960
6256.000000;-0.036635
6255.000000;-0.037310
6254.000000;-0.037954
6253.000000;-0.038544
6252.000000;-0.039100
6251.000000;-0.039664
6250.000000;-0.040267
6249.000000;-0.040916
6248.000000;-0.041594
6247.000000;-0.042257
6246.000000;-0.042858
6245.000000;-0.043390
6244.000000;-0.043888
6243.000000;-0.044390
6242.000000;-0.044906
6241.000000;-0.045440
6240.000000;-0.046009
6239.000000;-0.046627
6238.000000;-0.047277
6237.000000;-0.047917
6236.000000;-0.048517
6235.000000;-0.049080
6234.000000;-0.049631
6233.000000;-0.050192
6232.000000;-0.050770
6231.000000;-0.051363
6230.000000;-0.051972
6229.000000;-0.052596
6228.000000;-0.053210
6227.000000;-0.053783
6226.000000;-0.054324
6225.000000;-0.054883
6224.000000;-0.055489
6223.000000;-0.056113
6222.000000;-0.056705
6221.000000;-0.057257
6220.000000;-0.057795
6219.000000;-0.058336
6218.000000;-0.058874
6217.000000;-0.059408
6216.000000;-0.059939
6215.000000;-0.060457
6214.000000;-0.060964
6213.000000;-0.061494
6212.000000;-0.062080
6211.000000;-0.062708
6210.000000;-0.063318
6209.000000;-0.063863
6208.000000;-0.064346
6207.000000;-0.064801
6206.000000;-0.065271
6205.000000;-0.065789
6204.000000;-0.066355
6203.000000;-0.066932
6202.000000;-0.067494
6201.000000;-0.068060
6200.000000;-0.068658
6199.000000;-0.069260
6198.000000;-0.069807
6197.000000;-0.070284
6196.000000;-0.070740
6195.000000;-0.071226
6194.000000;-0.071750
6193.000000;-0.072285
6192.000000;-0.072803
6191.000000;-0.073285
6190.000000;-0.073732
6189.000000;-0.074178
6188.000000;-0.074652
6187.000000;-0.075155
6186.000000;-0.075665
6185.000000;-0.076180
6184.000000;-0.076707
6183.000000;-0.077230
6182.000000;-0.077723
6181.000000;-0.078186
6180.000000;-0.078650
6179.000000;-0.079128
6178.000000;-0.079600
6177.000000;-0.080056
6176.000000;-0.080513
6175.000000;-0.080988
6174.000000;-0.081476
6173.000000;-0.081971
6172.000000;-0.082476
6171.000000;-0.082984
6170.000000;-0.083479
6169.000000;-0.083942
6168.000000;-0.084375
6167.000000;-0.084791
6166.000000;-0.085215
6165.000000;-0.085682
6164.000000;-0.086211
6163.000000;-0.086773
6162.000000;-0.087319
6161.000000;-0.087822
6160.000000;-0.088289
6159.000000;-0.088726
6158.000000;-0.089137
6157.000000;-0.089538
6156.000000;-0.089963
6155.000000;-0.090424
6154.000000;-0.090906
6153.000000;-0.091387
6152.000000;-0.091869
6151.000000;-0.092353
6150.000000;-0.092830
6149.000000;-0.093293
6148.000000;-0.093742
6147.000000;-0.094181
6146.000000;-0.094619
6145.000000;-0.095073
6144.000000;-0.095560
6143.000000;-0.096067
6142.000000;-0.096559
6141.000000;-0.097004
6140.000000;-0.097400
6139.000000;-0.097766
6138.000000;-0.098125
6137.000000;-0.098495
6136.000000;-0.098885
6135.000000;-0.099290
6134.000000;-0.099709
6133.000000;-0.100143
6132.000000;-0.100584
6131.000000;-0.101011
6130.000000;-0.101410
6129.000000;-0.101804
6128.000000;-0.102220
6127.000000;-0.102657
6126.000000;-0.103083
6125.000000;-0.103477
6124.000000;-0.103834
6123.000000;-0.104169
6122.000000;-0.104510
6121.000000;-0.104891
6120.000000;-0.105323
6119.000000;-0.105786
6118.000000;-0.106254
6117.000000;-0.106722
6116.000000;-0.107190
6115.000000;-0.107640
6114.000000;-0.108062
6113.000000;-0.108475
6112.000000;-0.108902
6111.000000;-0.109335
6110.000000;-0.109748
6109.000000;-0.110137
6108.000000;-0.110505
6107.000000;-0.110841
6106.000000;-0.111143
6105.000000;-0.111446
6104.000000;-0.111789
6103.000000;-0.112169
6102.000000;-0.112550
6101.000000;-0.112916
6100.000000;-0.113283
6099.000000;-0.113660
6098.000000;-0.114046
6097.000000;-0.114447
6096.000000;-0.114870
6095.000000;-0.115299
6094.000000;-0.115712
6093.000000;-0.116107
6092.000000;-0.116491
6091.000000;-0.116849
6090.000000;-0.117159
6089.000000;-0.117430
6088.000000;-0.117696
6087.000000;-0.117975
6086.000000;-0.118268
6085.000000;-0.118591
6084.000000;-0.118969
6083.000000;-0.119394
6082.000000;-0.119829
6081.000000;-0.120252
6080.000000;-0.120669
6079.000000;-0.121077
6078.000000;-0.121457
6077.000000;-0.121806
6076.000000;-0.122147
6075.000000;-0.122487
6074.000000;-0.122810
6073.000000;-0.123108
6072.000000;-0.123402
6071.000000;-0.123718
6070.000000;-0.124061
6069.000000;-0.124424
6068.000000;-0.124797
6067.000000;-0.125169
6066.000000;-0.125541
6065.000000;-0.125925
6064.000000;-0.126327
6063.000000;-0.126718
6062.000000;-0.127060
6061.000000;-0.127355
6060.000000;-0.127639
6059.000000;-0.127939
6058.000000;-0.128241
6057.000000;-0.128525
6056.000000;-0.128785
6055.000000;-0.129030
6054.000000;-0.129274
6053.000000;-0.129538
6052.000000;-0.129836
6051.000000;-0.130162
6050.000000;-0.130499
6049.000000;-0.130838
6048.000000;-0.131177
6047.000000;-0.131502
6046.000000;-0.131795
6045.000000;-0.132067
6044.000000;-0.132340
6043.000000;-0.132621
6042.000000;-0.132907
6041.000000;-0.133207
6040.000000;-0.133533
6039.000000;-0.133870
6038.000000;-0.134185
6037.000000;-0.134470
6036.000000;-0.134750
6035.000000;-0.135038
6034.000000;-0.135330
6033.000000;-0.135624
6032.000000;-0.135928
6031.000000;-0.136238
6030.000000;-0.136538
6029.000000;-0.136824
6028.000000;-0.137112
6027.000000;-0.137401
6026.000000;-0.137676
6025.000000;-0.137929
6024.000000;-0.138166
6023.000000;-0.138380
6022.000000;-0.138563
6021.000000;-0.138737
6020.000000;-0.138948
6019.000000;-0.139215
6018.000000;-0.139507
6017.000000;-0.139784
6016.000000;-0.140030
6015.000000;-0.140256
6014.000000;-0.140474
6013.000000;-0.140695
6012.000000;-0.140925
6011.000000;-0.141160
6010.000000;-0.141404
6009.000000;-0.141680
6008.000000;-0.141995
6007.000000;-0.142314
6006.000000;-0.142578
6005.000000;-0.142772
6004.000000;-0.142940
6003.000000;-0.143133
6002.000000;-0.143372
6001.000000;-0.143646
6000.000000;-0.143933
5999.000000;-0.144200
5998.000000;-0.144422
5997.000000;-0.144605
5996.000000;-0.144778
5995.000000;-0.144959
5994.000000;-0.145152
5993.000000;-0.145360
5992.000000;-0.145597
5991.000000;-0.145863
5990.000000;-0.146133
5989.000000;-0.146383
5988.000000;-0.146608
5987.000000;-0.146807
5986.000000;-0.146981
5985.000000;-0.147136
5984.000000;-0.147293
5983.000000;-0.147466
5982.000000;-0.147661
5981.000000;-0.147885
5980.000000;-0.148137
5979.000000;-0.148392
5978.000000;-0.148614
5977.000000;-0.148795
5976.000000;-0.148957
5975.000000;-0.149126
5974.000000;-0.149305
5973.000000;-0.149485
5972.000000;-0.149661
5971.000000;-0.149832
5970.000000;-0.149997
5969.000000;-0.150158
5968.000000;-0.150316
5967.000000;-0.150479
5966.000000;-0.150654
5965.000000;-0.150839
5964.000000;-0.151015
5963.000000;-0.151163
5962.000000;-0.151295
5961.000000;-0.151448
5960.000000;-0.151636
5959.000000;-0.151832
5958.000000;-0.152008
5957.000000;-0.152182
5956.000000;-0.152380
5955.000000;-0.152586
5954.000000;-0.152759
5953.000000;-0.152884
5952.000000;-0.152978
5951.000000;-0.153062
5950.000000;-0.153144
5949.000000;-0.153243
5948.000000;-0.153373
5947.000000;-0.153514
5946.000000;-0.153628
5945.000000;-0.153710
5944.000000;-0.153790
5943.000000;-0.153888
5942.000000;-0.153989
5941.000000;-0.154078
5940.000000;-0.154167
5939.000000;-0.154276
5938.000000;-0.154406
5937.000000;-0.154539
5936.000000;-0.154659
5935.000000;-0.154757
5934.000000;-0.154841
5933.000000;-0.154918
5932.000000;-0.154992
5931.000000;-0.155062
5930.000000;-0.155144
5929.000000;-0.155271
5928.000000;-0.155453
5927.000000;-0.155647
5926.000000;-0.155795
5925.000000;-0.155881
5924.000000;-0.155934
5923.000000;-0.155992
5922.000000;-0.156071
5921.000000;-0.156175
5920.000000;-0.156286
5919.000000;-0.156368
5918.000000;-0.156405
5917.000000;-0.156424
5916.000000;-0.156474
5915.000000;-0.156573
5914.000000;-0.156699
5913.000000;-0.156832
5912.000000;-0.156966
5911.000000;-0.157093
5910.000000;-0.157203
5909.000000;-0.157301
5908.000000;-0.157395
5907.000000;-0.157468
5906.000000;-0.157491
5905.000000;-0.157477
5904.000000;-0.157476
5903.000000;-0.157526
5902.000000;-0.157613
5901.000000;-0.157703
5900.000000;-0.157775
5899.000000;-0.157826
5898.000000;-0.157869
5897.000000;-0.157920
5896.000000;-0.157991
5895.000000;-0.158069
5894.000000;-0.158132
5893.000000;-0.158180
5892.000000;-0.158229
5891.000000;-0.158280
5890.000000;-0.158313
5889.000000;-0.158311
5888.000000;-0.158281
5887.000000;-0.158257
5886.000000;-0.158270
5885.000000;-0.158331
5884.000000;-0.158416
5883.000000;-0.158477
5882.000000;-0.158494
5881.000000;-0.158491
5880.000000;-0.158507
5879.000000;-0.158552
5878.000000;-0.158602
5877.000000;-0.158642
5876.000000;-0.158668
5875.000000;-0.158679
5874.000000;-0.158680
5873.000000;-0.158681
5872.000000;-0.158685
5871.000000;-0.158668
5870.000000;-0.158616
5869.000000;-0.158555
5868.000000;-0.158525
5867.000000;-0.158530
5866.000000;-0.158536
5865.000000;-0.158516
5864.000000;-0.158477
5863.000000;-0.158432
5862.000000;-0.158380
5861.000000;-0.158317
5860.000000;-0.158247
5859.000000;-0.158182
5858.000000;-0.158124
5857.000000;-0.158072
5856.000000;-0.158016
5855.000000;-0.157950
5854.000000;-0.157887
5853.000000;-0.157847
5852.000000;-0.157828
5851.000000;-0.157793
5850.000000;-0.157717
5849.000000;-0.157618
5848.000000;-0.157526
5847.000000;-0.157447
5846.000000;-0.157370
5845.000000;-0.157299
5844.000000;-0.157243
5843.000000;-0.157192
5842.000000;-0.157128
5841.000000;-0.157053
5840.000000;-0.156987
5839.000000;-0.156924
5838.000000;-0.156828
5837.000000;-0.156674
5836.000000;-0.156467
5835.000000;-0.156235
5834.000000;-0.156009
5833.000000;-0.155823
5832.000000;-0.155694
5831.000000;-0.155611
5830.000000;-0.155539
5829.000000;-0.155457
5828.000000;-0.155363
5827.000000;-0.155261
5826.000000;-0.155143
5825.000000;-0.154992
5824.000000;-0.154795
5823.000000;-0.154556
5822.000000;-0.154314
5821.000000;-0.154118
5820.000000;-0.153990
5819.000000;-0.153905
5818.000000;-0.153821
5817.000000;-0.153705
5816.000000;-0.153528
5815.000000;-0.153279
5814.000000;-0.152993
5813.000000;-0.152741
5812.000000;-0.152559
5811.000000;-0.152410
5810.000000;-0.152243
5809.000000;-0.152054
5808.000000;-0.151867
5807.000000;-0.151680
5806.000000;-0.151470
5805.000000;-0.151239
5804.000000;-0.151007
5803.000000;-0.150783
5802.000000;-0.150563
5801.000000;-0.150356
5800.000000;-0.150166
5799.000000;-0.149960
5798.000000;-0.149701
5797.000000;-0.149406
5796.000000;-0.149124
5795.000000;-0.148874
5794.000000;-0.148629
5793.000000;-0.148369
5792.000000;-0.148098
5791.000000;-0.147819
5790.000000;-0.147531
5789.000000;-0.147251
5788.000000;-0.147002
5787.000000;-0.146769
5786.000000;-0.146504
5785.000000;-0.146180
5784.000000;-0.145820
5783.000000;-0.145467
5782.000000;-0.145144
5781.000000;-0.144850
5780.000000;-0.144572
5779.000000;-0.144299
5778.000000;-0.144022
5777.000000;-0.143745
5776.000000;-0.143462
5775.000000;-0.143155
5774.000000;-0.142815
5773.000000;-0.142462
5772.000000;-0.142122
5771.000000;-0.141792
5770.000000;-0.141445
5769.000000;-0.141070
5768.000000;-0.140684
5767.000000;-0.140309
5766.000000;-0.139962
5765.000000;-0.139649
5764.000000;-0.139351
5763.000000;-0.139018
5762.000000;-0.138612
5761.000000;-0.138151
5760.000000;-0.137694
5759.000000;-0.137277
5758.000000;-0.136901
5757.000000;-0.136555
5756.000000;-0.136218
5755.000000;-0.135849
5754.000000;-0.135410
5753.000000;-0.134916
5752.000000;-0.134420
5751.000000;-0.133959
5750.000000;-0.133526
5749.000000;-0.133102
5748.000000;-0.132677
5747.000000;-0.132235
5746.000000;-0.131765
5745.000000;-0.131274
5744.000000;-0.130784
5743.000000;-0.130294
5742.000000;-0.129784
5741.000000;-0.129248
5740.000000;-0.128718
5739.000000;-0.128221
5738.000000;-0.127761
5737.000000;-0.127325
5736.000000;-0.126904
5735.000000;-0.126484
5734.000000;-0.126042
5733.000000;-0.125566
5732.000000;-0.125055
5731.000000;-0.124516
5730.000000;-0.123954
5729.000000;-0.123381
5728.000000;-0.122822
5727.000000;-0.122294
5726.000000;-0.121792
5725.000000;-0.121294
5724.000000;-0.120770
5723.000000;-0.120199
5722.000000;-0.119586
5721.000000;-0.118959
5720.000000;-0.118349
5719.000000;-0.117769
5718.000000;-0.117210
5717.000000;-0.116649
5716.000000;-0.116067
5715.000000;-0.115460
5714.000000;-0.114852
5713.000000;-0.114272
5712.000000;-0.113711
5711.000000;-0.113130
5710.000000;-0.112499
5709.000000;-0.111833
5708.000000;-0.111166
5707.000000;-0.110526
5706.000000;-0.109919
5705.000000;-0.109336
5704.000000;-0.108750
5703.000000;-0.108127
5702.000000;-0.107459
5701.000000;-0.106769
5700.000000;-0.106086
5699.000000;-0.105408
5698.000000;-0.104738
5697.000000;-0.104072
5696.000000;-0.103420
5695.000000;-0.102747
5694.000000;-0.102014
5693.000000;-0.101298
5692.000000;-0.100632
5691.000000;-0.100030
5690.000000;-0.099471
5689.000000;-0.098940
5688.000000;-0.098412
5687.000000;-0.097843
5686.000000;-0.097202
5685.000000;-0.096505
5684.000000;-0.095792
5683.000000;-0.095079
5682.000000;-0.094355
5681.000000;-0.093620
5680.000000;-0.092891
5679.000000;-0.092188
5678.000000;-0.091525
5677.000000;-0.090898
5676.000000;-0.090278
5675.000000;-0.089622
5674.000000;-0.088917
5673.000000;-0.088197
5672.000000;-0.087505
5671.000000;-0.086856
5670.000000;-0.086241
5669.000000;-0.085656
5668.000000;-0.085079
5667.000000;-0.084470
5666.000000;-0.083808
5665.000000;-0.083118
5664.000000;-0.082437
5663.000000;-0.081775
5662.000000;-0.081119
5661.000000;-0.080472
5660.000000;-0.079845
5659.000000;-0.079229
5658.000000;-0.078611
5657.000000;-0.077997
5656.000000;-0.077400
5655.000000;-0.076811
5654.000000;-0.076219
5653.000000;-0.075619
5652.000000;-0.075007
5651.000000;-0.074364
5650.000000;-0.073686
5649.000000;-0.073009
5648.000000;-0.072374
5647.000000;-0.071774
5646.000000;-0.071173
5645.000000;-0.070560
5644.000000;-0.069963
5643.000000;-0.069415
5642.000000;-0.068923
5641.000000;-0.068459
5640.000000;-0.067982
5639.000000;-0.067468
5638.000000;-0.066929
5637.000000;-0.066398
5636.000000;-0.065890
5635.000000;-0.065390
5634.000000;-0.064878
5633.000000;-0.064358
5632.000000;-0.063846
5631.000000;-0.063362
5630.000000;-0.062925
5629.000000;-0.062536
5628.000000;-0.062157
5627.000000;-0.061736
5626.000000;-0.061258
5625.000000;-0.060749
5624.000000;-0.060247
5623.000000;-0.059779
5622.000000;-0.059371
5621.000000;-0.059026
5620.000000;-0.058705
5619.000000;-0.058349
5618.000000;-0.057944
5617.000000;-0.057520
5616.000000;-0.057099
5615.000000;-0.056679
5614.000000;-0.056273
5613.000000;-0.055920
5612.000000;-0.055627
5611.000000;-0.055363
5610.000000;-0.055106
5609.000000;-0.054868
5608.000000;-0.054645
5607.000000;-0.054393
5606.000000;-0.054092
5605.000000;-0.053778
5604.000000;-0.053488
5603.000000;-0.053216
5602.000000;-0.052948
5601.000000;-0.052697
5600.000000;-0.052470
5599.000000;-0.052248
5598.000000;-0.052028
5597.000000;-0.051831
5596.000000;-0.051658
5595.000000;-0.051480
5594.000000;-0.051297
5593.000000;-0.051152
5592.000000;-0.051055
5591.000000;-0.050948
5590.000000;-0.050785
5589.000000;-0.050596
5588.000000;-0.050431
5587.000000;-0.050303
5586.000000;-0.050214
5585.000000;-0.050182
5584.000000;-0.050187
5583.000000;-0.050155
5582.000000;-0.050044
5581.000000;-0.049908
5580.000000;-0.049819
5579.000000;-0.049779
5578.000000;-0.049748
5577.000000;-0.049706
5576.000000;-0.049652
5575.000000;-0.049569
5574.000000;-0.049465
5573.000000;-0.049382
5572.000000;-0.049334
5571.000000;-0.049280
5570.000000;-0.049201
5569.000000;-0.049145
5568.000000;-0.049162
5567.000000;-0.049222
5566.000000;-0.049274
5565.000000;-0.049316
5564.000000;-0.049377
5563.000000;-0.049447
5562.000000;-0.049509
5561.000000;-0.049573
5560.000000;-0.049642
5559.000000;-0.049683
5558.000000;-0.049691
5557.000000;-0.049706
5556.000000;-0.049754
5555.000000;-0.049800
5554.000000;-0.049822
5553.000000;-0.049850
5552.000000;-0.049901
5551.000000;-0.049941
5550.000000;-0.049956
5549.000000;-0.049983
5548.000000;-0.050043
5547.000000;-0.050111
5546.000000;-0.050189
5545.000000;-0.050330
5544.000000;-0.050528
5543.000000;-0.050685
5542.000000;-0.050746
5541.000000;-0.050767
5540.000000;-0.050814
5539.000000;-0.050879
5538.000000;-0.050943
5537.000000;-0.051029
5536.000000;-0.051149
5535.000000;-0.051256
5534.000000;-0.051326
5533.000000;-0.051389
5532.000000;-0.051456
5531.000000;-0.051475
5530.000000;-0.051437
5529.000000;-0.051425
5528.000000;-0.051511
5527.000000;-0.051650
5526.000000;-0.051740
5525.000000;-0.051766
5524.000000;-0.051783
5523.000000;-0.051812
5522.000000;-0.051850
5521.000000;-0.051895
5520.000000;-0.051946
5519.000000;-0.051983
5518.000000;-0.051992
5517.000000;-0.052005
5516.000000;-0.052055
5515.000000;-0.052129
5514.000000;-0.052225
5513.000000;-0.052343
5512.000000;-0.052426
5511.000000;-0.052395
5510.000000;-0.052264
5509.000000;-0.052155
5508.000000;-0.052158
5507.000000;-0.052222
5506.000000;-0.052249
5505.000000;-0.052239
5504.000000;-0.052243
5503.000000;-0.052273
5502.000000;-0.052338
5501.000000;-0.052409
5500.000000;-0.052438
5499.000000;-0.052420
5498.000000;-0.052356
5497.000000;-0.052248
5496.000000;-0.052103
5495.000000;-0.051950
5494.000000;-0.051835
5493.000000;-0.051730
5492.000000;-0.051551
5491.000000;-0.051281
5490.000000;-0.051059
5489.000000;-0.051036
5488.000000;-0.051166
5487.000000;-0.051261
5486.000000;-0.051221
5485.000000;-0.051125
5484.000000;-0.051033
5483.000000;-0.050862
5482.000000;-0.050625
5481.000000;-0.050430
5480.000000;-0.050243
5479.000000;-0.049937
5478.000000;-0.049479
5477.000000;-0.049010
5476.000000;-0.048666
5475.000000;-0.048432
5474.000000;-0.048229
5473.000000;-0.048031
5472.000000;-0.047863
5471.000000;-0.047727
5470.000000;-0.047601
5469.000000;-0.047400
5468.000000;-0.047019
5467.000000;-0.046511
5466.000000;-0.046064
5465.000000;-0.045745
5464.000000;-0.045362
5463.000000;-0.044747
5462.000000;-0.044089
5461.000000;-0.043625
5460.000000;-0.043219
5459.000000;-0.042693
5458.000000;-0.042199
5457.000000;-0.041881
5456.000000;-0.041542
5455.000000;-0.040985
5454.000000;-0.040291
5453.000000;-0.039607
5452.000000;-0.038912
5451.000000;-0.038178
5450.000000;-0.037509
5449.000000;-0.036863
5448.000000;-0.036081
5447.000000;-0.035289
5446.000000;-0.034716
5445.000000;-0.034232
5444.000000;-0.033522
5443.000000;-0.032574
5442.000000;-0.031706
5441.000000;-0.031052
5440.000000;-0.030317
5439.000000;-0.029272
5438.000000;-0.028126
5437.000000;-0.027113
5436.000000;-0.026149
5435.000000;-0.025131
5434.000000;-0.024065
5433.000000;-0.022911
5432.000000;-0.021703
5431.000000;-0.020629
5430.000000;-0.019676
5429.000000;-0.018541
5428.000000;-0.017066
5427.000000;-0.015453
5426.000000;-0.014000
5425.000000;-0.012794
5424.000000;-0.011660
5423.000000;-0.010371
5422.000000;-0.008809
5421.000000;-0.007048
5420.000000;-0.005277
5419.000000;-0.003551
5418.000000;-0.001769
5417.000000;0.000175
5416.000000;0.002264
5415.000000;0.004358
5414.000000;0.006353
5413.000000;0.008282
5412.000000;0.010260
5411.000000;0.012299
5410.000000;0.014318
5409.000000;0.016394
5408.000000;0.018691
5407.000000;0.021174
5406.000000;0.023623
5405.000000;0.025991
5404.000000;0.028512
5403.000000;0.031260
5402.000000;0.034155
5401.000000;0.037141
5400.000000;0.040117
5399.000000;0.043115
5398.000000;0.046279
5397.000000;0.049629
5396.000000;0.053074
5395.000000;0.056523
5394.000000;0.059986
5393.000000;0.063512
5392.000000;0.067136
5391.000000;0.070929
5390.000000;0.074886
5389.000000;0.078904
5388.000000;0.082956
5387.000000;0.087154
5386.000000;0.091551
5385.000000;0.096152
5384.000000;0.100958
5383.000000;0.105868
5382.000000;0.110865
5381.000000;0.116043
5380.000000;0.121387
5379.000000;0.126864
5378.000000;0.132526
5377.000000;0.138340
5376.000000;0.144192
5375.000000;0.150144
5374.000000;0.156401
5373.000000;0.162914
5372.000000;0.169449
5371.000000;0.176054
5370.000000;0.183013
5369.000000;0.190367
5368.000000;0.197886
5367.000000;0.205503
5366.000000;0.213394
5365.000000;0.221681
5364.000000;0.230235
5363.000000;0.238923
5362.000000;0.247902
5361.000000;0.257247
5360.000000;0.266735
5359.000000;0.276302
5358.000000;0.286225
5357.000000;0.296640
5356.000000;0.307336
5355.000000;0.318238
5354.000000;0.329619
5353.000000;0.341637
5352.000000;0.353978
5351.000000;0.366231
5350.000000;0.378514
5349.000000;0.391325
5348.000000;0.404787
5347.000000;0.418693
5346.000000;0.433061
5345.000000;0.447948
5344.000000;0.463126
5343.000000;0.478440
5342.000000;0.494062
5341.000000;0.509998
5340.000000;0.526109
5339.000000;0.542677
5338.000000;0.560237
5337.000000;0.578883
5336.000000;0.598041
5335.000000;0.617169
5334.000000;0.636416
5333.000000;0.656332
5332.000000;0.677015
5331.000000;0.698078
5330.000000;0.719491
5329.000000;0.741526
5328.000000;0.764119
5327.000000;0.787192
5326.000000;0.811076
5325.000000;0.835769
5324.000000;0.860548
5323.000000;0.885109
5322.000000;0.910288
5321.000000;0.936783
5320.000000;0.963951
5319.000000;0.990883
5318.000000;1.017925
5317.000000;1.045857
5316.000000;1.074285
5315.000000;1.102310
5314.000000;1.130027
5313.000000;1.158029
5312.000000;1.186171
5311.000000;1.214222
5310.000000;1.243037
5309.000000;1.273302
5308.000000;1.303774
5307.000000;1.332674
5306.000000;1.360262
5305.000000;1.387776
5304.000000;1.414720
5303.000000;1.439878
5302.000000;1.463932
5301.000000;1.488272
5300.000000;1.512202
5299.000000;1.534258
5298.000000;1.555074
5297.000000;1.575734
5296.000000;1.595013
5295.000000;1.611724
5294.000000;1.627756
5293.000000;1.645184
5292.000000;1.662294
5291.000000;1.675933
5290.000000;1.686130
5289.000000;1.694857
5288.000000;1.702410
5287.000000;1.708707
5286.000000;1.715546
5285.000000;1.723883
5284.000000;1.731298
5283.000000;1.735698
5282.000000;1.738766
5281.000000;1.742305
5280.000000;1.744881
5279.000000;1.745521
5278.000000;1.746935
5277.000000;1.751352
5276.000000;1.756729
5275.000000;1.760404
5274.000000;1.762876
5273.000000;1.764684
5272.000000;1.763813
5271.000000;1.759777
5270.000000;1.756371
5269.000000;1.756862
5268.000000;1.759871
5267.000000;1.762837
5266.000000;1.765750
5265.000000;1.768096
5264.000000;1.766390
5263.000000;1.759480
5262.000000;1.752318
5261.000000;1.749841
5260.000000;1.751292
5259.000000;1.753428
5258.000000;1.755370
5257.000000;1.757710
5256.000000;1.760111
5255.000000;1.762496
5254.000000;1.765781
5253.000000;1.768962
5252.000000;1.768930
5251.000000;1.765432
5250.000000;1.762498
5249.000000;1.762866
5248.000000;1.764312
5247.000000;1.763979
5246.000000;1.762829
5245.000000;1.762696
5244.000000;1.763051
5243.000000;1.763419
5242.000000;1.765124
5241.000000;1.768158
5240.000000;1.770039
5239.000000;1.770080
5238.000000;1.770754
5237.000000;1.772555
5236.000000;1.772050
5235.000000;1.767680
5234.000000;1.763236
5233.000000;1.762400
5232.000000;1.763705
5231.000000;1.763699
5230.000000;1.762051
5229.000000;1.760514
5228.000000;1.759557
5227.000000;1.759018
5226.000000;1.759472
5225.000000;1.760444
5224.000000;1.760038
5223.000000;1.758429
5222.000000;1.758567
5221.000000;1.761575
5220.000000;1.764973
5219.000000;1.767059
5218.000000;1.769233
5217.000000;1.772402
5216.000000;1.774556
5215.000000;1.774012
5214.000000;1.772267
5213.000000;1.771124
5212.000000;1.770213
5211.000000;1.769349
5210.000000;1.769728
5209.000000;1.771013
5208.000000;1.770789
5207.000000;1.768783
5206.000000;1.767870
5205.000000;1.768953
5204.000000;1.769096
5203.000000;1.766851
5202.000000;1.764967
5201.000000;1.765464
5200.000000;1.766406
5199.000000;1.765848
5198.000000;1.765248
5197.000000;1.766428
5196.000000;1.768441
5195.000000;1.769920
5194.000000;1.771495
5193.000000;1.773532
5192.000000;1.774697
5191.000000;1.774808
5190.000000;1.775728
5189.000000;1.777613
5188.000000;1.777762
5187.000000;1.775170
5186.000000;1.772515
5185.000000;1.771700
5184.000000;1.771399
5183.000000;1.770595
5182.000000;1.770898
5181.000000;1.773286
5180.000000;1.775766
5179.000000;1.776670
5178.000000;1.777101
5177.000000;1.777909
5176.000000;1.777866
5175.000000;1.776836
5174.000000;1.777059
5173.000000;1.779347
5172.000000;1.781493
5171.000000;1.782165
5170.000000;1.782911
5169.000000;1.784437
5168.000000;1.784699
5167.000000;1.782880
5166.000000;1.781317
5165.000000;1.781263
5164.000000;1.780579
5163.000000;1.777892
5162.000000;1.775473
5161.000000;1.775452
5160.000000;1.776590
5159.000000;1.777077
5158.000000;1.777189
5157.000000;1.776986
5156.000000;1.774952
5155.000000;1.771150
5154.000000;1.768419
5153.000000;1.768398
5152.000000;1.769446
5151.000000;1.770187
5150.000000;1.772077
5149.000000;1.776350
5148.000000;1.781182
5147.000000;1.784054
5146.000000;1.784776
5145.000000;1.784247
5144.000000;1.782739
5143.000000;1.780999
5142.000000;1.780655
5141.000000;1.782239
5140.000000;1.784640
5139.000000;1.787150
5138.000000;1.789660
5137.000000;1.790605
5136.000000;1.788082
5135.000000;1.783558
5134.000000;1.780958
5133.000000;1.781729
5132.000000;1.784093
5131.000000;1.787015
5130.000000;1.791077
5129.000000;1.794921
5128.000000;1.795355
5127.000000;1.792339
5126.000000;1.789337
5125.000000;1.787699
5124.000000;1.785502
5123.000000;1.782814
5122.000000;1.782900
5121.000000;1.786269
5120.000000;1.788106
5119.000000;1.784647
5118.000000;1.778745
5117.000000;1.775805
5116.000000;1.777509
5115.000000;1.781741
5114.000000;1.785727
5113.000000;1.787310
5112.000000;1.785760
5111.000000;1.783168
5110.000000;1.782549
5109.000000;1.783704
5108.000000;1.783875
5107.000000;1.782868
5106.000000;1.783457
5105.000000;1.785960
5104.000000;1.786924
5103.000000;1.784722
5102.000000;1.782299
5101.000000;1.782236
5100.000000;1.783073
5099.000000;1.782587
5098.000000;1.781232
5097.000000;1.780255
5096.000000;1.779582
5095.000000;1.779339
5094.000000;1.780509
5093.000000;1.782528
5092.000000;1.783003
5091.000000;1.781041
5090.000000;1.778134
5089.000000;1.775133
5088.000000;1.771690
5087.000000;1.769223
5086.000000;1.770624
5085.000000;1.775868
5084.000000;1.781080
5083.000000;1.783298
5082.000000;1.783082
5081.000000;1.781315
5080.000000;1.777683
5079.000000;1.773591
5078.000000;1.772293
5077.000000;1.774561
5076.000000;1.777472
5075.000000;1.778641
5074.000000;1.778538
5073.000000;1.777476
5072.000000;1.774221
5071.000000;1.769204
5070.000000;1.765413
5069.000000;1.764579
5068.000000;1.765550
5067.000000;1.767270
5066.000000;1.770056
5065.000000;1.772896
5064.000000;1.773180
5063.000000;1.770633
5062.000000;1.768073
5061.000000;1.767209
5060.000000;1.767115
5059.000000;1.767576
5058.000000;1.770090
5057.000000;1.774337
5056.000000;1.777425
5055.000000;1.778208
5054.000000;1.778821
5053.000000;1.780446
5052.000000;1.781429
5051.000000;1.780853
5050.000000;1.779900
5049.000000;1.778346
5048.000000;1.774029
5047.000000;1.767614
5046.000000;1.763457
5045.000000;1.763835
5044.000000;1.766146
5043.000000;1.767249
5042.000000;1.767328
5041.000000;1.767535
5040.000000;1.767142
5039.000000;1.765334
5038.000000;1.762850
5037.000000;1.759950
5036.000000;1.755707
5035.000000;1.750760
5034.000000;1.747518
5033.000000;1.746349
5032.000000;1.744786
5031.000000;1.741693
5030.000000;1.739007
5029.000000;1.737904
5028.000000;1.736680
5027.000000;1.734202
5026.000000;1.732307
5025.000000;1.732608
5024.000000;1.733710
5023.000000;1.733723
5022.000000;1.733140
5021.000000;1.733141
5020.000000;1.733272
5019.000000;1.732498
5018.000000;1.730729
5017.000000;1.728121
5016.000000;1.724759
5015.000000;1.721782
5014.000000;1.720572
5013.000000;1.720332
5012.000000;1.718791
5011.000000;1.715685
5010.000000;1.712920
5009.000000;1.710852
5008.000000;1.707623
5007.000000;1.703068
5006.000000;1.699793
5005.000000;1.699095
5004.000000;1.698889
5003.000000;1.696939
5002.000000;1.693664
5001.000000;1.690463
5000.000000;1.687718
4999.000000;1.685613
4998.000000;1.684626
4997.000000;1.683938
4996.000000;1.681603
4995.000000;1.677466
4994.000000;1.673651
4993.000000;1.671170
4992.000000;1.668374
4991.000000;1.663641
4990.000000;1.657459
4989.000000;1.650999
4988.000000;1.644889
4987.000000;1.640114
4986.000000;1.637823
4985.000000;1.637286
4984.000000;1.636037
4983.000000;1.632975
4982.000000;1.629451
4981.000000;1.626488
4980.000000;1.623205
4979.000000;1.618989
4978.000000;1.614993
4977.000000;1.612201
4976.000000;1.609842
4975.000000;1.606799
4974.000000;1.603123
4973.000000;1.599305
4972.000000;1.595347
4971.000000;1.591195
4970.000000;1.586901
4969.000000;1.582037
4968.000000;1.576322
4967.000000;1.570828
4966.000000;1.567092
4965.000000;1.565022
4964.000000;1.562988
4963.000000;1.559835
4962.000000;1.555403
4961.000000;1.549457
4960.000000;1.542060
4959.000000;1.534960
4958.000000;1.530462
4957.000000;1.528632
4956.000000;1.527169
4955.000000;1.524154
4954.000000;1.519512
4953.000000;1.513928
4952.000000;1.508129
4951.000000;1.503168
4950.000000;1.499542
4949.000000;1.496029
4948.000000;1.491082
4947.000000;1.485221
4946.000000;1.480223
4945.000000;1.476295
4944.000000;1.472133
4943.000000;1.467475
4942.000000;1.463287
4941.000000;1.459442
4940.000000;1.454610
4939.000000;1.448760
4938.000000;1.443529
4937.000000;1.439662
4936.000000;1.436107
4935.000000;1.432064
4934.000000;1.427969
4933.000000;1.423893
4932.000000;1.418980
4931.000000;1.413235
4930.000000;1.408065
4929.000000;1.404187
4928.000000;1.400521
4927.000000;1.395876
4926.000000;1.390438
4925.000000;1.384910
4924.000000;1.379462
4923.000000;1.374181
4922.000000;1.369410
4921.000000;1.365090
4920.000000;1.360753
4919.000000;1.356443
4918.000000;1.352571
4917.000000;1.348733
4916.000000;1.343908
4915.000000;1.338041
4914.000000;1.332201
4913.000000;1.326966
4912.000000;1.321911
4911.000000;1.316897
4910.000000;1.312493
4909.000000;1.308754
4908.000000;1.304788
4907.000000;1.299989
4906.000000;1.294674
4905.000000;1.289247
4904.000000;1.283795
4903.000000;1.278692
4902.000000;1.274434
4901.000000;1.270538
4900.000000;1.265725
4899.000000;1.259619
4898.000000;1.253333
4897.000000;1.248051
4896.000000;1.243931
4895.000000;1.240555
4894.000000;1.237441
4893.000000;1.233893
4892.000000;1.229274
4891.000000;1.223794
4890.000000;1.218262
4889.000000;1.212995
4888.000000;1.207814
4887.000000;1.203057
4886.000000;1.199448
4885.000000;1.196768
4884.000000;1.193721
4883.000000;1.189497
4882.000000;1.184563
4881.000000;1.179554
4880.000000;1.174409
4879.000000;1.169012
4878.000000;1.163777
4877.000000;1.159064
4876.000000;1.154647
4875.000000;1.150123
4874.000000;1.145308
4873.000000;1.140070
4872.000000;1.134407
4871.000000;1.128894
4870.000000;1.124362
4869.000000;1.120881
4868.000000;1.117623
4867.000000;1.113905
4866.000000;1.109808
4865.000000;1.105619
4864.000000;1.101334
4863.000000;1.096923
4862.000000;1.092513
4861.000000;1.088058
4860.000000;1.083347
4859.000000;1.078492
4858.000000;1.073916
4857.000000;1.069775
4856.000000;1.065841
4855.000000;1.061968
4854.000000;1.058155
4853.000000;1.054165
4852.000000;1.049683
4851.000000;1.044867
4850.000000;1.040199
4849.000000;1.035777
4848.000000;1.031325
4847.000000;1.026852
4846.000000;1.022649
4845.000000;1.018615
4844.000000;1.014295
4843.000000;1.009678
4842.000000;1.005302
4841.000000;1.001470
4840.000000;0.997918
4839.000000;0.994394
4838.000000;0.990913
4837.000000;0.987328
4836.000000;0.983250
4835.000000;0.978651
4834.000000;0.974014
4833.000000;0.969707
4832.000000;0.965629
4831.000000;0.961622
4830.000000;0.957745
4829.000000;0.954001
4828.000000;0.950229
4827.000000;0.946397
4826.000000;0.942634
4825.000000;0.938852
4824.000000;0.934783
4823.000000;0.930437
4822.000000;0.926154
4821.000000;0.922131
4820.000000;0.918283
4819.000000;0.914587
4818.000000;0.911133
4817.000000;0.907786
4816.000000;0.904249
4815.000000;0.900518
4814.000000;0.896850
4813.000000;0.893260
4812.000000;0.889507
4811.000000;0.885618
4810.000000;0.881955
4809.000000;0.878637
4808.000000;0.875354
4807.000000;0.871842
4806.000000;0.868161
4805.000000;0.864402
4804.000000;0.860531
4803.000000;0.856658
4802.000000;0.853056
4801.000000;0.849782
4800.000000;0.846570
4799.000000;0.843220
4798.000000;0.839739
4797.000000;0.836093
4796.000000;0.832184
4795.000000;0.828166
4794.000000;0.824431
4793.000000;0.821133
4792.000000;0.818015
4791.000000;0.814827
4790.000000;0.811624
4789.000000;0.808552
4788.000000;0.805579
4787.000000;0.802572
4786.000000;0.799433
4785.000000;0.796105
4784.000000;0.792640
4783.000000;0.789225
4782.000000;0.785969
4781.000000;0.782684
4780.000000;0.779138
4779.000000;0.775446
4778.000000;0.771932
4777.000000;0.768666
4776.000000;0.765454
4775.000000;0.762221
4774.000000;0.759095
4773.000000;0.756091
4772.000000;0.753071
4771.000000;0.750010
4770.000000;0.747017
4769.000000;0.744080
4768.000000;0.741074
4767.000000;0.738031
4766.000000;0.735138
4765.000000;0.732432
4764.000000;0.729749
4763.000000;0.726969
4762.000000;0.724064
4761.000000;0.720970
4760.000000;0.717696
4759.000000;0.714509
4758.000000;0.711705
4757.000000;0.709219
4756.000000;0.706727
4755.000000;0.704090
4754.000000;0.701397
4753.000000;0.698646
4752.000000;0.695738
4751.000000;0.692781
4750.000000;0.690041
4749.000000;0.687548
4748.000000;0.685050
4747.000000;0.682385
4746.000000;0.679622
4745.000000;0.676822
4744.000000;0.673950
4743.000000;0.671076
4742.000000;0.668393
4741.000000;0.665972
4740.000000;0.663698
4739.000000;0.661430
4738.000000;0.659044
4737.000000;0.656385
4736.000000;0.653456
4735.000000;0.650599
4734.000000;0.648183
4733.000000;0.646146
4732.000000;0.644097
4731.000000;0.641830
4730.000000;0.639473
4729.000000;0.637158
4728.000000;0.634886
4727.000000;0.632696
4726.000000;0.630636
4725.000000;0.628553
4724.000000;0.626226
4723.000000;0.623732
4722.000000;0.621375
4721.000000;0.619240
4720.000000;0.617116
4719.000000;0.614871
4718.000000;0.612623
4717.000000;0.610480
4716.000000;0.608402
4715.000000;0.606374
4714.000000;0.604436
4713.000000;0.602497
4712.000000;0.600399
4711.000000;0.598209
4710.000000;0.596189
4709.000000;0.594415
4708.000000;0.592670
4707.000000;0.590774
4706.000000;0.588773
4705.000000;0.586757
4704.000000;0.584739
4703.000000;0.582782
4702.000000;0.580994
4701.000000;0.579330
4700.000000;0.577614
4699.000000;0.575798
4698.000000;0.574009
4697.000000;0.572297
4696.000000;0.570551
4695.000000;0.568719
4694.000000;0.566889
4693.000000;0.565111
4692.000000;0.563348
4691.000000;0.561634
4690.000000;0.560072
4689.000000;0.558630
4688.000000;0.557145
4687.000000;0.555568
4686.000000;0.554008
4685.000000;0.552513
4684.000000;0.551008
4683.000000;0.549476
4682.000000;0.548000
4681.000000;0.546589
4680.000000;0.545164
4679.000000;0.543737
4678.000000;0.542406
4677.000000;0.541149
4676.000000;0.539830
4675.000000;0.538415
4674.000000;0.536984
4673.000000;0.535551
4672.000000;0.534074
4671.000000;0.532646
4670.000000;0.531402
4669.000000;0.530247
4668.000000;0.528921
4667.000000;0.527383
4666.000000;0.525883
4665.000000;0.524620
4664.000000;0.523548
4663.000000;0.522550
4662.000000;0.521579
4661.000000;0.520581
4660.000000;0.519495
4659.000000;0.518368
4658.000000;0.517294
4657.000000;0.516192
4656.000000;0.514903
4655.000000;0.513507
4654.000000;0.512303
4653.000000;0.511399
4652.000000;0.510573
4651.000000;0.509619
4650.000000;0.508596
4649.000000;0.507647
4648.000000;0.506772
4647.000000;0.505913
4646.000000;0.505064
4645.000000;0.504201
4644.000000;0.503256
4643.000000;0.502261
4642.000000;0.501379
4641.000000;0.500695
4640.000000;0.500108
4639.000000;0.499473
4638.000000;0.498727
4637.000000;0.497861
4636.000000;0.496896
4635.000000;0.495950
4634.000000;0.495161
4633.000000;0.494524
4632.000000;0.493907
4631.000000;0.493244
4630.000000;0.492573
4629.000000;0.491905
4628.000000;0.491229
4627.000000;0.490618
4626.000000;0.490152
4625.000000;0.489738
4624.000000;0.489210
4623.000000;0.488604
4622.000000;0.488093
4621.000000;0.487647
4620.000000;0.487020
4619.000000;0.486147
4618.000000;0.485312
4617.000000;0.484791
4616.000000;0.484529
4615.000000;0.484276
4614.000000;0.483887
4613.000000;0.483380
4612.000000;0.482838
4611.000000;0.482364
4610.000000;0.482041
4609.000000;0.481842
4608.000000;0.481660
4607.000000;0.481427
4606.000000;0.481136
4605.000000;0.480732
4604.000000;0.480155
4603.000000;0.479502
4602.000000;0.479005
4601.000000;0.478790
4600.000000;0.478768
4599.000000;0.478772
4598.000000;0.478697
4597.000000;0.478497
4596.000000;0.478188
4595.000000;0.477864
4594.000000;0.477622
4593.000000;0.477457
4592.000000;0.477349
4591.000000;0.477378
4590.000000;0.477606
4589.000000;0.477879
4588.000000;0.477944
4587.000000;0.477741
4586.000000;0.477430
4585.000000;0.477178
4584.000000;0.477076
4583.000000;0.477207
4582.000000;0.477577
4581.000000;0.477987
4580.000000;0.478214
4579.000000;0.478290
4578.000000;0.478416
4577.000000;0.478602
4576.000000;0.478666
4575.000000;0.478586
4574.000000;0.478587
4573.000000;0.478831
4572.000000;0.479249
4571.000000;0.479750
4570.000000;0.480335
4569.000000;0.480936
4568.000000;0.481364
4567.000000;0.481551
4566.000000;0.481666
4565.000000;0.481899
4564.000000;0.482278
4563.000000;0.482758
4562.000000;0.483315
4561.000000;0.483873
4560.000000;0.484326
4559.000000;0.484709
4558.000000;0.485197
4557.000000;0.485854
4556.000000;0.486549
4555.000000;0.487173
4554.000000;0.487791
4553.000000;0.488500
4552.000000;0.489292
4551.000000;0.490134
4550.000000;0.491033
4549.000000;0.491954
4548.000000;0.492799
4547.000000;0.493557
4546.000000;0.494344
4545.000000;0.495224
4544.000000;0.496135
4543.000000;0.497029
4542.000000;0.497970
4541.000000;0.499003
4540.000000;0.500050
4539.000000;0.501014
4538.000000;0.501890
4537.000000;0.502732
4536.000000;0.503577
4535.000000;0.504443
4534.000000;0.505317
4533.000000;0.506135
4532.000000;0.506855
4531.000000;0.507532
4530.000000;0.508236
4529.000000;0.508957
4528.000000;0.509705
4527.000000;0.510614
4526.000000;0.511772
4525.000000;0.513000
4524.000000;0.514012
4523.000000;0.514786
4522.000000;0.515580
4521.000000;0.516558
4520.000000;0.517610
4519.000000;0.518570
4518.000000;0.519424
4517.000000;0.520243
4516.000000;0.521085
4515.000000;0.522004
4514.000000;0.523022
4513.000000;0.524069
4512.000000;0.525058
4511.000000;0.526030
4510.000000;0.527083
4509.000000;0.528174
4508.000000;0.529162
4507.000000;0.530033
4506.000000;0.530922
4505.000000;0.531897
4504.000000;0.532909
4503.000000;0.533948
4502.000000;0.535094
4501.000000;0.536387
4500.000000;0.537767
4499.000000;0.539154
4498.000000;0.540466
4497.000000;0.541598
4496.000000;0.542535
4495.000000;0.543455
4494.000000;0.544553
4493.000000;0.545817
4492.000000;0.547111
4491.000000;0.548428
4490.000000;0.549855
4489.000000;0.551346
4488.000000;0.552766
4487.000000;0.554133
4486.000000;0.555601
4485.000000;0.557196
4484.000000;0.558769
4483.000000;0.560226
4482.000000;0.561630
4481.000000;0.563066
4480.000000;0.564583
4479.000000;0.566235
4478.000000;0.568016
4477.000000;0.569782
4476.000000;0.571428
4475.000000;0.573081
4474.000000;0.574928
4473.000000;0.576912
4472.000000;0.578819
4471.000000;0.580630
4470.000000;0.582508
4469.000000;0.584488
4468.000000;0.586416
4467.000000;0.588210
4466.000000;0.589954
4465.000000;0.591704
4464.000000;0.593439
4463.000000;0.595207
4462.000000;0.597114
4461.000000;0.599156
4460.000000;0.601238
4459.000000;0.603349
4458.000000;0.605523
4457.000000;0.607685
4456.000000;0.609742
4455.000000;0.611757
4454.000000;0.613832
4453.000000;0.615888
4452.000000;0.617816
4451.000000;0.619759
4450.000000;0.621980
4449.000000;0.624501
4448.000000;0.627113
4447.000000;0.629696
4446.000000;0.632247
4445.000000;0.634697
4444.000000;0.636960
4443.000000;0.639142
4442.000000;0.641400
4441.000000;0.643690
4440.000000;0.645914
4439.000000;0.648203
4438.000000;0.650750
4437.000000;0.653466
4436.000000;0.656141
4435.000000;0.658824
4434.000000;0.661647
4433.000000;0.664407
4432.000000;0.666787
4431.000000;0.668948
4430.000000;0.671377
4429.000000;0.674180
4428.000000;0.676992
4427.000000;0.679633
4426.000000;0.682340
4425.000000;0.685258
4424.000000;0.688187
4423.000000;0.690987
4422.000000;0.693805
4421.000000;0.696733
4420.000000;0.699634
4419.000000;0.702460
4418.000000;0.705365
4417.000000;0.708368
4416.000000;0.711263
4415.000000;0.714021
4414.000000;0.716912
4413.000000;0.720076
4412.000000;0.723303
4411.000000;0.726396
4410.000000;0.729449
4409.000000;0.732596
4408.000000;0.735794
4407.000000;0.738982
4406.000000;0.742218
4405.000000;0.745527
4404.000000;0.748850
4403.000000;0.752213
4402.000000;0.755694
4401.000000;0.759192
4400.000000;0.762497
4399.000000;0.765604
4398.000000;0.768690
4397.000000;0.771813
4396.000000;0.774974
4395.000000;0.778404
4394.000000;0.782338
4393.000000;0.786523
4392.000000;0.790388
4391.000000;0.793781
4390.000000;0.797111
4389.000000;0.800692
4388.000000;0.804428
4387.000000;0.808185
4386.000000;0.812013
4385.000000;0.815871
4384.000000;0.819576
4383.000000;0.823154
4382.000000;0.826831
4381.000000;0.830603
4380.000000;0.834250
4379.000000;0.837866
4378.000000;0.841854
4377.000000;0.846231
4376.000000;0.850437
4375.000000;0.854047
4374.000000;0.857281
4373.000000;0.860610
4372.000000;0.864253
4371.000000;0.868228
4370.000000;0.872487
4369.000000;0.876824
4368.000000;0.880975
4367.000000;0.884962
4366.000000;0.888997
4365.000000;0.893046
4364.000000;0.896901
4363.000000;0.900732
4362.000000;0.905009
4361.000000;0.909746
4360.000000;0.914333
4359.000000;0.918373
4358.000000;0.922231
4357.000000;0.926493
4356.000000;0.931259
4355.000000;0.936193
4354.000000;0.940932
4353.000000;0.945318
4352.000000;0.949520
4351.000000;0.954005
4350.000000;0.959069
4349.000000;0.964408
4348.000000;0.969488
4347.000000;0.974292
4346.000000;0.979182
4345.000000;0.984125
4344.000000;0.988683
4343.000000;0.992812
4342.000000;0.996996
4341.000000;1.001460
4340.000000;1.005919
4339.000000;1.010291
4338.000000;1.015048
4337.000000;1.020558
4336.000000;1.026558
4335.000000;1.032500
4334.000000;1.038030
4333.000000;1.043029
4332.000000;1.047639
4331.000000;1.052362
4330.000000;1.057661
4329.000000;1.063374
4328.000000;1.068956
4327.000000;1.074314
4326.000000;1.079828
4325.000000;1.085603
4324.000000;1.091293
4323.000000;1.096725
4322.000000;1.102082
4321.000000;1.107413
4320.000000;1.112586
4319.000000;1.117782
4318.000000;1.123403
4317.000000;1.129447
4316.000000;1.135526
4315.000000;1.141480
4314.000000;1.147382
4313.000000;1.153042
4312.000000;1.158257
4311.000000;1.163437
4310.000000;1.169166
4309.000000;1.175226
4308.000000;1.180886
4307.000000;1.186145
4306.000000;1.191770
4305.000000;1.198107
4304.000000;1.204711
4303.000000;1.211155
4302.000000;1.217341
4301.000000;1.223040
4300.000000;1.228122
4299.000000;1.233254
4298.000000;1.239389
4297.000000;1.246503
4296.000000;1.253726
4295.000000;1.260600
4294.000000;1.267220
4293.000000;1.273325
4292.000000;1.278578
4291.000000;1.283732
4290.000000;1.290098
4289.000000;1.297680
4288.000000;1.305036
4287.000000;1.311242
4286.000000;1.316812
4285.000000;1.322500
4284.000000;1.328458
4283.000000;1.334796
4282.000000;1.341726
4281.000000;1.348829
4280.000000;1.355295
4279.000000;1.361150
4278.000000;1.367072
4277.000000;1.373021
4276.000000;1.378392
4275.000000;1.383498
4274.000000;1.389512
4273.000000;1.396811
4272.000000;1.404750
4271.000000;1.413039
4270.000000;1.421838
4269.000000;1.430474
4268.000000;1.437688
4267.000000;1.443520
4266.000000;1.449481
4265.000000;1.456472
4264.000000;1.463908
4263.000000;1.471029
4262.000000;1.477721
4261.000000;1.484004
4260.000000;1.490116
4259.000000;1.496956
4258.000000;1.504920
4257.000000;1.512593
4256.000000;1.518261
4255.000000;1.522491
4254.000000;1.527429
4253.000000;1.533914
4252.000000;1.541267
4251.000000;1.549280
4250.000000;1.558127
4249.000000;1.566790
4248.000000;1.574051
4247.000000;1.580739
4246.000000;1.588458
4245.000000;1.596367
4244.000000;1.602660
4243.000000;1.608217
4242.000000;1.615886
4241.000000;1.625704
4240.000000;1.634356
4239.000000;1.640015
4238.000000;1.644466
4237.000000;1.649903
4236.000000;1.656726
4235.000000;1.664940
4234.000000;1.674726
4233.000000;1.684856
4232.000000;1.693528
4231.000000;1.701298
4230.000000;1.710137
4229.000000;1.719447
4228.000000;1.726304
4227.000000;1.730557
4226.000000;1.736034
4225.000000;1.745047
4224.000000;1.755184
4223.000000;1.763277
4222.000000;1.769632
4221.000000;1.776753
4220.000000;1.786465
4219.000000;1.799096
4218.000000;1.813089
4217.000000;1.825061
4216.000000;1.832883
4215.000000;1.838699
4214.000000;1.845769
4213.000000;1.853490
4212.000000;1.859242
4211.000000;1.863680
4210.000000;1.869304
4209.000000;1.875024
4208.000000;1.877952
4207.000000;1.880008
4206.000000;1.886239
4205.000000;1.896483
4204.000000;1.905377
4203.000000;1.911084
4202.000000;1.917305
4201.000000;1.926188
4200.000000;1.935681
4199.000000;1.945104
4198.000000;1.956911
4197.000000;1.970781
4196.000000;1.982208
4195.000000;1.989577
4194.000000;1.997086
4193.000000;2.007448
4192.000000;2.017307
4191.000000;2.022889
4190.000000;2.024411
4189.000000;2.023509
4188.000000;2.022501
4187.000000;2.026987
4186.000000;2.042257
4185.000000;2.065093
4184.000000;2.084122
4183.000000;2.092210
4182.000000;2.094498
4181.000000;2.099488
4180.000000;2.109229
4179.000000;2.120804
4178.000000;2.130587
4177.000000;2.135557
4176.000000;2.136050
4175.000000;2.138292
4174.000000;2.149072
4173.000000;2.167793
4172.000000;2.187337
4171.000000;2.203031
4170.000000;2.214475
4169.000000;2.218904
4168.000000;2.213842
4167.000000;2.205396
4166.000000;2.202707
4165.000000;2.206523
4164.000000;2.212537
4163.000000;2.222538
4162.000000;2.241081
4161.000000;2.261587
4160.000000;2.269386
4159.000000;2.263872
4158.000000;2.260929
4157.000000;2.270287
4156.000000;2.286002
4155.000000;2.299196
4154.000000;2.309608
4153.000000;2.320570
4152.000000;2.333237
4151.000000;2.350840
4150.000000;2.376889
4149.000000;2.404014
4148.000000;2.416854
4147.000000;2.412871
4146.000000;2.403949
4145.000000;2.397797
4144.000000;2.392386
4143.000000;2.388702
4142.000000;2.395229
4141.000000;2.414057
4140.000000;2.435103
4139.000000;2.449473
4138.000000;2.456813
4137.000000;2.453083
4136.000000;2.433419
4135.000000;2.410178
4134.000000;2.402013
4133.000000;2.415817
4132.000000;2.444391
4131.000000;2.473942
4130.000000;2.493335
4129.000000;2.495966
4128.000000;2.483945
4127.000000;2.472648
4126.000000;2.477489
4125.000000;2.496220
4124.000000;2.513871
4123.000000;2.524780
4122.000000;2.540661
4121.000000;2.571785
4120.000000;2.603743
4119.000000;2.611487
4118.000000;2.592955
4117.000000;2.566192
4116.000000;2.549984
4115.000000;2.552210
4114.000000;2.566585
4113.000000;2.577188
4112.000000;2.577132
4111.000000;2.583160
4110.000000;2.612344
4109.000000;2.655122
4108.000000;2.683536
4107.000000;2.687036
4106.000000;2.677968
4105.000000;2.667884
4104.000000;2.665708
4103.000000;2.685094
4102.000000;2.725047
4101.000000;2.746900
4100.000000;2.713930
4099.000000;2.656921
4098.000000;2.631633
4097.000000;2.655843
4096.000000;2.709514
4095.000000;2.759417
4094.000000;2.780415
4093.000000;2.760886
4092.000000;2.712339
4091.000000;2.670211
4090.000000;2.663844
4089.000000;2.692384
4088.000000;2.731061
4087.000000;2.765024
4086.000000;2.795069
4085.000000;2.806348
4084.000000;2.778964
4083.000000;2.733353
4082.000000;2.705069
4081.000000;2.700128
4080.000000;2.702351
4079.000000;2.702903
4078.000000;2.710280
4077.000000;2.731114
4076.000000;2.759902
4075.000000;2.790044
4074.000000;2.815181
4073.000000;2.821479
4072.000000;2.808226
4071.000000;2.794306
4070.000000;2.793905
4069.000000;2.801079
4068.000000;2.800683
4067.000000;2.796256
4066.000000;2.810417
4065.000000;2.848448
4064.000000;2.885953
4063.000000;2.900973
4062.000000;2.894680
4061.000000;2.873355
4060.000000;2.841585
4059.000000;2.810310
4058.000000;2.798927
4057.000000;2.816694
4056.000000;2.846089
4055.000000;2.866876
4054.000000;2.877025
4053.000000;2.874007
4052.000000;2.854011
4051.000000;2.835366
4050.000000;2.844071
4049.000000;2.863233
4048.000000;2.851180
4047.000000;2.821396
4046.000000;2.805717
4045.000000;2.808859
4044.000000;2.827040
4043.000000;2.865240
4042.000000;2.937048
4041.000000;3.039242
4040.000000;3.096846
4039.000000;3.070347
4038.000000;3.032251
4037.000000;3.000666
4036.000000;2.972040
4035.000000;2.967988
4034.000000;2.994967
4033.000000;3.019711
4032.000000;3.021547
4031.000000;3.023100
4030.000000;3.045944
4029.000000;3.080084
4028.000000;3.100589
4027.000000;3.108130
4026.000000;3.135580
4025.000000;3.184412
4024.000000;3.211556
4023.000000;3.218707
4022.000000;3.210260
4021.000000;3.147937
4020.000000;3.048294
4019.000000;2.986279
4018.000000;2.997405
4017.000000;3.038690
4016.000000;3.035221
4015.000000;2.998177
4014.000000;2.987894
4013.000000;3.011294
4012.000000;3.030761
4011.000000;3.031875
4010.000000;3.030935
4009.000000;3.039750
4008.000000;3.055150
4007.000000;3.077608
4006.000000;3.103322
4005.000000;3.099426
4004.000000;3.047358
4003.000000;2.981113
4002.000000;2.943862
4001.000000;2.945498
4000.000000;2.973391
3999.000000;3.008883
3998.000000;3.042917
3997.000000;3.064256
3996.000000;3.043228
3995.000000;3.010461
3994.000000;3.028437
3993.000000;3.118531
3992.000000;3.249882
3991.000000;3.362393
3990.000000;3.411402
3989.000000;3.356673
3988.000000;3.221511
3987.000000;3.092703
3986.000000;3.006690
3985.000000;2.946577
3984.000000;2.905646
3983.000000;2.913740
3982.000000;2.987829
3981.000000;3.081281
3980.000000;3.127184
3979.000000;3.167660
3978.000000;3.258136
3977.000000;3.357218
3976.000000;3.341416
3975.000000;3.254994
3974.000000;3.208288
3973.000000;3.188001
3972.000000;3.160759
3971.000000;3.159106
3970.000000;3.221518
3969.000000;3.293542
3968.000000;3.266913
3967.000000;3.165295
3966.000000;3.087641
3965.000000;3.062764
3964.000000;3.078293
3963.000000;3.117766
3962.000000;3.156683
3961.000000;3.174388
3960.000000;3.160974
3959.000000;3.146599
3958.000000;3.156386
3957.000000;3.173807
3956.000000;3.168231
3955.000000;3.154410
3954.000000;3.174357
3953.000000;3.230499
3952.000000;3.305942
3951.000000;3.403836
3950.000000;3.569639
3949.000000;3.759248
3948.000000;3.632273
3947.000000;3.419659
3946.000000;3.299622
3945.000000;3.247733
3944.000000;3.216026
3943.000000;3.204830
3942.000000;3.236608
3941.000000;3.253439
3940.000000;3.246053
3939.000000;3.300111
3938.000000;3.426282
3937.000000;3.521563
3936.000000;3.441041
3935.000000;3.320022
3934.000000;3.328992
3933.000000;3.493322
3932.000000;3.647162
3931.000000;3.547390
3930.000000;3.483165
3929.000000;3.564898
3928.000000;3.556815
3927.000000;3.401106
3926.000000;3.329859
3925.000000;3.379353
3924.000000;3.480611
3923.000000;3.496180
3922.000000;3.430050
3921.000000;3.357770
3920.000000;3.310221
3919.000000;3.272972
3918.000000;3.212976
3917.000000;3.156899
3916.000000;3.155202
3915.000000;3.248664
3914.000000;3.532504
3913.000000;4.201403
3912.000000;5.000226
3911.000000;4.167569
3910.000000;3.770052
3909.000000;3.738499
3908.000000;3.703570
3907.000000;3.542843
3906.000000;3.476102
3905.000000;3.474201
3904.000000;3.503805
3903.000000;3.544122
3902.000000;3.531422
3901.000000;3.473881
3900.000000;3.524544
3899.000000;3.787604
3898.000000;3.961367
3897.000000;3.637175
3896.000000;3.428361
3895.000000;3.326680
3894.000000;3.352196
3893.000000;3.551322
3892.000000;3.807904
3891.000000;3.685162
3890.000000;3.772361
3889.000000;3.786586
3888.000000;3.492889
3887.000000;3.453394
3886.000000;3.466593
3885.000000;3.465404
3884.000000;3.684861
3883.000000;3.957149
3882.000000;3.725915
3881.000000;3.521953
3880.000000;3.309333
3879.000000;3.159555
3878.000000;3.166095
3877.000000;3.365187
3876.000000;3.556061
3875.000000;3.489412
3874.000000;3.457230
3873.000000;3.566327
3872.000000;3.772200
3871.000000;3.928579
3870.000000;4.143287
3869.000000;4.442609
3868.000000;4.815537
3867.000000;4.745951
3866.000000;4.668246
3865.000000;4.282042
3864.000000;3.847980
3863.000000;3.719094
3862.000000;3.740170
3861.000000;3.804525
3860.000000;3.885761
3859.000000;3.928169
3858.000000;3.830079
3857.000000;3.835459
3856.000000;3.889883
3855.000000;4.020074
3854.000000;4.279442
3853.000000;4.381113
3852.000000;4.376839
3851.000000;4.506997
3850.000000;4.712298
3849.000000;4.669524
3848.000000;4.329847
3847.000000;3.917472
3846.000000;3.670053
3845.000000;3.616003
3844.000000;3.714392
3843.000000;3.778987
3842.000000;3.553399
3841.000000;3.437006
3840.000000;3.591925
3839.000000;4.179087
3838.000000;4.561775
3837.000000;4.229671
3836.000000;4.194190
3835.000000;4.104609
3834.000000;4.039915
3833.000000;3.988370
3832.000000;3.804463
3831.000000;3.567508
3830.000000;3.432924
3829.000000;3.396979
3828.000000;3.402924
3827.000000;3.433223
3826.000000;3.459413
3825.000000;3.492119
3824.000000;3.575581
3823.000000;3.689481
3822.000000;3.807271
3821.000000;3.833158
3820.000000;3.827459
3819.000000;4.019399
3818.000000;4.416815
3817.000000;4.954653
3816.000000;4.399538
3815.000000;4.191663
3814.000000;4.041208
3813.000000;4.028329
3812.000000;4.004853
3811.000000;3.841438
3810.000000;3.850468
3809.000000;3.962202
3808.000000;3.895326
3807.000000;3.990084
3806.000000;4.591331
3805.000000;4.510165
3804.000000;3.987239
3803.000000;3.932990
3802.000000;4.063132
3801.000000;4.438658
3800.000000;4.798571
3799.000000;4.696627
3798.000000;4.608315
3797.000000;4.303121
3796.000000;3.911334
3795.000000;3.637564
3794.000000;3.451659
3793.000000;3.484827
3792.000000;3.933943
3791.000000;3.777691
3790.000000;3.578025
3789.000000;3.809823
3788.000000;4.029327
3787.000000;4.000902
3786.000000;4.334762
3785.000000;4.135134
3784.000000;3.910270
3783.000000;3.906135
3782.000000;3.739345
3781.000000;3.516653
3780.000000;3.458974
3779.000000;3.631353
3778.000000;4.087677
3777.000000;3.949779
3776.000000;3.833845
3775.000000;4.030656
3774.000000;3.659627
3773.000000;3.443673
3772.000000;3.566392
3771.000000;4.013853
3770.000000;3.922120
3769.000000;3.965043
3768.000000;4.250358
3767.000000;4.115469
3766.000000;3.909250
3765.000000;3.683106
3764.000000;3.498199
3763.000000;3.494467
3762.000000;3.867625
3761.000000;3.953000
3760.000000;3.581797
3759.000000;3.607498
3758.000000;3.790112
3757.000000;3.910597
3756.000000;3.792234
3755.000000;3.728782
3754.000000;3.874966
3753.000000;4.494998
3752.000000;4.724781
3751.000000;4.476990
3750.000000;4.673932
3749.000000;4.837411
3748.000000;5.065479
3747.000000;5.083128
3746.000000;4.784839
3745.000000;4.483996
3744.000000;4.233049
3743.000000;4.128063
3742.000000;4.001231
3741.000000;3.876479
3740.000000;3.891339
3739.000000;3.876236
3738.000000;3.902862
3737.000000;4.030101
3736.000000;4.422375
3735.000000;4.670106
3734.000000;4.324028
3733.000000;4.405380
3732.000000;4.372448
3731.000000;4.104426
3730.000000;3.996993
3729.000000;4.084880
3728.000000;3.912800
3727.000000;3.686962
3726.000000;3.517751
3725.000000;3.426989
3724.000000;3.518593
3723.000000;3.818822
3722.000000;4.405444
3721.000000;4.145641
3720.000000;3.691995
3719.000000;3.486420
3718.000000;3.419718
3717.000000;3.437692
3716.000000;3.491497
3715.000000;3.606022
3714.000000;3.750174
3713.000000;3.768021
3712.000000;3.697906
3711.000000;3.751081
3710.000000;3.979444
3709.000000;4.021389
3708.000000;3.953780
3707.000000;3.924319
3706.000000;3.671365
3705.000000;3.496890
3704.000000;3.454847
3703.000000;3.419751
3702.000000;3.343135
3701.000000;3.248131
3700.000000;3.243896
3699.000000;3.403279
3698.000000;3.709695
3697.000000;3.840156
3696.000000;3.627812
3695.000000;3.455030
3694.000000;3.457406
3693.000000;3.613499
3692.000000;3.826838
3691.000000;4.387922
3690.000000;4.104501
3689.000000;3.859740
3688.000000;3.997007
3687.000000;4.203448
3686.000000;4.257505
3685.000000;4.064926
3684.000000;3.940113
3683.000000;3.973641
3682.000000;4.020471
3681.000000;3.890390
3680.000000;3.818352
3679.000000;3.820539
3678.000000;3.771445
3677.000000;3.748450
3676.000000;3.819777
3675.000000;3.933655
3674.000000;4.028455
3673.000000;4.054050
3672.000000;4.032374
3671.000000;4.032567
3670.000000;4.103411
3669.000000;4.251599
3668.000000;4.153098
3667.000000;3.811298
3666.000000;3.532311
3665.000000;3.409853
3664.000000;3.407668
3663.000000;3.506462
3662.000000;3.903131
3661.000000;3.967395
3660.000000;3.623720
3659.000000;3.560861
3658.000000;3.482071
3657.000000;3.404778
3656.000000;3.395408
3655.000000;3.555858
3654.000000;4.076021
3653.000000;4.235843
3652.000000;4.064065
3651.000000;4.202199
3650.000000;4.438143
3649.000000;4.811385
3648.000000;4.376658
3647.000000;4.225458
3646.000000;4.162428
3645.000000;4.143224
3644.000000;4.051171
3643.000000;3.915606
3642.000000;3.874483
3641.000000;3.855103
3640.000000;3.932113
3639.000000;4.114660
3638.000000;4.028159
3637.000000;3.873291
3636.000000;3.864630
3635.000000;3.966235
3634.000000;3.929832
3633.000000;3.723653
3632.000000;3.608493
3631.000000;3.586109
3630.000000;3.512820
3629.000000;3.340073
3628.000000;3.189001
3627.000000;3.150347
3626.000000;3.191350
3625.000000;3.241197
3624.000000;3.249593
3623.000000;3.224647
3622.000000;3.251864
3621.000000;3.404515
3620.000000;3.690597
3619.000000;4.078768
3618.000000;4.447472
3617.000000;4.207282
3616.000000;4.021949
3615.000000;4.030441
3614.000000;4.034955
3613.000000;4.025952
3612.000000;4.073067
3611.000000;4.055027
3610.000000;4.229891
3609.000000;4.275943
3608.000000;3.880620
3607.000000;3.783221
3606.000000;3.713725
3605.000000;3.473036
3604.000000;3.303938
3603.000000;3.291612
3602.000000;3.402276
3601.000000;3.575265
3600.000000;3.734499
3599.000000;3.966948
3598.000000;4.340974
3597.000000;3.941926
3596.000000;3.679936
3595.000000;3.624826
3594.000000;3.529379
3593.000000;3.400131
3592.000000;3.366440
3591.000000;3.471003
3590.000000;3.866852
3589.000000;3.752485
3588.000000;3.484958
3587.000000;3.737617
3586.000000;3.816635
3585.000000;3.585878
3584.000000;3.579337
3583.000000;3.558389
3582.000000;3.482206
3581.000000;3.479802
3580.000000;3.693441
3579.000000;3.914146
3578.000000;3.666397
3577.000000;3.580340
3576.000000;3.568328
3575.000000;3.696072
3574.000000;3.846964
3573.000000;3.432745
3572.000000;3.241687
3571.000000;3.252237
3570.000000;3.368277
3569.000000;3.513530
3568.000000;3.839256
3567.000000;4.338774
3566.000000;3.997608
3565.000000;4.021076
3564.000000;4.124394
3563.000000;4.205771
3562.000000;4.128580
3561.000000;4.057487
3560.000000;4.299168
3559.000000;3.930946
3558.000000;3.588699
3557.000000;3.532092
3556.000000;3.485468
3555.000000;3.336550
3554.000000;3.281429
3553.000000;3.428992
3552.000000;3.771020
3551.000000;4.132845
3550.000000;4.067527
3549.000000;3.718251
3548.000000;3.535149
3547.000000;3.608381
3546.000000;3.762021
3545.000000;3.505551
3544.000000;3.382761
3543.000000;3.492322
3542.000000;3.625603
3541.000000;3.448260
3540.000000;3.212355
3539.000000;3.062938
3538.000000;2.987093
3537.000000;3.018658
3536.000000;3.184909
3535.000000;3.594599
3534.000000;4.268037
3533.000000;4.168359
3532.000000;4.393549
3531.000000;3.922818
3530.000000;3.691404
3529.000000;3.656429
3528.000000;3.619552
3527.000000;3.713685
3526.000000;3.905594
3525.000000;4.101668
3524.000000;3.814871
3523.000000;3.555535
3522.000000;3.495037
3521.000000;3.543303
3520.000000;3.554491
3519.000000;3.564274
3518.000000;3.692653
3517.000000;3.611789
3516.000000;3.413920
3515.000000;3.376717
3514.000000;3.376230
3513.000000;3.329869
3512.000000;3.312832
3511.000000;3.411740
3510.000000;3.644177
3509.000000;3.931460
3508.000000;4.066927
3507.000000;3.865831
3506.000000;3.695329
3505.000000;3.576304
3504.000000;3.427351
3503.000000;3.338228
3502.000000;3.350851
3501.000000;3.420477
3500.000000;3.532247
3499.000000;3.604429
3498.000000;3.516101
3497.000000;3.474801
3496.000000;3.774814
3495.000000;4.415974
3494.000000;3.895801
3493.000000;3.693129
3492.000000;3.499507
3491.000000;3.338433
3490.000000;3.271192
3489.000000;3.386756
3488.000000;3.662491
3487.000000;3.937762
3486.000000;3.983537
3485.000000;3.794943
3484.000000;4.244748
3483.000000;4.135736
3482.000000;3.653815
3481.000000;3.606075
3480.000000;3.700300
3479.000000;3.914409
3478.000000;3.693384
3477.000000;3.465878
3476.000000;3.395880
3475.000000;3.363441
3474.000000;3.346550
3473.000000;3.312723
3472.000000;3.363463
3471.000000;3.484297
3470.000000;3.726247
3469.000000;4.166307
3468.000000;3.808044
3467.000000;3.921337
3466.000000;4.282605
3465.000000;4.115272
3464.000000;3.700200
3463.000000;3.357364
3462.000000;3.342440
3461.000000;3.685048
3460.000000;4.243773
3459.000000;3.773684
3458.000000;4.047883
3457.000000;4.077410
3456.000000;3.408562
3455.000000;3.189187
3454.000000;3.126247
3453.000000;3.170400
3452.000000;3.257487
3451.000000;3.320380
3450.000000;3.299135
3449.000000;3.264146
3448.000000;3.322704
3447.000000;3.398154
3446.000000;3.374965
3445.000000;3.353754
3444.000000;3.403691
3443.000000;3.416184
3442.000000;3.661287
3441.000000;3.886598
3440.000000;3.463851
3439.000000;3.535897
3438.000000;3.967445
3437.000000;4.109444
3436.000000;3.840107
3435.000000;3.532214
3434.000000;3.308869
3433.000000;3.207282
3432.000000;3.293447
3431.000000;3.673382
3430.000000;3.755735
3429.000000;3.475380
3428.000000;3.494056
3427.000000;3.504472
3426.000000;3.457813
3425.000000;3.419904
3424.000000;3.293660
3423.000000;3.171107
3422.000000;3.165761
3421.000000;3.284283
3420.000000;3.421699
3419.000000;3.454291
3418.000000;3.478162
3417.000000;3.515302
3416.000000;3.377009
3415.000000;3.214316
3414.000000;3.172181
3413.000000;3.186509
3412.000000;3.184402
3411.000000;3.191520
3410.000000;3.177522
3409.000000;3.128007
3408.000000;3.092044
3407.000000;3.088174
3406.000000;3.165345
3405.000000;3.367431
3404.000000;3.787951
3403.000000;4.167568
3402.000000;3.763289
3401.000000;3.568894
3400.000000;3.483816
3399.000000;3.494741
3398.000000;3.599080
3397.000000;3.638479
3396.000000;3.712373
3395.000000;3.898881
3394.000000;3.993897
3393.000000;3.974145
3392.000000;3.848999
3391.000000;3.712169
3390.000000;3.685843
3389.000000;3.784240
3388.000000;3.794421
3387.000000;3.764049
3386.000000;3.760821
3385.000000;3.629823
3384.000000;3.532376
3383.000000;3.456939
3382.000000;3.405221
3381.000000;3.438253
3380.000000;3.476611
3379.000000;3.492523
3378.000000;3.581175
3377.000000;4.041782
3376.000000;4.445184
3375.000000;3.856601
3374.000000;4.147773
3373.000000;3.941153
3372.000000;3.398859
3371.000000;3.264847
3370.000000;3.339398
3369.000000;3.417630
3368.000000;3.293475
3367.000000;3.146311
3366.000000;3.044639
3365.000000;2.977104
3364.000000;2.968617
3363.000000;3.046400
3362.000000;3.181224
3361.000000;3.264257
3360.000000;3.300953
3359.000000;3.403029
3358.000000;3.780482
3357.000000;3.903993
3356.000000;3.473089
3355.000000;3.348390
3354.000000;3.371540
3353.000000;3.389587
3352.000000;3.267349
3351.000000;3.135402
3350.000000;3.101921
3349.000000;3.125990
3348.000000;3.288214
3347.000000;3.884302
3346.000000;3.552472
3345.000000;3.150055
3344.000000;3.042926
3343.000000;3.008027
3342.000000;3.070319
3341.000000;3.202453
3340.000000;3.358085
3339.000000;3.418493
3338.000000;3.422140
3337.000000;3.472048
3336.000000;3.328218
3335.000000;3.162195
3334.000000;3.137154
3333.000000;3.147816
3332.000000;3.104958
3331.000000;3.054339
3330.000000;3.010356
3329.000000;3.008347
3328.000000;3.149369
3327.000000;3.415084
3326.000000;3.558397
3325.000000;3.791195
3324.000000;4.426815
3323.000000;4.260655
3322.000000;3.706458
3321.000000;3.364253
3320.000000;3.216226
3319.000000;3.214140
3318.000000;3.331198
3317.000000;3.516115
3316.000000;3.528956
3315.000000;3.363502
3314.000000;3.230571
3313.000000;3.132550
3312.000000;3.087666
3311.000000;3.162039
3310.000000;3.408733
3309.000000;3.955377
3308.000000;4.374975
3307.000000;3.698558
3306.000000;3.424831
3305.000000;3.316506
3304.000000;3.247780
3303.000000;3.200907
3302.000000;3.147930
3301.000000;3.081807
3300.000000;3.050456
3299.000000;3.100120
3298.000000;3.161237
3297.000000;3.108232
3296.000000;3.060957
3295.000000;3.138242
3294.000000;3.338809
3293.000000;3.540659
3292.000000;3.565399
3291.000000;3.561914
3290.000000;3.574021
3289.000000;3.664837
3288.000000;3.781742
3287.000000;3.886779
3286.000000;3.659783
3285.000000;3.688429
3284.000000;4.134307
3283.000000;3.451678
3282.000000;3.310769
3281.000000;3.488114
3280.000000;3.826913
3279.000000;4.278683
3278.000000;3.939597
3277.000000;3.865028
3276.000000;3.671669
3275.000000;3.694705
3274.000000;3.617540
3273.000000;3.312913
3272.000000;3.233044
3271.000000;3.348106
3270.000000;3.688125
3269.000000;3.591714
3268.000000;3.300000
3267.000000;3.300627
3266.000000;3.530355
3265.000000;3.852146
3264.000000;3.654922
3263.000000;3.582893
3262.000000;3.613339
3261.000000;3.417003
3260.000000;3.268818
3259.000000;3.223561
3258.000000;3.319150
3257.000000;3.586787
3256.000000;3.877151
3255.000000;3.772323
3254.000000;3.452601
3253.000000;3.362128
3252.000000;3.439092
3251.000000;3.489013
3250.000000;3.456649
3249.000000;3.366176
3248.000000;3.296740
3247.000000;3.272342
3246.000000;3.368514
3245.000000;3.810538
3244.000000;4.281486
3243.000000;3.863413
3242.000000;3.569969
3241.000000;3.292039
3240.000000;3.214774
3239.000000;3.279520
3238.000000;3.367512
3237.000000;3.466443
3236.000000;3.632085
3235.000000;3.940882
3234.000000;3.977050
3233.000000;3.585413
3232.000000;3.367298
3231.000000;3.356450
3230.000000;3.444329
3229.000000;3.489497
3228.000000;3.442355
3227.000000;3.393612
3226.000000;3.434811
3225.000000;3.665141
3224.000000;3.923664
3223.000000;3.577082
3222.000000;3.341598
3221.000000;3.283981
3220.000000;3.502733
3219.000000;4.081643
3218.000000;3.838764
3217.000000;3.945616
3216.000000;4.283865
3215.000000;4.064430
3214.000000;3.901321
3213.000000;3.672345
3212.000000;3.903197
3211.000000;3.734140
3210.000000;3.273784
3209.000000;3.135784
3208.000000;3.093701
3207.000000;3.055836
3206.000000;3.066682
3205.000000;3.159889
3204.000000;3.314289
3203.000000;3.575534
3202.000000;3.739372
3201.000000;3.496628
3200.000000;3.382059
3199.000000;3.360565
3198.000000;3.339744
3197.000000;3.297602
3196.000000;3.257043
3195.000000;3.235178
3194.000000;3.199432
3193.000000;3.205050
3192.000000;3.255691
3191.000000;3.303736
3190.000000;3.318341
3189.000000;3.263098
3188.000000;3.194726
3187.000000;3.186886
3186.000000;3.307252
3185.000000;3.433704
3184.000000;3.410589
3183.000000;3.505582
3182.000000;3.625590
3181.000000;3.551836
3180.000000;3.558572
3179.000000;3.822344
3178.000000;3.856555
3177.000000;3.486992
3176.000000;3.368590
3175.000000;3.353199
3174.000000;3.299460
3173.000000;3.243179
3172.000000;3.220019
3171.000000;3.280768
3170.000000;3.506215
3169.000000;3.604791
3168.000000;3.509432
3167.000000;3.641273
3166.000000;3.779984
3165.000000;3.953176
3164.000000;4.559953
3163.000000;4.339136
3162.000000;3.914830
3161.000000;3.701672
3160.000000;3.595912
3159.000000;3.498721
3158.000000;3.476164
3157.000000;3.477720
3156.000000;3.644128
3155.000000;4.452739
3154.000000;4.051207
3153.000000;4.020756
3152.000000;3.928156
3151.000000;3.446663
3150.000000;3.308003
3149.000000;3.270682
3148.000000;3.290877
3147.000000;3.394062
3146.000000;3.462538
3145.000000;3.408334
3144.000000;3.323560
3143.000000;3.406603
3142.000000;3.544811
3141.000000;3.455786
3140.000000;3.528798
3139.000000;3.641014
3138.000000;3.723363
3137.000000;3.856756
3136.000000;3.531824
3135.000000;3.368276
3134.000000;3.364973
3133.000000;3.530167
3132.000000;3.728765
3131.000000;3.422617
3130.000000;3.251288
3129.000000;3.256256
3128.000000;3.319610
3127.000000;3.398967
3126.000000;3.530768
3125.000000;3.576555
3124.000000;3.760128
3123.000000;4.234140
3122.000000;3.539738
3121.000000;3.284849
3120.000000;3.241518
3119.000000;3.308042
3118.000000;3.434804
3117.000000;3.519051
3116.000000;3.654061
3115.000000;3.677935
3114.000000;3.773459
3113.000000;3.643485
3112.000000;3.337911
3111.000000;3.213539
3110.000000;3.167795
3109.000000;3.334378
3108.000000;3.707627
3107.000000;3.387887
3106.000000;3.233111
3105.000000;3.381423
3104.000000;3.459222
3103.000000;3.338203
3102.000000;3.265891
3101.000000;3.327910
3100.000000;3.480163
3099.000000;3.508906
3098.000000;3.488094
3097.000000;3.392581
3096.000000;3.192779
3095.000000;3.083951
3094.000000;3.079050
3093.000000;3.152657
3092.000000;3.289240
3091.000000;3.392724
3090.000000;3.550444
3089.000000;3.825582
3088.000000;3.723125
3087.000000;3.506966
3086.000000;3.404278
3085.000000;3.403923
3084.000000;3.330955
3083.000000;3.197636
3082.000000;3.127687
3081.000000;3.122915
3080.000000;3.168306
3079.000000;3.266823
3078.000000;3.380387
3077.000000;3.388847
3076.000000;3.325981
3075.000000;3.426125
3074.000000;3.753186
3073.000000;3.725575
3072.000000;3.571735
3071.000000;3.759208
3070.000000;4.372164
3069.000000;3.731839
3068.000000;3.381458
3067.000000;3.234740
3066.000000;3.173065
3065.000000;3.212120
3064.000000;3.309646
3063.000000;3.449553
3062.000000;3.595595
3061.000000;3.633457
3060.000000;3.446028
3059.000000;3.329988
3058.000000;3.367562
3057.000000;3.394037
3056.000000;3.385814
3055.000000;3.416417
3054.000000;3.332109
3053.000000;3.160989
3052.000000;3.085240
3051.000000;3.092365
3050.000000;3.132725
3049.000000;3.216050
3048.000000;3.412033
3047.000000;3.879905
3046.000000;4.013007
3045.000000;3.662457
3044.000000;3.573291
3043.000000;3.516926
3042.000000;3.712998
3041.000000;4.357932
3040.000000;3.726624
3039.000000;3.760852
3038.000000;4.349367
3037.000000;3.823479
3036.000000;3.524228
3035.000000;3.431660
3034.000000;3.505561
3033.000000;3.522425
3032.000000;3.437928
3031.000000;3.465096
3030.000000;3.695619
3029.000000;4.045800
3028.000000;3.888249
3027.000000;3.793299
3026.000000;3.743326
3025.000000;3.593091
3024.000000;3.509217
3023.000000;3.509601
3022.000000;3.505679
3021.000000;3.446776
3020.000000;3.515548
3019.000000;3.608572
3018.000000;3.432928
3017.000000;3.401892
3016.000000;3.511948
3015.000000;3.508758
3014.000000;3.420594
3013.000000;3.241963
3012.000000;3.150522
3011.000000;3.196633
3010.000000;3.246952
3009.000000;3.213242
3008.000000;3.181650
3007.000000;3.283039
3006.000000;3.578783
3005.000000;3.695076
3004.000000;3.592310
3003.000000;3.591593
3002.000000;3.565422
3001.000000;3.584984
3000.000000;3.474397
2999.000000;3.315269
2998.000000;3.292091
2997.000000;3.457719
2996.000000;3.939750
2995.000000;4.041481
2994.000000;3.851209
2993.000000;4.195728
2992.000000;4.353804
2991.000000;4.070384
2990.000000;3.905665
2989.000000;3.548187
2988.000000;3.311807
2987.000000;3.276550
2986.000000;3.327472
2985.000000;3.271435
2984.000000;3.257700
2983.000000;3.412045
2982.000000;3.599451
2981.000000;3.637569
2980.000000;3.630959
2979.000000;3.581691
2978.000000;3.425410
2977.000000;3.318288
2976.000000;3.266469
2975.000000;3.228137
2974.000000;3.246326
2973.000000;3.356628
2972.000000;3.588969
2971.000000;3.619059
2970.000000;3.360371
2969.000000;3.217088
2968.000000;3.202115
2967.000000;3.247059
2966.000000;3.260214
2965.000000;3.270018
2964.000000;3.374188
2963.000000;3.590170
2962.000000;3.721731
2961.000000;3.807165
2960.000000;3.745372
2959.000000;3.572611
2958.000000;3.474607
2957.000000;3.319209
2956.000000;3.293391
2955.000000;3.441346
2954.000000;3.524012
2953.000000;3.400810
2952.000000;3.267413
2951.000000;3.289246
2950.000000;3.449825
2949.000000;3.703106
2948.000000;3.645062
2947.000000;3.434766
2946.000000;3.729508
2945.000000;3.756869
2944.000000;3.338663
2943.000000;3.247038
2942.000000;3.155612
2941.000000;3.092435
2940.000000;3.073729
2939.000000;3.112413
2938.000000;3.184626
2937.000000;3.325423
2936.000000;3.824435
2935.000000;3.808984
2934.000000;3.575683
2933.000000;3.531112
2932.000000;3.465033
2931.000000;3.597855
2930.000000;3.783793
2929.000000;3.699367
2928.000000;3.559321
2927.000000;3.532239
2926.000000;3.672467
2925.000000;4.049429
2924.000000;4.067853
2923.000000;3.579226
2922.000000;3.406295
2921.000000;3.420980
2920.000000;3.478414
2919.000000;3.586196
2918.000000;3.787083
2917.000000;3.988280
2916.000000;3.879880
2915.000000;3.636385
2914.000000;3.361140
2913.000000;3.181360
2912.000000;3.221314
2911.000000;3.595758
2910.000000;3.994597
2909.000000;3.641240
2908.000000;3.506829
2907.000000;3.448560
2906.000000;3.532361
2905.000000;3.571725
2904.000000;3.327087
2903.000000;3.234644
2902.000000;3.220044
2901.000000;3.147760
2900.000000;3.101844
2899.000000;3.140580
2898.000000;3.275699
2897.000000;3.506834
2896.000000;3.530072
2895.000000;3.388123
2894.000000;3.334041
2893.000000;3.357587
2892.000000;3.347415
2891.000000;3.344052
2890.000000;3.743072
2889.000000;3.792011
2888.000000;3.422065
2887.000000;3.418171
2886.000000;3.481620
2885.000000;3.790070
2884.000000;4.340533
2883.000000;3.857747
2882.000000;3.611983
2881.000000;3.519693
2880.000000;3.477650
2879.000000;3.355444
2878.000000;3.284619
2877.000000;3.374215
2876.000000;3.625039
2875.000000;3.891863
2874.000000;3.992576
2873.000000;3.971710
2872.000000;3.511857
2871.000000;3.210320
2870.000000;3.104070
2869.000000;3.114588
2868.000000;3.205014
2867.000000;3.280644
2866.000000;3.342657
2865.000000;3.466532
2864.000000;3.584062
2863.000000;3.865988
2862.000000;3.650611
2861.000000;3.236230
2860.000000;3.112727
2859.000000;3.136517
2858.000000;3.249413
2857.000000;3.397950
2856.000000;3.587202
2855.000000;4.107490
2854.000000;3.598100
2853.000000;3.141651
2852.000000;3.006094
2851.000000;3.070855
2850.000000;3.332933
2849.000000;3.536819
2848.000000;3.755454
2847.000000;3.999530
2846.000000;3.548355
2845.000000;3.474768
2844.000000;3.554411
2843.000000;3.877917
2842.000000;3.769002
2841.000000;3.364601
2840.000000;3.238861
2839.000000;3.175962
2838.000000;3.137524
2837.000000;3.146138
2836.000000;3.284967
2835.000000;3.559538
2834.000000;3.717074
2833.000000;3.805239
2832.000000;3.813357
2831.000000;3.649461
2830.000000;3.592493
2829.000000;3.616255
2828.000000;3.503454
2827.000000;3.347150
2826.000000;3.309726
2825.000000;3.446373
2824.000000;3.611364
2823.000000;3.522421
2822.000000;3.515682
2821.000000;3.574526
2820.000000;3.542222
2819.000000;3.391817
2818.000000;3.269973
2817.000000;3.291006
2816.000000;3.342294
2815.000000;3.304271
2814.000000;3.199777
2813.000000;3.080319
2812.000000;3.013239
2811.000000;2.996291
2810.000000;3.009081
2809.000000;3.025635
2808.000000;3.122778
2807.000000;3.428690
2806.000000;3.325234
2805.000000;3.082679
2804.000000;3.061921
2803.000000;3.124129
2802.000000;3.261957
2801.000000;3.574468
2800.000000;3.665102
2799.000000;3.580818
2798.000000;3.721974
2797.000000;4.055115
2796.000000;4.300880
2795.000000;3.581618
2794.000000;3.413910
2793.000000;3.443113
2792.000000;3.490185
2791.000000;3.518610
2790.000000;3.559026
2789.000000;3.593318
2788.000000;3.511854
2787.000000;3.521362
2786.000000;3.574543
2785.000000;3.583015
2784.000000;3.620799
2783.000000;3.565052
2782.000000;3.352790
2781.000000;3.206465
2780.000000;3.227898
2779.000000;3.369507
2778.000000;3.366414
2777.000000;3.203482
2776.000000;3.112628
2775.000000;3.110453
2774.000000;3.165170
2773.000000;3.253167
2772.000000;3.373665
2771.000000;3.514947
2770.000000;3.619030
2769.000000;3.807409
2768.000000;3.926015
2767.000000;3.783063
2766.000000;3.821010
2765.000000;3.772366
2764.000000;3.476044
2763.000000;3.327081
2762.000000;3.318522
2761.000000;3.364806
2760.000000;3.356121
2759.000000;3.341249
2758.000000;3.382796
2757.000000;3.596229
2756.000000;3.858732
2755.000000;3.664710
2754.000000;3.766314
2753.000000;4.012302
2752.000000;3.778219
2751.000000;3.580337
2750.000000;3.434307
2749.000000;3.439971
2748.000000;3.534747
2747.000000;3.611159
2746.000000;3.786928
2745.000000;3.649636
2744.000000;3.366559
2743.000000;3.276180
2742.000000;3.295448
2741.000000;3.312404
2740.000000;3.332929
2739.000000;3.439748
2738.000000;3.526094
2737.000000;3.398964
2736.000000;3.242104
2735.000000;3.198060
2734.000000;3.354463
2733.000000;3.654850
2732.000000;3.516001
2731.000000;3.328479
2730.000000;3.298950
2729.000000;3.301243
2728.000000;3.222517
2727.000000;3.156033
2726.000000;3.175653
2725.000000;3.297569
2724.000000;3.528760
2723.000000;3.432644
2722.000000;3.324282
2721.000000;3.559274
2720.000000;4.306666
2719.000000;3.835562
2718.000000;3.613657
2717.000000;3.547397
2716.000000;3.540618
2715.000000;3.562853
2714.000000;3.622081
2713.000000;3.848542
2712.000000;3.962962
2711.000000;3.854293
2710.000000;3.614512
2709.000000;3.411145
2708.000000;3.446208
2707.000000;3.560376
2706.000000;3.367020
2705.000000;3.295363
2704.000000;3.435562
2703.000000;3.621533
2702.000000;3.587578
2701.000000;3.483560
2700.000000;3.626617
2699.000000;3.894248
2698.000000;4.049604
2697.000000;3.931678
2696.000000;3.696875
2695.000000;3.544412
2694.000000;3.770217
2693.000000;3.698731
2692.000000;3.275166
2691.000000;3.203845
2690.000000;3.310250
2689.000000;3.432601
2688.000000;3.525978
2687.000000;3.564507
2686.000000;3.488813
2685.000000;3.396245
2684.000000;3.419236
2683.000000;3.775483
2682.000000;3.746210
2681.000000;3.408396
2680.000000;3.525853
2679.000000;4.088683
2678.000000;4.140081
2677.000000;3.548260
2676.000000;3.389912
2675.000000;3.315400
2674.000000;3.221509
2673.000000;3.153506
2672.000000;3.213397
2671.000000;3.456877
2670.000000;3.432881
2669.000000;3.242200
2668.000000;3.187693
2667.000000;3.176088
2666.000000;3.152314
2665.000000;3.163528
2664.000000;3.323658
2663.000000;3.733010
2662.000000;3.911237
2661.000000;3.623578
2660.000000;3.538993
2659.000000;3.615912
2658.000000;3.546004
2657.000000;3.326022
2656.000000;3.217300
2655.000000;3.246178
2654.000000;3.348932
2653.000000;3.436806
2652.000000;3.497093
2651.000000;3.596666
2650.000000;3.568108
2649.000000;3.523127
2648.000000;3.605257
2647.000000;3.431506
2646.000000;3.391859
2645.000000;3.874627
2644.000000;4.133290
2643.000000;3.841869
2642.000000;3.700835
2641.000000;3.644506
2640.000000;3.834797
2639.000000;3.897511
2638.000000;3.647085
2637.000000;3.468168
2636.000000;3.660402
2635.000000;4.445308
2634.000000;3.744963
2633.000000;3.806682
2632.000000;3.916787
2631.000000;3.784459
2630.000000;3.631054
2629.000000;3.595881
2628.000000;3.815830
2627.000000;3.699025
2626.000000;3.472896
2625.000000;3.400440
2624.000000;3.447931
2623.000000;3.525614
2622.000000;3.423219
2621.000000;3.340775
2620.000000;3.331374
2619.000000;3.405367
2618.000000;3.600511
2617.000000;3.883779
2616.000000;3.704456
2615.000000;3.629294
2614.000000;3.808549
2613.000000;3.685666
2612.000000;3.491619
2611.000000;3.449135
2610.000000;3.398974
2609.000000;3.307156
2608.000000;3.272685
2607.000000;3.253897
2606.000000;3.237075
2605.000000;3.328237
2604.000000;3.636279
2603.000000;4.220681
2602.000000;3.894438
2601.000000;3.626337
2600.000000;3.573402
2599.000000;3.728474
2598.000000;3.931217
2597.000000;3.854740
2596.000000;3.987966
2595.000000;3.766889
2594.000000;3.542395
2593.000000;3.466449
2592.000000;3.391310
2591.000000;3.429264
2590.000000;3.457715
2589.000000;3.424369
2588.000000;3.530485
2587.000000;3.730315
2586.000000;3.648366
2585.000000;3.454277
2584.000000;3.428995
2583.000000;3.538577
2582.000000;3.547742
2581.000000;3.430532
2580.000000;3.386474
2579.000000;3.469271
2578.000000;3.643225
2577.000000;4.020502
2576.000000;3.783249
2575.000000;3.406556
2574.000000;3.520481
2573.000000;3.691865
2572.000000;3.469907
2571.000000;3.417163
2570.000000;3.391218
2569.000000;3.328495
2568.000000;3.302524
2567.000000;3.347340
2566.000000;3.343744
2565.000000;3.284762
2564.000000;3.342611
2563.000000;3.500088
2562.000000;3.703701
2561.000000;3.658099
2560.000000;3.452709
2559.000000;3.366933
2558.000000;3.335908
2557.000000;3.315185
2556.000000;3.302796
2555.000000;3.333716
2554.000000;3.420681
2553.000000;3.498509
2552.000000;3.526773
2551.000000;3.518884
2550.000000;3.499668
2549.000000;3.469786
2548.000000;3.423607
2547.000000;3.361904
2546.000000;3.401885
2545.000000;3.795915
2544.000000;4.363106
2543.000000;3.998703
2542.000000;3.806148
2541.000000;3.594864
2540.000000;3.467882
2539.000000;3.375875
2538.000000;3.379234
2537.000000;3.473660
2536.000000;3.590306
2535.000000;3.743486
2534.000000;3.908058
2533.000000;3.906666
2532.000000;4.134668
2531.000000;3.734824
2530.000000;3.320339
2529.000000;3.138459
2528.000000;3.070272
2527.000000;3.074849
2526.000000;3.122288
2525.000000;3.212902
2524.000000;3.330227
2523.000000;3.375530
2522.000000;3.329169
2521.000000;3.310748
2520.000000;3.407488
2519.000000;3.618736
2518.000000;3.863002
2517.000000;4.067833
2516.000000;4.285399
2515.000000;3.844589
2514.000000;3.750745
2513.000000;4.105404
2512.000000;3.658092
2511.000000;3.348593
2510.000000;3.280240
2509.000000;3.450551
2508.000000;4.012415
2507.000000;3.593032
2506.000000;3.394842
2505.000000;3.315175
2504.000000;3.182979
2503.000000;3.107441
2502.000000;3.145638
2501.000000;3.286366
2500.000000;3.523103
2499.000000;3.757886
2498.000000;3.432864
2497.000000;3.270494
2496.000000;3.321495
2495.000000;3.501441
2494.000000;3.537150
2493.000000;3.446127
2492.000000;3.510550
2491.000000;3.811467
2490.000000;4.014419
2489.000000;3.823120
2488.000000;3.554265
2487.000000;3.310084
2486.000000;3.207844
2485.000000;3.174595
2484.000000;3.175384
2483.000000;3.231121
2482.000000;3.363035
2481.000000;3.547447
2480.000000;3.482255
2479.000000;3.398481
2478.000000;3.460647
2477.000000;3.750274
2476.000000;3.910505
2475.000000;3.951096
2474.000000;3.572852
2473.000000;3.094009
2472.000000;2.962409
2471.000000;2.999298
2470.000000;3.131498
2469.000000;3.277752
2468.000000;3.399237
2467.000000;3.567764
2466.000000;3.753177
2465.000000;3.817143
2464.000000;3.629402
2463.000000;3.418079
2462.000000;3.310109
2461.000000;3.240305
2460.000000;3.280505
2459.000000;3.578018
2458.000000;3.783787
2457.000000;3.493601
2456.000000;3.307616
2455.000000;3.274425
2454.000000;3.517232
2453.000000;3.977298
2452.000000;3.621765
2451.000000;3.607178
2450.000000;3.786808
2449.000000;4.285698
2448.000000;3.742658
2447.000000;3.375956
2446.000000;3.395490
2445.000000;3.717878
2444.000000;3.703299
2443.000000;3.619740
2442.000000;3.688660
2441.000000;3.684010
2440.000000;3.541807
2439.000000;3.412911
2438.000000;3.373280
2437.000000;3.324117
2436.000000;3.483917
2435.000000;3.669670
2434.000000;3.378097
2433.000000;3.279588
2432.000000;3.289897
2431.000000;3.323647
2430.000000;3.448539
2429.000000;3.625891
2428.000000;4.160843
2427.000000;3.697759
2426.000000;3.421467
2425.000000;3.398338
2424.000000;3.387406
2423.000000;3.415239
2422.000000;3.696681
2421.000000;3.457079
2420.000000;3.235717
2419.000000;3.267678
2418.000000;3.444698
2417.000000;3.661487
2416.000000;3.709482
2415.000000;3.752497
2414.000000;3.545761
2413.000000;3.379533
2412.000000;3.379556
2411.000000;3.389485
2410.000000;3.465042
2409.000000;3.672025
2408.000000;3.592132
2407.000000;3.486706
2406.000000;3.676731
2405.000000;3.794265
2404.000000;3.613971
2403.000000;3.407252
2402.000000;3.251995
2401.000000;3.235617
2400.000000;3.355779
2399.000000;3.500181
2398.000000;3.494433
2397.000000;3.529064
2396.000000;3.793303
2395.000000;3.487364
2394.000000;3.352872
2393.000000;3.461874
2392.000000;3.537355
2391.000000;3.651913
2390.000000;4.144927
2389.000000;3.660291
2388.000000;3.677937
2387.000000;3.862105
2386.000000;3.657979
2385.000000;3.493993
2384.000000;3.461879
2383.000000;3.536487
2382.000000;3.620495
2381.000000;3.695037
2380.000000;3.676978
2379.000000;3.632569
2378.000000;3.610282
2377.000000;3.643990
2376.000000;3.871043
2375.000000;4.090001
2374.000000;4.161577
2373.000000;4.914180
2372.000000;4.987955
2371.000000;4.026325
2370.000000;3.726873
2369.000000;3.607288
2368.000000;3.560980
2367.000000;3.654914
2366.000000;4.081382
2365.000000;4.093460
2364.000000;3.730198
2363.000000;3.701023
2362.000000;3.827678
2361.000000;3.856516
2360.000000;3.621320
2359.000000;3.550071
2358.000000;3.541534
2357.000000;3.516842
2356.000000;3.555102
2355.000000;3.673755
2354.000000;3.859036
2353.000000;4.202033
2352.000000;3.747835
2351.000000;3.507650
2350.000000;3.565097
2349.000000;3.652779
2348.000000;3.642865
2347.000000;3.617123
2346.000000;3.857032
2345.000000;3.942776
2344.000000;3.939681
2343.000000;3.667238
2342.000000;3.803109
2341.000000;3.926423
2340.000000;3.475454
2339.000000;3.368783
2338.000000;3.357182
2337.000000;3.404690
2336.000000;3.606335
2335.000000;4.002914
2334.000000;3.912202
2333.000000;3.773505
2332.000000;3.797031
2331.000000;3.736164
2330.000000;3.644336
2329.000000;3.586456
2328.000000;3.655861
2327.000000;3.828985
2326.000000;4.395978
2325.000000;4.486688
2324.000000;4.152772
2323.000000;4.043458
2322.000000;3.692369
2321.000000;3.564854
2320.000000;3.626927
2319.000000;3.962804
2318.000000;4.014329
2317.000000;3.620791
2316.000000;3.555852
2315.000000;3.730214
2314.000000;3.925296
2313.000000;3.803478
2312.000000;3.697304
2311.000000;3.669338
2310.000000;3.635613
2309.000000;3.615969
2308.000000;3.736909
2307.000000;4.003893
2306.000000;4.148231
2305.000000;4.031344
2304.000000;4.104146
2303.000000;4.340989
2302.000000;4.050536
2301.000000;3.798301
2300.000000;3.699476
2299.000000;3.674808
2298.000000;3.606942
2297.000000;3.585164
2296.000000;3.799458
2295.000000;3.858584
2294.000000;3.665891
2293.000000;3.448180
2292.000000;3.253014
2291.000000;3.155591
2290.000000;3.113350
2289.000000;3.102858
2288.000000;3.156477
2287.000000;3.275932
2286.000000;3.382342
2285.000000;3.643964
2284.000000;4.325226
2283.000000;3.733392
2282.000000;3.666248
2281.000000;3.469473
2280.000000;3.423197
2279.000000;3.499356
2278.000000;3.563025
2277.000000;3.539326
2276.000000;3.396009
2275.000000;3.349377
2274.000000;3.324079
2273.000000;3.215398
2272.000000;3.164400
2271.000000;3.218799
2270.000000;3.252724
2269.000000;3.249231
2268.000000;3.352311
2267.000000;3.948680
2266.000000;3.623183
2265.000000;3.483209
2264.000000;3.811246
2263.000000;4.008613
2262.000000;3.540203
2261.000000;3.294626
2260.000000;3.216981
2259.000000;3.238152
2258.000000;3.209871
2257.000000;3.140229
2256.000000;3.149261
2255.000000;3.208823
2254.000000;3.223644
2253.000000;3.217088
2252.000000;3.330850
2251.000000;3.593280
2250.000000;3.692538
2249.000000;3.620513
2248.000000;3.592277
2247.000000;3.559790
2246.000000;3.679694
2245.000000;3.746553
2244.000000;3.624100
2243.000000;3.738809
2242.000000;3.943556
2241.000000;3.677117
2240.000000;3.837232
2239.000000;3.759700
2238.000000;3.471856
2237.000000;3.483100
2236.000000;3.573154
2235.000000;3.451242
2234.000000;3.391545
2233.000000;3.404778
2232.000000;3.434378
2231.000000;3.622917
2230.000000;3.696936
2229.000000;3.443696
2228.000000;3.493445
2227.000000;3.764730
2226.000000;3.698786
2225.000000;3.654352
2224.000000;3.671160
2223.000000;3.549100
2222.000000;3.395357
2221.000000;3.336318
2220.000000;3.433515
2219.000000;3.765216
2218.000000;3.692125
2217.000000;3.409504
2216.000000;3.386892
2215.000000;3.467747
2214.000000;3.437867
2213.000000;3.354015
2212.000000;3.454314
2211.000000;3.804507
2210.000000;4.010891
2209.000000;3.660185
2208.000000;3.556605
2207.000000;3.559970
2206.000000;3.475162
2205.000000;3.506868
2204.000000;3.669733
2203.000000;3.693593
2202.000000;3.516370
2201.000000;3.461070
2200.000000;3.506306
2199.000000;3.469496
2198.000000;3.360370
2197.000000;3.317113
2196.000000;3.424589
2195.000000;3.623138
2194.000000;3.520705
2193.000000;3.297181
2192.000000;3.205862
2191.000000;3.276022
2190.000000;3.429605
2189.000000;3.484102
2188.000000;3.511646
2187.000000;3.671682
2186.000000;3.806764
2185.000000;3.741836
2184.000000;3.671137
2183.000000;3.842130
2182.000000;3.763081
2181.000000;3.434829
2180.000000;3.307521
2179.000000;3.346391
2178.000000;3.438549
2177.000000;3.396760
2176.000000;3.337691
2175.000000;3.345025
2174.000000;3.345990
2173.000000;3.344321
2172.000000;3.413721
2171.000000;3.483483
2170.000000;3.398559
2169.000000;3.284049
2168.000000;3.236533
2167.000000;3.208103
2166.000000;3.145802
2165.000000;3.131305
2164.000000;3.196131
2163.000000;3.246993
2162.000000;3.209377
2161.000000;3.181601
2160.000000;3.305769
2159.000000;3.424628
2158.000000;3.343067
2157.000000;3.450157
2156.000000;3.762687
2155.000000;3.599002
2154.000000;3.932491
2153.000000;3.680786
2152.000000;3.418122
2151.000000;3.451294
2150.000000;3.648543
2149.000000;4.234508
2148.000000;3.766231
2147.000000;3.686081
2146.000000;3.563904
2145.000000;3.375780
2144.000000;3.388315
2143.000000;3.551531
2142.000000;3.710186
2141.000000;3.684578
2140.000000;3.444534
2139.000000;3.285221
2138.000000;3.355235
2137.000000;3.604335
2136.000000;3.535750
2135.000000;3.380445
2134.000000;3.367565
2133.000000;3.421289
2132.000000;3.756987
2131.000000;3.819253
2130.000000;3.555473
2129.000000;3.723730
2128.000000;3.905001
2127.000000;3.420153
2126.000000;3.339994
2125.000000;3.384822
2124.000000;3.453367
2123.000000;3.542318
2122.000000;3.473128
2121.000000;3.334104
2120.000000;3.313654
2119.000000;3.385488
2118.000000;3.520444
2117.000000;3.713807
2116.000000;3.760094
2115.000000;3.764745
2114.000000;3.608720
2113.000000;3.388604
2112.000000;3.319627
2111.000000;3.334981
2110.000000;3.680625
2109.000000;3.746873
2108.000000;3.388471
2107.000000;3.352202
2106.000000;3.417431
2105.000000;3.553008
2104.000000;3.513452
2103.000000;3.341780
2102.000000;3.325128
2101.000000;3.977536
2100.000000;3.383247
2099.000000;3.104171
2098.000000;3.087493
2097.000000;3.245506
2096.000000;3.591842
2095.000000;3.749559
2094.000000;3.559933
2093.000000;3.316081
2092.000000;3.203180
2091.000000;3.231277
2090.000000;3.323672
2089.000000;3.808531
2088.000000;4.084345
2087.000000;3.682904
2086.000000;3.718950
2085.000000;3.324251
2084.000000;3.257686
2083.000000;3.439215
2082.000000;3.622527
2081.000000;3.297240
2080.000000;3.120952
2079.000000;3.166617
2078.000000;3.438433
2077.000000;3.700984
2076.000000;3.836426
2075.000000;3.732403
2074.000000;4.088387
2073.000000;3.533705
2072.000000;3.275024
2071.000000;3.227410
2070.000000;3.257773
2069.000000;3.345149
2068.000000;3.422456
2067.000000;3.473355
2066.000000;3.415084
2065.000000;3.262192
2064.000000;3.198778
2063.000000;3.299424
2062.000000;3.483978
2061.000000;3.473297
2060.000000;3.258625
2059.000000;3.112401
2058.000000;3.050516
2057.000000;2.995731
2056.000000;3.007037
2055.000000;3.174118
2054.000000;3.491420
2053.000000;3.653617
2052.000000;3.513138
2051.000000;3.460494
2050.000000;3.447993
2049.000000;3.415340
2048.000000;3.562648
2047.000000;4.180343
2046.000000;3.680921
2045.000000;3.557246
2044.000000;3.520783
2043.000000;3.562656
2042.000000;3.680241
2041.000000;3.810867
2040.000000;3.557412
2039.000000;3.490414
2038.000000;3.624717
2037.000000;3.344737
2036.000000;3.151828
2035.000000;3.216946
2034.000000;3.330493
2033.000000;3.285330
2032.000000;3.276347
2031.000000;3.326039
2030.000000;3.333637
2029.000000;3.327132
2028.000000;3.333165
2027.000000;3.317820
2026.000000;3.344771
2025.000000;3.460223
2024.000000;3.396422
2023.000000;3.259894
2022.000000;3.370075
2021.000000;3.486897
2020.000000;3.176707
2019.000000;3.041724
2018.000000;3.057591
2017.000000;3.237069
2016.000000;3.619435
2015.000000;3.904847
2014.000000;3.582163
2013.000000;3.457907
2012.000000;3.665510
2011.000000;3.652534
2010.000000;3.428497
2009.000000;3.398174
2008.000000;3.301821
2007.000000;3.339390
2006.000000;3.597041
2005.000000;3.757380
2004.000000;3.755866
2003.000000;4.162009
2002.000000;3.670226
2001.000000;3.273494
2000.000000;3.140780
1999.000000;3.148067
1998.000000;3.204640
1997.000000;3.273760
1996.000000;3.407978
1995.000000;3.479441
1994.000000;3.392140
1993.000000;3.258005
1992.000000;3.233274
1991.000000;3.366741
1990.000000;3.437716
1989.000000;3.442485
1988.000000;3.683138
1987.000000;4.303399
1986.000000;4.374080
1985.000000;4.825504
1984.000000;3.646853
1983.000000;3.339143
1982.000000;3.244874
1981.000000;3.343645
1980.000000;3.542254
1979.000000;3.516100
1978.000000;3.404486
1977.000000;3.556081
1976.000000;3.897358
1975.000000;3.460855
1974.000000;3.320408
1973.000000;3.554403
1972.000000;4.110992
1971.000000;3.920584
1970.000000;3.950667
1969.000000;4.320798
1968.000000;3.751624
1967.000000;3.334774
1966.000000;3.189286
1965.000000;3.233616
1964.000000;3.413730
1963.000000;3.834844
1962.000000;4.057987
1961.000000;3.739917
1960.000000;3.758455
1959.000000;3.414251
1958.000000;3.405244
1957.000000;3.592613
1956.000000;3.640164
1955.000000;3.568150
1954.000000;3.740144
1953.000000;3.608340
1952.000000;3.384470
1951.000000;3.463049
1950.000000;3.674527
1949.000000;3.758369
1948.000000;3.993122
1947.000000;3.638465
1946.000000;3.367780
1945.000000;3.409608
1944.000000;3.530680
1943.000000;3.679656
1942.000000;3.941948
1941.000000;3.486062
1940.000000;3.273976
1939.000000;3.254002
1938.000000;3.276317
1937.000000;3.318589
1936.000000;3.444846
1935.000000;3.532722
1934.000000;3.428048
1933.000000;3.383389
1932.000000;3.520187
1931.000000;3.696045
1930.000000;3.853821
1929.000000;3.853956
1928.000000;3.681397
1927.000000;3.724210
1926.000000;3.438557
1925.000000;3.303009
1924.000000;3.290335
1923.000000;3.355485
1922.000000;3.771942
1921.000000;3.550249
1920.000000;3.283274
1919.000000;3.340239
1918.000000;3.329719
1917.000000;3.380605
1916.000000;3.390833
1915.000000;3.135592
1914.000000;3.083823
1913.000000;3.272655
1912.000000;3.830815
1911.000000;3.610702
1910.000000;3.402501
1909.000000;3.496243
1908.000000;3.607361
1907.000000;3.476569
1906.000000;3.437415
1905.000000;3.397709
1904.000000;3.434428
1903.000000;3.348915
1902.000000;3.185316
1901.000000;3.090765
1900.000000;3.069123
1899.000000;3.162145
1898.000000;3.307918
1897.000000;3.393063
1896.000000;3.413889
1895.000000;3.452524
1894.000000;3.390589
1893.000000;3.265379
1892.000000;3.276446
1891.000000;3.321628
1890.000000;3.192994
1889.000000;3.056320
1888.000000;3.046788
1887.000000;3.160138
1886.000000;3.266578
1885.000000;3.153936
1884.000000;3.030304
1883.000000;3.021302
1882.000000;3.126946
1881.000000;3.306306
1880.000000;3.441538
1879.000000;3.538845
1878.000000;3.640202
1877.000000;3.800521
1876.000000;4.012771
1875.000000;4.174366
1874.000000;4.251206
1873.000000;3.673701
1872.000000;3.873661
1871.000000;3.974013
1870.000000;3.464339
1869.000000;3.303109
1868.000000;3.187079
1867.000000;3.176522
1866.000000;3.370224
1865.000000;3.562573
1864.000000;3.339198
1863.000000;3.238450
1862.000000;3.266512
1861.000000;3.319304
1860.000000;3.356113
1859.000000;3.337139
1858.000000;3.322171
1857.000000;3.314811
1856.000000;3.324216
1855.000000;3.315697
1854.000000;3.334048
1853.000000;3.459656
1852.000000;3.812501
1851.000000;4.173851
1850.000000;3.859205
1849.000000;4.063316
1848.000000;4.317641
1847.000000;4.045495
1846.000000;3.745926
1845.000000;3.502245
1844.000000;3.327325
1843.000000;3.271094
1842.000000;3.221690
1841.000000;3.199576
1840.000000;3.348898
1839.000000;3.475136
1838.000000;3.260977
1837.000000;3.129031
1836.000000;3.155542
1835.000000;3.382573
1834.000000;3.707344
1833.000000;3.775974
1832.000000;3.576389
1831.000000;3.354138
1830.000000;3.329371
1829.000000;3.559960
1828.000000;3.660963
1827.000000;3.431968
1826.000000;3.592478
1825.000000;4.201782
1824.000000;4.048219
1823.000000;4.373301
1822.000000;3.624702
1821.000000;3.446889
1820.000000;3.426737
1819.000000;3.517909
1818.000000;3.523691
1817.000000;3.497086
1816.000000;3.631203
1815.000000;3.626733
1814.000000;3.453590
1813.000000;3.326347
1812.000000;3.214536
1811.000000;3.117232
1810.000000;3.077339
1809.000000;3.137840
1808.000000;3.259704
1807.000000;3.385747
1806.000000;3.438168
1805.000000;3.379002
1804.000000;3.444471
1803.000000;3.707964
1802.000000;3.688241
1801.000000;3.498351
1800.000000;3.329691
1799.000000;3.249264
1798.000000;3.340670
1797.000000;3.676336
1796.000000;4.252272
1795.000000;4.253528
1794.000000;3.896103
1793.000000;3.589263
1792.000000;3.721045
1791.000000;3.902693
1790.000000;3.540307
1789.000000;3.411451
1788.000000;3.305770
1787.000000;3.261995
1786.000000;3.270390
1785.000000;3.232464
1784.000000;3.306489
1783.000000;3.572308
1782.000000;3.600490
1781.000000;3.543795
1780.000000;3.464785
1779.000000;3.366183
1778.000000;3.281457
1777.000000;3.292697
1776.000000;3.527455
1775.000000;4.170034
1774.000000;3.702648
1773.000000;3.508349
1772.000000;3.464371
1771.000000;3.691878
1770.000000;4.068362
1769.000000;3.613631
1768.000000;3.539005
1767.000000;3.547371
1766.000000;3.412530
1765.000000;3.289943
1764.000000;3.352405
1763.000000;3.649430
1762.000000;3.738814
1761.000000;3.489182
1760.000000;3.427103
1759.000000;3.392617
1758.000000;3.362634
1757.000000;3.341303
1756.000000;3.495837
1755.000000;3.575805
1754.000000;3.351987
1753.000000;3.271674
1752.000000;3.223837
1751.000000;3.213008
1750.000000;3.324219
1749.000000;3.611726
1748.000000;4.180117
1747.000000;3.647242
1746.000000;3.463430
1745.000000;3.614185
1744.000000;4.032748
1743.000000;3.597832
1742.000000;3.491498
1741.000000;3.615621
1740.000000;3.524922
1739.000000;3.283375
1738.000000;3.273514
1737.000000;3.540559
1736.000000;4.204644
1735.000000;4.220726
1734.000000;3.488553
1733.000000;3.219612
1732.000000;3.321868
1731.000000;3.716184
1730.000000;3.610481
1729.000000;3.382733
1728.000000;3.262498
1727.000000;3.290751
1726.000000;3.359454
1725.000000;3.229298
1724.000000;3.179511
1723.000000;3.304394
1722.000000;3.375046
1721.000000;3.284801
1720.000000;3.363099
1719.000000;3.733517
1718.000000;4.132909
1717.000000;3.699571
1716.000000;3.698438
1715.000000;3.695315
1714.000000;3.550407
1713.000000;3.437041
1712.000000;3.420531
1711.000000;3.512614
1710.000000;3.469394
1709.000000;3.291129
1708.000000;3.329660
1707.000000;3.787906
1706.000000;4.092474
1705.000000;3.778716
1704.000000;3.794010
1703.000000;3.833766
1702.000000;3.837273
1701.000000;3.844401
1700.000000;3.725481
1699.000000;3.578574
1698.000000;3.611062
1697.000000;3.653740
1696.000000;3.663757
1695.000000;3.742930
1694.000000;3.943153
1693.000000;4.497871
1692.000000;3.796483
1691.000000;3.573497
1690.000000;3.361353
1689.000000;3.224221
1688.000000;3.371581
1687.000000;3.751078
1686.000000;3.587768
1685.000000;3.555636
1684.000000;3.742683
1683.000000;3.901153
1682.000000;3.613548
1681.000000;3.325478
1680.000000;3.202938
1679.000000;3.179273
1678.000000;3.210343
1677.000000;3.218262
1676.000000;3.224508
1675.000000;3.358491
1674.000000;3.701621
1673.000000;3.607849
1672.000000;3.382720
1671.000000;3.296708
1670.000000;3.342928
1669.000000;3.452227
1668.000000;3.482016
1667.000000;3.681981
1666.000000;4.181867
1665.000000;4.311200
1664.000000;3.752504
1663.000000;3.374536
1662.000000;3.224924
1661.000000;3.175069
1660.000000;3.176158
1659.000000;3.229601
1658.000000;3.274628
1657.000000;3.380880
1656.000000;3.754762
1655.000000;3.875153
1654.000000;3.611762
1653.000000;3.395116
1652.000000;3.402324
1651.000000;3.675183
1650.000000;3.621163
1649.000000;3.664232
1648.000000;3.801451
1647.000000;3.960002
1646.000000;3.941497
1645.000000;3.729675
1644.000000;3.606475
1643.000000;3.540530
1642.000000;3.593067
1641.000000;3.623492
1640.000000;3.571390
1639.000000;3.489783
1638.000000;3.332671
1637.000000;3.283910
1636.000000;3.337394
1635.000000;3.367184
1634.000000;3.354233
1633.000000;3.439351
1632.000000;3.565442
1631.000000;3.974358
1630.000000;3.763261
1629.000000;3.308785
1628.000000;3.233676
1627.000000;3.323307
1626.000000;3.567157
1625.000000;4.027392
1624.000000;4.143932
1623.000000;4.053157
1622.000000;3.734323
1621.000000;3.441888
1620.000000;3.404355
1619.000000;3.475183
1618.000000;3.414765
1617.000000;3.249386
1616.000000;3.202109
1615.000000;3.278824
1614.000000;3.310374
1613.000000;3.255522
1612.000000;3.217900
1611.000000;3.260026
1610.000000;3.352764
1609.000000;3.391920
1608.000000;3.410193
1607.000000;3.615192
1606.000000;4.027177
1605.000000;4.053170
1604.000000;3.838180
1603.000000;3.650964
1602.000000;3.554770
1601.000000;3.412845
1600.000000;3.300910
1599.000000;3.358943
1598.000000;3.488291
1597.000000;3.426015
1596.000000;3.268324
1595.000000;3.153960
1594.000000;3.071468
1593.000000;3.031838
1592.000000;3.092209
1591.000000;3.346758
1590.000000;3.947453
1589.000000;3.925303
1588.000000;3.482263
1587.000000;3.275877
1586.000000;3.292693
1585.000000;3.440627
1584.000000;3.556106
1583.000000;3.533501
1582.000000;3.364604
1581.000000;3.270451
1580.000000;3.306047
1579.000000;3.415118
1578.000000;3.674389
1577.000000;3.867881
1576.000000;3.424614
1575.000000;3.333244
1574.000000;3.399351
1573.000000;3.328831
1572.000000;3.228679
1571.000000;3.152699
1570.000000;3.133075
1569.000000;3.157320
1568.000000;3.258410
1567.000000;3.439520
1566.000000;3.528696
1565.000000;3.452952
1564.000000;3.443635
1563.000000;3.642023
1562.000000;3.805241
1561.000000;3.769589
1560.000000;3.804247
1559.000000;3.829201
1558.000000;3.738543
1557.000000;3.613409
1556.000000;3.504509
1555.000000;3.469213
1554.000000;3.534505
1553.000000;3.953817
1552.000000;4.114296
1551.000000;3.982604
1550.000000;4.072828
1549.000000;3.475718
1548.000000;3.455831
1547.000000;3.755443
1546.000000;3.860185
1545.000000;3.987120
1544.000000;4.074278
1543.000000;3.836206
1542.000000;3.696024
1541.000000;3.625235
1540.000000;3.598501
1539.000000;3.595112
1538.000000;3.652672
1537.000000;3.674714
1536.000000;3.627237
1535.000000;3.714510
1534.000000;3.737109
1533.000000;3.819920
1532.000000;4.081141
1531.000000;3.601042
1530.000000;3.464137
1529.000000;3.493131
1528.000000;3.496596
1527.000000;3.403456
1526.000000;3.343970
1525.000000;3.503115
1524.000000;3.903808
1523.000000;4.252086
1522.000000;3.723618
1521.000000;3.461757
1520.000000;3.429400
1519.000000;3.474488
1518.000000;3.803723
1517.000000;3.620494
1516.000000;3.216257
1515.000000;3.097912
1514.000000;3.074541
1513.000000;3.089098
1512.000000;3.192564
1511.000000;3.410031
1510.000000;3.627443
1509.000000;3.476535
1508.000000;3.373429
1507.000000;3.411828
1506.000000;3.551022
1505.000000;3.721430
1504.000000;3.650997
1503.000000;3.463647
1502.000000;3.368270
1501.000000;3.378531
1500.000000;3.442660
1499.000000;3.481465
1498.000000;3.483213
1497.000000;3.449617
1496.000000;3.429521
1495.000000;3.583539
1494.000000;3.540304
1493.000000;3.314297
1492.000000;3.302319
1491.000000;3.330128
1490.000000;3.533571
1489.000000;3.854986
1488.000000;3.476774
1487.000000;3.365904
1486.000000;3.527255
1485.000000;3.561440
1484.000000;3.370687
1483.000000;3.500196
1482.000000;3.643270
1481.000000;3.077804
1480.000000;2.885249
1479.000000;2.901908
1478.000000;2.961173
1477.000000;2.966478
1476.000000;2.978740
1475.000000;3.067654
1474.000000;3.144666
1473.000000;3.174672
1472.000000;3.197190
1471.000000;3.216324
1470.000000;3.625504
1469.000000;3.968700
1468.000000;3.315267
1467.000000;3.538534
1466.000000;3.706399
1465.000000;3.187264
1464.000000;2.984806
1463.000000;2.976927
1462.000000;3.155185
1461.000000;3.106523
1460.000000;2.929705
1459.000000;2.922303
1458.000000;3.022497
1457.000000;3.374228
1456.000000;3.374488
1455.000000;2.974964
1454.000000;2.896533
1453.000000;2.933715
1452.000000;2.967748
1451.000000;3.037533
1450.000000;3.363293
1449.000000;3.508213
1448.000000;3.101082
1447.000000;3.006662
1446.000000;2.975045
1445.000000;2.960944
1444.000000;3.015750
1443.000000;3.115376
1442.000000;3.139406
1441.000000;3.139589
1440.000000;3.228608
1439.000000;3.145195
1438.000000;2.977940
1437.000000;2.907089
1436.000000;2.910301
1435.000000;2.865819
1434.000000;2.782272
1433.000000;2.772018
1432.000000;2.797223
1431.000000;2.768507
1430.000000;2.801091
1429.000000;3.125388
1428.000000;3.400982
1427.000000;3.057065
1426.000000;2.994478
1425.000000;3.144961
1424.000000;3.375585
1423.000000;3.272022
1422.000000;3.288024
1421.000000;3.517642
1420.000000;3.377879
1419.000000;3.070739
1418.000000;2.932970
1417.000000;2.987678
1416.000000;3.132596
1415.000000;3.278724
1414.000000;3.320301
1413.000000;3.177269
1412.000000;3.173503
1411.000000;3.483355
1410.000000;3.538620
1409.000000;3.333101
1408.000000;3.344812
1407.000000;3.212935
1406.000000;3.039177
1405.000000;3.018303
1404.000000;3.086948
1403.000000;3.186492
1402.000000;3.250108
1401.000000;3.191936
1400.000000;3.169073
1399.000000;3.236394
1398.000000;3.293678
1397.000000;3.198793
1396.000000;3.096839
1395.000000;3.047986
1394.000000;3.008060
1393.000000;3.082152
1392.000000;3.320960
1391.000000;3.362111
1390.000000;3.146828
1389.000000;3.138358
1388.000000;3.463372
1387.000000;3.217441
1386.000000;2.936587
1385.000000;3.001705
1384.000000;3.147657
1383.000000;3.312426
1382.000000;3.242469
1381.000000;3.061345
1380.000000;3.072313
1379.000000;3.256681
1378.000000;3.508341
1377.000000;3.719398
1376.000000;3.702870
1375.000000;3.597623
1374.000000;3.731485
1373.000000;3.398555
1372.000000;3.265748
1371.000000;3.599469
1370.000000;3.959455
1369.000000;3.441111
1368.000000;3.227760
1367.000000;3.146170
1366.000000;3.201149
1365.000000;3.652711
1364.000000;4.127677
1363.000000;3.362619
1362.000000;3.171215
1361.000000;3.169689
1360.000000;3.245323
1359.000000;3.281492
1358.000000;3.285336
1357.000000;3.158568
1356.000000;3.020532
1355.000000;3.060899
1354.000000;3.248710
1353.000000;3.672006
1352.000000;3.791563
1351.000000;3.364192
1350.000000;3.149032
1349.000000;3.027606
1348.000000;3.165889
1347.000000;3.340282
1346.000000;2.967868
1345.000000;2.845427
1344.000000;2.907136
1343.000000;3.090731
1342.000000;3.356506
1341.000000;3.190714
1340.000000;3.016363
1339.000000;2.996879
1338.000000;3.044889
1337.000000;3.144241
1336.000000;3.182260
1335.000000;3.063048
1334.000000;3.041236
1333.000000;3.239726
1332.000000;3.586407
1331.000000;3.740421
1330.000000;3.797325
1329.000000;3.528145
1328.000000;3.278662
1327.000000;3.294311
1326.000000;3.287825
1325.000000;3.049370
1324.000000;2.830999
1323.000000;2.696188
1322.000000;2.632537
1321.000000;2.639838
1320.000000;2.712231
1319.000000;2.824682
1318.000000;2.976692
1317.000000;3.302138
1316.000000;3.686551
1315.000000;3.563091
1314.000000;3.429847
1313.000000;3.164703
1312.000000;3.002583
1311.000000;2.956185
1310.000000;3.034655
1309.000000;3.177734
1308.000000;3.105820
1307.000000;3.070395
1306.000000;3.090778
1305.000000;2.985916
1304.000000;2.947602
1303.000000;3.013575
1302.000000;3.165033
1301.000000;3.215168
1300.000000;3.072606
1299.000000;2.958272
1298.000000;3.082595
1297.000000;3.910107
1296.000000;3.362476
1295.000000;3.184518
1294.000000;3.657487
1293.000000;3.296500
1292.000000;2.879034
1291.000000;2.702852
1290.000000;2.684028
1289.000000;2.811877
1288.000000;2.991493
1287.000000;3.238424
1286.000000;3.662267
1285.000000;3.318504
1284.000000;3.129644
1283.000000;3.144610
1282.000000;3.156003
1281.000000;3.145732
1280.000000;3.044288
1279.000000;2.930893
1278.000000;2.854664
1277.000000;2.901865
1276.000000;3.107148
1275.000000;2.981015
1274.000000;2.763801
1273.000000;2.740129
1272.000000;2.911290
1271.000000;3.249580
1270.000000;3.279787
1269.000000;3.349600
1268.000000;3.357601
1267.000000;3.077795
1266.000000;2.939995
1265.000000;2.930604
1264.000000;3.027282
1263.000000;3.261104
1262.000000;3.302273
1261.000000;3.521108
1260.000000;3.960893
1259.000000;3.054649
1258.000000;2.872627
1257.000000;2.917581
1256.000000;3.026393
1255.000000;3.063577
1254.000000;2.957253
1253.000000;2.936033
1252.000000;2.978193
1251.000000;2.914227
1250.000000;2.818316
1249.000000;2.810224
1248.000000;2.800734
1247.000000;2.793514
1246.000000;2.858352
1245.000000;2.989313
1244.000000;3.097403
1243.000000;3.075650
1242.000000;3.123750
1241.000000;3.340020
1240.000000;3.439611
1239.000000;3.493721
1238.000000;3.384866
1237.000000;3.146539
1236.000000;3.137394
1235.000000;3.348915
1234.000000;3.569463
1233.000000;3.483557
1232.000000;3.444209
1231.000000;3.508783
1230.000000;3.227371
1229.000000;2.945916
1228.000000;2.829968
1227.000000;2.820722
1226.000000;2.811530
1225.000000;2.774701
1224.000000;2.812384
1223.000000;3.031775
1222.000000;3.467782
1221.000000;3.622284
1220.000000;3.210117
1219.000000;3.004581
1218.000000;2.923145
1217.000000;2.968465
1216.000000;3.395556
1215.000000;3.303436
1214.000000;2.953415
1213.000000;3.018375
1212.000000;3.202126
1211.000000;3.118387
1210.000000;3.020623
1209.000000;3.080519
1208.000000;3.080179
1207.000000;2.931985
1206.000000;2.942054
1205.000000;3.083488
1204.000000;3.244453
1203.000000;3.302253
1202.000000;3.242574
1201.000000;3.429562
1200.000000;3.822815
