Criado como novo conjunto de dados;"e2410_daniel_v2.spp","86766.4 Secs"
cm-1;Abs
10000.000000;0.212481
9999.000000;0.212244
9998.000000;0.212005
9997.000000;0.211768
9996.000000;0.211521
9995.000000;0.211270
9994.000000;0.211084
9993.000000;0.211055
9992.000000;0.211198
9991.000000;0.211362
9990.000000;0.211328
9989.000000;0.211014
9988.000000;0.210566
9987.000000;0.210194
9986.000000;0.209967
9985.000000;0.209817
9984.000000;0.209732
9983.000000;0.209821
9982.000000;0.210132
9981.000000;0.210478
9980.000000;0.210562
9979.000000;0.210311
9978.000000;0.209962
9977.000000;0.209792
9976.000000;0.209830
9975.000000;0.209905
9974.000000;0.209899
9973.000000;0.209851
9972.000000;0.209833
9971.000000;0.209822
9970.000000;0.209737
9969.000000;0.209527
9968.000000;0.209191
9967.000000;0.208764
9966.000000;0.208337
9965.000000;0.208047
9964.000000;0.207999
9963.000000;0.208180
9962.000000;0.208472
9961.000000;0.208715
9960.000000;0.208785
9959.000000;0.208657
9958.000000;0.208435
9957.000000;0.208279
9956.000000;0.208246
9955.000000;0.208224
9954.000000;0.208066
9953.000000;0.207765
9952.000000;0.207452
9951.000000;0.207240
9950.000000;0.207140
9949.000000;0.207129
9948.000000;0.207193
9947.000000;0.207283
9946.000000;0.207305
9945.000000;0.207226
9944.000000;0.207127
9943.000000;0.207093
9942.000000;0.207084
9941.000000;0.206994
9940.000000;0.206817
9939.000000;0.206650
9938.000000;0.206530
9937.000000;0.206365
9936.000000;0.206080
9935.000000;0.205775
9934.000000;0.205647
9933.000000;0.205764
9932.000000;0.205974
9931.000000;0.206050
9930.000000;0.205911
9929.000000;0.205657
9928.000000;0.205427
9927.000000;0.205259
9926.000000;0.205103
9925.000000;0.204917
9924.000000;0.204726
9923.000000;0.204561
9922.000000;0.204429
9921.000000;0.204360
9920.000000;0.204425
9919.000000;0.204638
9918.000000;0.204867
9917.000000;0.204923
9916.000000;0.204765
9915.000000;0.204545
9914.000000;0.204417
9913.000000;0.204376
9912.000000;0.204304
9911.000000;0.204111
9910.000000;0.203795
9909.000000;0.203400
9908.000000;0.203000
9907.000000;0.202702
9906.000000;0.202601
9905.000000;0.202698
9904.000000;0.202904
9903.000000;0.203104
9902.000000;0.203212
9901.000000;0.203193
9900.000000;0.203064
9899.000000;0.202900
9898.000000;0.202790
9897.000000;0.202780
9896.000000;0.202849
9895.000000;0.202918
9894.000000;0.202892
9893.000000;0.202747
9892.000000;0.202579
9891.000000;0.202510
9890.000000;0.202506
9889.000000;0.202365
9888.000000;0.201956
9887.000000;0.201402
9886.000000;0.200963
9885.000000;0.200763
9884.000000;0.200736
9883.000000;0.200795
9882.000000;0.200932
9881.000000;0.201120
9880.000000;0.201236
9879.000000;0.201162
9878.000000;0.200925
9877.000000;0.200691
9876.000000;0.200650
9875.000000;0.200878
9874.000000;0.201241
9873.000000;0.201428
9872.000000;0.201186
9871.000000;0.200584
9870.000000;0.199998
9869.000000;0.199767
9868.000000;0.199887
9867.000000;0.200072
9866.000000;0.200067
9865.000000;0.199847
9864.000000;0.199560
9863.000000;0.199363
9862.000000;0.199329
9861.000000;0.199449
9860.000000;0.199656
9859.000000;0.199842
9858.000000;0.199892
9857.000000;0.199743
9856.000000;0.199457
9855.000000;0.199188
9854.000000;0.199053
9853.000000;0.199032
9852.000000;0.199027
9851.000000;0.198994
9850.000000;0.198958
9849.000000;0.198913
9848.000000;0.198796
9847.000000;0.198575
9846.000000;0.198297
9845.000000;0.198034
9844.000000;0.197831
9843.000000;0.197737
9842.000000;0.197816
9841.000000;0.198066
9840.000000;0.198370
9839.000000;0.198569
9838.000000;0.198553
9837.000000;0.198285
9836.000000;0.197797
9835.000000;0.197227
9834.000000;0.196773
9833.000000;0.196547
9832.000000;0.196481
9831.000000;0.196428
9830.000000;0.196311
9829.000000;0.196143
9828.000000;0.195955
9827.000000;0.195793
9826.000000;0.195714
9825.000000;0.195728
9824.000000;0.195741
9823.000000;0.195650
9822.000000;0.195460
9821.000000;0.195254
9820.000000;0.195083
9819.000000;0.194968
9818.000000;0.194958
9817.000000;0.195092
9816.000000;0.195294
9815.000000;0.195418
9814.000000;0.195434
9813.000000;0.195468
9812.000000;0.195596
9811.000000;0.195693
9810.000000;0.195551
9809.000000;0.195139
9808.000000;0.194676
9807.000000;0.194441
9806.000000;0.194504
9805.000000;0.194648
9804.000000;0.194566
9803.000000;0.194180
9802.000000;0.193750
9801.000000;0.193638
9800.000000;0.193955
9799.000000;0.194471
9798.000000;0.194829
9797.000000;0.194793
9796.000000;0.194328
9795.000000;0.193567
9794.000000;0.192766
9793.000000;0.192210
9792.000000;0.192055
9791.000000;0.192244
9790.000000;0.192579
9789.000000;0.192849
9788.000000;0.192906
9787.000000;0.192733
9786.000000;0.192470
9785.000000;0.192304
9784.000000;0.192275
9783.000000;0.192237
9782.000000;0.192054
9781.000000;0.191789
9780.000000;0.191618
9779.000000;0.191614
9778.000000;0.191715
9777.000000;0.191854
9776.000000;0.192002
9775.000000;0.192068
9774.000000;0.191881
9773.000000;0.191388
9772.000000;0.190796
9771.000000;0.190447
9770.000000;0.190505
9769.000000;0.190825
9768.000000;0.191108
9767.000000;0.191162
9766.000000;0.191005
9765.000000;0.190788
9764.000000;0.190651
9763.000000;0.190652
9762.000000;0.190757
9761.000000;0.190857
9760.000000;0.190830
9759.000000;0.190651
9758.000000;0.190429
9757.000000;0.190299
9756.000000;0.190271
9755.000000;0.190248
9754.000000;0.190190
9753.000000;0.190159
9752.000000;0.190170
9751.000000;0.190073
9750.000000;0.189720
9749.000000;0.189218
9748.000000;0.188881
9747.000000;0.188905
9746.000000;0.189158
9745.000000;0.189352
9744.000000;0.189338
9743.000000;0.189179
9742.000000;0.189010
9741.000000;0.188922
9740.000000;0.188958
9739.000000;0.189097
9738.000000;0.189215
9737.000000;0.189143
9736.000000;0.188828
9735.000000;0.188411
9734.000000;0.188085
9733.000000;0.187895
9732.000000;0.187725
9731.000000;0.187488
9730.000000;0.187263
9729.000000;0.187208
9728.000000;0.187361
9727.000000;0.187570
9726.000000;0.187634
9725.000000;0.187481
9724.000000;0.187217
9723.000000;0.187018
9722.000000;0.186988
9721.000000;0.187098
9720.000000;0.187216
9719.000000;0.187216
9718.000000;0.187063
9717.000000;0.186840
9716.000000;0.186667
9715.000000;0.186604
9714.000000;0.186629
9713.000000;0.186693
9712.000000;0.186755
9711.000000;0.186768
9710.000000;0.186677
9709.000000;0.186473
9708.000000;0.186233
9707.000000;0.186054
9706.000000;0.185961
9705.000000;0.185905
9704.000000;0.185845
9703.000000;0.185780
9702.000000;0.185692
9701.000000;0.185527
9700.000000;0.185283
9699.000000;0.185067
9698.000000;0.184988
9697.000000;0.185033
9696.000000;0.185085
9695.000000;0.185072
9694.000000;0.185029
9693.000000;0.184995
9692.000000;0.184915
9691.000000;0.184681
9690.000000;0.184269
9689.000000;0.183801
9688.000000;0.183470
9687.000000;0.183409
9686.000000;0.183598
9685.000000;0.183908
9684.000000;0.184205
9683.000000;0.184428
9682.000000;0.184540
9681.000000;0.184460
9680.000000;0.184134
9679.000000;0.183681
9678.000000;0.183369
9677.000000;0.183385
9676.000000;0.183640
9675.000000;0.183870
9674.000000;0.183901
9673.000000;0.183786
9672.000000;0.183700
9671.000000;0.183736
9670.000000;0.183823
9669.000000;0.183779
9668.000000;0.183468
9667.000000;0.182926
9666.000000;0.182371
9665.000000;0.182047
9664.000000;0.182028
9663.000000;0.182164
9662.000000;0.182232
9661.000000;0.182137
9660.000000;0.181981
9659.000000;0.181925
9658.000000;0.181982
9657.000000;0.181969
9656.000000;0.181690
9655.000000;0.181174
9654.000000;0.180684
9653.000000;0.180462
9652.000000;0.180511
9651.000000;0.180658
9650.000000;0.180755
9649.000000;0.180751
9648.000000;0.180627
9647.000000;0.180408
9646.000000;0.180227
9645.000000;0.180270
9644.000000;0.180572
9643.000000;0.180947
9642.000000;0.181146
9641.000000;0.181069
9640.000000;0.180769
9639.000000;0.180356
9638.000000;0.179958
9637.000000;0.179740
9636.000000;0.179819
9635.000000;0.180136
9634.000000;0.180456
9633.000000;0.180544
9632.000000;0.180327
9631.000000;0.179899
9630.000000;0.179420
9629.000000;0.179035
9628.000000;0.178819
9627.000000;0.178755
9626.000000;0.178723
9625.000000;0.178575
9624.000000;0.178275
9623.000000;0.177974
9622.000000;0.177919
9621.000000;0.178227
9620.000000;0.178735
9619.000000;0.179114
9618.000000;0.179160
9617.000000;0.178937
9616.000000;0.178622
9615.000000;0.178285
9614.000000;0.177912
9613.000000;0.177574
9612.000000;0.177452
9611.000000;0.177620
9610.000000;0.177880
9609.000000;0.177924
9608.000000;0.177650
9607.000000;0.177268
9606.000000;0.177054
9605.000000;0.177054
9604.000000;0.177070
9603.000000;0.176928
9602.000000;0.176683
9601.000000;0.176522
9600.000000;0.176525
9599.000000;0.176608
9598.000000;0.176682
9597.000000;0.176773
9596.000000;0.176924
9595.000000;0.177028
9594.000000;0.176891
9593.000000;0.176450
9592.000000;0.175887
9591.000000;0.175489
9590.000000;0.175416
9589.000000;0.175619
9588.000000;0.175920
9587.000000;0.176145
9586.000000;0.176210
9585.000000;0.176139
9584.000000;0.176000
9583.000000;0.175827
9582.000000;0.175615
9581.000000;0.175392
9580.000000;0.175256
9579.000000;0.175305
9578.000000;0.175520
9577.000000;0.175764
9576.000000;0.175904
9575.000000;0.175901
9574.000000;0.175784
9573.000000;0.175574
9572.000000;0.175263
9571.000000;0.174878
9570.000000;0.174535
9569.000000;0.174380
9568.000000;0.174475
9567.000000;0.174711
9566.000000;0.174866
9565.000000;0.174776
9564.000000;0.174479
9563.000000;0.174177
9562.000000;0.174035
9561.000000;0.174018
9560.000000;0.173964
9559.000000;0.173796
9558.000000;0.173617
9557.000000;0.173575
9556.000000;0.173695
9555.000000;0.173855
9554.000000;0.173910
9553.000000;0.173787
9552.000000;0.173498
9551.000000;0.173123
9550.000000;0.172790
9549.000000;0.172611
9548.000000;0.172603
9547.000000;0.172681
9546.000000;0.172727
9545.000000;0.172670
9544.000000;0.172515
9543.000000;0.172343
9542.000000;0.172268
9541.000000;0.172338
9540.000000;0.172481
9539.000000;0.172569
9538.000000;0.172559
9537.000000;0.172509
9536.000000;0.172467
9535.000000;0.172391
9534.000000;0.172237
9533.000000;0.172039
9532.000000;0.171881
9531.000000;0.171801
9530.000000;0.171774
9529.000000;0.171759
9528.000000;0.171716
9527.000000;0.171627
9526.000000;0.171546
9525.000000;0.171580
9524.000000;0.171752
9523.000000;0.171916
9522.000000;0.171866
9521.000000;0.171556
9520.000000;0.171145
9519.000000;0.170828
9518.000000;0.170682
9517.000000;0.170646
9516.000000;0.170611
9515.000000;0.170507
9514.000000;0.170348
9513.000000;0.170223
9512.000000;0.170201
9511.000000;0.170257
9510.000000;0.170305
9509.000000;0.170287
9508.000000;0.170190
9507.000000;0.170011
9506.000000;0.169771
9505.000000;0.169552
9504.000000;0.169455
9503.000000;0.169478
9502.000000;0.169499
9501.000000;0.169396
9500.000000;0.169164
9499.000000;0.168907
9498.000000;0.168745
9497.000000;0.168717
9496.000000;0.168732
9495.000000;0.168626
9494.000000;0.168335
9493.000000;0.167997
9492.000000;0.167813
9491.000000;0.167840
9490.000000;0.167983
9489.000000;0.168173
9488.000000;0.168411
9487.000000;0.168631
9486.000000;0.168670
9485.000000;0.168472
9484.000000;0.168200
9483.000000;0.168043
9482.000000;0.167998
9481.000000;0.167947
9480.000000;0.167882
9479.000000;0.167915
9478.000000;0.168096
9477.000000;0.168333
9476.000000;0.168487
9475.000000;0.168449
9474.000000;0.168177
9473.000000;0.167747
9472.000000;0.167368
9471.000000;0.167207
9470.000000;0.167189
9469.000000;0.167077
9468.000000;0.166795
9467.000000;0.166540
9466.000000;0.166526
9465.000000;0.166702
9464.000000;0.166825
9463.000000;0.166759
9462.000000;0.166595
9461.000000;0.166482
9460.000000;0.166428
9459.000000;0.166347
9458.000000;0.166236
9457.000000;0.166227
9456.000000;0.166411
9455.000000;0.166668
9454.000000;0.166747
9453.000000;0.166549
9452.000000;0.166238
9451.000000;0.166024
9450.000000;0.165920
9449.000000;0.165792
9448.000000;0.165602
9447.000000;0.165459
9446.000000;0.165445
9445.000000;0.165512
9444.000000;0.165574
9443.000000;0.165592
9442.000000;0.165535
9441.000000;0.165376
9440.000000;0.165183
9439.000000;0.165102
9438.000000;0.165154
9437.000000;0.165174
9436.000000;0.165051
9435.000000;0.164944
9434.000000;0.165097
9433.000000;0.165485
9432.000000;0.165824
9431.000000;0.165910
9430.000000;0.165794
9429.000000;0.165603
9428.000000;0.165374
9427.000000;0.165122
9426.000000;0.164929
9425.000000;0.164830
9424.000000;0.164720
9423.000000;0.164484
9422.000000;0.164170
9421.000000;0.163922
9420.000000;0.163796
9419.000000;0.163755
9418.000000;0.163789
9417.000000;0.163895
9416.000000;0.163964
9415.000000;0.163842
9414.000000;0.163544
9413.000000;0.163278
9412.000000;0.163207
9411.000000;0.163287
9410.000000;0.163396
9409.000000;0.163491
9408.000000;0.163567
9407.000000;0.163548
9406.000000;0.163359
9405.000000;0.163055
9404.000000;0.162776
9403.000000;0.162605
9402.000000;0.162538
9401.000000;0.162572
9400.000000;0.162699
9399.000000;0.162837
9398.000000;0.162877
9397.000000;0.162814
9396.000000;0.162747
9395.000000;0.162717
9394.000000;0.162651
9393.000000;0.162488
9392.000000;0.162293
9391.000000;0.162177
9390.000000;0.162147
9389.000000;0.162104
9388.000000;0.161953
9387.000000;0.161706
9386.000000;0.161487
9385.000000;0.161448
9384.000000;0.161622
9383.000000;0.161836
9382.000000;0.161866
9381.000000;0.161672
9380.000000;0.161432
9379.000000;0.161287
9378.000000;0.161166
9377.000000;0.160932
9376.000000;0.160617
9375.000000;0.160405
9374.000000;0.160422
9373.000000;0.160618
9372.000000;0.160848
9371.000000;0.160980
9370.000000;0.160952
9369.000000;0.160802
9368.000000;0.160651
9367.000000;0.160596
9366.000000;0.160615
9365.000000;0.160633
9364.000000;0.160639
9363.000000;0.160663
9362.000000;0.160679
9361.000000;0.160625
9360.000000;0.160518
9359.000000;0.160436
9358.000000;0.160371
9357.000000;0.160216
9356.000000;0.159938
9355.000000;0.159685
9354.000000;0.159618
9353.000000;0.159722
9352.000000;0.159841
9351.000000;0.159863
9350.000000;0.159779
9349.000000;0.159602
9348.000000;0.159320
9347.000000;0.158966
9346.000000;0.158644
9345.000000;0.158443
9344.000000;0.158363
9343.000000;0.158365
9342.000000;0.158477
9341.000000;0.158785
9340.000000;0.159285
9339.000000;0.159795
9338.000000;0.160065
9337.000000;0.159995
9336.000000;0.159709
9335.000000;0.159413
9334.000000;0.159232
9333.000000;0.159198
9332.000000;0.159298
9331.000000;0.159459
9330.000000;0.159537
9329.000000;0.159419
9328.000000;0.159142
9327.000000;0.158831
9326.000000;0.158541
9325.000000;0.158244
9324.000000;0.157976
9323.000000;0.157867
9322.000000;0.157957
9321.000000;0.158103
9320.000000;0.158119
9319.000000;0.157983
9318.000000;0.157820
9317.000000;0.157741
9316.000000;0.157753
9315.000000;0.157793
9314.000000;0.157775
9313.000000;0.157647
9312.000000;0.157465
9311.000000;0.157366
9310.000000;0.157413
9309.000000;0.157492
9308.000000;0.157441
9307.000000;0.157252
9306.000000;0.157071
9305.000000;0.156990
9304.000000;0.156956
9303.000000;0.156874
9302.000000;0.156726
9301.000000;0.156538
9300.000000;0.156321
9299.000000;0.156111
9298.000000;0.156005
9297.000000;0.156065
9296.000000;0.156201
9295.000000;0.156254
9294.000000;0.156190
9293.000000;0.156151
9292.000000;0.156277
9291.000000;0.156520
9290.000000;0.156687
9289.000000;0.156643
9288.000000;0.156439
9287.000000;0.156233
9286.000000;0.156131
9285.000000;0.156121
9284.000000;0.156113
9283.000000;0.156021
9282.000000;0.155811
9281.000000;0.155534
9280.000000;0.155295
9279.000000;0.155180
9278.000000;0.155199
9277.000000;0.155304
9276.000000;0.155452
9275.000000;0.155596
9274.000000;0.155634
9273.000000;0.155446
9272.000000;0.155038
9271.000000;0.154600
9270.000000;0.154364
9269.000000;0.154404
9268.000000;0.154596
9267.000000;0.154764
9266.000000;0.154826
9265.000000;0.154801
9264.000000;0.154739
9263.000000;0.154668
9262.000000;0.154590
9261.000000;0.154510
9260.000000;0.154442
9259.000000;0.154388
9258.000000;0.154334
9257.000000;0.154279
9256.000000;0.154247
9255.000000;0.154233
9254.000000;0.154169
9253.000000;0.154005
9252.000000;0.153813
9251.000000;0.153724
9250.000000;0.153746
9249.000000;0.153758
9248.000000;0.153731
9247.000000;0.153821
9246.000000;0.154136
9245.000000;0.154489
9244.000000;0.154553
9243.000000;0.154253
9242.000000;0.153838
9241.000000;0.153564
9240.000000;0.153439
9239.000000;0.153342
9238.000000;0.153254
9237.000000;0.153260
9236.000000;0.153402
9235.000000;0.153620
9234.000000;0.153811
9233.000000;0.153880
9232.000000;0.153769
9231.000000;0.153518
9230.000000;0.153270
9229.000000;0.153152
9228.000000;0.153152
9227.000000;0.153142
9226.000000;0.153019
9225.000000;0.152787
9224.000000;0.152541
9223.000000;0.152395
9222.000000;0.152392
9221.000000;0.152465
9220.000000;0.152498
9219.000000;0.152464
9218.000000;0.152430
9217.000000;0.152431
9216.000000;0.152421
9215.000000;0.152394
9214.000000;0.152445
9213.000000;0.152604
9212.000000;0.152704
9211.000000;0.152566
9210.000000;0.152261
9209.000000;0.152044
9208.000000;0.152029
9207.000000;0.152085
9206.000000;0.152060
9205.000000;0.151943
9204.000000;0.151770
9203.000000;0.151517
9202.000000;0.151218
9201.000000;0.151068
9200.000000;0.151245
9199.000000;0.151653
9198.000000;0.151959
9197.000000;0.151925
9196.000000;0.151648
9195.000000;0.151457
9194.000000;0.151586
9193.000000;0.151940
9192.000000;0.152191
9191.000000;0.152109
9190.000000;0.151798
9189.000000;0.151543
9188.000000;0.151471
9187.000000;0.151431
9186.000000;0.151238
9185.000000;0.150918
9184.000000;0.150638
9183.000000;0.150496
9182.000000;0.150473
9181.000000;0.150513
9180.000000;0.150563
9179.000000;0.150568
9178.000000;0.150531
9177.000000;0.150547
9176.000000;0.150698
9175.000000;0.150908
9174.000000;0.150994
9173.000000;0.150872
9172.000000;0.150644
9171.000000;0.150468
9170.000000;0.150414
9169.000000;0.150448
9168.000000;0.150507
9167.000000;0.150547
9166.000000;0.150550
9165.000000;0.150520
9164.000000;0.150452
9163.000000;0.150320
9162.000000;0.150117
9161.000000;0.149896
9160.000000;0.149743
9159.000000;0.149700
9158.000000;0.149734
9157.000000;0.149758
9156.000000;0.149684
9155.000000;0.149497
9154.000000;0.149293
9153.000000;0.149206
9152.000000;0.149264
9151.000000;0.149372
9150.000000;0.149470
9149.000000;0.149603
9148.000000;0.149763
9147.000000;0.149765
9146.000000;0.149440
9145.000000;0.148906
9144.000000;0.148521
9143.000000;0.148525
9142.000000;0.148848
9141.000000;0.149255
9140.000000;0.149568
9139.000000;0.149708
9138.000000;0.149646
9137.000000;0.149401
9136.000000;0.149055
9135.000000;0.148721
9134.000000;0.148503
9133.000000;0.148474
9132.000000;0.148623
9131.000000;0.148825
9130.000000;0.148950
9129.000000;0.148995
9128.000000;0.149038
9127.000000;0.149077
9126.000000;0.149015
9125.000000;0.148796
9124.000000;0.148473
9123.000000;0.148110
9122.000000;0.147759
9121.000000;0.147527
9120.000000;0.147524
9119.000000;0.147683
9118.000000;0.147772
9117.000000;0.147674
9116.000000;0.147543
9115.000000;0.147582
9114.000000;0.147764
9113.000000;0.147901
9112.000000;0.147913
9111.000000;0.147899
9110.000000;0.147969
9109.000000;0.148108
9108.000000;0.148213
9107.000000;0.148169
9106.000000;0.147933
9105.000000;0.147600
9104.000000;0.147352
9103.000000;0.147285
9102.000000;0.147340
9101.000000;0.147425
9100.000000;0.147537
9099.000000;0.147675
9098.000000;0.147742
9097.000000;0.147658
9096.000000;0.147510
9095.000000;0.147441
9094.000000;0.147447
9093.000000;0.147411
9092.000000;0.147320
9091.000000;0.147296
9090.000000;0.147387
9089.000000;0.147469
9088.000000;0.147410
9087.000000;0.147232
9086.000000;0.147063
9085.000000;0.147005
9084.000000;0.147084
9083.000000;0.147260
9082.000000;0.147430
9081.000000;0.147480
9080.000000;0.147355
9079.000000;0.147068
9078.000000;0.146676
9077.000000;0.146290
9076.000000;0.146074
9075.000000;0.146126
9074.000000;0.146367
9073.000000;0.146622
9072.000000;0.146815
9071.000000;0.146979
9070.000000;0.147093
9069.000000;0.147026
9068.000000;0.146716
9067.000000;0.146305
9066.000000;0.146016
9065.000000;0.145968
9064.000000;0.146138
9063.000000;0.146420
9062.000000;0.146658
9061.000000;0.146694
9060.000000;0.146500
9059.000000;0.146215
9058.000000;0.146011
9057.000000;0.145930
9056.000000;0.145914
9055.000000;0.145959
9054.000000;0.146160
9053.000000;0.146565
9052.000000;0.147052
9051.000000;0.147371
9050.000000;0.147339
9049.000000;0.147003
9048.000000;0.146592
9047.000000;0.146295
9046.000000;0.146073
9045.000000;0.145760
9044.000000;0.145334
9043.000000;0.144995
9042.000000;0.144954
9041.000000;0.145188
9040.000000;0.145464
9039.000000;0.145564
9038.000000;0.145460
9037.000000;0.145293
9036.000000;0.145248
9035.000000;0.145404
9034.000000;0.145656
9033.000000;0.145799
9032.000000;0.145730
9031.000000;0.145558
9030.000000;0.145470
9029.000000;0.145529
9028.000000;0.145618
9027.000000;0.145581
9026.000000;0.145357
9025.000000;0.144998
9024.000000;0.144618
9023.000000;0.144332
9022.000000;0.144203
9021.000000;0.144217
9020.000000;0.144323
9019.000000;0.144501
9018.000000;0.144750
9017.000000;0.145017
9016.000000;0.145189
9015.000000;0.145187
9014.000000;0.145046
9013.000000;0.144874
9012.000000;0.144741
9011.000000;0.144627
9010.000000;0.144481
9009.000000;0.144289
9008.000000;0.144076
9007.000000;0.143875
9006.000000;0.143715
9005.000000;0.143642
9004.000000;0.143709
9003.000000;0.143920
9002.000000;0.144171
9001.000000;0.144294
9000.000000;0.144182
8999.000000;0.143904
8998.000000;0.143662
8997.000000;0.143607
8996.000000;0.143689
8995.000000;0.143720
8994.000000;0.143595
8993.000000;0.143405
8992.000000;0.143314
8991.000000;0.143351
8990.000000;0.143387
8989.000000;0.143303
8988.000000;0.143122
8987.000000;0.142951
8986.000000;0.142880
8985.000000;0.142941
8984.000000;0.143112
8983.000000;0.143292
8982.000000;0.143334
8981.000000;0.143185
8980.000000;0.142955
8979.000000;0.142815
8978.000000;0.142819
8977.000000;0.142882
8976.000000;0.142900
8975.000000;0.142835
8974.000000;0.142696
8973.000000;0.142524
8972.000000;0.142392
8971.000000;0.142374
8970.000000;0.142484
8969.000000;0.142673
8968.000000;0.142873
8967.000000;0.143017
8966.000000;0.143036
8965.000000;0.142904
8964.000000;0.142687
8963.000000;0.142497
8962.000000;0.142379
8961.000000;0.142291
8960.000000;0.142183
8959.000000;0.142057
8958.000000;0.141942
8957.000000;0.141866
8956.000000;0.141852
8955.000000;0.141896
8954.000000;0.141940
8953.000000;0.141924
8952.000000;0.141859
8951.000000;0.141808
8950.000000;0.141772
8949.000000;0.141673
8948.000000;0.141486
8947.000000;0.141320
8946.000000;0.141309
8945.000000;0.141461
8944.000000;0.141654
8943.000000;0.141768
8942.000000;0.141791
8941.000000;0.141795
8940.000000;0.141842
8939.000000;0.141904
8938.000000;0.141863
8937.000000;0.141620
8936.000000;0.141229
8935.000000;0.140875
8934.000000;0.140702
8933.000000;0.140684
8932.000000;0.140692
8931.000000;0.140661
8930.000000;0.140642
8929.000000;0.140716
8928.000000;0.140890
8927.000000;0.141085
8926.000000;0.141204
8925.000000;0.141205
8924.000000;0.141111
8923.000000;0.140962
8922.000000;0.140765
8921.000000;0.140529
8920.000000;0.140319
8919.000000;0.140227
8918.000000;0.140272
8917.000000;0.140374
8916.000000;0.140435
8915.000000;0.140408
8914.000000;0.140299
8913.000000;0.140136
8912.000000;0.139987
8911.000000;0.139942
8910.000000;0.140048
8909.000000;0.140247
8908.000000;0.140421
8907.000000;0.140478
8906.000000;0.140382
8905.000000;0.140160
8904.000000;0.139888
8903.000000;0.139673
8902.000000;0.139579
8901.000000;0.139595
8900.000000;0.139679
8899.000000;0.139807
8898.000000;0.139952
8897.000000;0.140037
8896.000000;0.139968
8895.000000;0.139747
8894.000000;0.139501
8893.000000;0.139391
8892.000000;0.139463
8891.000000;0.139586
8890.000000;0.139563
8889.000000;0.139319
8888.000000;0.138999
8887.000000;0.138838
8886.000000;0.138918
8885.000000;0.139085
8884.000000;0.139126
8883.000000;0.138992
8882.000000;0.138817
8881.000000;0.138753
8880.000000;0.138836
8879.000000;0.138980
8878.000000;0.139050
8877.000000;0.138945
8876.000000;0.138668
8875.000000;0.138341
8874.000000;0.138120
8873.000000;0.138069
8872.000000;0.138120
8871.000000;0.138163
8870.000000;0.138146
8869.000000;0.138097
8868.000000;0.138070
8867.000000;0.138065
8866.000000;0.138026
8865.000000;0.137900
8864.000000;0.137708
8863.000000;0.137542
8862.000000;0.137475
8861.000000;0.137483
8860.000000;0.137484
8859.000000;0.137438
8858.000000;0.137379
8857.000000;0.137345
8856.000000;0.137303
8855.000000;0.137191
8854.000000;0.137020
8853.000000;0.136909
8852.000000;0.136959
8851.000000;0.137116
8850.000000;0.137191
8849.000000;0.137054
8848.000000;0.136769
8847.000000;0.136510
8846.000000;0.136353
8845.000000;0.136245
8844.000000;0.136155
8843.000000;0.136161
8842.000000;0.136313
8841.000000;0.136499
8840.000000;0.136551
8839.000000;0.136461
8838.000000;0.136404
8837.000000;0.136516
8836.000000;0.136732
8835.000000;0.136891
8834.000000;0.136918
8833.000000;0.136850
8832.000000;0.136713
8831.000000;0.136488
8830.000000;0.136187
8829.000000;0.135899
8828.000000;0.135720
8827.000000;0.135668
8826.000000;0.135697
8825.000000;0.135776
8824.000000;0.135894
8823.000000;0.136008
8822.000000;0.136033
8821.000000;0.135905
8820.000000;0.135648
8819.000000;0.135356
8818.000000;0.135124
8817.000000;0.135024
8816.000000;0.135101
8815.000000;0.135353
8814.000000;0.135688
8813.000000;0.135938
8812.000000;0.135962
8811.000000;0.135757
8810.000000;0.135455
8809.000000;0.135188
8808.000000;0.134973
8807.000000;0.134730
8806.000000;0.134428
8805.000000;0.134167
8804.000000;0.134098
8803.000000;0.134269
8802.000000;0.134572
8801.000000;0.134821
8800.000000;0.134865
8799.000000;0.134650
8798.000000;0.134250
8797.000000;0.133853
8796.000000;0.133669
8795.000000;0.133769
8794.000000;0.134023
8793.000000;0.134219
8792.000000;0.134249
8791.000000;0.134181
8790.000000;0.134131
8789.000000;0.134114
8788.000000;0.134030
8787.000000;0.133811
8786.000000;0.133550
8785.000000;0.133437
8784.000000;0.133541
8783.000000;0.133722
8782.000000;0.133781
8781.000000;0.133681
8780.000000;0.133548
8779.000000;0.133480
8778.000000;0.133454
8777.000000;0.133419
8776.000000;0.133394
8775.000000;0.133398
8774.000000;0.133375
8773.000000;0.133248
8772.000000;0.133035
8771.000000;0.132817
8770.000000;0.132640
8769.000000;0.132506
8768.000000;0.132436
8767.000000;0.132483
8766.000000;0.132656
8765.000000;0.132877
8764.000000;0.133015
8763.000000;0.132945
8762.000000;0.132628
8761.000000;0.132180
8760.000000;0.131828
8759.000000;0.131732
8758.000000;0.131844
8757.000000;0.131976
8756.000000;0.132005
8755.000000;0.131955
8754.000000;0.131905
8753.000000;0.131896
8752.000000;0.131932
8751.000000;0.132000
8750.000000;0.132067
8749.000000;0.132074
8748.000000;0.131977
8747.000000;0.131790
8746.000000;0.131567
8745.000000;0.131354
8744.000000;0.131171
8743.000000;0.131034
8742.000000;0.130991
8741.000000;0.131104
8740.000000;0.131334
8739.000000;0.131475
8738.000000;0.131298
8737.000000;0.130827
8736.000000;0.130367
8735.000000;0.130212
8734.000000;0.130366
8733.000000;0.130612
8732.000000;0.130779
8731.000000;0.130819
8730.000000;0.130712
8729.000000;0.130467
8728.000000;0.130212
8727.000000;0.130113
8726.000000;0.130168
8725.000000;0.130191
8724.000000;0.130053
8723.000000;0.129849
8722.000000;0.129771
8721.000000;0.129904
8720.000000;0.130176
8719.000000;0.130429
8718.000000;0.130501
8717.000000;0.130330
8716.000000;0.130022
8715.000000;0.129759
8714.000000;0.129588
8713.000000;0.129405
8712.000000;0.129160
8711.000000;0.128980
8710.000000;0.129001
8709.000000;0.129178
8708.000000;0.129357
8707.000000;0.129476
8706.000000;0.129581
8705.000000;0.129675
8704.000000;0.129662
8703.000000;0.129462
8702.000000;0.129131
8701.000000;0.128861
8700.000000;0.128867
8699.000000;0.129199
8698.000000;0.129623
8697.000000;0.129765
8696.000000;0.129457
8695.000000;0.128892
8694.000000;0.128411
8693.000000;0.128180
8692.000000;0.128144
8691.000000;0.128187
8690.000000;0.128219
8689.000000;0.128145
8688.000000;0.127923
8687.000000;0.127637
8686.000000;0.127423
8685.000000;0.127312
8684.000000;0.127242
8683.000000;0.127221
8682.000000;0.127318
8681.000000;0.127482
8680.000000;0.127501
8679.000000;0.127262
8678.000000;0.126956
8677.000000;0.126899
8676.000000;0.127176
8675.000000;0.127541
8674.000000;0.127680
8673.000000;0.127496
8672.000000;0.127147
8671.000000;0.126846
8670.000000;0.126673
8669.000000;0.126564
8668.000000;0.126452
8667.000000;0.126361
8666.000000;0.126355
8665.000000;0.126425
8664.000000;0.126485
8663.000000;0.126474
8662.000000;0.126403
8661.000000;0.126290
8660.000000;0.126124
8659.000000;0.125926
8658.000000;0.125769
8657.000000;0.125687
8656.000000;0.125610
8655.000000;0.125479
8654.000000;0.125378
8653.000000;0.125443
8652.000000;0.125649
8651.000000;0.125779
8650.000000;0.125678
8649.000000;0.125458
8648.000000;0.125382
8647.000000;0.125564
8646.000000;0.125859
8645.000000;0.126029
8644.000000;0.125951
8643.000000;0.125664
8642.000000;0.125281
8641.000000;0.124914
8640.000000;0.124654
8639.000000;0.124543
8638.000000;0.124553
8637.000000;0.124581
8636.000000;0.124510
8635.000000;0.124301
8634.000000;0.124039
8633.000000;0.123859
8632.000000;0.123803
8631.000000;0.123777
8630.000000;0.123689
8629.000000;0.123594
8628.000000;0.123625
8627.000000;0.123792
8626.000000;0.123935
8625.000000;0.123911
8624.000000;0.123765
8623.000000;0.123634
8622.000000;0.123555
8621.000000;0.123442
8620.000000;0.123237
8619.000000;0.122988
8618.000000;0.122783
8617.000000;0.122675
8616.000000;0.122655
8615.000000;0.122660
8614.000000;0.122604
8613.000000;0.122471
8612.000000;0.122355
8611.000000;0.122360
8610.000000;0.122450
8609.000000;0.122478
8608.000000;0.122370
8607.000000;0.122182
8606.000000;0.121981
8605.000000;0.121775
8604.000000;0.121585
8603.000000;0.121478
8602.000000;0.121452
8601.000000;0.121400
8600.000000;0.121269
8599.000000;0.121182
8598.000000;0.121285
8597.000000;0.121525
8596.000000;0.121669
8595.000000;0.121566
8594.000000;0.121283
8593.000000;0.121009
8592.000000;0.120883
8591.000000;0.120913
8590.000000;0.120982
8589.000000;0.120927
8588.000000;0.120672
8587.000000;0.120330
8586.000000;0.120092
8585.000000;0.120033
8584.000000;0.120064
8583.000000;0.120065
8582.000000;0.119984
8581.000000;0.119802
8580.000000;0.119495
8579.000000;0.119109
8578.000000;0.118786
8577.000000;0.118636
8576.000000;0.118601
8575.000000;0.118535
8574.000000;0.118401
8573.000000;0.118322
8572.000000;0.118414
8571.000000;0.118634
8570.000000;0.118825
8569.000000;0.118866
8568.000000;0.118739
8567.000000;0.118502
8566.000000;0.118248
8565.000000;0.118073
8564.000000;0.118012
8563.000000;0.117992
8562.000000;0.117897
8561.000000;0.117717
8560.000000;0.117576
8559.000000;0.117583
8558.000000;0.117695
8557.000000;0.117776
8556.000000;0.117767
8555.000000;0.117712
8554.000000;0.117645
8553.000000;0.117536
8552.000000;0.117365
8551.000000;0.117195
8550.000000;0.117105
8549.000000;0.117092
8548.000000;0.117074
8547.000000;0.116987
8546.000000;0.116849
8545.000000;0.116751
8544.000000;0.116791
8543.000000;0.116982
8542.000000;0.117197
8541.000000;0.117231
8540.000000;0.116970
8539.000000;0.116520
8538.000000;0.116133
8537.000000;0.116002
8536.000000;0.116113
8535.000000;0.116274
8534.000000;0.116281
8533.000000;0.116077
8532.000000;0.115771
8531.000000;0.115517
8530.000000;0.115376
8529.000000;0.115292
8528.000000;0.115196
8527.000000;0.115076
8526.000000;0.114967
8525.000000;0.114898
8524.000000;0.114867
8523.000000;0.114839
8522.000000;0.114758
8521.000000;0.114608
8520.000000;0.114463
8519.000000;0.114429
8518.000000;0.114505
8517.000000;0.114562
8516.000000;0.114486
8515.000000;0.114302
8514.000000;0.114117
8513.000000;0.113975
8512.000000;0.113846
8511.000000;0.113704
8510.000000;0.113571
8509.000000;0.113474
8508.000000;0.113416
8507.000000;0.113382
8506.000000;0.113340
8505.000000;0.113236
8504.000000;0.113047
8503.000000;0.112825
8502.000000;0.112666
8501.000000;0.112614
8500.000000;0.112638
8499.000000;0.112675
8498.000000;0.112665
8497.000000;0.112574
8496.000000;0.112429
8495.000000;0.112312
8494.000000;0.112278
8493.000000;0.112260
8492.000000;0.112143
8491.000000;0.111910
8490.000000;0.111675
8489.000000;0.111536
8488.000000;0.111458
8487.000000;0.111347
8486.000000;0.111169
8485.000000;0.110951
8484.000000;0.110715
8483.000000;0.110474
8482.000000;0.110279
8481.000000;0.110200
8480.000000;0.110230
8479.000000;0.110267
8478.000000;0.110204
8477.000000;0.110026
8476.000000;0.109790
8475.000000;0.109547
8474.000000;0.109297
8473.000000;0.109040
8472.000000;0.108825
8471.000000;0.108723
8470.000000;0.108760
8469.000000;0.108891
8468.000000;0.109033
8467.000000;0.109129
8466.000000;0.109164
8465.000000;0.109134
8464.000000;0.109011
8463.000000;0.108761
8462.000000;0.108398
8461.000000;0.108020
8460.000000;0.107759
8459.000000;0.107697
8458.000000;0.107795
8457.000000;0.107917
8456.000000;0.107918
8455.000000;0.107727
8454.000000;0.107397
8453.000000;0.107070
8452.000000;0.106875
8451.000000;0.106824
8450.000000;0.106795
8449.000000;0.106663
8448.000000;0.106430
8447.000000;0.106219
8446.000000;0.106142
8445.000000;0.106207
8444.000000;0.106338
8443.000000;0.106457
8442.000000;0.106518
8441.000000;0.106508
8440.000000;0.106444
8439.000000;0.106343
8438.000000;0.106207
8437.000000;0.106033
8436.000000;0.105854
8435.000000;0.105720
8434.000000;0.105634
8433.000000;0.105540
8432.000000;0.105403
8431.000000;0.105255
8430.000000;0.105138
8429.000000;0.105029
8428.000000;0.104856
8427.000000;0.104593
8426.000000;0.104289
8425.000000;0.104025
8424.000000;0.103859
8423.000000;0.103809
8422.000000;0.103835
8421.000000;0.103854
8420.000000;0.103796
8419.000000;0.103666
8418.000000;0.103539
8417.000000;0.103490
8416.000000;0.103531
8415.000000;0.103612
8414.000000;0.103654
8413.000000;0.103595
8412.000000;0.103428
8411.000000;0.103187
8410.000000;0.102912
8409.000000;0.102613
8408.000000;0.102306
8407.000000;0.102037
8406.000000;0.101839
8405.000000;0.101678
8404.000000;0.101484
8403.000000;0.101255
8402.000000;0.101094
8401.000000;0.101097
8400.000000;0.101209
8399.000000;0.101235
8398.000000;0.101026
8397.000000;0.100656
8396.000000;0.100384
8395.000000;0.100384
8394.000000;0.100553
8393.000000;0.100614
8392.000000;0.100419
8391.000000;0.100079
8390.000000;0.099786
8389.000000;0.099575
8388.000000;0.099350
8387.000000;0.099086
8386.000000;0.098907
8385.000000;0.098911
8384.000000;0.099023
8383.000000;0.099081
8382.000000;0.099025
8381.000000;0.098937
8380.000000;0.098903
8379.000000;0.098902
8378.000000;0.098857
8377.000000;0.098732
8376.000000;0.098543
8375.000000;0.098304
8374.000000;0.098013
8373.000000;0.097700
8372.000000;0.097429
8371.000000;0.097245
8370.000000;0.097136
8369.000000;0.097070
8368.000000;0.097042
8367.000000;0.097026
8366.000000;0.096947
8365.000000;0.096752
8364.000000;0.096520
8363.000000;0.096414
8362.000000;0.096502
8361.000000;0.096667
8360.000000;0.096738
8359.000000;0.096653
8358.000000;0.096477
8357.000000;0.096289
8356.000000;0.096107
8355.000000;0.095913
8354.000000;0.095698
8353.000000;0.095478
8352.000000;0.095293
8351.000000;0.095179
8350.000000;0.095128
8349.000000;0.095094
8348.000000;0.095036
8347.000000;0.094947
8346.000000;0.094821
8345.000000;0.094639
8344.000000;0.094393
8343.000000;0.094111
8342.000000;0.093824
8341.000000;0.093556
8340.000000;0.093349
8339.000000;0.093256
8338.000000;0.093248
8337.000000;0.093179
8336.000000;0.092926
8335.000000;0.092543
8334.000000;0.092213
8333.000000;0.092046
8332.000000;0.091993
8331.000000;0.091952
8330.000000;0.091885
8329.000000;0.091803
8328.000000;0.091700
8327.000000;0.091548
8326.000000;0.091325
8325.000000;0.091027
8324.000000;0.090679
8323.000000;0.090360
8322.000000;0.090176
8321.000000;0.090163
8320.000000;0.090229
8319.000000;0.090224
8318.000000;0.090063
8317.000000;0.089775
8316.000000;0.089471
8315.000000;0.089265
8314.000000;0.089217
8313.000000;0.089298
8312.000000;0.089407
8311.000000;0.089460
8310.000000;0.089448
8309.000000;0.089399
8308.000000;0.089300
8307.000000;0.089095
8306.000000;0.088784
8305.000000;0.088466
8304.000000;0.088258
8303.000000;0.088170
8302.000000;0.088093
8301.000000;0.087914
8300.000000;0.087631
8299.000000;0.087328
8298.000000;0.087076
8297.000000;0.086908
8296.000000;0.086847
8295.000000;0.086913
8294.000000;0.087047
8293.000000;0.087096
8292.000000;0.086926
8291.000000;0.086544
8290.000000;0.086097
8289.000000;0.085750
8288.000000;0.085580
8287.000000;0.085555
8286.000000;0.085576
8285.000000;0.085548
8284.000000;0.085439
8283.000000;0.085288
8282.000000;0.085149
8281.000000;0.085028
8280.000000;0.084890
8279.000000;0.084712
8278.000000;0.084500
8277.000000;0.084266
8276.000000;0.084024
8275.000000;0.083791
8274.000000;0.083580
8273.000000;0.083396
8272.000000;0.083243
8271.000000;0.083132
8270.000000;0.083039
8269.000000;0.082901
8268.000000;0.082668
8267.000000;0.082378
8266.000000;0.082123
8265.000000;0.081964
8264.000000;0.081893
8263.000000;0.081878
8262.000000;0.081894
8261.000000;0.081907
8260.000000;0.081871
8259.000000;0.081764
8258.000000;0.081612
8257.000000;0.081460
8256.000000;0.081340
8255.000000;0.081255
8254.000000;0.081193
8253.000000;0.081134
8252.000000;0.081059
8251.000000;0.080941
8250.000000;0.080738
8249.000000;0.080423
8248.000000;0.080050
8247.000000;0.079737
8246.000000;0.079550
8245.000000;0.079423
8244.000000;0.079249
8243.000000;0.079028
8242.000000;0.078847
8241.000000;0.078740
8240.000000;0.078635
8239.000000;0.078467
8238.000000;0.078263
8237.000000;0.078083
8236.000000;0.077943
8235.000000;0.077833
8234.000000;0.077737
8233.000000;0.077617
8232.000000;0.077426
8231.000000;0.077181
8230.000000;0.076974
8229.000000;0.076847
8228.000000;0.076718
8227.000000;0.076492
8226.000000;0.076202
8225.000000;0.075961
8224.000000;0.075794
8223.000000;0.075613
8222.000000;0.075350
8221.000000;0.075044
8220.000000;0.074770
8219.000000;0.074552
8218.000000;0.074366
8217.000000;0.074195
8216.000000;0.074035
8215.000000;0.073887
8214.000000;0.073756
8213.000000;0.073645
8212.000000;0.073535
8211.000000;0.073389
8210.000000;0.073200
8209.000000;0.073010
8208.000000;0.072870
8207.000000;0.072789
8206.000000;0.072716
8205.000000;0.072578
8204.000000;0.072327
8203.000000;0.072000
8202.000000;0.071696
8201.000000;0.071497
8200.000000;0.071390
8199.000000;0.071301
8198.000000;0.071191
8197.000000;0.071069
8196.000000;0.070941
8195.000000;0.070779
8194.000000;0.070567
8193.000000;0.070332
8192.000000;0.070113
8191.000000;0.069928
8190.000000;0.069803
8189.000000;0.069762
8188.000000;0.069775
8187.000000;0.069730
8186.000000;0.069530
8185.000000;0.069197
8184.000000;0.068853
8183.000000;0.068608
8182.000000;0.068492
8181.000000;0.068452
8180.000000;0.068397
8179.000000;0.068237
8178.000000;0.067949
8177.000000;0.067614
8176.000000;0.067352
8175.000000;0.067219
8174.000000;0.067170
8173.000000;0.067135
8172.000000;0.067068
8171.000000;0.066927
8170.000000;0.066663
8169.000000;0.066272
8168.000000;0.065850
8167.000000;0.065519
8166.000000;0.065312
8165.000000;0.065154
8164.000000;0.064966
8163.000000;0.064753
8162.000000;0.064574
8161.000000;0.064452
8160.000000;0.064353
8159.000000;0.064249
8158.000000;0.064158
8157.000000;0.064105
8156.000000;0.064059
8155.000000;0.063945
8154.000000;0.063740
8153.000000;0.063515
8152.000000;0.063345
8151.000000;0.063196
8150.000000;0.062955
8149.000000;0.062581
8148.000000;0.062188
8147.000000;0.061934
8146.000000;0.061861
8145.000000;0.061864
8144.000000;0.061811
8143.000000;0.061657
8142.000000;0.061431
8141.000000;0.061170
8140.000000;0.060899
8139.000000;0.060638
8138.000000;0.060407
8137.000000;0.060197
8136.000000;0.059975
8135.000000;0.059722
8134.000000;0.059464
8133.000000;0.059252
8132.000000;0.059118
8131.000000;0.059047
8130.000000;0.058997
8129.000000;0.058932
8128.000000;0.058836
8127.000000;0.058704
8126.000000;0.058528
8125.000000;0.058313
8124.000000;0.058081
8123.000000;0.057871
8122.000000;0.057709
8121.000000;0.057606
8120.000000;0.057550
8119.000000;0.057504
8118.000000;0.057413
8117.000000;0.057234
8116.000000;0.056973
8115.000000;0.056684
8114.000000;0.056412
8113.000000;0.056157
8112.000000;0.055891
8111.000000;0.055611
8110.000000;0.055345
8109.000000;0.055122
8108.000000;0.054939
8107.000000;0.054774
8106.000000;0.054619
8105.000000;0.054479
8104.000000;0.054346
8103.000000;0.054188
8102.000000;0.053975
8101.000000;0.053722
8100.000000;0.053492
8099.000000;0.053339
8098.000000;0.053256
8097.000000;0.053182
8096.000000;0.053070
8095.000000;0.052928
8094.000000;0.052792
8093.000000;0.052680
8092.000000;0.052572
8091.000000;0.052441
8090.000000;0.052272
8089.000000;0.052053
8088.000000;0.051789
8087.000000;0.051519
8086.000000;0.051298
8085.000000;0.051141
8084.000000;0.050992
8083.000000;0.050785
8082.000000;0.050515
8081.000000;0.050235
8080.000000;0.049981
8079.000000;0.049735
8078.000000;0.049475
8077.000000;0.049220
8076.000000;0.049001
8075.000000;0.048810
8074.000000;0.048619
8073.000000;0.048430
8072.000000;0.048270
8071.000000;0.048142
8070.000000;0.048013
8069.000000;0.047845
8068.000000;0.047622
8067.000000;0.047335
8066.000000;0.046993
8065.000000;0.046641
8064.000000;0.046340
8063.000000;0.046106
8062.000000;0.045900
8061.000000;0.045703
8060.000000;0.045550
8059.000000;0.045473
8058.000000;0.045438
8057.000000;0.045376
8056.000000;0.045249
8055.000000;0.045045
8054.000000;0.044747
8053.000000;0.044361
8052.000000;0.043957
8051.000000;0.043634
8050.000000;0.043431
8049.000000;0.043317
8048.000000;0.043249
8047.000000;0.043199
8046.000000;0.043119
8045.000000;0.042948
8044.000000;0.042700
8043.000000;0.042465
8042.000000;0.042311
8041.000000;0.042197
8040.000000;0.042034
8039.000000;0.041794
8038.000000;0.041518
8037.000000;0.041242
8036.000000;0.040968
8035.000000;0.040712
8034.000000;0.040517
8033.000000;0.040403
8032.000000;0.040326
8031.000000;0.040221
8030.000000;0.040053
8029.000000;0.039827
8028.000000;0.039559
8027.000000;0.039251
8026.000000;0.038914
8025.000000;0.038583
8024.000000;0.038301
8023.000000;0.038085
8022.000000;0.037896
8021.000000;0.037672
8020.000000;0.037395
8019.000000;0.037118
8018.000000;0.036909
8017.000000;0.036770
8016.000000;0.036637
8015.000000;0.036447
8014.000000;0.036204
8013.000000;0.035961
8012.000000;0.035752
8011.000000;0.035567
8010.000000;0.035369
8009.000000;0.035119
8008.000000;0.034796
8007.000000;0.034422
8006.000000;0.034078
8005.000000;0.033873
8004.000000;0.033854
8003.000000;0.033942
8002.000000;0.033978
8001.000000;0.033848
8000.000000;0.033556
7999.000000;0.033200
7998.000000;0.032893
7997.000000;0.032702
7996.000000;0.032607
7995.000000;0.032506
7994.000000;0.032282
7993.000000;0.031903
7992.000000;0.031451
7991.000000;0.031045
7990.000000;0.030748
7989.000000;0.030572
7988.000000;0.030499
7987.000000;0.030478
7986.000000;0.030404
7985.000000;0.030194
7984.000000;0.029872
7983.000000;0.029542
7982.000000;0.029264
7981.000000;0.029000
7980.000000;0.028699
7979.000000;0.028388
7978.000000;0.028136
7977.000000;0.027972
7976.000000;0.027870
7975.000000;0.027790
7974.000000;0.027702
7973.000000;0.027578
7972.000000;0.027390
7971.000000;0.027125
7970.000000;0.026802
7969.000000;0.026463
7968.000000;0.026159
7967.000000;0.025912
7966.000000;0.025695
7965.000000;0.025449
7964.000000;0.025158
7963.000000;0.024865
7962.000000;0.024621
7961.000000;0.024420
7960.000000;0.024212
7959.000000;0.023955
7958.000000;0.023644
7957.000000;0.023305
7956.000000;0.022999
7955.000000;0.022795
7954.000000;0.022717
7953.000000;0.022696
7952.000000;0.022631
7951.000000;0.022478
7950.000000;0.022277
7949.000000;0.022085
7948.000000;0.021918
7947.000000;0.021749
7946.000000;0.021547
7945.000000;0.021296
7944.000000;0.021007
7943.000000;0.020718
7942.000000;0.020464
7941.000000;0.020247
7940.000000;0.020035
7939.000000;0.019789
7938.000000;0.019500
7937.000000;0.019190
7936.000000;0.018895
7935.000000;0.018636
7934.000000;0.018416
7933.000000;0.018223
7932.000000;0.018033
7931.000000;0.017811
7930.000000;0.017527
7929.000000;0.017193
7928.000000;0.016866
7927.000000;0.016605
7926.000000;0.016405
7925.000000;0.016202
7924.000000;0.015949
7923.000000;0.015671
7922.000000;0.015441
7921.000000;0.015302
7920.000000;0.015222
7919.000000;0.015122
7918.000000;0.014928
7917.000000;0.014620
7916.000000;0.014248
7915.000000;0.013893
7914.000000;0.013613
7913.000000;0.013413
7912.000000;0.013259
7911.000000;0.013107
7910.000000;0.012920
7909.000000;0.012679
7908.000000;0.012405
7907.000000;0.012141
7906.000000;0.011908
7905.000000;0.011679
7904.000000;0.011416
7903.000000;0.011120
7902.000000;0.010825
7901.000000;0.010568
7900.000000;0.010361
7899.000000;0.010197
7898.000000;0.010067
7897.000000;0.009965
7896.000000;0.009880
7895.000000;0.009779
7894.000000;0.009611
7893.000000;0.009353
7892.000000;0.009046
7891.000000;0.008750
7890.000000;0.008471
7889.000000;0.008156
7888.000000;0.007788
7887.000000;0.007421
7886.000000;0.007116
7885.000000;0.006854
7884.000000;0.006580
7883.000000;0.006291
7882.000000;0.006030
7881.000000;0.005802
7880.000000;0.005564
7879.000000;0.005307
7878.000000;0.005095
7877.000000;0.004979
7876.000000;0.004906
7875.000000;0.004753
7874.000000;0.004451
7873.000000;0.004058
7872.000000;0.003690
7871.000000;0.003409
7870.000000;0.003172
7869.000000;0.002900
7868.000000;0.002584
7867.000000;0.002301
7866.000000;0.002136
7865.000000;0.002089
7864.000000;0.002076
7863.000000;0.002002
7862.000000;0.001830
7861.000000;0.001588
7860.000000;0.001337
7859.000000;0.001131
7858.000000;0.000978
7857.000000;0.000832
7856.000000;0.000621
7855.000000;0.000308
7854.000000;-0.000075
7853.000000;-0.000433
7852.000000;-0.000677
7851.000000;-0.000802
7850.000000;-0.000910
7849.000000;-0.001120
7848.000000;-0.001457
7847.000000;-0.001848
7846.000000;-0.002218
7845.000000;-0.002546
7844.000000;-0.002824
7843.000000;-0.003014
7842.000000;-0.003097
7841.000000;-0.003150
7840.000000;-0.003297
7839.000000;-0.003596
7838.000000;-0.004002
7837.000000;-0.004428
7836.000000;-0.004809
7835.000000;-0.005105
7834.000000;-0.005297
7833.000000;-0.005416
7832.000000;-0.005549
7831.000000;-0.005771
7830.000000;-0.006087
7829.000000;-0.006425
7828.000000;-0.006708
7827.000000;-0.006898
7826.000000;-0.007012
7825.000000;-0.007111
7824.000000;-0.007265
7823.000000;-0.007511
7822.000000;-0.007825
7821.000000;-0.008136
7820.000000;-0.008381
7819.000000;-0.008554
7818.000000;-0.008702
7817.000000;-0.008863
7816.000000;-0.009030
7815.000000;-0.009180
7814.000000;-0.009334
7813.000000;-0.009549
7812.000000;-0.009847
7811.000000;-0.010186
7810.000000;-0.010516
7809.000000;-0.010834
7808.000000;-0.011153
7807.000000;-0.011451
7806.000000;-0.011687
7805.000000;-0.011872
7804.000000;-0.012073
7803.000000;-0.012337
7802.000000;-0.012640
7801.000000;-0.012923
7800.000000;-0.013170
7799.000000;-0.013413
7798.000000;-0.013678
7797.000000;-0.013944
7796.000000;-0.014173
7795.000000;-0.014368
7794.000000;-0.014577
7793.000000;-0.014840
7792.000000;-0.015133
7791.000000;-0.015403
7790.000000;-0.015639
7789.000000;-0.015891
7788.000000;-0.016209
7787.000000;-0.016585
7786.000000;-0.016955
7785.000000;-0.017245
7784.000000;-0.017414
7783.000000;-0.017477
7782.000000;-0.017497
7781.000000;-0.017551
7780.000000;-0.017683
7779.000000;-0.017893
7778.000000;-0.018156
7777.000000;-0.018440
7776.000000;-0.018703
7775.000000;-0.018929
7774.000000;-0.019152
7773.000000;-0.019428
7772.000000;-0.019757
7771.000000;-0.020074
7770.000000;-0.020329
7769.000000;-0.020536
7768.000000;-0.020728
7767.000000;-0.020897
7766.000000;-0.021031
7765.000000;-0.021159
7764.000000;-0.021328
7763.000000;-0.021545
7762.000000;-0.021788
7761.000000;-0.022048
7760.000000;-0.022335
7759.000000;-0.022641
7758.000000;-0.022949
7757.000000;-0.023250
7756.000000;-0.023525
7755.000000;-0.023738
7754.000000;-0.023883
7753.000000;-0.024021
7752.000000;-0.024226
7751.000000;-0.024502
7750.000000;-0.024790
7749.000000;-0.025044
7748.000000;-0.025272
7747.000000;-0.025503
7746.000000;-0.025747
7745.000000;-0.025995
7744.000000;-0.026227
7743.000000;-0.026425
7742.000000;-0.026608
7741.000000;-0.026830
7740.000000;-0.027118
7739.000000;-0.027428
7738.000000;-0.027694
7737.000000;-0.027917
7736.000000;-0.028147
7735.000000;-0.028392
7734.000000;-0.028616
7733.000000;-0.028806
7732.000000;-0.028995
7731.000000;-0.029190
7730.000000;-0.029364
7729.000000;-0.029519
7728.000000;-0.029713
7727.000000;-0.029997
7726.000000;-0.030347
7725.000000;-0.030698
7724.000000;-0.031005
7723.000000;-0.031266
7722.000000;-0.031493
7721.000000;-0.031697
7720.000000;-0.031879
7719.000000;-0.032035
7718.000000;-0.032177
7717.000000;-0.032351
7716.000000;-0.032599
7715.000000;-0.032905
7714.000000;-0.033219
7713.000000;-0.033511
7712.000000;-0.033785
7711.000000;-0.034032
7710.000000;-0.034230
7709.000000;-0.034392
7708.000000;-0.034564
7707.000000;-0.034776
7706.000000;-0.035013
7705.000000;-0.035262
7704.000000;-0.035526
7703.000000;-0.035788
7702.000000;-0.036004
7701.000000;-0.036161
7700.000000;-0.036310
7699.000000;-0.036502
7698.000000;-0.036730
7697.000000;-0.036966
7696.000000;-0.037220
7695.000000;-0.037520
7694.000000;-0.037862
7693.000000;-0.038209
7692.000000;-0.038530
7691.000000;-0.038815
7690.000000;-0.039059
7689.000000;-0.039260
7688.000000;-0.039425
7687.000000;-0.039563
7686.000000;-0.039695
7685.000000;-0.039864
7684.000000;-0.040117
7683.000000;-0.040451
7682.000000;-0.040791
7681.000000;-0.041051
7680.000000;-0.041196
7679.000000;-0.041254
7678.000000;-0.041292
7677.000000;-0.041406
7676.000000;-0.041671
7675.000000;-0.042072
7674.000000;-0.042489
7673.000000;-0.042796
7672.000000;-0.042969
7671.000000;-0.043065
7670.000000;-0.043144
7669.000000;-0.043244
7668.000000;-0.043411
7667.000000;-0.043678
7666.000000;-0.044011
7665.000000;-0.044323
7664.000000;-0.044566
7663.000000;-0.044782
7662.000000;-0.045032
7661.000000;-0.045312
7660.000000;-0.045563
7659.000000;-0.045763
7658.000000;-0.045954
7657.000000;-0.046188
7656.000000;-0.046456
7655.000000;-0.046708
7654.000000;-0.046920
7653.000000;-0.047114
7652.000000;-0.047321
7651.000000;-0.047542
7650.000000;-0.047771
7649.000000;-0.048013
7648.000000;-0.048263
7647.000000;-0.048495
7646.000000;-0.048686
7645.000000;-0.048861
7644.000000;-0.049069
7643.000000;-0.049322
7642.000000;-0.049578
7641.000000;-0.049791
7640.000000;-0.049943
7639.000000;-0.050051
7638.000000;-0.050163
7637.000000;-0.050341
7636.000000;-0.050619
7635.000000;-0.050968
7634.000000;-0.051325
7633.000000;-0.051661
7632.000000;-0.051978
7631.000000;-0.052266
7630.000000;-0.052489
7629.000000;-0.052636
7628.000000;-0.052750
7627.000000;-0.052885
7626.000000;-0.053066
7625.000000;-0.053286
7624.000000;-0.053521
7623.000000;-0.053739
7622.000000;-0.053927
7621.000000;-0.054111
7620.000000;-0.054337
7619.000000;-0.054606
7618.000000;-0.054878
7617.000000;-0.055122
7616.000000;-0.055351
7615.000000;-0.055584
7614.000000;-0.055819
7613.000000;-0.056056
7612.000000;-0.056304
7611.000000;-0.056548
7610.000000;-0.056759
7609.000000;-0.056938
7608.000000;-0.057121
7607.000000;-0.057322
7606.000000;-0.057508
7605.000000;-0.057661
7604.000000;-0.057818
7603.000000;-0.058016
7602.000000;-0.058246
7601.000000;-0.058490
7600.000000;-0.058770
7599.000000;-0.059105
7598.000000;-0.059444
7597.000000;-0.059692
7596.000000;-0.059813
7595.000000;-0.059869
7594.000000;-0.059962
7593.000000;-0.060157
7592.000000;-0.060456
7591.000000;-0.060805
7590.000000;-0.061132
7589.000000;-0.061396
7588.000000;-0.061619
7587.000000;-0.061838
7586.000000;-0.062051
7585.000000;-0.062221
7584.000000;-0.062345
7583.000000;-0.062483
7582.000000;-0.062701
7581.000000;-0.063000
7580.000000;-0.063307
7579.000000;-0.063544
7578.000000;-0.063703
7577.000000;-0.063837
7576.000000;-0.063988
7575.000000;-0.064138
7574.000000;-0.064277
7573.000000;-0.064459
7572.000000;-0.064758
7571.000000;-0.065155
7570.000000;-0.065533
7569.000000;-0.065792
7568.000000;-0.065949
7567.000000;-0.066087
7566.000000;-0.066258
7565.000000;-0.066465
7564.000000;-0.066704
7563.000000;-0.066963
7562.000000;-0.067206
7561.000000;-0.067394
7560.000000;-0.067542
7559.000000;-0.067711
7558.000000;-0.067946
7557.000000;-0.068222
7556.000000;-0.068474
7555.000000;-0.068669
7554.000000;-0.068840
7553.000000;-0.069045
7552.000000;-0.069301
7551.000000;-0.069570
7550.000000;-0.069815
7549.000000;-0.070041
7548.000000;-0.070274
7547.000000;-0.070505
7546.000000;-0.070701
7545.000000;-0.070860
7544.000000;-0.071026
7543.000000;-0.071233
7542.000000;-0.071472
7541.000000;-0.071708
7540.000000;-0.071914
7539.000000;-0.072081
7538.000000;-0.072223
7537.000000;-0.072380
7536.000000;-0.072583
7535.000000;-0.072811
7534.000000;-0.073013
7533.000000;-0.073172
7532.000000;-0.073333
7531.000000;-0.073557
7530.000000;-0.073866
7529.000000;-0.074235
7528.000000;-0.074613
7527.000000;-0.074940
7526.000000;-0.075185
7525.000000;-0.075367
7524.000000;-0.075525
7523.000000;-0.075672
7522.000000;-0.075801
7521.000000;-0.075933
7520.000000;-0.076117
7519.000000;-0.076366
7518.000000;-0.076636
7517.000000;-0.076880
7516.000000;-0.077092
7515.000000;-0.077282
7514.000000;-0.077462
7513.000000;-0.077650
7512.000000;-0.077868
7511.000000;-0.078104
7510.000000;-0.078317
7509.000000;-0.078488
7508.000000;-0.078643
7507.000000;-0.078801
7506.000000;-0.078959
7505.000000;-0.079130
7504.000000;-0.079353
7503.000000;-0.079639
7502.000000;-0.079950
7501.000000;-0.080244
7500.000000;-0.080523
7499.000000;-0.080792
7498.000000;-0.081047
7497.000000;-0.081274
7496.000000;-0.081522
7495.000000;-0.081800
7494.000000;-0.082007
7493.000000;-0.082186
7492.000000;-0.082348
7491.000000;-0.082517
7490.000000;-0.082672
7489.000000;-0.082810
7488.000000;-0.082974
7487.000000;-0.083208
7486.000000;-0.083503
7485.000000;-0.083814
7484.000000;-0.084088
7483.000000;-0.084286
7482.000000;-0.084397
7481.000000;-0.084480
7480.000000;-0.084635
7479.000000;-0.084897
7478.000000;-0.085194
7477.000000;-0.085437
7476.000000;-0.085612
7475.000000;-0.085766
7474.000000;-0.085932
7473.000000;-0.086120
7472.000000;-0.086337
7471.000000;-0.086587
7470.000000;-0.086856
7469.000000;-0.087136
7468.000000;-0.087424
7467.000000;-0.087705
7466.000000;-0.087954
7465.000000;-0.088178
7464.000000;-0.088419
7463.000000;-0.088683
7462.000000;-0.088921
7461.000000;-0.089103
7460.000000;-0.089271
7459.000000;-0.089490
7458.000000;-0.089772
7457.000000;-0.090070
7456.000000;-0.090331
7455.000000;-0.090524
7454.000000;-0.090653
7453.000000;-0.090767
7452.000000;-0.090935
7451.000000;-0.091184
7450.000000;-0.091482
7449.000000;-0.091767
7448.000000;-0.091991
7447.000000;-0.092130
7446.000000;-0.092210
7445.000000;-0.092319
7444.000000;-0.092525
7443.000000;-0.092789
7442.000000;-0.093016
7441.000000;-0.093197
7440.000000;-0.093420
7439.000000;-0.093705
7438.000000;-0.093953
7437.000000;-0.094081
7436.000000;-0.094148
7435.000000;-0.094265
7434.000000;-0.094467
7433.000000;-0.094712
7432.000000;-0.094965
7431.000000;-0.095217
7430.000000;-0.095457
7429.000000;-0.095683
7428.000000;-0.095913
7427.000000;-0.096151
7426.000000;-0.096373
7425.000000;-0.096574
7424.000000;-0.096777
7423.000000;-0.096963
7422.000000;-0.097061
7421.000000;-0.097067
7420.000000;-0.097103
7419.000000;-0.097290
7418.000000;-0.097608
7417.000000;-0.097943
7416.000000;-0.098225
7415.000000;-0.098460
7414.000000;-0.098674
7413.000000;-0.098887
7412.000000;-0.099106
7411.000000;-0.099334
7410.000000;-0.099593
7409.000000;-0.099917
7408.000000;-0.100280
7407.000000;-0.100562
7406.000000;-0.100679
7405.000000;-0.100732
7404.000000;-0.100900
7403.000000;-0.101198
7402.000000;-0.101468
7401.000000;-0.101593
7400.000000;-0.101600
7399.000000;-0.101602
7398.000000;-0.101727
7397.000000;-0.102040
7396.000000;-0.102437
7395.000000;-0.102728
7394.000000;-0.102916
7393.000000;-0.103256
7392.000000;-0.103890
7391.000000;-0.104579
7390.000000;-0.104977
7389.000000;-0.105055
7388.000000;-0.105020
7387.000000;-0.104950
7386.000000;-0.104805
7385.000000;-0.104720
7384.000000;-0.104893
7383.000000;-0.105140
7382.000000;-0.105036
7381.000000;-0.104636
7380.000000;-0.104601
7379.000000;-0.105256
7378.000000;-0.105981
7377.000000;-0.106010
7376.000000;-0.105488
7375.000000;-0.105246
7374.000000;-0.105721
7373.000000;-0.106578
7372.000000;-0.107293
7371.000000;-0.107647
7370.000000;-0.107697
7369.000000;-0.107686
7368.000000;-0.107920
7367.000000;-0.108452
7366.000000;-0.108949
7365.000000;-0.109135
7364.000000;-0.109182
7363.000000;-0.109360
7362.000000;-0.109550
7361.000000;-0.109542
7360.000000;-0.109598
7359.000000;-0.110056
7358.000000;-0.110582
7357.000000;-0.110561
7356.000000;-0.110115
7355.000000;-0.110014
7354.000000;-0.110560
7353.000000;-0.111266
7352.000000;-0.111678
7351.000000;-0.111782
7350.000000;-0.111623
7349.000000;-0.111262
7348.000000;-0.111157
7347.000000;-0.111728
7346.000000;-0.112556
7345.000000;-0.112816
7344.000000;-0.112503
7343.000000;-0.112288
7342.000000;-0.112171
7341.000000;-0.111463
7340.000000;-0.110342
7339.000000;-0.110217
7338.000000;-0.111757
7337.000000;-0.113773
7336.000000;-0.114827
7335.000000;-0.114918
7334.000000;-0.114870
7333.000000;-0.115035
7332.000000;-0.115358
7331.000000;-0.115834
7330.000000;-0.116150
7329.000000;-0.115728
7328.000000;-0.114821
7327.000000;-0.114673
7326.000000;-0.115784
7325.000000;-0.116982
7324.000000;-0.117122
7323.000000;-0.116739
7322.000000;-0.117049
7321.000000;-0.118073
7320.000000;-0.118779
7319.000000;-0.118728
7318.000000;-0.118420
7317.000000;-0.118263
7316.000000;-0.118258
7315.000000;-0.118495
7314.000000;-0.118972
7313.000000;-0.119087
7312.000000;-0.118381
7311.000000;-0.117591
7310.000000;-0.117808
7309.000000;-0.118806
7308.000000;-0.119386
7307.000000;-0.119273
7306.000000;-0.119448
7305.000000;-0.120452
7304.000000;-0.121555
7303.000000;-0.122026
7302.000000;-0.122084
7301.000000;-0.122147
7300.000000;-0.122137
7299.000000;-0.122071
7298.000000;-0.122448
7297.000000;-0.123279
7296.000000;-0.123638
7295.000000;-0.122959
7294.000000;-0.122081
7293.000000;-0.122179
7292.000000;-0.123087
7291.000000;-0.123627
7290.000000;-0.123255
7289.000000;-0.122522
7288.000000;-0.122165
7287.000000;-0.122405
7286.000000;-0.123068
7285.000000;-0.123896
7284.000000;-0.124589
7283.000000;-0.124944
7282.000000;-0.125073
7281.000000;-0.125243
7280.000000;-0.125507
7279.000000;-0.125678
7278.000000;-0.125691
7277.000000;-0.125681
7276.000000;-0.125734
7275.000000;-0.125785
7274.000000;-0.125779
7273.000000;-0.125798
7272.000000;-0.125976
7271.000000;-0.126324
7270.000000;-0.126676
7269.000000;-0.126821
7268.000000;-0.126728
7267.000000;-0.126639
7266.000000;-0.126793
7265.000000;-0.127045
7264.000000;-0.126981
7263.000000;-0.126493
7262.000000;-0.126043
7261.000000;-0.126147
7260.000000;-0.126753
7259.000000;-0.127383
7258.000000;-0.127760
7257.000000;-0.127977
7256.000000;-0.128084
7255.000000;-0.127911
7254.000000;-0.127444
7253.000000;-0.127027
7252.000000;-0.127055
7251.000000;-0.127547
7250.000000;-0.128105
7249.000000;-0.128326
7248.000000;-0.128230
7247.000000;-0.128230
7246.000000;-0.128480
7245.000000;-0.128457
7244.000000;-0.127612
7243.000000;-0.126331
7242.000000;-0.125781
7241.000000;-0.126539
7240.000000;-0.127831
7239.000000;-0.128510
7238.000000;-0.128424
7237.000000;-0.128354
7236.000000;-0.128780
7235.000000;-0.129176
7234.000000;-0.128733
7233.000000;-0.127510
7232.000000;-0.126619
7231.000000;-0.127144
7230.000000;-0.128879
7229.000000;-0.130457
7228.000000;-0.130798
7227.000000;-0.130174
7226.000000;-0.129694
7225.000000;-0.130077
7224.000000;-0.131128
7223.000000;-0.132158
7222.000000;-0.132643
7221.000000;-0.132557
7220.000000;-0.132345
7219.000000;-0.132539
7218.000000;-0.133231
7217.000000;-0.133990
7216.000000;-0.134389
7215.000000;-0.134489
7214.000000;-0.134695
7213.000000;-0.135174
7212.000000;-0.135643
7211.000000;-0.135817
7210.000000;-0.135800
7209.000000;-0.135854
7208.000000;-0.135964
7207.000000;-0.135865
7206.000000;-0.135418
7205.000000;-0.134845
7204.000000;-0.134600
7203.000000;-0.134984
7202.000000;-0.135851
7201.000000;-0.136730
7200.000000;-0.137291
7199.000000;-0.137632
7198.000000;-0.138039
7197.000000;-0.138527
7196.000000;-0.138839
7195.000000;-0.138902
7194.000000;-0.139025
7193.000000;-0.139452
7192.000000;-0.139993
7191.000000;-0.140333
7190.000000;-0.140510
7189.000000;-0.140749
7188.000000;-0.140982
7187.000000;-0.141017
7186.000000;-0.141042
7185.000000;-0.141450
7184.000000;-0.142115
7183.000000;-0.142420
7182.000000;-0.142165
7181.000000;-0.141933
7180.000000;-0.142259
7179.000000;-0.142859
7178.000000;-0.143120
7177.000000;-0.142995
7176.000000;-0.142951
7175.000000;-0.143269
7174.000000;-0.143822
7173.000000;-0.144382
7172.000000;-0.144760
7171.000000;-0.144709
7170.000000;-0.144171
7169.000000;-0.143545
7168.000000;-0.143320
7167.000000;-0.143553
7166.000000;-0.144032
7165.000000;-0.144746
7164.000000;-0.145678
7163.000000;-0.146428
7162.000000;-0.146608
7161.000000;-0.146492
7160.000000;-0.146728
7159.000000;-0.147362
7158.000000;-0.147738
7157.000000;-0.147538
7156.000000;-0.147296
7155.000000;-0.147606
7154.000000;-0.148339
7153.000000;-0.148958
7152.000000;-0.149246
7151.000000;-0.149392
7150.000000;-0.149611
7149.000000;-0.149934
7148.000000;-0.150258
7147.000000;-0.150436
7146.000000;-0.150352
7145.000000;-0.150081
7144.000000;-0.149930
7143.000000;-0.150127
7142.000000;-0.150458
7141.000000;-0.150500
7140.000000;-0.150273
7139.000000;-0.150323
7138.000000;-0.150964
7137.000000;-0.151742
7136.000000;-0.152020
7135.000000;-0.151857
7134.000000;-0.151897
7133.000000;-0.152471
7132.000000;-0.153231
7131.000000;-0.153736
7130.000000;-0.154009
7129.000000;-0.154294
7128.000000;-0.154586
7127.000000;-0.154760
7126.000000;-0.154908
7125.000000;-0.155149
7124.000000;-0.155323
7123.000000;-0.155262
7122.000000;-0.155226
7121.000000;-0.155615
7120.000000;-0.156275
7119.000000;-0.156593
7118.000000;-0.156395
7117.000000;-0.156267
7116.000000;-0.156708
7115.000000;-0.157368
7114.000000;-0.157605
7113.000000;-0.157425
7112.000000;-0.157380
7111.000000;-0.157730
7110.000000;-0.158177
7109.000000;-0.158412
7108.000000;-0.158480
7107.000000;-0.158537
7106.000000;-0.158641
7105.000000;-0.158853
7104.000000;-0.159254
7103.000000;-0.159752
7102.000000;-0.160108
7101.000000;-0.160236
7100.000000;-0.160344
7099.000000;-0.160701
7098.000000;-0.161295
7097.000000;-0.161845
7096.000000;-0.162154
7095.000000;-0.162304
7094.000000;-0.162466
7093.000000;-0.162651
7092.000000;-0.162747
7091.000000;-0.162740
7090.000000;-0.162788
7089.000000;-0.163038
7088.000000;-0.163452
7087.000000;-0.163855
7086.000000;-0.164148
7085.000000;-0.164407
7084.000000;-0.164740
7083.000000;-0.165123
7082.000000;-0.165439
7081.000000;-0.165636
7080.000000;-0.165806
7079.000000;-0.166040
7078.000000;-0.166277
7077.000000;-0.166409
7076.000000;-0.166503
7075.000000;-0.166741
7074.000000;-0.167129
7073.000000;-0.167460
7072.000000;-0.167601
7071.000000;-0.167665
7070.000000;-0.167811
7069.000000;-0.168017
7068.000000;-0.168175
7067.000000;-0.168309
7066.000000;-0.168539
7065.000000;-0.168898
7064.000000;-0.169296
7063.000000;-0.169663
7062.000000;-0.170014
7061.000000;-0.170346
7060.000000;-0.170611
7059.000000;-0.170818
7058.000000;-0.171053
7057.000000;-0.171339
7056.000000;-0.171615
7055.000000;-0.171832
7054.000000;-0.172008
7053.000000;-0.172190
7052.000000;-0.172418
7051.000000;-0.172704
7050.000000;-0.173005
7049.000000;-0.173240
7048.000000;-0.173373
7047.000000;-0.173478
7046.000000;-0.173659
7045.000000;-0.173912
7044.000000;-0.174148
7043.000000;-0.174345
7042.000000;-0.174578
7041.000000;-0.174875
7040.000000;-0.175172
7039.000000;-0.175427
7038.000000;-0.175695
7037.000000;-0.176014
7036.000000;-0.176326
7035.000000;-0.176579
7034.000000;-0.176812
7033.000000;-0.177094
7032.000000;-0.177426
7031.000000;-0.177757
7030.000000;-0.178054
7029.000000;-0.178311
7028.000000;-0.178524
7027.000000;-0.178704
7026.000000;-0.178880
7025.000000;-0.179056
7024.000000;-0.179226
7023.000000;-0.179433
7022.000000;-0.179750
7021.000000;-0.180156
7020.000000;-0.180521
7019.000000;-0.180760
7018.000000;-0.180949
7017.000000;-0.181204
7016.000000;-0.181519
7015.000000;-0.181801
7014.000000;-0.182019
7013.000000;-0.182236
7012.000000;-0.182498
7011.000000;-0.182794
7010.000000;-0.183089
7009.000000;-0.183347
7008.000000;-0.183535
7007.000000;-0.183668
7006.000000;-0.183837
7005.000000;-0.184113
7004.000000;-0.184453
7003.000000;-0.184764
7002.000000;-0.185023
7001.000000;-0.185278
7000.000000;-0.185554
6999.000000;-0.185824
6998.000000;-0.186084
6997.000000;-0.186363
6996.000000;-0.186647
6995.000000;-0.186877
6994.000000;-0.187037
6993.000000;-0.187192
6992.000000;-0.187412
6991.000000;-0.187686
6990.000000;-0.187950
6989.000000;-0.188165
6988.000000;-0.188345
6987.000000;-0.188536
6986.000000;-0.188792
6985.000000;-0.189141
6984.000000;-0.189532
6983.000000;-0.189867
6982.000000;-0.190097
6981.000000;-0.190290
6980.000000;-0.190551
6979.000000;-0.190902
6978.000000;-0.191248
6977.000000;-0.191494
6976.000000;-0.191669
6975.000000;-0.191880
6974.000000;-0.192164
6973.000000;-0.192443
6972.000000;-0.192657
6971.000000;-0.192868
6970.000000;-0.193161
6969.000000;-0.193506
6968.000000;-0.193796
6967.000000;-0.193996
6966.000000;-0.194177
6965.000000;-0.194401
6964.000000;-0.194649
6963.000000;-0.194900
6962.000000;-0.195178
6961.000000;-0.195488
6960.000000;-0.195785
6959.000000;-0.196047
6958.000000;-0.196297
6957.000000;-0.196543
6956.000000;-0.196752
6955.000000;-0.196930
6954.000000;-0.197133
6953.000000;-0.197379
6952.000000;-0.197622
6951.000000;-0.197856
6950.000000;-0.198138
6949.000000;-0.198481
6948.000000;-0.198810
6947.000000;-0.199070
6946.000000;-0.199314
6945.000000;-0.199592
6944.000000;-0.199845
6943.000000;-0.200009
6942.000000;-0.200154
6941.000000;-0.200403
6940.000000;-0.200744
6939.000000;-0.201043
6938.000000;-0.201248
6937.000000;-0.201441
6936.000000;-0.201700
6935.000000;-0.202006
6934.000000;-0.202314
6933.000000;-0.202613
6932.000000;-0.202906
6931.000000;-0.203185
6930.000000;-0.203454
6929.000000;-0.203733
6928.000000;-0.204013
6927.000000;-0.204264
6926.000000;-0.204491
6925.000000;-0.204747
6924.000000;-0.205049
6923.000000;-0.205355
6922.000000;-0.205631
6921.000000;-0.205887
6920.000000;-0.206111
6919.000000;-0.206257
6918.000000;-0.206335
6917.000000;-0.206446
6916.000000;-0.206684
6915.000000;-0.207042
6914.000000;-0.207431
6913.000000;-0.207777
6912.000000;-0.208063
6911.000000;-0.208311
6910.000000;-0.208564
6909.000000;-0.208850
6908.000000;-0.209156
6907.000000;-0.209444
6906.000000;-0.209698
6905.000000;-0.209941
6904.000000;-0.210202
6903.000000;-0.210477
6902.000000;-0.210756
6901.000000;-0.211038
6900.000000;-0.211318
6899.000000;-0.211580
6898.000000;-0.211822
6897.000000;-0.212044
6896.000000;-0.212229
6895.000000;-0.212373
6894.000000;-0.212539
6893.000000;-0.212807
6892.000000;-0.213175
6891.000000;-0.213565
6890.000000;-0.213913
6889.000000;-0.214216
6888.000000;-0.214478
6887.000000;-0.214700
6886.000000;-0.214922
6885.000000;-0.215211
6884.000000;-0.215569
6883.000000;-0.215908
6882.000000;-0.216157
6881.000000;-0.216345
6880.000000;-0.216551
6879.000000;-0.216804
6878.000000;-0.217075
6877.000000;-0.217334
6876.000000;-0.217584
6875.000000;-0.217845
6874.000000;-0.218115
6873.000000;-0.218378
6872.000000;-0.218615
6871.000000;-0.218836
6870.000000;-0.219068
6869.000000;-0.219318
6868.000000;-0.219560
6867.000000;-0.219768
6866.000000;-0.219968
6865.000000;-0.220214
6864.000000;-0.220525
6863.000000;-0.220852
6862.000000;-0.221138
6861.000000;-0.221372
6860.000000;-0.221589
6859.000000;-0.221837
6858.000000;-0.222125
6857.000000;-0.222424
6856.000000;-0.222688
6855.000000;-0.222903
6854.000000;-0.223091
6853.000000;-0.223298
6852.000000;-0.223559
6851.000000;-0.223881
6850.000000;-0.224231
6849.000000;-0.224544
6848.000000;-0.224770
6847.000000;-0.224921
6846.000000;-0.225075
6845.000000;-0.225300
6844.000000;-0.225593
6843.000000;-0.225897
6842.000000;-0.226161
6841.000000;-0.226383
6840.000000;-0.226590
6839.000000;-0.226828
6838.000000;-0.227134
6837.000000;-0.227482
6836.000000;-0.227795
6835.000000;-0.228030
6834.000000;-0.228239
6833.000000;-0.228508
6832.000000;-0.228841
6831.000000;-0.229158
6830.000000;-0.229403
6829.000000;-0.229600
6828.000000;-0.229790
6827.000000;-0.229977
6826.000000;-0.230166
6825.000000;-0.230404
6824.000000;-0.230721
6823.000000;-0.231063
6822.000000;-0.231342
6821.000000;-0.231533
6820.000000;-0.231708
6819.000000;-0.231946
6818.000000;-0.232261
6817.000000;-0.232603
6816.000000;-0.232911
6815.000000;-0.233167
6814.000000;-0.233399
6813.000000;-0.233642
6812.000000;-0.233894
6811.000000;-0.234126
6810.000000;-0.234325
6809.000000;-0.234537
6808.000000;-0.234807
6807.000000;-0.235114
6806.000000;-0.235388
6805.000000;-0.235600
6804.000000;-0.235799
6803.000000;-0.236040
6802.000000;-0.236308
6801.000000;-0.236548
6800.000000;-0.236751
6799.000000;-0.236975
6798.000000;-0.237270
6797.000000;-0.237611
6796.000000;-0.237925
6795.000000;-0.238175
6794.000000;-0.238373
6793.000000;-0.238562
6792.000000;-0.238789
6791.000000;-0.239090
6790.000000;-0.239456
6789.000000;-0.239822
6788.000000;-0.240116
6787.000000;-0.240331
6786.000000;-0.240537
6785.000000;-0.240791
6784.000000;-0.241076
6783.000000;-0.241337
6782.000000;-0.241560
6781.000000;-0.241778
6780.000000;-0.242025
6779.000000;-0.242294
6778.000000;-0.242564
6777.000000;-0.242825
6776.000000;-0.243087
6775.000000;-0.243362
6774.000000;-0.243643
6773.000000;-0.243901
6772.000000;-0.244116
6771.000000;-0.244313
6770.000000;-0.244542
6769.000000;-0.244811
6768.000000;-0.245075
6767.000000;-0.245302
6766.000000;-0.245531
6765.000000;-0.245818
6764.000000;-0.246159
6763.000000;-0.246501
6762.000000;-0.246802
6761.000000;-0.247050
6760.000000;-0.247252
6759.000000;-0.247425
6758.000000;-0.247610
6757.000000;-0.247831
6756.000000;-0.248065
6755.000000;-0.248278
6754.000000;-0.248494
6753.000000;-0.248768
6752.000000;-0.249098
6751.000000;-0.249423
6750.000000;-0.249702
6749.000000;-0.249959
6748.000000;-0.250232
6747.000000;-0.250514
6746.000000;-0.250779
6745.000000;-0.251022
6744.000000;-0.251261
6743.000000;-0.251508
6742.000000;-0.251758
6741.000000;-0.252007
6740.000000;-0.252247
6739.000000;-0.252467
6738.000000;-0.252661
6737.000000;-0.252851
6736.000000;-0.253068
6735.000000;-0.253325
6734.000000;-0.253601
6733.000000;-0.253862
6732.000000;-0.254097
6731.000000;-0.254325
6730.000000;-0.254582
6729.000000;-0.254871
6728.000000;-0.255168
6727.000000;-0.255444
6726.000000;-0.255690
6725.000000;-0.255910
6724.000000;-0.256109
6723.000000;-0.256303
6722.000000;-0.256520
6721.000000;-0.256772
6720.000000;-0.257045
6719.000000;-0.257317
6718.000000;-0.257594
6717.000000;-0.257890
6716.000000;-0.258198
6715.000000;-0.258484
6714.000000;-0.258737
6713.000000;-0.258966
6712.000000;-0.259206
6711.000000;-0.259459
6710.000000;-0.259694
6709.000000;-0.259900
6708.000000;-0.260094
6707.000000;-0.260308
6706.000000;-0.260577
6705.000000;-0.260921
6704.000000;-0.261261
6703.000000;-0.261579
6702.000000;-0.261797
6701.000000;-0.262001
6700.000000;-0.262275
6699.000000;-0.262498
6698.000000;-0.262708
6697.000000;-0.262901
6696.000000;-0.263104
6695.000000;-0.263322
6694.000000;-0.263567
6693.000000;-0.263825
6692.000000;-0.264059
6691.000000;-0.264248
6690.000000;-0.264433
6689.000000;-0.264677
6688.000000;-0.264994
6687.000000;-0.265333
6686.000000;-0.265631
6685.000000;-0.265867
6684.000000;-0.266066
6683.000000;-0.266276
6682.000000;-0.266533
6681.000000;-0.266829
6680.000000;-0.267124
6679.000000;-0.267395
6678.000000;-0.267654
6677.000000;-0.267914
6676.000000;-0.268146
6675.000000;-0.268322
6674.000000;-0.268467
6673.000000;-0.268643
6672.000000;-0.268876
6671.000000;-0.269142
6670.000000;-0.269403
6669.000000;-0.269638
6668.000000;-0.269845
6667.000000;-0.270032
6666.000000;-0.270227
6665.000000;-0.270453
6664.000000;-0.270698
6663.000000;-0.270941
6662.000000;-0.271180
6661.000000;-0.271427
6660.000000;-0.271679
6659.000000;-0.271929
6658.000000;-0.272197
6657.000000;-0.272509
6656.000000;-0.272844
6655.000000;-0.273144
6654.000000;-0.273380
6653.000000;-0.273583
6652.000000;-0.273795
6651.000000;-0.274029
6650.000000;-0.274271
6649.000000;-0.274509
6648.000000;-0.274737
6647.000000;-0.274961
6646.000000;-0.275198
6645.000000;-0.275461
6644.000000;-0.275728
6643.000000;-0.275970
6642.000000;-0.276184
6641.000000;-0.276403
6640.000000;-0.276645
6639.000000;-0.276897
6638.000000;-0.277141
6637.000000;-0.277380
6636.000000;-0.277623
6635.000000;-0.277872
6634.000000;-0.278124
6633.000000;-0.278377
6632.000000;-0.278628
6631.000000;-0.278888
6630.000000;-0.279175
6629.000000;-0.279489
6628.000000;-0.279793
6627.000000;-0.280051
6626.000000;-0.280272
6625.000000;-0.280494
6624.000000;-0.280718
6623.000000;-0.280906
6622.000000;-0.281049
6621.000000;-0.281191
6620.000000;-0.281386
6619.000000;-0.281641
6618.000000;-0.281926
6617.000000;-0.282210
6616.000000;-0.282480
6615.000000;-0.282728
6614.000000;-0.282960
6613.000000;-0.283189
6612.000000;-0.283420
6611.000000;-0.283640
6610.000000;-0.283846
6609.000000;-0.284048
6608.000000;-0.284266
6607.000000;-0.284513
6606.000000;-0.284785
6605.000000;-0.285056
6604.000000;-0.285288
6603.000000;-0.285473
6602.000000;-0.285652
6601.000000;-0.285875
6600.000000;-0.286140
6599.000000;-0.286408
6598.000000;-0.286665
6597.000000;-0.286941
6596.000000;-0.287256
6595.000000;-0.287579
6594.000000;-0.287856
6593.000000;-0.288063
6592.000000;-0.288221
6591.000000;-0.288374
6590.000000;-0.288566
6589.000000;-0.288817
6588.000000;-0.289107
6587.000000;-0.289392
6586.000000;-0.289640
6585.000000;-0.289847
6584.000000;-0.290026
6583.000000;-0.290203
6582.000000;-0.290406
6581.000000;-0.290648
6580.000000;-0.290910
6579.000000;-0.291169
6578.000000;-0.291431
6577.000000;-0.291718
6576.000000;-0.292021
6575.000000;-0.292295
6574.000000;-0.292512
6573.000000;-0.292688
6572.000000;-0.292864
6571.000000;-0.293065
6570.000000;-0.293305
6569.000000;-0.293582
6568.000000;-0.293881
6567.000000;-0.294180
6566.000000;-0.294465
6565.000000;-0.294738
6564.000000;-0.294997
6563.000000;-0.295238
6562.000000;-0.295472
6561.000000;-0.295713
6560.000000;-0.295952
6559.000000;-0.296160
6558.000000;-0.296330
6557.000000;-0.296502
6556.000000;-0.296721
6555.000000;-0.296988
6554.000000;-0.297264
6553.000000;-0.297510
6552.000000;-0.297721
6551.000000;-0.297924
6550.000000;-0.298143
6549.000000;-0.298370
6548.000000;-0.298571
6547.000000;-0.298740
6546.000000;-0.298921
6545.000000;-0.299165
6544.000000;-0.299459
6543.000000;-0.299737
6542.000000;-0.299963
6541.000000;-0.300176
6540.000000;-0.300424
6539.000000;-0.300702
6538.000000;-0.300970
6537.000000;-0.301203
6536.000000;-0.301409
6535.000000;-0.301598
6534.000000;-0.301770
6533.000000;-0.301935
6532.000000;-0.302124
6531.000000;-0.302368
6530.000000;-0.302668
6529.000000;-0.302987
6528.000000;-0.303277
6527.000000;-0.303510
6526.000000;-0.303699
6525.000000;-0.303879
6524.000000;-0.304081
6523.000000;-0.304309
6522.000000;-0.304550
6521.000000;-0.304792
6520.000000;-0.305030
6519.000000;-0.305266
6518.000000;-0.305508
6517.000000;-0.305758
6516.000000;-0.306004
6515.000000;-0.306225
6514.000000;-0.306417
6513.000000;-0.306590
6512.000000;-0.306768
6511.000000;-0.306973
6510.000000;-0.307211
6509.000000;-0.307468
6508.000000;-0.307722
6507.000000;-0.307960
6506.000000;-0.308191
6505.000000;-0.308419
6504.000000;-0.308636
6503.000000;-0.308840
6502.000000;-0.309054
6501.000000;-0.309303
6500.000000;-0.309579
6499.000000;-0.309851
6498.000000;-0.310100
6497.000000;-0.310329
6496.000000;-0.310549
6495.000000;-0.310764
6494.000000;-0.310969
6493.000000;-0.311151
6492.000000;-0.311298
6491.000000;-0.311424
6490.000000;-0.311580
6489.000000;-0.311806
6488.000000;-0.312092
6487.000000;-0.312390
6486.000000;-0.312663
6485.000000;-0.312908
6484.000000;-0.313137
6483.000000;-0.313364
6482.000000;-0.313602
6481.000000;-0.313854
6480.000000;-0.314106
6479.000000;-0.314342
6478.000000;-0.314572
6477.000000;-0.314809
6476.000000;-0.315048
6475.000000;-0.315273
6474.000000;-0.315487
6473.000000;-0.315707
6472.000000;-0.315930
6471.000000;-0.316137
6470.000000;-0.316327
6469.000000;-0.316525
6468.000000;-0.316744
6467.000000;-0.316974
6466.000000;-0.317202
6465.000000;-0.317432
6464.000000;-0.317663
6463.000000;-0.317884
6462.000000;-0.318086
6461.000000;-0.318274
6460.000000;-0.318455
6459.000000;-0.318629
6458.000000;-0.318803
6457.000000;-0.319000
6456.000000;-0.319237
6455.000000;-0.319517
6454.000000;-0.319813
6453.000000;-0.320086
6452.000000;-0.320306
6451.000000;-0.320485
6450.000000;-0.320668
6449.000000;-0.320893
6448.000000;-0.321153
6447.000000;-0.321414
6446.000000;-0.321652
6445.000000;-0.321867
6444.000000;-0.322062
6443.000000;-0.322245
6442.000000;-0.322430
6441.000000;-0.322631
6440.000000;-0.322854
6439.000000;-0.323099
6438.000000;-0.323373
6437.000000;-0.323665
6436.000000;-0.323937
6435.000000;-0.324152
6434.000000;-0.324314
6433.000000;-0.324464
6432.000000;-0.324635
6431.000000;-0.324836
6430.000000;-0.325058
6429.000000;-0.325288
6428.000000;-0.325507
6427.000000;-0.325707
6426.000000;-0.325912
6425.000000;-0.326150
6424.000000;-0.326415
6423.000000;-0.326669
6422.000000;-0.326887
6421.000000;-0.327076
6420.000000;-0.327254
6419.000000;-0.327436
6418.000000;-0.327642
6417.000000;-0.327889
6416.000000;-0.328166
6415.000000;-0.328441
6414.000000;-0.328685
6413.000000;-0.328894
6412.000000;-0.329082
6411.000000;-0.329262
6410.000000;-0.329442
6409.000000;-0.329622
6408.000000;-0.329795
6407.000000;-0.329963
6406.000000;-0.330144
6405.000000;-0.330349
6404.000000;-0.330557
6403.000000;-0.330752
6402.000000;-0.330952
6401.000000;-0.331187
6400.000000;-0.331447
6399.000000;-0.331689
6398.000000;-0.331897
6397.000000;-0.332094
6396.000000;-0.332299
6395.000000;-0.332507
6394.000000;-0.332711
6393.000000;-0.332922
6392.000000;-0.333145
6391.000000;-0.333367
6390.000000;-0.333574
6389.000000;-0.333776
6388.000000;-0.333988
6387.000000;-0.334220
6386.000000;-0.334465
6385.000000;-0.334715
6384.000000;-0.334958
6383.000000;-0.335195
6382.000000;-0.335446
6381.000000;-0.335723
6380.000000;-0.336005
6379.000000;-0.336244
6378.000000;-0.336423
6377.000000;-0.336574
6376.000000;-0.336732
6375.000000;-0.336894
6374.000000;-0.337034
6373.000000;-0.337147
6372.000000;-0.337259
6371.000000;-0.337400
6370.000000;-0.337577
6369.000000;-0.337785
6368.000000;-0.338017
6367.000000;-0.338272
6366.000000;-0.338542
6365.000000;-0.338805
6364.000000;-0.339033
6363.000000;-0.339230
6362.000000;-0.339424
6361.000000;-0.339647
6360.000000;-0.339897
6359.000000;-0.340147
6358.000000;-0.340379
6357.000000;-0.340589
6356.000000;-0.340783
6355.000000;-0.340969
6354.000000;-0.341161
6353.000000;-0.341365
6352.000000;-0.341575
6351.000000;-0.341783
6350.000000;-0.341987
6349.000000;-0.342186
6348.000000;-0.342374
6347.000000;-0.342564
6346.000000;-0.342781
6345.000000;-0.343034
6344.000000;-0.343297
6343.000000;-0.343538
6342.000000;-0.343750
6341.000000;-0.343948
6340.000000;-0.344145
6339.000000;-0.344344
6338.000000;-0.344548
6337.000000;-0.344746
6336.000000;-0.344915
6335.000000;-0.345059
6334.000000;-0.345219
6333.000000;-0.345424
6332.000000;-0.345648
6331.000000;-0.345848
6330.000000;-0.346032
6329.000000;-0.346238
6328.000000;-0.346471
6327.000000;-0.346689
6326.000000;-0.346871
6325.000000;-0.347047
6324.000000;-0.347246
6323.000000;-0.347460
6322.000000;-0.347664
6321.000000;-0.347849
6320.000000;-0.348018
6319.000000;-0.348182
6318.000000;-0.348358
6317.000000;-0.348556
6316.000000;-0.348771
6315.000000;-0.348986
6314.000000;-0.349196
6313.000000;-0.349410
6312.000000;-0.349632
6311.000000;-0.349856
6310.000000;-0.350088
6309.000000;-0.350338
6308.000000;-0.350592
6307.000000;-0.350823
6306.000000;-0.351017
6305.000000;-0.351187
6304.000000;-0.351348
6303.000000;-0.351511
6302.000000;-0.351691
6301.000000;-0.351903
6300.000000;-0.352130
6299.000000;-0.352340
6298.000000;-0.352522
6297.000000;-0.352695
6296.000000;-0.352870
6295.000000;-0.353044
6294.000000;-0.353226
6293.000000;-0.353440
6292.000000;-0.353692
6291.000000;-0.353953
6290.000000;-0.354190
6289.000000;-0.354399
6288.000000;-0.354596
6287.000000;-0.354792
6286.000000;-0.354996
6285.000000;-0.355205
6284.000000;-0.355415
6283.000000;-0.355615
6282.000000;-0.355807
6281.000000;-0.355995
6280.000000;-0.356169
6279.000000;-0.356317
6278.000000;-0.356450
6277.000000;-0.356596
6276.000000;-0.356776
6275.000000;-0.356987
6274.000000;-0.357223
6273.000000;-0.357472
6272.000000;-0.357716
6271.000000;-0.357932
6270.000000;-0.358122
6269.000000;-0.358303
6268.000000;-0.358495
6267.000000;-0.358704
6266.000000;-0.358926
6265.000000;-0.359148
6264.000000;-0.359341
6263.000000;-0.359486
6262.000000;-0.359604
6261.000000;-0.359748
6260.000000;-0.359948
6259.000000;-0.360186
6258.000000;-0.360426
6257.000000;-0.360646
6256.000000;-0.360847
6255.000000;-0.361040
6254.000000;-0.361241
6253.000000;-0.361450
6252.000000;-0.361650
6251.000000;-0.361837
6250.000000;-0.362033
6249.000000;-0.362266
6248.000000;-0.362521
6247.000000;-0.362754
6246.000000;-0.362943
6245.000000;-0.363109
6244.000000;-0.363280
6243.000000;-0.363464
6242.000000;-0.363655
6241.000000;-0.363858
6240.000000;-0.364083
6239.000000;-0.364329
6238.000000;-0.364581
6237.000000;-0.364814
6236.000000;-0.365002
6235.000000;-0.365140
6234.000000;-0.365261
6233.000000;-0.365409
6232.000000;-0.365605
6231.000000;-0.365835
6230.000000;-0.366076
6229.000000;-0.366311
6228.000000;-0.366529
6227.000000;-0.366722
6226.000000;-0.366893
6225.000000;-0.367060
6224.000000;-0.367235
6223.000000;-0.367429
6222.000000;-0.367650
6221.000000;-0.367884
6220.000000;-0.368090
6219.000000;-0.368244
6218.000000;-0.368376
6217.000000;-0.368545
6216.000000;-0.368763
6215.000000;-0.368985
6214.000000;-0.369169
6213.000000;-0.369326
6212.000000;-0.369495
6211.000000;-0.369703
6210.000000;-0.369941
6209.000000;-0.370185
6208.000000;-0.370409
6207.000000;-0.370610
6206.000000;-0.370800
6205.000000;-0.370986
6204.000000;-0.371153
6203.000000;-0.371292
6202.000000;-0.371432
6201.000000;-0.371611
6200.000000;-0.371832
6199.000000;-0.372062
6198.000000;-0.372278
6197.000000;-0.372488
6196.000000;-0.372707
6195.000000;-0.372934
6194.000000;-0.373160
6193.000000;-0.373374
6192.000000;-0.373559
6191.000000;-0.373710
6190.000000;-0.373853
6189.000000;-0.374023
6188.000000;-0.374226
6187.000000;-0.374444
6186.000000;-0.374666
6185.000000;-0.374898
6184.000000;-0.375135
6183.000000;-0.375354
6182.000000;-0.375536
6181.000000;-0.375687
6180.000000;-0.375814
6179.000000;-0.375930
6178.000000;-0.376064
6177.000000;-0.376250
6176.000000;-0.376484
6175.000000;-0.376725
6174.000000;-0.376943
6173.000000;-0.377141
6172.000000;-0.377329
6171.000000;-0.377503
6170.000000;-0.377658
6169.000000;-0.377812
6168.000000;-0.377984
6167.000000;-0.378176
6166.000000;-0.378377
6165.000000;-0.378585
6164.000000;-0.378799
6163.000000;-0.379016
6162.000000;-0.379226
6161.000000;-0.379422
6160.000000;-0.379599
6159.000000;-0.379768
6158.000000;-0.379955
6157.000000;-0.380174
6156.000000;-0.380404
6155.000000;-0.380608
6154.000000;-0.380773
6153.000000;-0.380923
6152.000000;-0.381076
6151.000000;-0.381226
6150.000000;-0.381368
6149.000000;-0.381521
6148.000000;-0.381713
6147.000000;-0.381947
6146.000000;-0.382197
6145.000000;-0.382432
6144.000000;-0.382641
6143.000000;-0.382833
6142.000000;-0.383026
6141.000000;-0.383223
6140.000000;-0.383418
6139.000000;-0.383609
6138.000000;-0.383804
6137.000000;-0.384003
6136.000000;-0.384188
6135.000000;-0.384356
6134.000000;-0.384527
6133.000000;-0.384717
6132.000000;-0.384911
6131.000000;-0.385087
6130.000000;-0.385252
6129.000000;-0.385424
6128.000000;-0.385601
6127.000000;-0.385772
6126.000000;-0.385959
6125.000000;-0.386188
6124.000000;-0.386441
6123.000000;-0.386657
6122.000000;-0.386810
6121.000000;-0.386936
6120.000000;-0.387089
6119.000000;-0.387277
6118.000000;-0.387475
6117.000000;-0.387650
6116.000000;-0.387792
6115.000000;-0.387922
6114.000000;-0.388087
6113.000000;-0.388321
6112.000000;-0.388606
6111.000000;-0.388881
6110.000000;-0.389094
6109.000000;-0.389235
6108.000000;-0.389333
6107.000000;-0.389435
6106.000000;-0.389580
6105.000000;-0.389773
6104.000000;-0.389979
6103.000000;-0.390167
6102.000000;-0.390343
6101.000000;-0.390533
6100.000000;-0.390737
6099.000000;-0.390943
6098.000000;-0.391156
6097.000000;-0.391382
6096.000000;-0.391604
6095.000000;-0.391799
6094.000000;-0.391974
6093.000000;-0.392157
6092.000000;-0.392351
6091.000000;-0.392538
6090.000000;-0.392723
6089.000000;-0.392929
6088.000000;-0.393148
6087.000000;-0.393346
6086.000000;-0.393518
6085.000000;-0.393699
6084.000000;-0.393900
6083.000000;-0.394091
6082.000000;-0.394253
6081.000000;-0.394410
6080.000000;-0.394591
6079.000000;-0.394787
6078.000000;-0.394973
6077.000000;-0.395152
6076.000000;-0.395337
6075.000000;-0.395520
6074.000000;-0.395685
6073.000000;-0.395833
6072.000000;-0.395982
6071.000000;-0.396144
6070.000000;-0.396332
6069.000000;-0.396547
6068.000000;-0.396773
6067.000000;-0.396982
6066.000000;-0.397171
6065.000000;-0.397361
6064.000000;-0.397561
6063.000000;-0.397753
6062.000000;-0.397924
6061.000000;-0.398087
6060.000000;-0.398258
6059.000000;-0.398435
6058.000000;-0.398614
6057.000000;-0.398806
6056.000000;-0.399015
6055.000000;-0.399224
6054.000000;-0.399418
6053.000000;-0.399608
6052.000000;-0.399809
6051.000000;-0.400007
6050.000000;-0.400174
6049.000000;-0.400311
6048.000000;-0.400455
6047.000000;-0.400646
6046.000000;-0.400888
6045.000000;-0.401137
6044.000000;-0.401341
6043.000000;-0.401489
6042.000000;-0.401622
6041.000000;-0.401783
6040.000000;-0.401970
6039.000000;-0.402156
6038.000000;-0.402336
6037.000000;-0.402527
6036.000000;-0.402723
6035.000000;-0.402890
6034.000000;-0.403026
6033.000000;-0.403175
6032.000000;-0.403370
6031.000000;-0.403582
6030.000000;-0.403764
6029.000000;-0.403914
6028.000000;-0.404069
6027.000000;-0.404245
6026.000000;-0.404431
6025.000000;-0.404617
6024.000000;-0.404808
6023.000000;-0.405007
6022.000000;-0.405203
6021.000000;-0.405388
6020.000000;-0.405569
6019.000000;-0.405752
6018.000000;-0.405925
6017.000000;-0.406067
6016.000000;-0.406179
6015.000000;-0.406293
6014.000000;-0.406446
6013.000000;-0.406649
6012.000000;-0.406870
6011.000000;-0.407074
6010.000000;-0.407261
6009.000000;-0.407456
6008.000000;-0.407674
6007.000000;-0.407905
6006.000000;-0.408132
6005.000000;-0.408345
6004.000000;-0.408540
6003.000000;-0.408713
6002.000000;-0.408871
6001.000000;-0.409025
6000.000000;-0.409183
5999.000000;-0.409344
5998.000000;-0.409508
5997.000000;-0.409678
5996.000000;-0.409853
5995.000000;-0.410030
5994.000000;-0.410208
5993.000000;-0.410390
5992.000000;-0.410574
5991.000000;-0.410760
5990.000000;-0.410952
5989.000000;-0.411150
5988.000000;-0.411343
5987.000000;-0.411511
5986.000000;-0.411653
5985.000000;-0.411781
5984.000000;-0.411911
5983.000000;-0.412056
5982.000000;-0.412230
5981.000000;-0.412437
5980.000000;-0.412656
5979.000000;-0.412859
5978.000000;-0.413046
5977.000000;-0.413239
5976.000000;-0.413447
5975.000000;-0.413648
5974.000000;-0.413810
5973.000000;-0.413932
5972.000000;-0.414050
5971.000000;-0.414208
5970.000000;-0.414419
5969.000000;-0.414651
5968.000000;-0.414852
5967.000000;-0.415006
5966.000000;-0.415142
5965.000000;-0.415302
5964.000000;-0.415496
5963.000000;-0.415714
5962.000000;-0.415945
5961.000000;-0.416170
5960.000000;-0.416357
5959.000000;-0.416496
5958.000000;-0.416617
5957.000000;-0.416754
5956.000000;-0.416911
5955.000000;-0.417070
5954.000000;-0.417228
5953.000000;-0.417395
5952.000000;-0.417567
5951.000000;-0.417738
5950.000000;-0.417925
5949.000000;-0.418148
5948.000000;-0.418389
5947.000000;-0.418604
5946.000000;-0.418770
5945.000000;-0.418908
5944.000000;-0.419051
5943.000000;-0.419221
5942.000000;-0.419420
5941.000000;-0.419633
5940.000000;-0.419829
5939.000000;-0.419995
5938.000000;-0.420151
5937.000000;-0.420326
5936.000000;-0.420521
5935.000000;-0.420714
5934.000000;-0.420894
5933.000000;-0.421070
5932.000000;-0.421250
5931.000000;-0.421439
5930.000000;-0.421649
5929.000000;-0.421877
5928.000000;-0.422093
5927.000000;-0.422264
5926.000000;-0.422404
5925.000000;-0.422552
5924.000000;-0.422722
5923.000000;-0.422887
5922.000000;-0.423023
5921.000000;-0.423142
5920.000000;-0.423276
5919.000000;-0.423451
5918.000000;-0.423668
5917.000000;-0.423901
5916.000000;-0.424102
5915.000000;-0.424250
5914.000000;-0.424376
5913.000000;-0.424526
5912.000000;-0.424711
5911.000000;-0.424917
5910.000000;-0.425142
5909.000000;-0.425387
5908.000000;-0.425623
5907.000000;-0.425804
5906.000000;-0.425926
5905.000000;-0.426036
5904.000000;-0.426176
5903.000000;-0.426349
5902.000000;-0.426536
5901.000000;-0.426728
5900.000000;-0.426919
5899.000000;-0.427105
5898.000000;-0.427287
5897.000000;-0.427469
5896.000000;-0.427648
5895.000000;-0.427826
5894.000000;-0.428019
5893.000000;-0.428236
5892.000000;-0.428450
5891.000000;-0.428627
5890.000000;-0.428770
5889.000000;-0.428913
5888.000000;-0.429075
5887.000000;-0.429247
5886.000000;-0.429426
5885.000000;-0.429616
5884.000000;-0.429812
5883.000000;-0.429994
5882.000000;-0.430158
5881.000000;-0.430319
5880.000000;-0.430485
5879.000000;-0.430654
5878.000000;-0.430837
5877.000000;-0.431046
5876.000000;-0.431270
5875.000000;-0.431480
5874.000000;-0.431670
5873.000000;-0.431850
5872.000000;-0.432015
5871.000000;-0.432145
5870.000000;-0.432245
5869.000000;-0.432348
5868.000000;-0.432478
5867.000000;-0.432634
5866.000000;-0.432814
5865.000000;-0.433024
5864.000000;-0.433253
5863.000000;-0.433474
5862.000000;-0.433668
5861.000000;-0.433838
5860.000000;-0.433990
5859.000000;-0.434131
5858.000000;-0.434287
5857.000000;-0.434484
5856.000000;-0.434716
5855.000000;-0.434945
5854.000000;-0.435141
5853.000000;-0.435306
5852.000000;-0.435456
5851.000000;-0.435620
5850.000000;-0.435830
5849.000000;-0.436095
5848.000000;-0.436375
5847.000000;-0.436610
5846.000000;-0.436778
5845.000000;-0.436906
5844.000000;-0.437029
5843.000000;-0.437160
5842.000000;-0.437308
5841.000000;-0.437477
5840.000000;-0.437654
5839.000000;-0.437824
5838.000000;-0.437988
5837.000000;-0.438159
5836.000000;-0.438327
5835.000000;-0.438470
5834.000000;-0.438595
5833.000000;-0.438732
5832.000000;-0.438899
5831.000000;-0.439085
5830.000000;-0.439278
5829.000000;-0.439477
5828.000000;-0.439678
5827.000000;-0.439882
5826.000000;-0.440096
5825.000000;-0.440324
5824.000000;-0.440538
5823.000000;-0.440710
5822.000000;-0.440849
5821.000000;-0.440994
5820.000000;-0.441168
5819.000000;-0.441365
5818.000000;-0.441571
5817.000000;-0.441776
5816.000000;-0.441960
5815.000000;-0.442115
5814.000000;-0.442259
5813.000000;-0.442419
5812.000000;-0.442593
5811.000000;-0.442757
5810.000000;-0.442913
5809.000000;-0.443088
5808.000000;-0.443290
5807.000000;-0.443495
5806.000000;-0.443680
5805.000000;-0.443838
5804.000000;-0.443968
5803.000000;-0.444084
5802.000000;-0.444217
5801.000000;-0.444389
5800.000000;-0.444576
5799.000000;-0.444747
5798.000000;-0.444912
5797.000000;-0.445113
5796.000000;-0.445356
5795.000000;-0.445607
5794.000000;-0.445843
5793.000000;-0.446063
5792.000000;-0.446260
5791.000000;-0.446422
5790.000000;-0.446571
5789.000000;-0.446750
5788.000000;-0.446963
5787.000000;-0.447175
5786.000000;-0.447364
5785.000000;-0.447548
5784.000000;-0.447739
5783.000000;-0.447922
5782.000000;-0.448089
5781.000000;-0.448253
5780.000000;-0.448419
5779.000000;-0.448571
5778.000000;-0.448716
5777.000000;-0.448885
5776.000000;-0.449085
5775.000000;-0.449285
5774.000000;-0.449453
5773.000000;-0.449591
5772.000000;-0.449719
5771.000000;-0.449848
5770.000000;-0.449993
5769.000000;-0.450172
5768.000000;-0.450382
5767.000000;-0.450606
5766.000000;-0.450838
5765.000000;-0.451081
5764.000000;-0.451313
5763.000000;-0.451493
5762.000000;-0.451609
5761.000000;-0.451698
5760.000000;-0.451807
5759.000000;-0.451955
5758.000000;-0.452146
5757.000000;-0.452381
5756.000000;-0.452639
5755.000000;-0.452881
5754.000000;-0.453084
5753.000000;-0.453250
5752.000000;-0.453390
5751.000000;-0.453507
5750.000000;-0.453621
5749.000000;-0.453760
5748.000000;-0.453930
5747.000000;-0.454121
5746.000000;-0.454330
5745.000000;-0.454557
5744.000000;-0.454782
5743.000000;-0.454971
5742.000000;-0.455127
5741.000000;-0.455291
5740.000000;-0.455481
5739.000000;-0.455674
5738.000000;-0.455849
5737.000000;-0.456016
5736.000000;-0.456201
5735.000000;-0.456412
5734.000000;-0.456644
5733.000000;-0.456890
5732.000000;-0.457132
5731.000000;-0.457340
5730.000000;-0.457498
5729.000000;-0.457616
5728.000000;-0.457719
5727.000000;-0.457834
5726.000000;-0.457984
5725.000000;-0.458168
5724.000000;-0.458350
5723.000000;-0.458508
5722.000000;-0.458669
5721.000000;-0.458869
5720.000000;-0.459099
5719.000000;-0.459311
5718.000000;-0.459485
5717.000000;-0.459643
5716.000000;-0.459802
5715.000000;-0.459964
5714.000000;-0.460140
5713.000000;-0.460349
5712.000000;-0.460580
5711.000000;-0.460794
5710.000000;-0.460969
5709.000000;-0.461118
5708.000000;-0.461257
5707.000000;-0.461397
5706.000000;-0.461553
5705.000000;-0.461745
5704.000000;-0.461962
5703.000000;-0.462170
5702.000000;-0.462354
5701.000000;-0.462533
5700.000000;-0.462720
5699.000000;-0.462922
5698.000000;-0.463128
5697.000000;-0.463381
5696.000000;-0.463610
5695.000000;-0.463775
5694.000000;-0.463909
5693.000000;-0.464037
5692.000000;-0.464190
5691.000000;-0.464363
5690.000000;-0.464552
5689.000000;-0.464753
5688.000000;-0.464948
5687.000000;-0.465119
5686.000000;-0.465284
5685.000000;-0.465473
5684.000000;-0.465685
5683.000000;-0.465893
5682.000000;-0.466089
5681.000000;-0.466284
5680.000000;-0.466469
5679.000000;-0.466626
5678.000000;-0.466764
5677.000000;-0.466920
5676.000000;-0.467103
5675.000000;-0.467296
5674.000000;-0.467485
5673.000000;-0.467675
5672.000000;-0.467863
5671.000000;-0.468031
5670.000000;-0.468180
5669.000000;-0.468327
5668.000000;-0.468473
5667.000000;-0.468613
5666.000000;-0.468753
5665.000000;-0.468910
5664.000000;-0.469082
5663.000000;-0.469265
5662.000000;-0.469472
5661.000000;-0.469712
5660.000000;-0.469949
5659.000000;-0.470136
5658.000000;-0.470284
5657.000000;-0.470447
5656.000000;-0.470649
5655.000000;-0.470867
5654.000000;-0.471073
5653.000000;-0.471259
5652.000000;-0.471418
5651.000000;-0.471551
5650.000000;-0.471695
5649.000000;-0.471889
5648.000000;-0.472125
5647.000000;-0.472359
5646.000000;-0.472567
5645.000000;-0.472762
5644.000000;-0.472948
5643.000000;-0.473119
5642.000000;-0.473286
5641.000000;-0.473470
5640.000000;-0.473666
5639.000000;-0.473849
5638.000000;-0.474023
5637.000000;-0.474202
5636.000000;-0.474367
5635.000000;-0.474487
5634.000000;-0.474580
5633.000000;-0.474701
5632.000000;-0.474868
5631.000000;-0.475055
5630.000000;-0.475245
5629.000000;-0.475446
5628.000000;-0.475648
5627.000000;-0.475822
5626.000000;-0.475970
5625.000000;-0.476123
5624.000000;-0.476291
5623.000000;-0.476458
5622.000000;-0.476628
5621.000000;-0.476830
5620.000000;-0.477055
5619.000000;-0.477263
5618.000000;-0.477443
5617.000000;-0.477618
5616.000000;-0.477797
5615.000000;-0.477962
5614.000000;-0.478111
5613.000000;-0.478266
5612.000000;-0.478427
5611.000000;-0.478575
5610.000000;-0.478719
5609.000000;-0.478895
5608.000000;-0.479107
5607.000000;-0.479319
5606.000000;-0.479508
5605.000000;-0.479679
5604.000000;-0.479836
5603.000000;-0.479981
5602.000000;-0.480143
5601.000000;-0.480350
5600.000000;-0.480578
5599.000000;-0.480770
5598.000000;-0.480915
5597.000000;-0.481049
5596.000000;-0.481186
5595.000000;-0.481313
5594.000000;-0.481439
5593.000000;-0.481591
5592.000000;-0.481763
5591.000000;-0.481923
5590.000000;-0.482070
5589.000000;-0.482228
5588.000000;-0.482395
5587.000000;-0.482550
5586.000000;-0.482709
5585.000000;-0.482907
5584.000000;-0.483127
5583.000000;-0.483310
5582.000000;-0.483443
5581.000000;-0.483566
5580.000000;-0.483700
5579.000000;-0.483839
5578.000000;-0.484001
5577.000000;-0.484217
5576.000000;-0.484461
5575.000000;-0.484667
5574.000000;-0.484816
5573.000000;-0.484947
5572.000000;-0.485083
5571.000000;-0.485214
5570.000000;-0.485365
5569.000000;-0.485584
5568.000000;-0.485841
5567.000000;-0.486053
5566.000000;-0.486199
5565.000000;-0.486351
5564.000000;-0.486552
5563.000000;-0.486756
5562.000000;-0.486926
5561.000000;-0.487089
5560.000000;-0.487269
5559.000000;-0.487434
5558.000000;-0.487559
5557.000000;-0.487677
5556.000000;-0.487818
5555.000000;-0.487958
5554.000000;-0.488076
5553.000000;-0.488194
5552.000000;-0.488331
5551.000000;-0.488465
5550.000000;-0.488573
5549.000000;-0.488676
5548.000000;-0.488798
5547.000000;-0.488939
5546.000000;-0.489107
5545.000000;-0.489321
5544.000000;-0.489560
5543.000000;-0.489776
5542.000000;-0.489971
5541.000000;-0.490198
5540.000000;-0.490462
5539.000000;-0.490686
5538.000000;-0.490823
5537.000000;-0.490932
5536.000000;-0.491084
5535.000000;-0.491265
5534.000000;-0.491420
5533.000000;-0.491544
5532.000000;-0.491673
5531.000000;-0.491824
5530.000000;-0.491995
5529.000000;-0.492198
5528.000000;-0.492421
5527.000000;-0.492629
5526.000000;-0.492802
5525.000000;-0.492947
5524.000000;-0.493067
5523.000000;-0.493158
5522.000000;-0.493253
5521.000000;-0.493416
5520.000000;-0.493643
5519.000000;-0.493845
5518.000000;-0.493978
5517.000000;-0.494107
5516.000000;-0.494308
5515.000000;-0.494548
5514.000000;-0.494732
5513.000000;-0.494843
5512.000000;-0.494960
5511.000000;-0.495134
5510.000000;-0.495334
5509.000000;-0.495508
5508.000000;-0.495660
5507.000000;-0.495837
5506.000000;-0.496043
5505.000000;-0.496188
5504.000000;-0.496223
5503.000000;-0.496252
5502.000000;-0.496418
5501.000000;-0.496725
5500.000000;-0.496986
5499.000000;-0.497056
5498.000000;-0.497053
5497.000000;-0.497180
5496.000000;-0.497405
5495.000000;-0.497520
5494.000000;-0.497481
5493.000000;-0.497499
5492.000000;-0.497730
5491.000000;-0.498017
5490.000000;-0.498147
5489.000000;-0.498190
5488.000000;-0.498388
5487.000000;-0.498806
5486.000000;-0.499264
5485.000000;-0.499578
5484.000000;-0.499762
5483.000000;-0.499944
5482.000000;-0.500105
5481.000000;-0.500166
5480.000000;-0.500202
5479.000000;-0.500338
5478.000000;-0.500540
5477.000000;-0.500623
5476.000000;-0.500526
5475.000000;-0.500477
5474.000000;-0.500689
5473.000000;-0.500997
5472.000000;-0.501120
5471.000000;-0.501106
5470.000000;-0.501245
5469.000000;-0.501644
5468.000000;-0.502065
5467.000000;-0.502261
5466.000000;-0.502325
5465.000000;-0.502452
5464.000000;-0.502605
5463.000000;-0.502660
5462.000000;-0.502644
5461.000000;-0.502694
5460.000000;-0.502880
5459.000000;-0.503149
5458.000000;-0.503428
5457.000000;-0.503692
5456.000000;-0.503926
5455.000000;-0.504163
5454.000000;-0.504502
5453.000000;-0.504871
5452.000000;-0.505021
5451.000000;-0.504881
5450.000000;-0.504726
5449.000000;-0.504809
5448.000000;-0.504953
5447.000000;-0.504801
5446.000000;-0.504496
5445.000000;-0.504538
5444.000000;-0.504991
5443.000000;-0.505395
5442.000000;-0.505444
5441.000000;-0.505347
5440.000000;-0.505514
5439.000000;-0.505989
5438.000000;-0.506407
5437.000000;-0.506520
5436.000000;-0.506428
5435.000000;-0.506377
5434.000000;-0.506561
5433.000000;-0.506906
5432.000000;-0.507123
5431.000000;-0.507068
5430.000000;-0.506934
5429.000000;-0.507041
5428.000000;-0.507489
5427.000000;-0.508060
5426.000000;-0.508504
5425.000000;-0.508798
5424.000000;-0.509062
5423.000000;-0.509413
5422.000000;-0.509870
5421.000000;-0.510241
5420.000000;-0.510291
5419.000000;-0.510114
5418.000000;-0.510031
5417.000000;-0.510100
5416.000000;-0.510016
5415.000000;-0.509619
5414.000000;-0.509264
5413.000000;-0.509345
5412.000000;-0.509672
5411.000000;-0.509799
5410.000000;-0.509759
5409.000000;-0.509979
5408.000000;-0.510560
5407.000000;-0.511144
5406.000000;-0.511484
5405.000000;-0.511761
5404.000000;-0.512169
5403.000000;-0.512524
5402.000000;-0.512667
5401.000000;-0.512750
5400.000000;-0.512814
5399.000000;-0.512734
5398.000000;-0.512554
5397.000000;-0.512497
5396.000000;-0.512617
5395.000000;-0.512677
5394.000000;-0.512626
5393.000000;-0.512764
5392.000000;-0.513178
5391.000000;-0.513536
5390.000000;-0.513629
5389.000000;-0.513686
5388.000000;-0.513954
5387.000000;-0.514274
5386.000000;-0.514402
5385.000000;-0.514504
5384.000000;-0.514797
5383.000000;-0.515001
5382.000000;-0.514873
5381.000000;-0.514733
5380.000000;-0.514917
5379.000000;-0.515202
5378.000000;-0.515187
5377.000000;-0.515013
5376.000000;-0.515138
5375.000000;-0.515510
5374.000000;-0.515691
5373.000000;-0.515663
5372.000000;-0.515843
5371.000000;-0.516351
5370.000000;-0.516827
5369.000000;-0.517040
5368.000000;-0.517205
5367.000000;-0.517473
5366.000000;-0.517639
5365.000000;-0.517612
5364.000000;-0.517634
5363.000000;-0.517821
5362.000000;-0.517998
5361.000000;-0.518014
5360.000000;-0.517938
5359.000000;-0.517880
5358.000000;-0.517855
5357.000000;-0.517880
5356.000000;-0.517979
5355.000000;-0.518010
5354.000000;-0.517817
5353.000000;-0.517605
5352.000000;-0.517705
5351.000000;-0.517921
5350.000000;-0.517816
5349.000000;-0.517535
5348.000000;-0.517610
5347.000000;-0.518043
5346.000000;-0.518203
5345.000000;-0.517814
5344.000000;-0.517476
5343.000000;-0.517721
5342.000000;-0.518119
5341.000000;-0.518056
5340.000000;-0.517717
5339.000000;-0.517679
5338.000000;-0.518039
5337.000000;-0.518408
5336.000000;-0.518607
5335.000000;-0.518795
5334.000000;-0.518974
5333.000000;-0.519028
5332.000000;-0.519128
5331.000000;-0.519445
5330.000000;-0.519750
5329.000000;-0.519729
5328.000000;-0.519499
5327.000000;-0.519516
5326.000000;-0.519910
5325.000000;-0.520304
5324.000000;-0.520446
5323.000000;-0.520504
5322.000000;-0.520653
5321.000000;-0.520827
5320.000000;-0.520936
5319.000000;-0.521011
5318.000000;-0.521085
5317.000000;-0.521111
5316.000000;-0.521077
5315.000000;-0.521058
5314.000000;-0.521036
5313.000000;-0.520923
5312.000000;-0.520798
5311.000000;-0.520817
5310.000000;-0.520922
5309.000000;-0.520895
5308.000000;-0.520703
5307.000000;-0.520560
5306.000000;-0.520575
5305.000000;-0.520599
5304.000000;-0.520523
5303.000000;-0.520483
5302.000000;-0.520616
5301.000000;-0.520827
5300.000000;-0.520932
5299.000000;-0.520920
5298.000000;-0.520920
5297.000000;-0.520913
5296.000000;-0.520768
5295.000000;-0.520542
5294.000000;-0.520398
5293.000000;-0.520328
5292.000000;-0.520153
5291.000000;-0.519819
5290.000000;-0.519553
5289.000000;-0.519557
5288.000000;-0.519698
5287.000000;-0.519686
5286.000000;-0.519482
5285.000000;-0.519334
5284.000000;-0.519405
5283.000000;-0.519541
5282.000000;-0.519535
5281.000000;-0.519434
5280.000000;-0.519421
5279.000000;-0.519509
5278.000000;-0.519560
5277.000000;-0.519525
5276.000000;-0.519462
5275.000000;-0.519411
5274.000000;-0.519336
5273.000000;-0.519211
5272.000000;-0.519079
5271.000000;-0.518899
5270.000000;-0.518564
5269.000000;-0.518153
5268.000000;-0.517880
5267.000000;-0.517756
5266.000000;-0.517560
5265.000000;-0.517208
5264.000000;-0.516903
5263.000000;-0.516843
5262.000000;-0.516911
5261.000000;-0.516859
5260.000000;-0.516725
5259.000000;-0.516750
5258.000000;-0.516944
5257.000000;-0.517066
5256.000000;-0.516969
5255.000000;-0.516766
5254.000000;-0.516616
5253.000000;-0.516510
5252.000000;-0.516388
5251.000000;-0.516223
5250.000000;-0.515969
5249.000000;-0.515674
5248.000000;-0.515504
5247.000000;-0.515538
5246.000000;-0.515617
5245.000000;-0.515542
5244.000000;-0.515392
5243.000000;-0.515473
5242.000000;-0.515856
5241.000000;-0.516201
5240.000000;-0.516253
5239.000000;-0.516214
5238.000000;-0.516339
5237.000000;-0.516489
5236.000000;-0.516409
5235.000000;-0.516174
5234.000000;-0.516038
5233.000000;-0.516000
5232.000000;-0.515818
5231.000000;-0.515467
5230.000000;-0.515227
5229.000000;-0.515216
5228.000000;-0.515179
5227.000000;-0.514928
5226.000000;-0.514652
5225.000000;-0.514603
5224.000000;-0.514723
5223.000000;-0.514794
5222.000000;-0.514794
5221.000000;-0.514841
5220.000000;-0.514961
5219.000000;-0.515099
5218.000000;-0.515233
5217.000000;-0.515364
5216.000000;-0.515440
5215.000000;-0.515387
5214.000000;-0.515265
5213.000000;-0.515176
5212.000000;-0.515061
5211.000000;-0.514813
5210.000000;-0.514474
5209.000000;-0.514152
5208.000000;-0.513862
5207.000000;-0.513596
5206.000000;-0.513476
5205.000000;-0.513642
5204.000000;-0.513977
5203.000000;-0.514191
5202.000000;-0.514219
5201.000000;-0.514275
5200.000000;-0.514468
5199.000000;-0.514619
5198.000000;-0.514558
5197.000000;-0.514425
5196.000000;-0.514421
5195.000000;-0.514453
5194.000000;-0.514340
5193.000000;-0.514147
5192.000000;-0.514067
5191.000000;-0.514118
5190.000000;-0.514164
5189.000000;-0.514172
5188.000000;-0.514211
5187.000000;-0.514204
5186.000000;-0.514001
5185.000000;-0.513695
5184.000000;-0.513578
5183.000000;-0.513710
5182.000000;-0.513830
5181.000000;-0.513770
5180.000000;-0.513674
5179.000000;-0.513700
5178.000000;-0.513758
5177.000000;-0.513703
5176.000000;-0.513603
5175.000000;-0.513603
5174.000000;-0.513660
5173.000000;-0.513633
5172.000000;-0.513521
5171.000000;-0.513420
5170.000000;-0.513354
5169.000000;-0.513283
5168.000000;-0.513233
5167.000000;-0.513241
5166.000000;-0.513242
5165.000000;-0.513155
5164.000000;-0.513018
5163.000000;-0.512921
5162.000000;-0.512846
5161.000000;-0.512728
5160.000000;-0.512600
5159.000000;-0.512549
5158.000000;-0.512555
5157.000000;-0.512522
5156.000000;-0.512446
5155.000000;-0.512425
5154.000000;-0.512476
5153.000000;-0.512502
5152.000000;-0.512457
5151.000000;-0.512401
5150.000000;-0.512380
5149.000000;-0.512358
5148.000000;-0.512299
5147.000000;-0.512227
5146.000000;-0.512176
5145.000000;-0.512139
5144.000000;-0.512100
5143.000000;-0.512065
5142.000000;-0.512039
5141.000000;-0.512010
5140.000000;-0.511961
5139.000000;-0.511893
5138.000000;-0.511825
5137.000000;-0.511792
5136.000000;-0.511819
5135.000000;-0.511872
5134.000000;-0.511870
5133.000000;-0.511772
5132.000000;-0.511633
5131.000000;-0.511523
5130.000000;-0.511447
5129.000000;-0.511384
5128.000000;-0.511349
5127.000000;-0.511364
5126.000000;-0.511390
5125.000000;-0.511354
5124.000000;-0.511244
5123.000000;-0.511106
5122.000000;-0.510979
5121.000000;-0.510878
5120.000000;-0.510815
5119.000000;-0.510784
5118.000000;-0.510739
5117.000000;-0.510641
5116.000000;-0.510517
5115.000000;-0.510424
5114.000000;-0.510371
5113.000000;-0.510331
5112.000000;-0.510299
5111.000000;-0.510284
5110.000000;-0.510265
5109.000000;-0.510212
5108.000000;-0.510137
5107.000000;-0.510073
5106.000000;-0.510010
5105.000000;-0.509926
5104.000000;-0.509837
5103.000000;-0.509779
5102.000000;-0.509749
5101.000000;-0.509713
5100.000000;-0.509665
5099.000000;-0.509616
5098.000000;-0.509553
5097.000000;-0.509450
5096.000000;-0.509322
5095.000000;-0.509212
5094.000000;-0.509128
5093.000000;-0.509041
5092.000000;-0.508947
5091.000000;-0.508875
5090.000000;-0.508836
5089.000000;-0.508804
5088.000000;-0.508752
5087.000000;-0.508674
5086.000000;-0.508575
5085.000000;-0.508470
5084.000000;-0.508382
5083.000000;-0.508316
5082.000000;-0.508246
5081.000000;-0.508147
5080.000000;-0.508026
5079.000000;-0.507904
5078.000000;-0.507784
5077.000000;-0.507674
5076.000000;-0.507599
5075.000000;-0.507564
5074.000000;-0.507532
5073.000000;-0.507464
5072.000000;-0.507371
5071.000000;-0.507286
5070.000000;-0.507210
5069.000000;-0.507129
5068.000000;-0.507051
5067.000000;-0.506987
5066.000000;-0.506919
5065.000000;-0.506821
5064.000000;-0.506706
5063.000000;-0.506602
5062.000000;-0.506509
5061.000000;-0.506420
5060.000000;-0.506345
5059.000000;-0.506287
5058.000000;-0.506208
5057.000000;-0.506073
5056.000000;-0.505904
5055.000000;-0.505754
5054.000000;-0.505635
5053.000000;-0.505528
5052.000000;-0.505430
5051.000000;-0.505351
5050.000000;-0.505277
5049.000000;-0.505178
5048.000000;-0.505056
5047.000000;-0.504935
5046.000000;-0.504827
5045.000000;-0.504721
5044.000000;-0.504618
5043.000000;-0.504516
5042.000000;-0.504401
5041.000000;-0.504266
5040.000000;-0.504135
5039.000000;-0.504032
5038.000000;-0.503957
5037.000000;-0.503901
5036.000000;-0.503872
5035.000000;-0.503862
5034.000000;-0.503820
5033.000000;-0.503719
5032.000000;-0.503594
5031.000000;-0.503486
5030.000000;-0.503375
5029.000000;-0.503218
5028.000000;-0.503015
5027.000000;-0.502800
5026.000000;-0.502591
5025.000000;-0.502398
5024.000000;-0.502270
5023.000000;-0.502238
5022.000000;-0.502257
5021.000000;-0.502236
5020.000000;-0.502137
5019.000000;-0.501987
5018.000000;-0.501813
5017.000000;-0.501632
5016.000000;-0.501478
5015.000000;-0.501385
5014.000000;-0.501335
5013.000000;-0.501278
5012.000000;-0.501192
5011.000000;-0.501091
5010.000000;-0.500966
5009.000000;-0.500798
5008.000000;-0.500596
5007.000000;-0.500398
5006.000000;-0.500227
5005.000000;-0.500077
5004.000000;-0.499959
5003.000000;-0.499877
5002.000000;-0.499798
5001.000000;-0.499666
5000.000000;-0.499509
4999.000000;-0.499354
4998.000000;-0.499197
4997.000000;-0.499002
4996.000000;-0.498761
4995.000000;-0.498519
4994.000000;-0.498317
4993.000000;-0.498162
4992.000000;-0.498046
4991.000000;-0.497962
4990.000000;-0.497886
4989.000000;-0.497786
4988.000000;-0.497665
4987.000000;-0.497561
4986.000000;-0.497484
4985.000000;-0.497405
4984.000000;-0.497302
4983.000000;-0.497195
4982.000000;-0.497123
4981.000000;-0.497091
4980.000000;-0.497075
4979.000000;-0.497028
4978.000000;-0.496906
4977.000000;-0.496701
4976.000000;-0.496457
4975.000000;-0.496234
4974.000000;-0.496051
4973.000000;-0.495892
4972.000000;-0.495742
4971.000000;-0.495598
4970.000000;-0.495448
4969.000000;-0.495282
4968.000000;-0.495113
4967.000000;-0.494969
4966.000000;-0.494855
4965.000000;-0.494746
4964.000000;-0.494625
4963.000000;-0.494489
4962.000000;-0.494329
4961.000000;-0.494143
4960.000000;-0.493954
4959.000000;-0.493787
4958.000000;-0.493634
4957.000000;-0.493469
4956.000000;-0.493291
4955.000000;-0.493131
4954.000000;-0.493002
4953.000000;-0.492887
4952.000000;-0.492777
4951.000000;-0.492682
4950.000000;-0.492597
4949.000000;-0.492489
4948.000000;-0.492343
4947.000000;-0.492179
4946.000000;-0.492033
4945.000000;-0.491926
4944.000000;-0.491843
4943.000000;-0.491752
4942.000000;-0.491618
4941.000000;-0.491436
4940.000000;-0.491243
4939.000000;-0.491074
4938.000000;-0.490935
4937.000000;-0.490811
4936.000000;-0.490697
4935.000000;-0.490583
4934.000000;-0.490436
4933.000000;-0.490230
4932.000000;-0.489991
4931.000000;-0.489782
4930.000000;-0.489631
4929.000000;-0.489521
4928.000000;-0.489420
4927.000000;-0.489308
4926.000000;-0.489164
4925.000000;-0.488987
4924.000000;-0.488808
4923.000000;-0.488669
4922.000000;-0.488568
4921.000000;-0.488470
4920.000000;-0.488347
4919.000000;-0.488199
4918.000000;-0.488024
4917.000000;-0.487818
4916.000000;-0.487600
4915.000000;-0.487400
4914.000000;-0.487230
4913.000000;-0.487069
4912.000000;-0.486905
4911.000000;-0.486748
4910.000000;-0.486602
4909.000000;-0.486453
4908.000000;-0.486293
4907.000000;-0.486136
4906.000000;-0.486001
4905.000000;-0.485881
4904.000000;-0.485754
4903.000000;-0.485601
4902.000000;-0.485424
4901.000000;-0.485234
4900.000000;-0.485049
4899.000000;-0.484885
4898.000000;-0.484738
4897.000000;-0.484595
4896.000000;-0.484438
4895.000000;-0.484255
4894.000000;-0.484043
4893.000000;-0.483830
4892.000000;-0.483663
4891.000000;-0.483563
4890.000000;-0.483496
4889.000000;-0.483408
4888.000000;-0.483279
4887.000000;-0.483124
4886.000000;-0.482960
4885.000000;-0.482783
4884.000000;-0.482580
4883.000000;-0.482358
4882.000000;-0.482140
4881.000000;-0.481955
4880.000000;-0.481810
4879.000000;-0.481673
4878.000000;-0.481510
4877.000000;-0.481320
4876.000000;-0.481141
4875.000000;-0.480987
4874.000000;-0.480826
4873.000000;-0.480616
4872.000000;-0.480360
4871.000000;-0.480092
4870.000000;-0.479843
4869.000000;-0.479623
4868.000000;-0.479436
4867.000000;-0.479265
4866.000000;-0.479076
4865.000000;-0.478845
4864.000000;-0.478585
4863.000000;-0.478329
4862.000000;-0.478097
4861.000000;-0.477900
4860.000000;-0.477748
4859.000000;-0.477631
4858.000000;-0.477508
4857.000000;-0.477344
4856.000000;-0.477146
4855.000000;-0.476948
4854.000000;-0.476773
4853.000000;-0.476622
4852.000000;-0.476487
4851.000000;-0.476338
4850.000000;-0.476129
4849.000000;-0.475838
4848.000000;-0.475504
4847.000000;-0.475194
4846.000000;-0.474954
4845.000000;-0.474782
4844.000000;-0.474642
4843.000000;-0.474488
4842.000000;-0.474287
4841.000000;-0.474049
4840.000000;-0.473820
4839.000000;-0.473628
4838.000000;-0.473452
4837.000000;-0.473268
4836.000000;-0.473087
4835.000000;-0.472921
4834.000000;-0.472741
4833.000000;-0.472507
4832.000000;-0.472234
4831.000000;-0.471985
4830.000000;-0.471792
4829.000000;-0.471634
4828.000000;-0.471467
4827.000000;-0.471265
4826.000000;-0.471026
4825.000000;-0.470770
4824.000000;-0.470535
4823.000000;-0.470336
4822.000000;-0.470145
4821.000000;-0.469925
4820.000000;-0.469683
4819.000000;-0.469454
4818.000000;-0.469242
4817.000000;-0.469016
4816.000000;-0.468767
4815.000000;-0.468534
4814.000000;-0.468357
4813.000000;-0.468223
4812.000000;-0.468076
4811.000000;-0.467864
4810.000000;-0.467577
4809.000000;-0.467250
4808.000000;-0.466945
4807.000000;-0.466699
4806.000000;-0.466503
4805.000000;-0.466312
4804.000000;-0.466093
4803.000000;-0.465839
4802.000000;-0.465557
4801.000000;-0.465268
4800.000000;-0.464993
4799.000000;-0.464741
4798.000000;-0.464500
4797.000000;-0.464248
4796.000000;-0.463984
4795.000000;-0.463721
4794.000000;-0.463469
4793.000000;-0.463226
4792.000000;-0.462978
4791.000000;-0.462712
4790.000000;-0.462426
4789.000000;-0.462143
4788.000000;-0.461885
4787.000000;-0.461645
4786.000000;-0.461397
4785.000000;-0.461143
4784.000000;-0.460906
4783.000000;-0.460688
4782.000000;-0.460441
4781.000000;-0.460130
4780.000000;-0.459778
4779.000000;-0.459440
4778.000000;-0.459146
4777.000000;-0.458895
4776.000000;-0.458680
4775.000000;-0.458482
4774.000000;-0.458262
4773.000000;-0.457981
4772.000000;-0.457642
4771.000000;-0.457278
4770.000000;-0.456933
4769.000000;-0.456645
4768.000000;-0.456426
4767.000000;-0.456239
4766.000000;-0.456013
4765.000000;-0.455710
4764.000000;-0.455360
4763.000000;-0.455017
4762.000000;-0.454690
4761.000000;-0.454365
4760.000000;-0.454044
4759.000000;-0.453745
4758.000000;-0.453472
4757.000000;-0.453221
4756.000000;-0.452998
4755.000000;-0.452802
4754.000000;-0.452599
4753.000000;-0.452352
4752.000000;-0.452068
4751.000000;-0.451774
4750.000000;-0.451473
4749.000000;-0.451136
4748.000000;-0.450758
4747.000000;-0.450368
4746.000000;-0.450004
4745.000000;-0.449684
4744.000000;-0.449407
4743.000000;-0.449150
4742.000000;-0.448874
4741.000000;-0.448563
4740.000000;-0.448233
4739.000000;-0.447908
4738.000000;-0.447589
4737.000000;-0.447269
4736.000000;-0.446962
4735.000000;-0.446685
4734.000000;-0.446423
4733.000000;-0.446151
4732.000000;-0.445879
4731.000000;-0.445623
4730.000000;-0.445362
4729.000000;-0.445056
4728.000000;-0.444696
4727.000000;-0.444319
4726.000000;-0.443956
4725.000000;-0.443612
4724.000000;-0.443290
4723.000000;-0.443005
4722.000000;-0.442749
4721.000000;-0.442488
4720.000000;-0.442186
4719.000000;-0.441827
4718.000000;-0.441424
4717.000000;-0.441018
4716.000000;-0.440661
4715.000000;-0.440374
4714.000000;-0.440124
4713.000000;-0.439855
4712.000000;-0.439549
4711.000000;-0.439223
4710.000000;-0.438893
4709.000000;-0.438554
4708.000000;-0.438208
4707.000000;-0.437867
4706.000000;-0.437539
4705.000000;-0.437220
4704.000000;-0.436899
4703.000000;-0.436562
4702.000000;-0.436194
4701.000000;-0.435798
4700.000000;-0.435402
4699.000000;-0.435025
4698.000000;-0.434644
4697.000000;-0.434220
4696.000000;-0.433760
4695.000000;-0.433316
4694.000000;-0.432936
4693.000000;-0.432622
4692.000000;-0.432344
4691.000000;-0.432064
4690.000000;-0.431757
4689.000000;-0.431416
4688.000000;-0.431052
4687.000000;-0.430681
4686.000000;-0.430301
4685.000000;-0.429908
4684.000000;-0.429517
4683.000000;-0.429149
4682.000000;-0.428807
4681.000000;-0.428470
4680.000000;-0.428113
4679.000000;-0.427714
4678.000000;-0.427275
4677.000000;-0.426829
4676.000000;-0.426431
4675.000000;-0.426099
4674.000000;-0.425779
4673.000000;-0.425390
4672.000000;-0.424910
4671.000000;-0.424391
4670.000000;-0.423901
4669.000000;-0.423465
4668.000000;-0.423067
4667.000000;-0.422670
4666.000000;-0.422238
4665.000000;-0.421755
4664.000000;-0.421233
4663.000000;-0.420713
4662.000000;-0.420230
4661.000000;-0.419796
4660.000000;-0.419406
4659.000000;-0.419033
4658.000000;-0.418639
4657.000000;-0.418197
4656.000000;-0.417710
4655.000000;-0.417208
4654.000000;-0.416720
4653.000000;-0.416261
4652.000000;-0.415835
4651.000000;-0.415430
4650.000000;-0.415016
4649.000000;-0.414572
4648.000000;-0.414098
4647.000000;-0.413611
4646.000000;-0.413126
4645.000000;-0.412653
4644.000000;-0.412204
4643.000000;-0.411778
4642.000000;-0.411348
4641.000000;-0.410886
4640.000000;-0.410389
4639.000000;-0.409869
4638.000000;-0.409343
4637.000000;-0.408833
4636.000000;-0.408356
4635.000000;-0.407914
4634.000000;-0.407477
4633.000000;-0.407008
4632.000000;-0.406494
4631.000000;-0.405953
4630.000000;-0.405416
4629.000000;-0.404909
4628.000000;-0.404430
4627.000000;-0.403949
4626.000000;-0.403433
4625.000000;-0.402884
4624.000000;-0.402329
4623.000000;-0.401779
4622.000000;-0.401215
4621.000000;-0.400640
4620.000000;-0.400100
4619.000000;-0.399620
4618.000000;-0.399152
4617.000000;-0.398621
4616.000000;-0.398020
4615.000000;-0.397412
4614.000000;-0.396845
4613.000000;-0.396304
4612.000000;-0.395740
4611.000000;-0.395134
4610.000000;-0.394506
4609.000000;-0.393892
4608.000000;-0.393316
4607.000000;-0.392777
4606.000000;-0.392247
4605.000000;-0.391700
4604.000000;-0.391131
4603.000000;-0.390543
4602.000000;-0.389933
4601.000000;-0.389301
4600.000000;-0.388655
4599.000000;-0.388009
4598.000000;-0.387364
4597.000000;-0.386717
4596.000000;-0.386070
4595.000000;-0.385418
4594.000000;-0.384747
4593.000000;-0.384052
4592.000000;-0.383353
4591.000000;-0.382671
4590.000000;-0.382004
4589.000000;-0.381326
4588.000000;-0.380630
4587.000000;-0.379929
4586.000000;-0.379238
4585.000000;-0.378552
4584.000000;-0.377846
4583.000000;-0.377093
4582.000000;-0.376296
4581.000000;-0.375498
4580.000000;-0.374741
4579.000000;-0.374011
4578.000000;-0.373255
4577.000000;-0.372451
4576.000000;-0.371632
4575.000000;-0.370828
4574.000000;-0.370018
4573.000000;-0.369166
4572.000000;-0.368278
4571.000000;-0.367381
4570.000000;-0.366482
4569.000000;-0.365562
4568.000000;-0.364619
4567.000000;-0.363671
4566.000000;-0.362733
4565.000000;-0.361807
4564.000000;-0.360890
4563.000000;-0.359963
4562.000000;-0.358993
4561.000000;-0.357972
4560.000000;-0.356924
4559.000000;-0.355871
4558.000000;-0.354796
4557.000000;-0.353674
4556.000000;-0.352521
4555.000000;-0.351380
4554.000000;-0.350266
4553.000000;-0.349157
4552.000000;-0.348026
4551.000000;-0.346868
4550.000000;-0.345683
4549.000000;-0.344474
4548.000000;-0.343249
4547.000000;-0.342022
4546.000000;-0.340810
4545.000000;-0.339632
4544.000000;-0.338502
4543.000000;-0.337406
4542.000000;-0.336305
4541.000000;-0.335168
4540.000000;-0.334005
4539.000000;-0.332842
4538.000000;-0.331699
4537.000000;-0.330587
4536.000000;-0.329514
4535.000000;-0.328465
4534.000000;-0.327403
4533.000000;-0.326307
4532.000000;-0.325202
4531.000000;-0.324136
4530.000000;-0.323142
4529.000000;-0.322223
4528.000000;-0.321359
4527.000000;-0.320495
4526.000000;-0.319569
4525.000000;-0.318571
4524.000000;-0.317558
4523.000000;-0.316583
4522.000000;-0.315642
4521.000000;-0.314706
4520.000000;-0.313774
4519.000000;-0.312857
4518.000000;-0.311943
4517.000000;-0.311020
4516.000000;-0.310123
4515.000000;-0.309303
4514.000000;-0.308567
4513.000000;-0.307875
4512.000000;-0.307186
4511.000000;-0.306469
4510.000000;-0.305688
4509.000000;-0.304835
4508.000000;-0.303962
4507.000000;-0.303140
4506.000000;-0.302388
4505.000000;-0.301651
4504.000000;-0.300863
4503.000000;-0.299988
4502.000000;-0.299036
4501.000000;-0.298051
4500.000000;-0.297098
4499.000000;-0.296212
4498.000000;-0.295375
4497.000000;-0.294545
4496.000000;-0.293712
4495.000000;-0.292890
4494.000000;-0.292070
4493.000000;-0.291226
4492.000000;-0.290350
4491.000000;-0.289465
4490.000000;-0.288587
4489.000000;-0.287706
4488.000000;-0.286801
4487.000000;-0.285866
4486.000000;-0.284908
4485.000000;-0.283951
4484.000000;-0.283025
4483.000000;-0.282132
4482.000000;-0.281238
4481.000000;-0.280306
4480.000000;-0.279328
4479.000000;-0.278310
4478.000000;-0.277239
4477.000000;-0.276122
4476.000000;-0.275009
4475.000000;-0.273956
4474.000000;-0.272956
4473.000000;-0.271954
4472.000000;-0.270916
4471.000000;-0.269854
4470.000000;-0.268791
4469.000000;-0.267733
4468.000000;-0.266681
4467.000000;-0.265630
4466.000000;-0.264550
4465.000000;-0.263408
4464.000000;-0.262218
4463.000000;-0.261036
4462.000000;-0.259906
4461.000000;-0.258816
4460.000000;-0.257728
4459.000000;-0.256613
4458.000000;-0.255467
4457.000000;-0.254309
4456.000000;-0.253170
4455.000000;-0.252066
4454.000000;-0.250971
4453.000000;-0.249847
4452.000000;-0.248671
4451.000000;-0.247448
4450.000000;-0.246184
4449.000000;-0.244891
4448.000000;-0.243608
4447.000000;-0.242380
4446.000000;-0.241213
4445.000000;-0.240077
4444.000000;-0.238934
4443.000000;-0.237774
4442.000000;-0.236595
4441.000000;-0.235391
4440.000000;-0.234150
4439.000000;-0.232878
4438.000000;-0.231605
4437.000000;-0.230382
4436.000000;-0.229239
4435.000000;-0.228147
4434.000000;-0.227022
4433.000000;-0.225802
4432.000000;-0.224502
4431.000000;-0.223182
4430.000000;-0.221875
4429.000000;-0.220570
4428.000000;-0.219255
4427.000000;-0.217943
4426.000000;-0.216647
4425.000000;-0.215353
4424.000000;-0.214021
4423.000000;-0.212634
4422.000000;-0.211224
4421.000000;-0.209845
4420.000000;-0.208504
4419.000000;-0.207151
4418.000000;-0.205737
4417.000000;-0.204283
4416.000000;-0.202844
4415.000000;-0.201434
4414.000000;-0.200024
4413.000000;-0.198608
4412.000000;-0.197212
4411.000000;-0.195839
4410.000000;-0.194448
4409.000000;-0.193006
4408.000000;-0.191529
4407.000000;-0.190048
4406.000000;-0.188572
4405.000000;-0.187097
4404.000000;-0.185618
4403.000000;-0.184108
4402.000000;-0.182531
4401.000000;-0.180904
4400.000000;-0.179299
4399.000000;-0.177764
4398.000000;-0.176274
4397.000000;-0.174776
4396.000000;-0.173246
4395.000000;-0.171684
4394.000000;-0.170088
4393.000000;-0.168462
4392.000000;-0.166826
4391.000000;-0.165177
4390.000000;-0.163503
4389.000000;-0.161841
4388.000000;-0.160259
4387.000000;-0.158744
4386.000000;-0.157173
4385.000000;-0.155454
4384.000000;-0.153635
4383.000000;-0.151828
4382.000000;-0.150068
4381.000000;-0.148323
4380.000000;-0.146565
4379.000000;-0.144774
4378.000000;-0.142895
4377.000000;-0.140898
4376.000000;-0.138858
4375.000000;-0.136900
4374.000000;-0.135054
4373.000000;-0.133238
4372.000000;-0.131361
4371.000000;-0.129403
4370.000000;-0.127400
4369.000000;-0.125403
4368.000000;-0.123459
4367.000000;-0.121566
4366.000000;-0.119658
4365.000000;-0.117663
4364.000000;-0.115582
4363.000000;-0.113466
4362.000000;-0.111339
4361.000000;-0.109190
4360.000000;-0.107039
4359.000000;-0.104945
4358.000000;-0.102949
4357.000000;-0.101016
4356.000000;-0.099066
4355.000000;-0.097011
4354.000000;-0.094807
4353.000000;-0.092492
4352.000000;-0.090160
4351.000000;-0.087868
4350.000000;-0.085606
4349.000000;-0.083373
4348.000000;-0.081219
4347.000000;-0.079153
4346.000000;-0.077063
4345.000000;-0.074820
4344.000000;-0.072443
4343.000000;-0.070078
4342.000000;-0.067831
4341.000000;-0.065669
4340.000000;-0.063476
4339.000000;-0.061153
4338.000000;-0.058660
4337.000000;-0.056048
4336.000000;-0.053443
4335.000000;-0.050955
4334.000000;-0.048577
4333.000000;-0.046208
4332.000000;-0.043760
4331.000000;-0.041208
4330.000000;-0.038577
4329.000000;-0.035946
4328.000000;-0.033422
4327.000000;-0.031036
4326.000000;-0.028685
4325.000000;-0.026226
4324.000000;-0.023620
4323.000000;-0.020926
4322.000000;-0.018198
4321.000000;-0.015468
4320.000000;-0.012803
4319.000000;-0.010246
4318.000000;-0.007731
4317.000000;-0.005123
4316.000000;-0.002383
4315.000000;0.000417
4314.000000;0.003207
4313.000000;0.005990
4312.000000;0.008777
4311.000000;0.011544
4310.000000;0.014299
4309.000000;0.017094
4308.000000;0.019959
4307.000000;0.022865
4306.000000;0.025788
4305.000000;0.028735
4304.000000;0.031690
4303.000000;0.034592
4302.000000;0.037409
4301.000000;0.040197
4300.000000;0.043049
4299.000000;0.046015
4298.000000;0.049079
4297.000000;0.052167
4296.000000;0.055202
4295.000000;0.058167
4294.000000;0.061137
4293.000000;0.064185
4292.000000;0.067280
4291.000000;0.070333
4290.000000;0.073314
4289.000000;0.076278
4288.000000;0.079277
4287.000000;0.082338
4286.000000;0.085513
4285.000000;0.088848
4284.000000;0.092285
4283.000000;0.095685
4282.000000;0.098973
4281.000000;0.102193
4280.000000;0.105405
4279.000000;0.108602
4278.000000;0.111764
4277.000000;0.114929
4276.000000;0.118158
4275.000000;0.121478
4274.000000;0.124878
4273.000000;0.128308
4272.000000;0.131681
4271.000000;0.134935
4270.000000;0.138131
4269.000000;0.141427
4268.000000;0.144914
4267.000000;0.148531
4266.000000;0.152148
4265.000000;0.155699
4264.000000;0.159201
4263.000000;0.162698
4262.000000;0.166228
4261.000000;0.169825
4260.000000;0.173505
4259.000000;0.177245
4258.000000;0.180990
4257.000000;0.184677
4256.000000;0.188278
4255.000000;0.191822
4254.000000;0.195377
4253.000000;0.198983
4252.000000;0.202633
4251.000000;0.206323
4250.000000;0.210098
4249.000000;0.213973
4248.000000;0.217876
4247.000000;0.221720
4246.000000;0.225517
4245.000000;0.229359
4244.000000;0.233305
4243.000000;0.237342
4242.000000;0.241430
4241.000000;0.245537
4240.000000;0.249623
4239.000000;0.253674
4238.000000;0.257736
4237.000000;0.261873
4236.000000;0.266097
4235.000000;0.270371
4234.000000;0.274658
4233.000000;0.278932
4232.000000;0.283185
4231.000000;0.287478
4230.000000;0.291918
4229.000000;0.296516
4228.000000;0.301114
4227.000000;0.305544
4226.000000;0.309826
4225.000000;0.314093
4224.000000;0.318397
4223.000000;0.322716
4222.000000;0.327131
4221.000000;0.331818
4220.000000;0.336821
4219.000000;0.341953
4218.000000;0.346972
4217.000000;0.351780
4216.000000;0.356448
4215.000000;0.361115
4214.000000;0.365904
4213.000000;0.370823
4212.000000;0.375735
4211.000000;0.380486
4210.000000;0.385101
4209.000000;0.389799
4208.000000;0.394806
4207.000000;0.400172
4206.000000;0.405750
4205.000000;0.411302
4204.000000;0.416657
4203.000000;0.421856
4202.000000;0.427095
4201.000000;0.432470
4200.000000;0.437827
4199.000000;0.442980
4198.000000;0.448004
4197.000000;0.453187
4196.000000;0.458692
4195.000000;0.464411
4194.000000;0.470140
4193.000000;0.475802
4192.000000;0.481455
4191.000000;0.487191
4190.000000;0.493053
4189.000000;0.498988
4188.000000;0.504900
4187.000000;0.510773
4186.000000;0.516703
4185.000000;0.522744
4184.000000;0.528785
4183.000000;0.534728
4182.000000;0.540686
4181.000000;0.546841
4180.000000;0.553139
4179.000000;0.559291
4178.000000;0.565123
4177.000000;0.570793
4176.000000;0.576628
4175.000000;0.582809
4174.000000;0.589225
4173.000000;0.595564
4172.000000;0.601597
4171.000000;0.607442
4170.000000;0.613474
4169.000000;0.619905
4168.000000;0.626533
4167.000000;0.633044
4166.000000;0.639415
4165.000000;0.645830
4164.000000;0.652311
4163.000000;0.658695
4162.000000;0.664946
4161.000000;0.671200
4160.000000;0.677463
4159.000000;0.683525
4158.000000;0.689280
4157.000000;0.694944
4156.000000;0.700800
4155.000000;0.706841
4154.000000;0.712778
4153.000000;0.718364
4152.000000;0.723663
4151.000000;0.729009
4150.000000;0.734737
4149.000000;0.740915
4148.000000;0.747302
4147.000000;0.753568
4146.000000;0.759527
4145.000000;0.765195
4144.000000;0.770694
4143.000000;0.776142
4142.000000;0.781549
4141.000000;0.786798
4140.000000;0.791754
4139.000000;0.796391
4138.000000;0.800720
4137.000000;0.804687
4136.000000;0.808315
4135.000000;0.811905
4134.000000;0.815809
4133.000000;0.819964
4132.000000;0.823906
4131.000000;0.827334
4130.000000;0.830452
4129.000000;0.833659
4128.000000;0.837119
4127.000000;0.840713
4126.000000;0.844118
4125.000000;0.846758
4124.000000;0.848046
4123.000000;0.848028
4122.000000;0.847663
4121.000000;0.848166
4120.000000;0.850054
4119.000000;0.852831
4118.000000;0.855493
4117.000000;0.857285
4116.000000;0.858182
4115.000000;0.858782
4114.000000;0.859696
4113.000000;0.860927
4112.000000;0.861885
4111.000000;0.862033
4110.000000;0.861405
4109.000000;0.860442
4108.000000;0.859493
4107.000000;0.858652
4106.000000;0.857927
4105.000000;0.857344
4104.000000;0.856861
4103.000000;0.856352
4102.000000;0.855733
4101.000000;0.855009
4100.000000;0.854144
4099.000000;0.852975
4098.000000;0.851361
4097.000000;0.849368
4096.000000;0.847205
4095.000000;0.845010
4094.000000;0.842814
4093.000000;0.840713
4092.000000;0.838911
4091.000000;0.837487
4090.000000;0.836189
4089.000000;0.834589
4088.000000;0.832399
4087.000000;0.829591
4086.000000;0.826351
4085.000000;0.823037
4084.000000;0.820062
4083.000000;0.817577
4082.000000;0.815286
4081.000000;0.812745
4080.000000;0.809865
4079.000000;0.807007
4078.000000;0.804617
4077.000000;0.802847
4076.000000;0.801455
4075.000000;0.799901
4074.000000;0.797654
4073.000000;0.794660
4072.000000;0.791487
4071.000000;0.788811
4070.000000;0.786756
4069.000000;0.784884
4068.000000;0.782752
4067.000000;0.780234
4066.000000;0.777385
4065.000000;0.774315
4064.000000;0.771295
4063.000000;0.768699
4062.000000;0.766680
4061.000000;0.764997
4060.000000;0.763235
4059.000000;0.761105
4058.000000;0.758526
4057.000000;0.755620
4056.000000;0.752647
4055.000000;0.749824
4054.000000;0.747109
4053.000000;0.744302
4052.000000;0.741359
4051.000000;0.738508
4050.000000;0.735981
4049.000000;0.733755
4048.000000;0.731568
4047.000000;0.729105
4046.000000;0.726199
4045.000000;0.722976
4044.000000;0.719839
4043.000000;0.717160
4042.000000;0.714960
4041.000000;0.712941
4040.000000;0.710837
4039.000000;0.708653
4038.000000;0.706573
4037.000000;0.704715
4036.000000;0.702960
4035.000000;0.701004
4034.000000;0.698625
4033.000000;0.695970
4032.000000;0.693475
4031.000000;0.691422
4030.000000;0.689678
4029.000000;0.687912
4028.000000;0.685933
4027.000000;0.683716
4026.000000;0.681317
4025.000000;0.678909
4024.000000;0.676738
4023.000000;0.674790
4022.000000;0.672674
4021.000000;0.670106
4020.000000;0.667372
4019.000000;0.665033
4018.000000;0.663251
4017.000000;0.661706
4016.000000;0.660102
4015.000000;0.658434
4014.000000;0.656748
4013.000000;0.654960
4012.000000;0.653005
4011.000000;0.650962
4010.000000;0.648941
4009.000000;0.647004
4008.000000;0.645176
4007.000000;0.643383
4006.000000;0.641428
4005.000000;0.639229
4004.000000;0.637041
4003.000000;0.635184
4002.000000;0.633594
4001.000000;0.631946
4000.000000;0.630201
3999.000000;0.628692
3998.000000;0.627586
3997.000000;0.626588
3996.000000;0.625323
3995.000000;0.623759
3994.000000;0.622065
3993.000000;0.620278
3992.000000;0.618302
3991.000000;0.616135
3990.000000;0.613908
3989.000000;0.611776
3988.000000;0.609866
3987.000000;0.608231
3986.000000;0.606807
3985.000000;0.605484
3984.000000;0.604231
3983.000000;0.603058
3982.000000;0.601846
3981.000000;0.600443
3980.000000;0.598950
3979.000000;0.597679
3978.000000;0.596711
3977.000000;0.595706
3976.000000;0.594297
3975.000000;0.592518
3974.000000;0.590685
3973.000000;0.588984
3972.000000;0.587384
3971.000000;0.585856
3970.000000;0.584458
3969.000000;0.583179
3968.000000;0.581889
3967.000000;0.580511
3966.000000;0.579130
3965.000000;0.577861
3964.000000;0.576648
3963.000000;0.575292
3962.000000;0.573693
3961.000000;0.572031
3960.000000;0.570601
3959.000000;0.569474
3958.000000;0.568398
3957.000000;0.567126
3956.000000;0.565730
3955.000000;0.564432
3954.000000;0.563191
3953.000000;0.561667
3952.000000;0.559671
3951.000000;0.557490
3950.000000;0.555656
3949.000000;0.554450
3948.000000;0.553721
3947.000000;0.553088
3946.000000;0.552219
3945.000000;0.550965
3944.000000;0.549399
3943.000000;0.547796
3942.000000;0.546479
3941.000000;0.545568
3940.000000;0.544844
3939.000000;0.543923
3938.000000;0.542601
3937.000000;0.540978
3936.000000;0.539231
3935.000000;0.537380
3934.000000;0.535416
3933.000000;0.533559
3932.000000;0.532173
3931.000000;0.531369
3930.000000;0.530831
3929.000000;0.530120
3928.000000;0.529019
3927.000000;0.527576
3926.000000;0.525978
3925.000000;0.524450
3924.000000;0.523092
3923.000000;0.521746
3922.000000;0.520159
3921.000000;0.518352
3920.000000;0.516691
3919.000000;0.515464
3918.000000;0.514551
3917.000000;0.513649
3916.000000;0.512670
3915.000000;0.511711
3914.000000;0.510768
3913.000000;0.509710
3912.000000;0.508477
3911.000000;0.507130
3910.000000;0.505701
3909.000000;0.504184
3908.000000;0.502619
3907.000000;0.501035
3906.000000;0.499378
3905.000000;0.497680
3904.000000;0.496204
3903.000000;0.495196
3902.000000;0.494549
3901.000000;0.493937
3900.000000;0.493243
3899.000000;0.492611
3898.000000;0.492117
3897.000000;0.491628
3896.000000;0.491006
3895.000000;0.490248
3894.000000;0.489391
3893.000000;0.488503
3892.000000;0.487771
3891.000000;0.487351
3890.000000;0.487049
3889.000000;0.486451
3888.000000;0.485452
3887.000000;0.484441
3886.000000;0.483845
3885.000000;0.483620
3884.000000;0.483356
3883.000000;0.482796
3882.000000;0.482042
3881.000000;0.481355
3880.000000;0.480975
3879.000000;0.480974
3878.000000;0.481159
3877.000000;0.481154
3876.000000;0.480733
3875.000000;0.480082
3874.000000;0.479542
3873.000000;0.479125
3872.000000;0.478540
3871.000000;0.477664
3870.000000;0.476753
3869.000000;0.476143
3868.000000;0.475895
3867.000000;0.475853
3866.000000;0.475846
3865.000000;0.475823
3864.000000;0.475830
3863.000000;0.475857
3862.000000;0.475779
3861.000000;0.475516
3860.000000;0.475145
3859.000000;0.474817
3858.000000;0.474556
3857.000000;0.474256
3856.000000;0.473873
3855.000000;0.473494
3854.000000;0.473219
3853.000000;0.472999
3852.000000;0.472690
3851.000000;0.472404
3850.000000;0.472371
3849.000000;0.472465
3848.000000;0.472379
3847.000000;0.472095
3846.000000;0.471899
3845.000000;0.471994
3844.000000;0.472216
3843.000000;0.472197
3842.000000;0.471762
3841.000000;0.471149
3840.000000;0.470761
3839.000000;0.470754
3838.000000;0.470925
3837.000000;0.471009
3836.000000;0.470957
3835.000000;0.470884
3834.000000;0.470842
3833.000000;0.470760
3832.000000;0.470554
3831.000000;0.470217
3830.000000;0.469855
3829.000000;0.469662
3828.000000;0.469772
3827.000000;0.470084
3826.000000;0.470271
3825.000000;0.470098
3824.000000;0.469681
3823.000000;0.469354
3822.000000;0.469314
3821.000000;0.469471
3820.000000;0.469539
3819.000000;0.469330
3818.000000;0.468931
3817.000000;0.468542
3816.000000;0.468331
3815.000000;0.468299
3814.000000;0.468291
3813.000000;0.468196
3812.000000;0.468017
3811.000000;0.467799
3810.000000;0.467585
3809.000000;0.467426
3808.000000;0.467393
3807.000000;0.467476
3806.000000;0.467485
3805.000000;0.467254
3804.000000;0.466913
3803.000000;0.466762
3802.000000;0.466946
3801.000000;0.467328
3800.000000;0.467648
3799.000000;0.467824
3798.000000;0.467914
3797.000000;0.467903
3796.000000;0.467753
3795.000000;0.467481
3794.000000;0.467143
3793.000000;0.466825
3792.000000;0.466641
3791.000000;0.466671
3790.000000;0.466838
3789.000000;0.466923
3788.000000;0.466766
3787.000000;0.466419
3786.000000;0.466067
3785.000000;0.465845
3784.000000;0.465754
3783.000000;0.465722
3782.000000;0.465703
3781.000000;0.465713
3780.000000;0.465790
3779.000000;0.465932
3778.000000;0.466083
3777.000000;0.466231
3776.000000;0.466421
3775.000000;0.466629
3774.000000;0.466698
3773.000000;0.466514
3772.000000;0.466178
3771.000000;0.465912
3770.000000;0.465828
3769.000000;0.465877
3768.000000;0.465998
3767.000000;0.466158
3766.000000;0.466270
3765.000000;0.466226
3764.000000;0.466051
3763.000000;0.465870
3762.000000;0.465710
3761.000000;0.465461
3760.000000;0.465099
3759.000000;0.464807
3758.000000;0.464777
3757.000000;0.464980
3756.000000;0.465229
3755.000000;0.465420
3754.000000;0.465594
3753.000000;0.465758
3752.000000;0.465807
3751.000000;0.465664
3750.000000;0.465430
3749.000000;0.465303
3748.000000;0.465361
3747.000000;0.465438
3746.000000;0.465307
3745.000000;0.464977
3744.000000;0.464680
3743.000000;0.464545
3742.000000;0.464567
3741.000000;0.464712
3740.000000;0.464880
3739.000000;0.465000
3738.000000;0.465065
3737.000000;0.465120
3736.000000;0.465225
3735.000000;0.465352
3734.000000;0.465351
3733.000000;0.465109
3732.000000;0.464704
3731.000000;0.464336
3730.000000;0.464145
3729.000000;0.464127
3728.000000;0.464207
3727.000000;0.464294
3726.000000;0.464249
3725.000000;0.463919
3724.000000;0.463348
3723.000000;0.462826
3722.000000;0.462638
3721.000000;0.462814
3720.000000;0.463172
3719.000000;0.463546
3718.000000;0.463890
3717.000000;0.464190
3716.000000;0.464402
3715.000000;0.464532
3714.000000;0.464697
3713.000000;0.465029
3712.000000;0.465503
3711.000000;0.465865
3710.000000;0.465807
3709.000000;0.465283
3708.000000;0.464577
3707.000000;0.464025
3706.000000;0.463704
3705.000000;0.463455
3704.000000;0.463125
3703.000000;0.462759
3702.000000;0.462540
3701.000000;0.462620
3700.000000;0.462999
3699.000000;0.463499
3698.000000;0.463827
3697.000000;0.463757
3696.000000;0.463351
3695.000000;0.462943
3694.000000;0.462850
3693.000000;0.463087
3692.000000;0.463445
3691.000000;0.463757
3690.000000;0.464009
3689.000000;0.464181
3688.000000;0.464134
3687.000000;0.463772
3686.000000;0.463235
3685.000000;0.462809
3684.000000;0.462667
3683.000000;0.462760
3682.000000;0.462921
3681.000000;0.463035
3680.000000;0.463088
3679.000000;0.463089
3678.000000;0.463065
3677.000000;0.463110
3676.000000;0.463328
3675.000000;0.463630
3674.000000;0.463745
3673.000000;0.463613
3672.000000;0.463475
3671.000000;0.463572
3670.000000;0.463943
3669.000000;0.464383
3668.000000;0.464617
3667.000000;0.464561
3666.000000;0.464317
3665.000000;0.464012
3664.000000;0.463700
3663.000000;0.463346
3662.000000;0.462926
3661.000000;0.462505
3660.000000;0.462206
3659.000000;0.462114
3658.000000;0.462225
3657.000000;0.462452
3656.000000;0.462661
3655.000000;0.462756
3654.000000;0.462773
3653.000000;0.462811
3652.000000;0.462816
3651.000000;0.462617
3650.000000;0.462192
3649.000000;0.461755
3648.000000;0.461533
3647.000000;0.461532
3646.000000;0.461583
3645.000000;0.461556
3644.000000;0.461489
3643.000000;0.461512
3642.000000;0.461722
3641.000000;0.462122
3640.000000;0.462576
3639.000000;0.462856
3638.000000;0.462842
3637.000000;0.462687
3636.000000;0.462701
3635.000000;0.463025
3634.000000;0.463492
3633.000000;0.463806
3632.000000;0.463780
3631.000000;0.463380
3630.000000;0.462721
3629.000000;0.462033
3628.000000;0.461511
3627.000000;0.461221
3626.000000;0.461197
3625.000000;0.461407
3624.000000;0.461699
3623.000000;0.461878
3622.000000;0.461837
3621.000000;0.461687
3620.000000;0.461640
3619.000000;0.461725
3618.000000;0.461720
3617.000000;0.461471
3616.000000;0.461126
3615.000000;0.460948
3614.000000;0.461001
3613.000000;0.461144
3612.000000;0.461234
3611.000000;0.461231
3610.000000;0.461153
3609.000000;0.461038
3608.000000;0.460978
3607.000000;0.461065
3606.000000;0.461278
3605.000000;0.461465
3604.000000;0.461479
3603.000000;0.461327
3602.000000;0.461185
3601.000000;0.461208
3600.000000;0.461328
3599.000000;0.461334
3598.000000;0.461160
3597.000000;0.460991
3596.000000;0.460995
3595.000000;0.461066
3594.000000;0.460985
3593.000000;0.460768
3592.000000;0.460651
3591.000000;0.460734
3590.000000;0.460866
3589.000000;0.460928
3588.000000;0.460970
3587.000000;0.460981
3586.000000;0.460800
3585.000000;0.460447
3584.000000;0.460245
3583.000000;0.460437
3582.000000;0.460862
3581.000000;0.461164
3580.000000;0.461180
3579.000000;0.460966
3578.000000;0.460608
3577.000000;0.460220
3576.000000;0.460009
3575.000000;0.460116
3574.000000;0.460419
3573.000000;0.460659
3572.000000;0.460705
3571.000000;0.460557
3570.000000;0.460193
3569.000000;0.459634
3568.000000;0.459111
3567.000000;0.458915
3566.000000;0.459077
3565.000000;0.459391
3564.000000;0.459724
3563.000000;0.460109
3562.000000;0.460555
3561.000000;0.460919
3560.000000;0.461026
3559.000000;0.460821
3558.000000;0.460406
3557.000000;0.460005
3556.000000;0.459842
3555.000000;0.459935
3554.000000;0.460032
3553.000000;0.459892
3552.000000;0.459598
3551.000000;0.459437
3550.000000;0.459492
3549.000000;0.459538
3548.000000;0.459388
3547.000000;0.459168
3546.000000;0.459143
3545.000000;0.459390
3544.000000;0.459754
3543.000000;0.460048
3542.000000;0.460171
3541.000000;0.460073
3540.000000;0.459744
3539.000000;0.459266
3538.000000;0.458828
3537.000000;0.458605
3536.000000;0.458623
3535.000000;0.458738
3534.000000;0.458762
3533.000000;0.458617
3532.000000;0.458359
3531.000000;0.458081
3530.000000;0.457882
3529.000000;0.457874
3528.000000;0.458130
3527.000000;0.458565
3526.000000;0.458972
3525.000000;0.459246
3524.000000;0.459480
3523.000000;0.459757
3522.000000;0.459950
3521.000000;0.459829
3520.000000;0.459340
3519.000000;0.458656
3518.000000;0.458026
3517.000000;0.457664
3516.000000;0.457712
3515.000000;0.458123
3514.000000;0.458600
3513.000000;0.458782
3512.000000;0.458575
3511.000000;0.458192
3510.000000;0.457891
3509.000000;0.457770
3508.000000;0.457816
3507.000000;0.458006
3506.000000;0.458306
3505.000000;0.458626
3504.000000;0.458852
3503.000000;0.458903
3502.000000;0.458759
3501.000000;0.458497
3500.000000;0.458290
3499.000000;0.458301
3498.000000;0.458527
3497.000000;0.458795
3496.000000;0.458929
3495.000000;0.458905
3494.000000;0.458843
3493.000000;0.458888
3492.000000;0.459070
3491.000000;0.459265
3490.000000;0.459296
3489.000000;0.459133
3488.000000;0.458938
3487.000000;0.458867
3486.000000;0.458863
3485.000000;0.458734
3484.000000;0.458420
3483.000000;0.458067
3482.000000;0.457835
3481.000000;0.457736
3480.000000;0.457701
3479.000000;0.457701
3478.000000;0.457737
3477.000000;0.457754
3476.000000;0.457664
3475.000000;0.457483
3474.000000;0.457378
3473.000000;0.457530
3472.000000;0.457922
3471.000000;0.458305
3470.000000;0.458409
3469.000000;0.458183
3468.000000;0.457812
3467.000000;0.457513
3466.000000;0.457378
3465.000000;0.457392
3464.000000;0.457506
3463.000000;0.457649
3462.000000;0.457754
3461.000000;0.457820
3460.000000;0.457867
3459.000000;0.457825
3458.000000;0.457554
3457.000000;0.457080
3456.000000;0.456699
3455.000000;0.456711
3454.000000;0.457083
3453.000000;0.457479
3452.000000;0.457602
3451.000000;0.457436
3450.000000;0.457169
3449.000000;0.456984
3448.000000;0.456942
3447.000000;0.456973
3446.000000;0.456948
3445.000000;0.456809
3444.000000;0.456638
3443.000000;0.456571
3442.000000;0.456638
3441.000000;0.456729
3440.000000;0.456705
3439.000000;0.456537
3438.000000;0.456339
3437.000000;0.456272
3436.000000;0.456394
3435.000000;0.456599
3434.000000;0.456727
3433.000000;0.456727
3432.000000;0.456650
3431.000000;0.456503
3430.000000;0.456247
3429.000000;0.455982
3428.000000;0.455961
3427.000000;0.456306
3426.000000;0.456784
3425.000000;0.457014
3424.000000;0.456861
3423.000000;0.456498
3422.000000;0.456150
3421.000000;0.455915
3420.000000;0.455825
3419.000000;0.455890
3418.000000;0.456026
3417.000000;0.456090
3416.000000;0.456067
3415.000000;0.456132
3414.000000;0.456436
3413.000000;0.456877
3412.000000;0.457158
3411.000000;0.457047
3410.000000;0.456551
3409.000000;0.455872
3408.000000;0.455265
3407.000000;0.454912
3406.000000;0.454868
3405.000000;0.455067
3404.000000;0.455368
3403.000000;0.455617
3402.000000;0.455708
3401.000000;0.455629
3400.000000;0.455467
3399.000000;0.455336
3398.000000;0.455282
3397.000000;0.455280
3396.000000;0.455307
3395.000000;0.455398
3394.000000;0.455603
3393.000000;0.455940
3392.000000;0.456384
3391.000000;0.456873
3390.000000;0.457273
3389.000000;0.457386
3388.000000;0.457081
3387.000000;0.456451
3386.000000;0.455793
3385.000000;0.455375
3384.000000;0.455214
3383.000000;0.455142
3382.000000;0.455034
3381.000000;0.454947
3380.000000;0.455009
3379.000000;0.455267
3378.000000;0.455642
3377.000000;0.455983
3376.000000;0.456143
3375.000000;0.456058
3374.000000;0.455799
3373.000000;0.455501
3372.000000;0.455220
3371.000000;0.454936
3370.000000;0.454691
3369.000000;0.454648
3368.000000;0.454900
3367.000000;0.455313
3366.000000;0.455634
3365.000000;0.455715
3364.000000;0.455572
3363.000000;0.455302
3362.000000;0.455040
3361.000000;0.454895
3360.000000;0.454816
3359.000000;0.454606
3358.000000;0.454197
3357.000000;0.453811
3356.000000;0.453721
3355.000000;0.453910
3354.000000;0.454153
3353.000000;0.454333
3352.000000;0.454485
3351.000000;0.454587
3350.000000;0.454556
3349.000000;0.454454
3348.000000;0.454443
3347.000000;0.454508
3346.000000;0.454461
3345.000000;0.454278
3344.000000;0.454183
3343.000000;0.454311
3342.000000;0.454526
3341.000000;0.454670
3340.000000;0.454772
3339.000000;0.454884
3338.000000;0.454922
3337.000000;0.454845
3336.000000;0.454804
3335.000000;0.454906
3334.000000;0.454999
3333.000000;0.454866
3332.000000;0.454536
3331.000000;0.454211
3330.000000;0.453978
3329.000000;0.453763
3328.000000;0.453496
3327.000000;0.453197
3326.000000;0.452927
3325.000000;0.452782
3324.000000;0.452820
3323.000000;0.452950
3322.000000;0.452981
3321.000000;0.452928
3320.000000;0.453090
3319.000000;0.453653
3318.000000;0.454340
3317.000000;0.454670
3316.000000;0.454503
3315.000000;0.454098
3314.000000;0.453701
3313.000000;0.453325
3312.000000;0.452953
3311.000000;0.452700
3310.000000;0.452684
3309.000000;0.452842
3308.000000;0.452989
3307.000000;0.453008
3306.000000;0.452944
3305.000000;0.452948
3304.000000;0.453123
3303.000000;0.453388
3302.000000;0.453544
3301.000000;0.453511
3300.000000;0.453434
3299.000000;0.453484
3298.000000;0.453635
3297.000000;0.453729
3296.000000;0.453691
3295.000000;0.453556
3294.000000;0.453353
3293.000000;0.453101
3292.000000;0.452869
3291.000000;0.452710
3290.000000;0.452576
3289.000000;0.452427
3288.000000;0.452362
3287.000000;0.452494
3286.000000;0.452736
3285.000000;0.452864
3284.000000;0.452804
3283.000000;0.452685
3282.000000;0.452615
3281.000000;0.452570
3280.000000;0.452533
3279.000000;0.452571
3278.000000;0.452694
3277.000000;0.452785
3276.000000;0.452763
3275.000000;0.452737
3274.000000;0.452895
3273.000000;0.453254
3272.000000;0.453595
3271.000000;0.453640
3270.000000;0.453298
3269.000000;0.452767
3268.000000;0.452387
3267.000000;0.452356
3266.000000;0.452564
3265.000000;0.452750
3264.000000;0.452793
3263.000000;0.452808
3262.000000;0.452956
3261.000000;0.453238
3260.000000;0.453487
3259.000000;0.453529
3258.000000;0.453335
3257.000000;0.453063
3256.000000;0.452915
3255.000000;0.452918
3254.000000;0.452870
3253.000000;0.452569
3252.000000;0.452063
3251.000000;0.451597
3250.000000;0.451336
3249.000000;0.451262
3248.000000;0.451314
3247.000000;0.451515
3246.000000;0.451858
3245.000000;0.452176
3244.000000;0.452278
3243.000000;0.452211
3242.000000;0.452260
3241.000000;0.452627
3240.000000;0.453145
3239.000000;0.453399
3238.000000;0.453118
3237.000000;0.452420
3236.000000;0.451650
3235.000000;0.451076
3234.000000;0.450789
3233.000000;0.450809
3232.000000;0.451136
3231.000000;0.451669
3230.000000;0.452187
3229.000000;0.452473
3228.000000;0.452448
3227.000000;0.452190
3226.000000;0.451866
3225.000000;0.451672
3224.000000;0.451730
3223.000000;0.451994
3222.000000;0.452271
3221.000000;0.452357
3220.000000;0.452132
3219.000000;0.451592
3218.000000;0.450854
3217.000000;0.450166
3216.000000;0.449783
3215.000000;0.449803
3214.000000;0.450154
3213.000000;0.450710
3212.000000;0.451317
3211.000000;0.451759
3210.000000;0.451835
3209.000000;0.451553
3208.000000;0.451146
3207.000000;0.450841
3206.000000;0.450688
3205.000000;0.450629
3204.000000;0.450615
3203.000000;0.450624
3202.000000;0.450659
3201.000000;0.450780
3200.000000;0.451041
3199.000000;0.451344
3198.000000;0.451459
3197.000000;0.451268
3196.000000;0.450893
3195.000000;0.450553
3194.000000;0.450389
3193.000000;0.450449
3192.000000;0.450700
3191.000000;0.450981
3190.000000;0.451087
3189.000000;0.450975
3188.000000;0.450811
3187.000000;0.450746
3186.000000;0.450772
3185.000000;0.450833
3184.000000;0.450906
3183.000000;0.450904
3182.000000;0.450714
3181.000000;0.450424
3180.000000;0.450316
3179.000000;0.450477
3178.000000;0.450616
3177.000000;0.450452
3176.000000;0.450123
3175.000000;0.449953
3174.000000;0.449979
3173.000000;0.449968
3172.000000;0.449820
3171.000000;0.449675
3170.000000;0.449665
3169.000000;0.449807
3168.000000;0.450095
3167.000000;0.450472
3166.000000;0.450700
3165.000000;0.450538
3164.000000;0.450076
3163.000000;0.449678
3162.000000;0.449523
3161.000000;0.449427
3160.000000;0.449184
3159.000000;0.448877
3158.000000;0.448735
3157.000000;0.448855
3156.000000;0.449167
3155.000000;0.449545
3154.000000;0.449838
3153.000000;0.449892
3152.000000;0.449692
3151.000000;0.449416
3150.000000;0.449270
3149.000000;0.449300
3148.000000;0.449426
3147.000000;0.449586
3146.000000;0.449762
3145.000000;0.449905
3144.000000;0.449936
3143.000000;0.449849
3142.000000;0.449751
3141.000000;0.449777
3140.000000;0.449952
3139.000000;0.450146
3138.000000;0.450200
3137.000000;0.450089
3136.000000;0.449938
3135.000000;0.449861
3134.000000;0.449850
3133.000000;0.449843
3132.000000;0.449836
3131.000000;0.449856
3130.000000;0.449882
3129.000000;0.449858
3128.000000;0.449773
3127.000000;0.449660
3126.000000;0.449539
3125.000000;0.449420
3124.000000;0.449314
3123.000000;0.449189
3122.000000;0.449010
3121.000000;0.448846
3120.000000;0.448867
3119.000000;0.449113
3118.000000;0.449372
3117.000000;0.449408
3116.000000;0.449284
3115.000000;0.449274
3114.000000;0.449508
3113.000000;0.449821
3112.000000;0.449963
3111.000000;0.449815
3110.000000;0.449419
3109.000000;0.448949
3108.000000;0.448660
3107.000000;0.448728
3106.000000;0.449062
3105.000000;0.449375
3104.000000;0.449457
3103.000000;0.449312
3102.000000;0.449046
3101.000000;0.448750
3100.000000;0.448529
3099.000000;0.448501
3098.000000;0.448685
3097.000000;0.448955
3096.000000;0.449172
3095.000000;0.449281
3094.000000;0.449267
3093.000000;0.449125
3092.000000;0.448938
3091.000000;0.448891
3090.000000;0.449069
3089.000000;0.449307
3088.000000;0.449329
3087.000000;0.449047
3086.000000;0.448646
3085.000000;0.448378
3084.000000;0.448336
3083.000000;0.448426
3082.000000;0.448504
3081.000000;0.448489
3080.000000;0.448391
3079.000000;0.448266
3078.000000;0.448179
3077.000000;0.448193
3076.000000;0.448356
3075.000000;0.448655
3074.000000;0.448982
3073.000000;0.449186
3072.000000;0.449190
3071.000000;0.449062
3070.000000;0.448979
3069.000000;0.449066
3068.000000;0.449272
3067.000000;0.449410
3066.000000;0.449373
3065.000000;0.449281
3064.000000;0.449349
3063.000000;0.449592
3062.000000;0.449760
3061.000000;0.449615
3060.000000;0.449226
3059.000000;0.448895
3058.000000;0.448809
3057.000000;0.448856
3056.000000;0.448754
3055.000000;0.448347
3054.000000;0.447735
3053.000000;0.447177
3052.000000;0.446882
3051.000000;0.446908
3050.000000;0.447180
3049.000000;0.447560
3048.000000;0.447853
3047.000000;0.447869
3046.000000;0.447595
3045.000000;0.447286
3044.000000;0.447250
3043.000000;0.447503
3042.000000;0.447752
3041.000000;0.447759
3040.000000;0.447590
3039.000000;0.447441
3038.000000;0.447352
3037.000000;0.447224
3036.000000;0.447053
3035.000000;0.446988
3034.000000;0.447161
3033.000000;0.447546
3032.000000;0.447981
3031.000000;0.448258
3030.000000;0.448247
3029.000000;0.447995
3028.000000;0.447703
3027.000000;0.447526
3026.000000;0.447420
3025.000000;0.447240
3024.000000;0.446971
3023.000000;0.446786
3022.000000;0.446886
3021.000000;0.447318
3020.000000;0.447931
3019.000000;0.448461
3018.000000;0.448740
3017.000000;0.448858
3016.000000;0.449067
3015.000000;0.449431
3014.000000;0.449674
3013.000000;0.449479
3012.000000;0.448881
3011.000000;0.448230
3010.000000;0.447776
3009.000000;0.447467
3008.000000;0.447175
3007.000000;0.446953
3006.000000;0.446952
3005.000000;0.447172
3004.000000;0.447429
3003.000000;0.447565
3002.000000;0.447604
3001.000000;0.447680
3000.000000;0.447866
2999.000000;0.448121
2998.000000;0.448348
2997.000000;0.448446
2996.000000;0.448320
2995.000000;0.447959
2994.000000;0.447540
2993.000000;0.447338
2992.000000;0.447428
2991.000000;0.447558
2990.000000;0.447458
2989.000000;0.447217
2988.000000;0.447174
2987.000000;0.447454
2986.000000;0.447833
2985.000000;0.448071
2984.000000;0.448164
2983.000000;0.448168
2982.000000;0.447992
2981.000000;0.447574
2980.000000;0.447095
2979.000000;0.446833
2978.000000;0.446887
2977.000000;0.447191
2976.000000;0.447674
2975.000000;0.448212
2974.000000;0.448537
2973.000000;0.448462
2972.000000;0.448167
2971.000000;0.448052
2970.000000;0.448242
2969.000000;0.448460
2968.000000;0.448426
2967.000000;0.448197
2966.000000;0.448001
2965.000000;0.447884
2964.000000;0.447674
2963.000000;0.447241
2962.000000;0.446688
2961.000000;0.446288
2960.000000;0.446256
2959.000000;0.446573
2958.000000;0.447004
2957.000000;0.447327
2956.000000;0.447532
2955.000000;0.447746
2954.000000;0.447994
2953.000000;0.448107
2952.000000;0.447918
2951.000000;0.447474
2950.000000;0.447012
2949.000000;0.446744
2948.000000;0.446702
2947.000000;0.446776
2946.000000;0.446849
2945.000000;0.446899
2944.000000;0.446969
2943.000000;0.447090
2942.000000;0.447233
2941.000000;0.447327
2940.000000;0.447292
2939.000000;0.447118
2938.000000;0.446948
2937.000000;0.447025
2936.000000;0.447418
2935.000000;0.447849
2934.000000;0.447928
2933.000000;0.447581
2932.000000;0.447092
2931.000000;0.446722
2930.000000;0.446486
2929.000000;0.446364
2928.000000;0.446489
2927.000000;0.446920
2926.000000;0.447382
2925.000000;0.447461
2924.000000;0.447038
2923.000000;0.446396
2922.000000;0.445947
2921.000000;0.445954
2920.000000;0.446428
2919.000000;0.447111
2918.000000;0.447600
2917.000000;0.447669
2916.000000;0.447475
2915.000000;0.447333
2914.000000;0.447338
2913.000000;0.447339
2912.000000;0.447227
2911.000000;0.447065
2910.000000;0.446937
2909.000000;0.446842
2908.000000;0.446776
2907.000000;0.446787
2906.000000;0.446902
2905.000000;0.447084
2904.000000;0.447267
2903.000000;0.447345
2902.000000;0.447175
2901.000000;0.446736
2900.000000;0.446252
2899.000000;0.446013
2898.000000;0.446058
2897.000000;0.446153
2896.000000;0.446105
2895.000000;0.445945
2894.000000;0.445782
2893.000000;0.445644
2892.000000;0.445541
2891.000000;0.445547
2890.000000;0.445705
2889.000000;0.445940
2888.000000;0.446144
2887.000000;0.446319
2886.000000;0.446553
2885.000000;0.446897
2884.000000;0.447289
2883.000000;0.447570
2882.000000;0.447574
2881.000000;0.447247
2880.000000;0.446715
2879.000000;0.446200
2878.000000;0.445859
2877.000000;0.445709
2876.000000;0.445702
2875.000000;0.445811
2874.000000;0.446017
2873.000000;0.446259
2872.000000;0.446443
2871.000000;0.446523
2870.000000;0.446588
2869.000000;0.446806
2868.000000;0.447189
2867.000000;0.447455
2866.000000;0.447286
2865.000000;0.446773
2864.000000;0.446425
2863.000000;0.446582
2862.000000;0.446984
2861.000000;0.447106
2860.000000;0.446835
2859.000000;0.446582
2858.000000;0.446743
2857.000000;0.447272
2856.000000;0.447821
2855.000000;0.448099
2854.000000;0.448025
2853.000000;0.447680
2852.000000;0.447230
2851.000000;0.446832
2850.000000;0.446526
2849.000000;0.446253
2848.000000;0.445973
2847.000000;0.445727
2846.000000;0.445581
2845.000000;0.445581
2844.000000;0.445740
2843.000000;0.445990
2842.000000;0.446191
2841.000000;0.446269
2840.000000;0.446300
2839.000000;0.446384
2838.000000;0.446477
2837.000000;0.446481
2836.000000;0.446435
2835.000000;0.446462
2834.000000;0.446554
2833.000000;0.446603
2832.000000;0.446623
2831.000000;0.446728
2830.000000;0.446872
2829.000000;0.446841
2828.000000;0.446580
2827.000000;0.446343
2826.000000;0.446394
2825.000000;0.446727
2824.000000;0.447159
2823.000000;0.447541
2822.000000;0.447757
2821.000000;0.447654
2820.000000;0.447157
2819.000000;0.446424
2818.000000;0.445760
2817.000000;0.445395
2816.000000;0.445343
2815.000000;0.445435
2814.000000;0.445455
2813.000000;0.445340
2812.000000;0.445274
2811.000000;0.445515
2810.000000;0.446082
2809.000000;0.446690
2808.000000;0.447008
2807.000000;0.446877
2806.000000;0.446306
2805.000000;0.445453
2804.000000;0.444668
2803.000000;0.444322
2802.000000;0.444443
2801.000000;0.444682
2800.000000;0.444772
2799.000000;0.444866
2798.000000;0.445221
2797.000000;0.445705
2796.000000;0.445903
2795.000000;0.445669
2794.000000;0.445322
2793.000000;0.445259
2792.000000;0.445582
2791.000000;0.446136
2790.000000;0.446708
2789.000000;0.447093
2788.000000;0.447140
2787.000000;0.446884
2786.000000;0.446573
2785.000000;0.446455
2784.000000;0.446541
2783.000000;0.446628
2782.000000;0.446515
2781.000000;0.446175
2780.000000;0.445764
2779.000000;0.445512
2778.000000;0.445576
2777.000000;0.445942
2776.000000;0.446446
2775.000000;0.446888
2774.000000;0.447150
2773.000000;0.447214
2772.000000;0.447128
2771.000000;0.446940
2770.000000;0.446663
2769.000000;0.446291
2768.000000;0.445892
2767.000000;0.445636
2766.000000;0.445677
2765.000000;0.445975
2764.000000;0.446313
2763.000000;0.446514
2762.000000;0.446587
2761.000000;0.446626
2760.000000;0.446657
2759.000000;0.446648
2758.000000;0.446603
2757.000000;0.446554
2756.000000;0.446462
2755.000000;0.446260
2754.000000;0.446008
2753.000000;0.445877
2752.000000;0.445925
2751.000000;0.445999
2750.000000;0.445966
2749.000000;0.445927
2748.000000;0.446054
2747.000000;0.446274
2746.000000;0.446312
2745.000000;0.446097
2744.000000;0.445916
2743.000000;0.446045
2742.000000;0.446373
2741.000000;0.446539
2740.000000;0.446373
2739.000000;0.446053
2738.000000;0.445864
2737.000000;0.445926
2736.000000;0.446158
2735.000000;0.446379
2734.000000;0.446441
2733.000000;0.446361
2732.000000;0.446337
2731.000000;0.446553
2730.000000;0.446963
2729.000000;0.447320
2728.000000;0.447427
2727.000000;0.447283
2726.000000;0.447024
2725.000000;0.446818
2724.000000;0.446810
2723.000000;0.447025
2722.000000;0.447294
2721.000000;0.447362
2720.000000;0.447128
2719.000000;0.446726
2718.000000;0.446361
2717.000000;0.446150
2716.000000;0.446136
2715.000000;0.446304
2714.000000;0.446541
2713.000000;0.446656
2712.000000;0.446563
2711.000000;0.446360
2710.000000;0.446181
2709.000000;0.446037
2708.000000;0.445866
2707.000000;0.445673
2706.000000;0.445507
2705.000000;0.445378
2704.000000;0.445293
2703.000000;0.445364
2702.000000;0.445723
2701.000000;0.446291
2700.000000;0.446737
2699.000000;0.446764
2698.000000;0.446424
2697.000000;0.446089
2696.000000;0.446122
2695.000000;0.446598
2694.000000;0.447285
2693.000000;0.447844
2692.000000;0.448051
2691.000000;0.447906
2690.000000;0.447593
2689.000000;0.447312
2688.000000;0.447097
2687.000000;0.446826
2686.000000;0.446454
2685.000000;0.446188
2684.000000;0.446315
2683.000000;0.446853
2682.000000;0.447472
2681.000000;0.447833
2680.000000;0.447920
2679.000000;0.447959
2678.000000;0.448074
2677.000000;0.448160
2676.000000;0.448059
2675.000000;0.447754
2674.000000;0.447372
2673.000000;0.447065
2672.000000;0.446910
2671.000000;0.446859
2670.000000;0.446800
2669.000000;0.446696
2668.000000;0.446660
2667.000000;0.446812
2666.000000;0.447083
2665.000000;0.447255
2664.000000;0.447177
2663.000000;0.446883
2662.000000;0.446507
2661.000000;0.446177
2660.000000;0.445969
2659.000000;0.445871
2658.000000;0.445772
2657.000000;0.445594
2656.000000;0.445424
2655.000000;0.445437
2654.000000;0.445699
2653.000000;0.446119
2652.000000;0.446589
2651.000000;0.447033
2650.000000;0.447313
2649.000000;0.447263
2648.000000;0.446887
2647.000000;0.446409
2646.000000;0.446053
2645.000000;0.445877
2644.000000;0.445863
2643.000000;0.446045
2642.000000;0.446398
2641.000000;0.446741
2640.000000;0.446876
2639.000000;0.446818
2638.000000;0.446727
2637.000000;0.446657
2636.000000;0.446513
2635.000000;0.446275
2634.000000;0.446114
2633.000000;0.446232
2632.000000;0.446630
2631.000000;0.447094
2630.000000;0.447384
2629.000000;0.447430
2628.000000;0.447352
2627.000000;0.447332
2626.000000;0.447442
2625.000000;0.447614
2624.000000;0.447735
2623.000000;0.447765
2622.000000;0.447749
2621.000000;0.447769
2620.000000;0.447882
2619.000000;0.448069
2618.000000;0.448236
2617.000000;0.448282
2616.000000;0.448205
2615.000000;0.448072
2614.000000;0.447884
2613.000000;0.447553
2612.000000;0.447064
2611.000000;0.446586
2610.000000;0.446334
2609.000000;0.446366
2608.000000;0.446586
2607.000000;0.446871
2606.000000;0.447137
2605.000000;0.447314
2604.000000;0.447379
2603.000000;0.447411
2602.000000;0.447494
2601.000000;0.447554
2600.000000;0.447424
2599.000000;0.447095
2598.000000;0.446804
2597.000000;0.446776
2596.000000;0.446952
2595.000000;0.447066
2594.000000;0.446963
2593.000000;0.446759
2592.000000;0.446680
2591.000000;0.446816
2590.000000;0.447058
2589.000000;0.447251
2588.000000;0.447355
2587.000000;0.447473
2586.000000;0.447708
2585.000000;0.448021
2584.000000;0.448247
2583.000000;0.448257
2582.000000;0.448095
2581.000000;0.447910
2580.000000;0.447777
2579.000000;0.447613
2578.000000;0.447290
2577.000000;0.446793
2576.000000;0.446251
2575.000000;0.445853
2574.000000;0.445740
2573.000000;0.445933
2572.000000;0.446293
2571.000000;0.446583
2570.000000;0.446662
2569.000000;0.446643
2568.000000;0.446797
2567.000000;0.447262
2566.000000;0.447880
2565.000000;0.448347
2564.000000;0.448484
2563.000000;0.448342
2562.000000;0.448102
2561.000000;0.447951
2560.000000;0.448018
2559.000000;0.448338
2558.000000;0.448819
2557.000000;0.449264
2556.000000;0.449453
2555.000000;0.449221
2554.000000;0.448549
2553.000000;0.447640
2552.000000;0.446849
2551.000000;0.446466
2550.000000;0.446493
2549.000000;0.446696
2548.000000;0.446843
2547.000000;0.446871
2546.000000;0.446822
2545.000000;0.446746
2544.000000;0.446699
2543.000000;0.446782
2542.000000;0.447060
2541.000000;0.447456
2540.000000;0.447783
2539.000000;0.447896
2538.000000;0.447802
2537.000000;0.447632
2536.000000;0.447551
2535.000000;0.447669
2534.000000;0.447983
2533.000000;0.448340
2532.000000;0.448497
2531.000000;0.448307
2530.000000;0.447889
2529.000000;0.447566
2528.000000;0.447577
2527.000000;0.447841
2526.000000;0.448032
2525.000000;0.447892
2524.000000;0.447454
2523.000000;0.446976
2522.000000;0.446715
2521.000000;0.446779
2520.000000;0.447105
2519.000000;0.447540
2518.000000;0.447930
2517.000000;0.448192
2516.000000;0.448295
2515.000000;0.448221
2514.000000;0.447999
2513.000000;0.447768
2512.000000;0.447725
2511.000000;0.447955
2510.000000;0.448332
2509.000000;0.448618
2508.000000;0.448636
2507.000000;0.448358
2506.000000;0.447906
2505.000000;0.447513
2504.000000;0.447398
2503.000000;0.447579
2502.000000;0.447825
2501.000000;0.447874
2500.000000;0.447679
2499.000000;0.447427
2498.000000;0.447344
2497.000000;0.447527
2496.000000;0.447907
2495.000000;0.448318
2494.000000;0.448622
2493.000000;0.448818
2492.000000;0.448992
2491.000000;0.449137
2490.000000;0.449105
2489.000000;0.448827
2488.000000;0.448491
2487.000000;0.448368
2486.000000;0.448488
2485.000000;0.448636
2484.000000;0.448633
2483.000000;0.448520
2482.000000;0.448433
2481.000000;0.448458
2480.000000;0.448618
2479.000000;0.448863
2478.000000;0.449021
2477.000000;0.448878
2476.000000;0.448400
2475.000000;0.447815
2474.000000;0.447416
2473.000000;0.447333
2472.000000;0.447525
2471.000000;0.447896
2470.000000;0.448352
2469.000000;0.448791
2468.000000;0.449132
2467.000000;0.449325
2466.000000;0.449337
2465.000000;0.449170
2464.000000;0.448934
2463.000000;0.448817
2462.000000;0.448897
2461.000000;0.449027
2460.000000;0.448986
2459.000000;0.448740
2458.000000;0.448502
2457.000000;0.448531
2456.000000;0.448883
2455.000000;0.449361
2454.000000;0.449676
2453.000000;0.449690
2452.000000;0.449523
2451.000000;0.449398
2450.000000;0.449383
2449.000000;0.449341
2448.000000;0.449149
2447.000000;0.448874
2446.000000;0.448687
2445.000000;0.448645
2444.000000;0.448664
2443.000000;0.448681
2442.000000;0.448757
2441.000000;0.448984
2440.000000;0.449344
2439.000000;0.449695
2438.000000;0.449886
2437.000000;0.449855
2436.000000;0.449640
2435.000000;0.449333
2434.000000;0.449039
2433.000000;0.448828
2432.000000;0.448691
2431.000000;0.448562
2430.000000;0.448417
2429.000000;0.448348
2428.000000;0.448484
2427.000000;0.448812
2426.000000;0.449164
2425.000000;0.449397
2424.000000;0.449546
2423.000000;0.449739
2422.000000;0.449991
2421.000000;0.450171
2420.000000;0.450148
2419.000000;0.449893
2418.000000;0.449463
2417.000000;0.448982
2416.000000;0.448627
2415.000000;0.448551
2414.000000;0.448747
2413.000000;0.449030
2412.000000;0.449190
2411.000000;0.449156
2410.000000;0.449012
2409.000000;0.448901
2408.000000;0.448925
2407.000000;0.449100
2406.000000;0.449365
2405.000000;0.449632
2404.000000;0.449817
2403.000000;0.449834
2402.000000;0.449631
2401.000000;0.449273
2400.000000;0.448948
2399.000000;0.448806
2398.000000;0.448825
2397.000000;0.448897
2396.000000;0.448984
2395.000000;0.449123
2394.000000;0.449295
2393.000000;0.449418
2392.000000;0.449475
2391.000000;0.449520
2390.000000;0.449564
2389.000000;0.449557
2388.000000;0.449523
2387.000000;0.449584
2386.000000;0.449801
2385.000000;0.450056
2384.000000;0.450172
2383.000000;0.450083
2382.000000;0.449834
2381.000000;0.449485
2380.000000;0.449107
2379.000000;0.448816
2378.000000;0.448760
2377.000000;0.449035
2376.000000;0.449625
2375.000000;0.450356
2374.000000;0.450925
2373.000000;0.451080
2372.000000;0.450816
2371.000000;0.450377
2370.000000;0.450022
2369.000000;0.449824
2368.000000;0.449706
2367.000000;0.449606
2366.000000;0.449535
2365.000000;0.449538
2364.000000;0.449657
2363.000000;0.449892
2362.000000;0.450115
2361.000000;0.450141
2360.000000;0.449997
2359.000000;0.449918
2358.000000;0.450097
2357.000000;0.450445
2356.000000;0.450672
2355.000000;0.450656
2354.000000;0.450480
2353.000000;0.450284
2352.000000;0.450146
2351.000000;0.450116
2350.000000;0.450227
2349.000000;0.450321
2348.000000;0.450226
2347.000000;0.449932
2346.000000;0.449598
2345.000000;0.449474
2344.000000;0.449681
2343.000000;0.450194
2342.000000;0.450729
2341.000000;0.450974
2340.000000;0.450870
2339.000000;0.450609
2338.000000;0.450448
2337.000000;0.450401
2336.000000;0.450328
2335.000000;0.450202
2334.000000;0.450188
2333.000000;0.450389
2332.000000;0.450698
2331.000000;0.450929
2330.000000;0.451044
2329.000000;0.451048
2328.000000;0.450970
2327.000000;0.450846
2326.000000;0.450728
2325.000000;0.450651
2324.000000;0.450489
2323.000000;0.450197
2322.000000;0.449843
2321.000000;0.449631
2320.000000;0.449662
2319.000000;0.449856
2318.000000;0.450099
2317.000000;0.450323
2316.000000;0.450562
2315.000000;0.450820
2314.000000;0.451087
2313.000000;0.451310
2312.000000;0.451432
2311.000000;0.451412
2310.000000;0.451281
2309.000000;0.451168
2308.000000;0.451183
2307.000000;0.451312
2306.000000;0.451392
2305.000000;0.451297
2304.000000;0.451061
2303.000000;0.450847
2302.000000;0.450759
2301.000000;0.450745
2300.000000;0.450669
2299.000000;0.450489
2298.000000;0.450344
2297.000000;0.450442
2296.000000;0.450825
2295.000000;0.451267
2294.000000;0.451437
2293.000000;0.451232
2292.000000;0.450862
2291.000000;0.450632
2290.000000;0.450641
2289.000000;0.450777
2288.000000;0.450888
2287.000000;0.450926
2286.000000;0.450929
2285.000000;0.450964
2284.000000;0.451073
2283.000000;0.451214
2282.000000;0.451271
2281.000000;0.451182
2280.000000;0.451053
2279.000000;0.451058
2278.000000;0.451237
2277.000000;0.451467
2276.000000;0.451618
2275.000000;0.451677
2274.000000;0.451703
2273.000000;0.451737
2272.000000;0.451822
2271.000000;0.452018
2270.000000;0.452349
2269.000000;0.452730
2268.000000;0.452976
2267.000000;0.452903
2266.000000;0.452452
2265.000000;0.451772
2264.000000;0.451153
2263.000000;0.450813
2262.000000;0.450750
2261.000000;0.450847
2260.000000;0.451052
2259.000000;0.451359
2258.000000;0.451659
2257.000000;0.451772
2256.000000;0.451663
2255.000000;0.451491
2254.000000;0.451409
2253.000000;0.451415
2252.000000;0.451439
2251.000000;0.451472
2250.000000;0.451529
2249.000000;0.451585
2248.000000;0.451624
2247.000000;0.451665
2246.000000;0.451697
2245.000000;0.451671
2244.000000;0.451611
2243.000000;0.451642
2242.000000;0.451817
2241.000000;0.452010
2240.000000;0.452061
2239.000000;0.451945
2238.000000;0.451738
2237.000000;0.451508
2236.000000;0.451342
2235.000000;0.451370
2234.000000;0.451623
2233.000000;0.451921
2232.000000;0.452043
2231.000000;0.451987
2230.000000;0.451937
2229.000000;0.451990
2228.000000;0.452049
2227.000000;0.451991
2226.000000;0.451834
2225.000000;0.451708
2224.000000;0.451735
2223.000000;0.451952
2222.000000;0.452262
2221.000000;0.452465
2220.000000;0.452428
2219.000000;0.452236
2218.000000;0.452122
2217.000000;0.452222
2216.000000;0.452466
2215.000000;0.452688
2214.000000;0.452774
2213.000000;0.452674
2212.000000;0.452392
2211.000000;0.451999
2210.000000;0.451639
2209.000000;0.451448
2208.000000;0.451461
2207.000000;0.451611
2206.000000;0.451821
2205.000000;0.452082
2204.000000;0.452439
2203.000000;0.452874
2202.000000;0.453246
2201.000000;0.453424
2200.000000;0.453442
2199.000000;0.453443
2198.000000;0.453431
2197.000000;0.453250
2196.000000;0.452852
2195.000000;0.452459
2194.000000;0.452312
2193.000000;0.452362
2192.000000;0.452361
2191.000000;0.452213
2190.000000;0.452059
2189.000000;0.452019
2188.000000;0.452029
2187.000000;0.451987
2186.000000;0.451946
2185.000000;0.452089
2184.000000;0.452529
2183.000000;0.453150
2182.000000;0.453632
2181.000000;0.453682
2180.000000;0.453322
2179.000000;0.452899
2178.000000;0.452730
2177.000000;0.452788
2176.000000;0.452850
2175.000000;0.452870
2174.000000;0.453011
2173.000000;0.453324
2172.000000;0.453600
2171.000000;0.453639
2170.000000;0.453482
2169.000000;0.453287
2168.000000;0.453142
2167.000000;0.453077
2166.000000;0.453150
2165.000000;0.453356
2164.000000;0.453545
2163.000000;0.453601
2162.000000;0.453616
2161.000000;0.453761
2160.000000;0.453991
2159.000000;0.454073
2158.000000;0.453911
2157.000000;0.453693
2156.000000;0.453651
2155.000000;0.453797
2154.000000;0.453975
2153.000000;0.454084
2152.000000;0.454148
2151.000000;0.454190
2150.000000;0.454152
2149.000000;0.453983
2148.000000;0.453729
2147.000000;0.453489
2146.000000;0.453327
2145.000000;0.453253
2144.000000;0.453267
2143.000000;0.453336
2142.000000;0.453370
2141.000000;0.453294
2140.000000;0.453181
2139.000000;0.453222
2138.000000;0.453495
2137.000000;0.453796
2136.000000;0.453823
2135.000000;0.453510
2134.000000;0.453110
2133.000000;0.452939
2132.000000;0.453063
2131.000000;0.453260
2130.000000;0.453271
2129.000000;0.453086
2128.000000;0.452966
2127.000000;0.453167
2126.000000;0.453612
2125.000000;0.453938
2124.000000;0.453894
2123.000000;0.453624
2122.000000;0.453476
2121.000000;0.453590
2120.000000;0.453812
2119.000000;0.453961
2118.000000;0.454023
2117.000000;0.454078
2116.000000;0.454191
2115.000000;0.454421
2114.000000;0.454789
2113.000000;0.455157
2112.000000;0.455280
2111.000000;0.455075
2110.000000;0.454746
2109.000000;0.454538
2108.000000;0.454460
2107.000000;0.454373
2106.000000;0.454267
2105.000000;0.454287
2104.000000;0.454487
2103.000000;0.454700
2102.000000;0.454716
2101.000000;0.454507
2100.000000;0.454231
2099.000000;0.454061
2098.000000;0.454039
2097.000000;0.454078
2096.000000;0.454072
2095.000000;0.454009
2094.000000;0.453950
2093.000000;0.453926
2092.000000;0.453895
2091.000000;0.453849
2090.000000;0.453882
2089.000000;0.454077
2088.000000;0.454381
2087.000000;0.454663
2086.000000;0.454876
2085.000000;0.455076
2084.000000;0.455282
2083.000000;0.455397
2082.000000;0.455316
2081.000000;0.455060
2080.000000;0.454796
2079.000000;0.454747
2078.000000;0.455038
2077.000000;0.455557
2076.000000;0.455969
2075.000000;0.455982
2074.000000;0.455633
2073.000000;0.455236
2072.000000;0.455056
2071.000000;0.455078
2070.000000;0.455125
2069.000000;0.455078
2068.000000;0.454951
2067.000000;0.454826
2066.000000;0.454795
2065.000000;0.454902
2064.000000;0.455084
2063.000000;0.455195
2062.000000;0.455159
2061.000000;0.455047
2060.000000;0.454964
2059.000000;0.454912
2058.000000;0.454820
2057.000000;0.454664
2056.000000;0.454488
2055.000000;0.454346
2054.000000;0.454288
2053.000000;0.454362
2052.000000;0.454540
2051.000000;0.454696
2050.000000;0.454730
2049.000000;0.454718
2048.000000;0.454811
2047.000000;0.455012
2046.000000;0.455148
2045.000000;0.455093
2044.000000;0.454921
2043.000000;0.454803
2042.000000;0.454843
2041.000000;0.455037
2040.000000;0.455298
2039.000000;0.455483
2038.000000;0.455467
2037.000000;0.455290
2036.000000;0.455137
2035.000000;0.455156
2034.000000;0.455318
2033.000000;0.455521
2032.000000;0.455723
2031.000000;0.455901
2030.000000;0.455979
2029.000000;0.455919
2028.000000;0.455837
2027.000000;0.455884
2026.000000;0.456037
2025.000000;0.456124
2024.000000;0.456073
2023.000000;0.456006
2022.000000;0.456054
2021.000000;0.456174
2020.000000;0.456200
2019.000000;0.456035
2018.000000;0.455735
2017.000000;0.455448
2016.000000;0.455300
2015.000000;0.455314
2014.000000;0.455414
2013.000000;0.455526
2012.000000;0.455648
2011.000000;0.455807
2010.000000;0.455956
2009.000000;0.456010
2008.000000;0.455982
2007.000000;0.456004
2006.000000;0.456165
2005.000000;0.456385
2004.000000;0.456505
2003.000000;0.456467
2002.000000;0.456346
2001.000000;0.456239
2000.000000;0.456167
1999.000000;0.456081
1998.000000;0.455926
1997.000000;0.455698
1996.000000;0.455487
1995.000000;0.455439
1994.000000;0.455634
1993.000000;0.455993
1992.000000;0.456318
1991.000000;0.456438
1990.000000;0.456330
1989.000000;0.456107
1988.000000;0.455897
1987.000000;0.455744
1986.000000;0.455635
1985.000000;0.455621
1984.000000;0.455854
1983.000000;0.456413
1982.000000;0.457123
1981.000000;0.457621
1980.000000;0.457658
1979.000000;0.457308
1978.000000;0.456848
1977.000000;0.456500
1976.000000;0.456330
1975.000000;0.456315
1974.000000;0.456420
1973.000000;0.456600
1972.000000;0.456800
1971.000000;0.456976
1970.000000;0.457098
1969.000000;0.457143
1968.000000;0.457110
1967.000000;0.457042
1966.000000;0.456998
1965.000000;0.457002
1964.000000;0.457023
1963.000000;0.457007
1962.000000;0.456904
1961.000000;0.456700
1960.000000;0.456452
1959.000000;0.456289
1958.000000;0.456318
1957.000000;0.456529
1956.000000;0.456817
1955.000000;0.457107
1954.000000;0.457389
1953.000000;0.457618
1952.000000;0.457655
1951.000000;0.457399
1950.000000;0.456956
1949.000000;0.456592
1948.000000;0.456500
1947.000000;0.456665
1946.000000;0.456963
1945.000000;0.457285
1944.000000;0.457532
1943.000000;0.457579
1942.000000;0.457371
1941.000000;0.457030
1940.000000;0.456746
1939.000000;0.456563
1938.000000;0.456399
1937.000000;0.456267
1936.000000;0.456330
1935.000000;0.456649
1934.000000;0.457015
1933.000000;0.457170
1932.000000;0.457115
1931.000000;0.457067
1930.000000;0.457136
1929.000000;0.457214
1928.000000;0.457201
1927.000000;0.457184
1926.000000;0.457331
1925.000000;0.457660
1924.000000;0.458005
1923.000000;0.458179
1922.000000;0.458123
1921.000000;0.457915
1920.000000;0.457685
1919.000000;0.457533
1918.000000;0.457484
1917.000000;0.457488
1916.000000;0.457441
1915.000000;0.457271
1914.000000;0.457046
1913.000000;0.456971
1912.000000;0.457177
1911.000000;0.457521
1910.000000;0.457717
1909.000000;0.457706
1908.000000;0.457749
1907.000000;0.458066
1906.000000;0.458484
1905.000000;0.458618
1904.000000;0.458367
1903.000000;0.458034
1902.000000;0.457940
1901.000000;0.458069
1900.000000;0.458156
1899.000000;0.458043
1898.000000;0.457840
1897.000000;0.457767
1896.000000;0.457898
1895.000000;0.458104
1894.000000;0.458244
1893.000000;0.458367
1892.000000;0.458621
1891.000000;0.458952
1890.000000;0.459035
1889.000000;0.458648
1888.000000;0.458018
1887.000000;0.457631
1886.000000;0.457691
1885.000000;0.457920
1884.000000;0.457949
1883.000000;0.457785
1882.000000;0.457789
1881.000000;0.458238
1880.000000;0.458975
1879.000000;0.459537
1878.000000;0.459615
1877.000000;0.459340
1876.000000;0.459041
1875.000000;0.458800
1874.000000;0.458413
1873.000000;0.457826
1872.000000;0.457387
1871.000000;0.457473
1870.000000;0.458002
1869.000000;0.458531
1868.000000;0.458766
1867.000000;0.458786
1866.000000;0.458784
1865.000000;0.458788
1864.000000;0.458693
1863.000000;0.458439
1862.000000;0.458110
1861.000000;0.457911
1860.000000;0.457995
1859.000000;0.458273
1858.000000;0.458479
1857.000000;0.458532
1856.000000;0.458654
1855.000000;0.458981
1854.000000;0.459255
1853.000000;0.459174
1852.000000;0.458862
1851.000000;0.458690
1850.000000;0.458725
1849.000000;0.458732
1848.000000;0.458660
1847.000000;0.458700
1846.000000;0.458878
1845.000000;0.458994
1844.000000;0.459008
1843.000000;0.459094
1842.000000;0.459246
1841.000000;0.459266
1840.000000;0.459197
1839.000000;0.459286
1838.000000;0.459416
1837.000000;0.459169
1836.000000;0.458644
1835.000000;0.458557
1834.000000;0.459160
1833.000000;0.459679
1832.000000;0.459349
1831.000000;0.458506
1830.000000;0.457946
1829.000000;0.457702
1828.000000;0.457287
1827.000000;0.456814
1826.000000;0.456963
1825.000000;0.457819
1824.000000;0.458607
1823.000000;0.458775
1822.000000;0.458652
1821.000000;0.458777
1820.000000;0.459161
1819.000000;0.459515
1818.000000;0.459718
1817.000000;0.459753
1816.000000;0.459574
1815.000000;0.459312
1814.000000;0.459288
1813.000000;0.459525
1812.000000;0.459601
1811.000000;0.459269
1810.000000;0.458877
1809.000000;0.458876
1808.000000;0.459203
1807.000000;0.459485
1806.000000;0.459600
1805.000000;0.459664
1804.000000;0.459653
1803.000000;0.459455
1802.000000;0.459196
1801.000000;0.459133
1800.000000;0.459263
1799.000000;0.459345
1798.000000;0.459295
1797.000000;0.459289
1796.000000;0.459441
1795.000000;0.459658
1794.000000;0.459829
1793.000000;0.459936
1792.000000;0.459975
1791.000000;0.459938
1790.000000;0.459894
1789.000000;0.459930
1788.000000;0.459991
1787.000000;0.459969
1786.000000;0.459925
1785.000000;0.460039
1784.000000;0.460319
1783.000000;0.460546
1782.000000;0.460575
1781.000000;0.460492
1780.000000;0.460433
1779.000000;0.460412
1778.000000;0.460402
1777.000000;0.460443
1776.000000;0.460549
1775.000000;0.460626
1774.000000;0.460598
1773.000000;0.460511
1772.000000;0.460429
1771.000000;0.460302
1770.000000;0.460082
1769.000000;0.459889
1768.000000;0.459921
1767.000000;0.460165
1766.000000;0.460376
1765.000000;0.460386
1764.000000;0.460322
1763.000000;0.460400
1762.000000;0.460629
1761.000000;0.460829
1760.000000;0.460897
1759.000000;0.460894
1758.000000;0.460887
1757.000000;0.460866
1756.000000;0.460821
1755.000000;0.460775
1754.000000;0.460702
1753.000000;0.460551
1752.000000;0.460385
1751.000000;0.460350
1750.000000;0.460436
1749.000000;0.460460
1748.000000;0.460380
1747.000000;0.460429
1746.000000;0.460798
1745.000000;0.461291
1744.000000;0.461525
1743.000000;0.461374
1742.000000;0.461023
1741.000000;0.460689
1740.000000;0.460474
1739.000000;0.460416
1738.000000;0.460466
1737.000000;0.460469
1736.000000;0.460327
1735.000000;0.460178
1734.000000;0.460199
1733.000000;0.460292
1732.000000;0.460225
1731.000000;0.460014
1730.000000;0.459912
1729.000000;0.460042
1728.000000;0.460257
1727.000000;0.460425
1726.000000;0.460544
1725.000000;0.460559
1724.000000;0.460371
1723.000000;0.460112
1722.000000;0.460121
1721.000000;0.460521
1720.000000;0.461059
1719.000000;0.461494
1718.000000;0.461866
1717.000000;0.462214
1716.000000;0.462363
1715.000000;0.462210
1714.000000;0.461989
1713.000000;0.461968
1712.000000;0.462081
1711.000000;0.462114
1710.000000;0.462081
1709.000000;0.462102
1708.000000;0.462067
1707.000000;0.461795
1706.000000;0.461394
1705.000000;0.461125
1704.000000;0.460996
1703.000000;0.460837
1702.000000;0.460705
1701.000000;0.460857
1700.000000;0.461289
1699.000000;0.461688
1698.000000;0.461875
1697.000000;0.461926
1696.000000;0.461851
1695.000000;0.461537
1694.000000;0.461121
1693.000000;0.461021
1692.000000;0.461370
1691.000000;0.461768
1690.000000;0.461789
1689.000000;0.461501
1688.000000;0.461265
1687.000000;0.461258
1686.000000;0.461400
1685.000000;0.461570
1684.000000;0.461632
1683.000000;0.461412
1682.000000;0.460925
1681.000000;0.460456
1680.000000;0.460265
1679.000000;0.460319
1678.000000;0.460447
1677.000000;0.460666
1676.000000;0.461101
1675.000000;0.461654
1674.000000;0.462052
1673.000000;0.462231
1672.000000;0.462385
1671.000000;0.462593
1670.000000;0.462653
1669.000000;0.462417
1668.000000;0.462054
1667.000000;0.461814
1666.000000;0.461723
1665.000000;0.461661
1664.000000;0.461637
1663.000000;0.461749
1662.000000;0.461956
1661.000000;0.462085
1660.000000;0.462065
1659.000000;0.462018
1658.000000;0.462067
1657.000000;0.462153
1656.000000;0.462130
1655.000000;0.461992
1654.000000;0.461924
1653.000000;0.462105
1652.000000;0.462459
1651.000000;0.462729
1650.000000;0.462737
1649.000000;0.462572
1648.000000;0.462472
1647.000000;0.462506
1646.000000;0.462519
1645.000000;0.462413
1644.000000;0.462300
1643.000000;0.462294
1642.000000;0.462347
1641.000000;0.462380
1640.000000;0.462454
1639.000000;0.462666
1638.000000;0.462932
1637.000000;0.463085
1636.000000;0.463114
1635.000000;0.463153
1634.000000;0.463254
1633.000000;0.463331
1632.000000;0.463314
1631.000000;0.463221
1630.000000;0.463075
1629.000000;0.462879
1628.000000;0.462703
1627.000000;0.462637
1626.000000;0.462675
1625.000000;0.462738
1624.000000;0.462815
1623.000000;0.462930
1622.000000;0.463006
1621.000000;0.462957
1620.000000;0.462884
1619.000000;0.462968
1618.000000;0.463145
1617.000000;0.463135
1616.000000;0.462859
1615.000000;0.462594
1614.000000;0.462574
1613.000000;0.462690
1612.000000;0.462756
1611.000000;0.462827
1610.000000;0.463026
1609.000000;0.463271
1608.000000;0.463401
1607.000000;0.463423
1606.000000;0.463403
1605.000000;0.463275
1604.000000;0.462975
1603.000000;0.462662
1602.000000;0.462535
1601.000000;0.462583
1600.000000;0.462718
1599.000000;0.462992
1598.000000;0.463397
1597.000000;0.463637
1596.000000;0.463446
1595.000000;0.463028
1594.000000;0.462823
1593.000000;0.462918
1592.000000;0.463047
1591.000000;0.463131
1590.000000;0.463385
1589.000000;0.463846
1588.000000;0.464207
1587.000000;0.464242
1586.000000;0.464067
1585.000000;0.463836
1584.000000;0.463506
1583.000000;0.463102
1582.000000;0.462884
1581.000000;0.463044
1580.000000;0.463465
1579.000000;0.463934
1578.000000;0.464342
1577.000000;0.464550
1576.000000;0.464367
1575.000000;0.463859
1574.000000;0.463428
1573.000000;0.463329
1572.000000;0.463347
1571.000000;0.463215
1570.000000;0.463043
1569.000000;0.463057
1568.000000;0.463149
1567.000000;0.463052
1566.000000;0.462787
1565.000000;0.462610
1564.000000;0.462615
1563.000000;0.462720
1562.000000;0.462938
1561.000000;0.463312
1560.000000;0.463659
1559.000000;0.463750
1558.000000;0.463677
1557.000000;0.463770
1556.000000;0.464070
1555.000000;0.464226
1554.000000;0.464057
1553.000000;0.463818
1552.000000;0.463804
1551.000000;0.463976
1550.000000;0.464124
1549.000000;0.464195
1548.000000;0.464230
1547.000000;0.464194
1546.000000;0.464057
1545.000000;0.463916
1544.000000;0.463842
1543.000000;0.463728
1542.000000;0.463457
1541.000000;0.463142
1540.000000;0.463012
1539.000000;0.463108
1538.000000;0.463310
1537.000000;0.463534
1536.000000;0.463737
1535.000000;0.463827
1534.000000;0.463748
1533.000000;0.463626
1532.000000;0.463660
1531.000000;0.463847
1530.000000;0.463982
1529.000000;0.463963
1528.000000;0.463924
1527.000000;0.463986
1526.000000;0.464076
1525.000000;0.464070
1524.000000;0.464004
1523.000000;0.464009
1522.000000;0.464113
1521.000000;0.464212
1520.000000;0.464255
1519.000000;0.464309
1518.000000;0.464433
1517.000000;0.464565
1516.000000;0.464588
1515.000000;0.464468
1514.000000;0.464302
1513.000000;0.464215
1512.000000;0.464214
1511.000000;0.464170
1510.000000;0.463978
1509.000000;0.463711
1508.000000;0.463544
1507.000000;0.463533
1506.000000;0.463559
1505.000000;0.463556
1504.000000;0.463640
1503.000000;0.463923
1502.000000;0.464318
1501.000000;0.464635
1500.000000;0.464830
1499.000000;0.464995
1498.000000;0.465121
1497.000000;0.465049
1496.000000;0.464707
1495.000000;0.464253
1494.000000;0.463945
1493.000000;0.463927
1492.000000;0.464167
1491.000000;0.464528
1490.000000;0.464850
1489.000000;0.465048
1488.000000;0.465175
1487.000000;0.465319
1486.000000;0.465437
1485.000000;0.465390
1484.000000;0.465139
1483.000000;0.464832
1482.000000;0.464601
1481.000000;0.464408
1480.000000;0.464200
1479.000000;0.464094
1478.000000;0.464257
1477.000000;0.464649
1476.000000;0.465026
1475.000000;0.465191
1474.000000;0.465132
1473.000000;0.464948
1472.000000;0.464754
1471.000000;0.464661
1470.000000;0.464728
1469.000000;0.464900
1468.000000;0.465050
1467.000000;0.465077
1466.000000;0.464938
1465.000000;0.464672
1464.000000;0.464462
1463.000000;0.464577
1462.000000;0.465059
1461.000000;0.465561
1460.000000;0.465649
1459.000000;0.465265
1458.000000;0.464725
1457.000000;0.464320
1456.000000;0.464099
1455.000000;0.464047
1454.000000;0.464228
1453.000000;0.464647
1452.000000;0.465153
1451.000000;0.465572
1450.000000;0.465831
1449.000000;0.465892
1448.000000;0.465697
1447.000000;0.465305
1446.000000;0.464955
1445.000000;0.464858
1444.000000;0.465000
1443.000000;0.465224
1442.000000;0.465403
1441.000000;0.465492
1440.000000;0.465497
1439.000000;0.465485
1438.000000;0.465527
1437.000000;0.465599
1436.000000;0.465593
1435.000000;0.465487
1434.000000;0.465412
1433.000000;0.465494
1432.000000;0.465680
1431.000000;0.465812
1430.000000;0.465799
1429.000000;0.465661
1428.000000;0.465477
1427.000000;0.465358
1426.000000;0.465384
1425.000000;0.465476
1424.000000;0.465435
1423.000000;0.465214
1422.000000;0.465047
1421.000000;0.465185
1420.000000;0.465565
1419.000000;0.465906
1418.000000;0.466038
1417.000000;0.466010
1416.000000;0.465910
1415.000000;0.465758
1414.000000;0.465608
1413.000000;0.465579
1412.000000;0.465702
1411.000000;0.465850
1410.000000;0.465893
1409.000000;0.465877
1408.000000;0.465938
1407.000000;0.466079
1406.000000;0.466144
1405.000000;0.466032
1404.000000;0.465866
1403.000000;0.465873
1402.000000;0.466111
1401.000000;0.466363
1400.000000;0.466369
1399.000000;0.466102
1398.000000;0.465778
1397.000000;0.465605
1396.000000;0.465596
1395.000000;0.465624
1394.000000;0.465583
1393.000000;0.465469
1392.000000;0.465374
1391.000000;0.465431
1390.000000;0.465698
1389.000000;0.466097
1388.000000;0.466495
1387.000000;0.466812
1386.000000;0.466997
1385.000000;0.466955
1384.000000;0.466657
1383.000000;0.466308
1382.000000;0.466212
1381.000000;0.466417
1380.000000;0.466639
1379.000000;0.466618
1378.000000;0.466406
1377.000000;0.466214
1376.000000;0.466125
1375.000000;0.466113
1374.000000;0.466200
1373.000000;0.466413
1372.000000;0.466638
1371.000000;0.466709
1370.000000;0.466631
1369.000000;0.466554
1368.000000;0.466532
1367.000000;0.466462
1366.000000;0.466284
1365.000000;0.466100
1364.000000;0.466059
1363.000000;0.466186
1362.000000;0.466370
1361.000000;0.466468
1360.000000;0.466413
1359.000000;0.466286
1358.000000;0.466273
1357.000000;0.466493
1356.000000;0.466847
1355.000000;0.467074
1354.000000;0.466973
1353.000000;0.466569
1352.000000;0.466107
1351.000000;0.465861
1350.000000;0.465894
1349.000000;0.465953
1348.000000;0.465751
1347.000000;0.465402
1346.000000;0.465395
1345.000000;0.465973
1344.000000;0.466701
1343.000000;0.466906
1342.000000;0.466502
1341.000000;0.466079
1340.000000;0.466101
1339.000000;0.466359
1338.000000;0.466371
1337.000000;0.466096
1336.000000;0.465943
1335.000000;0.466175
1334.000000;0.466599
1333.000000;0.466909
1332.000000;0.467079
1331.000000;0.467253
1330.000000;0.467389
1329.000000;0.467244
1328.000000;0.466720
1327.000000;0.466077
1326.000000;0.465718
1325.000000;0.465829
1324.000000;0.466240
1323.000000;0.466603
1322.000000;0.466673
1321.000000;0.466486
1320.000000;0.466278
1319.000000;0.466221
1318.000000;0.466216
1317.000000;0.466081
1316.000000;0.465934
1315.000000;0.466200
1314.000000;0.467055
1313.000000;0.468010
1312.000000;0.468349
1311.000000;0.467942
1310.000000;0.467353
1309.000000;0.467112
1308.000000;0.467210
1307.000000;0.467382
1306.000000;0.467572
1305.000000;0.467838
1304.000000;0.468012
1303.000000;0.467826
1302.000000;0.467321
1301.000000;0.466865
1300.000000;0.466726
1299.000000;0.466834
1298.000000;0.466997
1297.000000;0.467145
1296.000000;0.467295
1295.000000;0.467427
1294.000000;0.467466
1293.000000;0.467348
1292.000000;0.467065
1291.000000;0.466712
1290.000000;0.466468
1289.000000;0.466448
1288.000000;0.466593
1287.000000;0.466788
1286.000000;0.467038
1285.000000;0.467403
1284.000000;0.467796
1283.000000;0.468005
1282.000000;0.467947
1281.000000;0.467772
1280.000000;0.467676
1279.000000;0.467721
1278.000000;0.467841
1277.000000;0.467901
1276.000000;0.467760
1275.000000;0.467397
1274.000000;0.467029
1273.000000;0.466934
1272.000000;0.467136
1271.000000;0.467393
1270.000000;0.467521
1269.000000;0.467594
1268.000000;0.467743
1267.000000;0.467918
1266.000000;0.467988
1265.000000;0.467948
1264.000000;0.467895
1263.000000;0.467879
1262.000000;0.467881
1261.000000;0.467902
1260.000000;0.467958
1259.000000;0.468029
1258.000000;0.468089
1257.000000;0.468160
1256.000000;0.468260
1255.000000;0.468342
1254.000000;0.468348
1253.000000;0.468272
1252.000000;0.468122
1251.000000;0.467876
1250.000000;0.467575
1249.000000;0.467380
1248.000000;0.467433
1247.000000;0.467677
1246.000000;0.467929
1245.000000;0.468103
1244.000000;0.468242
1243.000000;0.468355
1242.000000;0.468362
1241.000000;0.468245
1240.000000;0.468126
1239.000000;0.468111
1238.000000;0.468127
1237.000000;0.468018
1236.000000;0.467776
1235.000000;0.467580
1234.000000;0.467602
1233.000000;0.467809
1232.000000;0.467987
1231.000000;0.467965
1230.000000;0.467801
1229.000000;0.467738
1228.000000;0.467977
1227.000000;0.468457
1226.000000;0.468887
1225.000000;0.469000
1224.000000;0.468774
1223.000000;0.468403
1222.000000;0.468091
1221.000000;0.467902
1220.000000;0.467805
1219.000000;0.467803
1218.000000;0.467945
1217.000000;0.468245
1216.000000;0.468612
1215.000000;0.468885
1214.000000;0.468926
1213.000000;0.468706
1212.000000;0.468341
1211.000000;0.468045
1210.000000;0.467995
1209.000000;0.468200
1208.000000;0.468511
1207.000000;0.468763
1206.000000;0.468888
1205.000000;0.468908
1204.000000;0.468866
1203.000000;0.468806
1202.000000;0.468772
1201.000000;0.468789
1200.000000;0.468846
