Criado como novo conjunto de dados;"e2410_daniel_v2.spp","46264.5 Secs"
cm-1;Abs
10000.000000;0.836653
9999.000000;0.836125
9998.000000;0.835444
9997.000000;0.834753
9996.000000;0.834094
9995.000000;0.833382
9994.000000;0.832749
9993.000000;0.832372
9992.000000;0.832112
9991.000000;0.831649
9990.000000;0.831000
9989.000000;0.830451
9988.000000;0.830024
9987.000000;0.829475
9986.000000;0.828843
9985.000000;0.828462
9984.000000;0.828359
9983.000000;0.828112
9982.000000;0.827451
9981.000000;0.826576
9980.000000;0.825719
9979.000000;0.824809
9978.000000;0.823798
9977.000000;0.822946
9976.000000;0.822545
9975.000000;0.822550
9974.000000;0.822667
9973.000000;0.822629
9972.000000;0.822316
9971.000000;0.821795
9970.000000;0.821316
9969.000000;0.821107
9968.000000;0.821136
9967.000000;0.821207
9966.000000;0.821179
9965.000000;0.820950
9964.000000;0.820381
9963.000000;0.819536
9962.000000;0.818816
9961.000000;0.818528
9960.000000;0.818436
9959.000000;0.818085
9958.000000;0.817415
9957.000000;0.816676
9956.000000;0.815883
9955.000000;0.814857
9954.000000;0.813728
9953.000000;0.812903
9952.000000;0.812489
9951.000000;0.812148
9950.000000;0.811583
9949.000000;0.810848
9948.000000;0.810139
9947.000000;0.809615
9946.000000;0.809415
9945.000000;0.809535
9944.000000;0.809678
9943.000000;0.809539
9942.000000;0.809154
9941.000000;0.808692
9940.000000;0.808068
9939.000000;0.807134
9938.000000;0.806107
9937.000000;0.805355
9936.000000;0.804852
9935.000000;0.804304
9934.000000;0.803695
9933.000000;0.803258
9932.000000;0.802964
9931.000000;0.802550
9930.000000;0.801989
9929.000000;0.801469
9928.000000;0.800940
9927.000000;0.800216
9926.000000;0.799491
9925.000000;0.799188
9924.000000;0.799228
9923.000000;0.798999
9922.000000;0.798182
9921.000000;0.797113
9920.000000;0.796201
9919.000000;0.795457
9918.000000;0.794779
9917.000000;0.794277
9916.000000;0.794091
9915.000000;0.794164
9914.000000;0.794298
9913.000000;0.794232
9912.000000;0.793682
9911.000000;0.792621
9910.000000;0.791525
9909.000000;0.790990
9908.000000;0.791063
9907.000000;0.791255
9906.000000;0.791159
9905.000000;0.790735
9904.000000;0.790051
9903.000000;0.789201
9902.000000;0.788464
9901.000000;0.788089
9900.000000;0.787862
9899.000000;0.787290
9898.000000;0.786273
9897.000000;0.785208
9896.000000;0.784386
9895.000000;0.783693
9894.000000;0.782983
9893.000000;0.782373
9892.000000;0.782018
9891.000000;0.781886
9890.000000;0.781818
9889.000000;0.781595
9888.000000;0.780972
9887.000000;0.779936
9886.000000;0.778883
9885.000000;0.778247
9884.000000;0.777981
9883.000000;0.777710
9882.000000;0.777267
9881.000000;0.776777
9880.000000;0.776296
9879.000000;0.775780
9878.000000;0.775320
9877.000000;0.775040
9876.000000;0.774831
9875.000000;0.774565
9874.000000;0.774458
9873.000000;0.774753
9872.000000;0.775143
9871.000000;0.774990
9870.000000;0.774111
9869.000000;0.772903
9868.000000;0.771736
9867.000000;0.770693
9866.000000;0.769848
9865.000000;0.769287
9864.000000;0.768831
9863.000000;0.768208
9862.000000;0.767546
9861.000000;0.767234
9860.000000;0.767277
9859.000000;0.767222
9858.000000;0.766776
9857.000000;0.766051
9856.000000;0.765189
9855.000000;0.764214
9854.000000;0.763278
9853.000000;0.762620
9852.000000;0.762189
9851.000000;0.761718
9850.000000;0.761174
9849.000000;0.760747
9848.000000;0.760395
9847.000000;0.759867
9846.000000;0.759169
9845.000000;0.758559
9844.000000;0.758071
9843.000000;0.757494
9842.000000;0.756874
9841.000000;0.756517
9840.000000;0.756439
9839.000000;0.756310
9838.000000;0.756014
9837.000000;0.755786
9836.000000;0.755675
9835.000000;0.755387
9834.000000;0.754842
9833.000000;0.754379
9832.000000;0.754189
9831.000000;0.753967
9830.000000;0.753340
9829.000000;0.752337
9828.000000;0.751238
9827.000000;0.750265
9826.000000;0.749571
9825.000000;0.749251
9824.000000;0.749195
9823.000000;0.749157
9822.000000;0.749026
9821.000000;0.748816
9820.000000;0.748435
9819.000000;0.747794
9818.000000;0.747123
9817.000000;0.746773
9816.000000;0.746705
9815.000000;0.746529
9814.000000;0.746074
9813.000000;0.745506
9812.000000;0.744899
9811.000000;0.744104
9810.000000;0.743152
9809.000000;0.742350
9808.000000;0.741866
9807.000000;0.741559
9806.000000;0.741303
9805.000000;0.741143
9804.000000;0.741029
9803.000000;0.740751
9802.000000;0.740245
9801.000000;0.739666
9800.000000;0.739080
9799.000000;0.738374
9798.000000;0.737509
9797.000000;0.736594
9796.000000;0.735695
9795.000000;0.734868
9794.000000;0.734347
9793.000000;0.734340
9792.000000;0.734632
9791.000000;0.734723
9790.000000;0.734393
9789.000000;0.733819
9788.000000;0.733183
9787.000000;0.732539
9786.000000;0.732020
9785.000000;0.731761
9784.000000;0.731583
9783.000000;0.731158
9782.000000;0.730510
9781.000000;0.729965
9780.000000;0.729609
9779.000000;0.729215
9778.000000;0.728723
9777.000000;0.728349
9776.000000;0.728115
9775.000000;0.727705
9774.000000;0.726929
9773.000000;0.725991
9772.000000;0.725199
9771.000000;0.724683
9770.000000;0.724446
9769.000000;0.724351
9768.000000;0.724048
9767.000000;0.723258
9766.000000;0.722185
9765.000000;0.721323
9764.000000;0.720862
9763.000000;0.720605
9762.000000;0.720395
9761.000000;0.720210
9760.000000;0.719877
9759.000000;0.719169
9758.000000;0.718242
9757.000000;0.717561
9756.000000;0.717296
9755.000000;0.717140
9754.000000;0.716793
9753.000000;0.716256
9752.000000;0.715652
9751.000000;0.715113
9750.000000;0.714870
9749.000000;0.715035
9748.000000;0.715232
9747.000000;0.714873
9746.000000;0.713885
9745.000000;0.712752
9744.000000;0.711821
9743.000000;0.711020
9742.000000;0.710298
9741.000000;0.709851
9740.000000;0.709714
9739.000000;0.709573
9738.000000;0.709187
9737.000000;0.708678
9736.000000;0.708236
9735.000000;0.707863
9734.000000;0.707520
9733.000000;0.707229
9732.000000;0.706883
9731.000000;0.706281
9730.000000;0.705460
9729.000000;0.704715
9728.000000;0.704205
9727.000000;0.703819
9726.000000;0.703503
9725.000000;0.703361
9724.000000;0.703339
9723.000000;0.703151
9722.000000;0.702664
9721.000000;0.702068
9720.000000;0.701550
9719.000000;0.701082
9718.000000;0.700634
9717.000000;0.700295
9716.000000;0.700075
9715.000000;0.699825
9714.000000;0.699458
9713.000000;0.699025
9712.000000;0.698534
9711.000000;0.697927
9710.000000;0.697289
9709.000000;0.696792
9708.000000;0.696390
9707.000000;0.695832
9706.000000;0.695031
9705.000000;0.694183
9704.000000;0.693498
9703.000000;0.693040
9702.000000;0.692817
9701.000000;0.692779
9700.000000;0.692711
9699.000000;0.692422
9698.000000;0.692027
9697.000000;0.691786
9696.000000;0.691661
9695.000000;0.691315
9694.000000;0.690546
9693.000000;0.689477
9692.000000;0.688367
9691.000000;0.687496
9690.000000;0.687142
9689.000000;0.687340
9688.000000;0.687687
9687.000000;0.687703
9686.000000;0.687362
9685.000000;0.686966
9684.000000;0.686620
9683.000000;0.686163
9682.000000;0.685555
9681.000000;0.684908
9680.000000;0.684215
9679.000000;0.683420
9678.000000;0.682719
9677.000000;0.682371
9676.000000;0.682235
9675.000000;0.681923
9674.000000;0.681380
9673.000000;0.680898
9672.000000;0.680555
9671.000000;0.680103
9670.000000;0.679454
9669.000000;0.678824
9668.000000;0.678343
9667.000000;0.677911
9666.000000;0.677530
9665.000000;0.677337
9664.000000;0.677237
9663.000000;0.676886
9662.000000;0.676166
9661.000000;0.675350
9660.000000;0.674708
9659.000000;0.674280
9658.000000;0.674080
9657.000000;0.674154
9656.000000;0.674328
9655.000000;0.674250
9654.000000;0.673768
9653.000000;0.673015
9652.000000;0.672101
9651.000000;0.671058
9650.000000;0.670065
9649.000000;0.669361
9648.000000;0.668912
9647.000000;0.668511
9646.000000;0.668194
9645.000000;0.668153
9644.000000;0.668244
9643.000000;0.668030
9642.000000;0.667396
9641.000000;0.666684
9640.000000;0.666156
9639.000000;0.665739
9638.000000;0.665365
9637.000000;0.665127
9636.000000;0.664957
9635.000000;0.664583
9634.000000;0.663977
9633.000000;0.663451
9632.000000;0.663159
9631.000000;0.662858
9630.000000;0.662342
9629.000000;0.661753
9628.000000;0.661297
9627.000000;0.660957
9626.000000;0.660668
9625.000000;0.660469
9624.000000;0.660302
9623.000000;0.659935
9622.000000;0.659252
9621.000000;0.658391
9620.000000;0.657499
9619.000000;0.656598
9618.000000;0.655792
9617.000000;0.655312
9616.000000;0.655213
9615.000000;0.655243
9614.000000;0.655135
9613.000000;0.654821
9612.000000;0.654338
9611.000000;0.653760
9610.000000;0.653261
9609.000000;0.652980
9608.000000;0.652750
9607.000000;0.652254
9606.000000;0.651492
9605.000000;0.650817
9604.000000;0.650457
9603.000000;0.650298
9602.000000;0.650182
9601.000000;0.650096
9600.000000;0.649974
9599.000000;0.649616
9598.000000;0.648960
9597.000000;0.648222
9596.000000;0.647660
9595.000000;0.647369
9594.000000;0.647335
9593.000000;0.647426
9592.000000;0.647338
9591.000000;0.646807
9590.000000;0.645960
9589.000000;0.645207
9588.000000;0.644757
9587.000000;0.644443
9586.000000;0.644037
9585.000000;0.643471
9584.000000;0.642756
9583.000000;0.641965
9582.000000;0.641296
9581.000000;0.640881
9580.000000;0.640530
9579.000000;0.639953
9578.000000;0.639222
9577.000000;0.638679
9576.000000;0.638399
9575.000000;0.638098
9574.000000;0.637630
9573.000000;0.637208
9572.000000;0.637044
9571.000000;0.637094
9570.000000;0.637232
9569.000000;0.637379
9568.000000;0.637337
9567.000000;0.636847
9566.000000;0.635959
9565.000000;0.635093
9564.000000;0.634565
9563.000000;0.634259
9562.000000;0.633853
9561.000000;0.633208
9560.000000;0.632448
9559.000000;0.631812
9558.000000;0.631462
9557.000000;0.631318
9556.000000;0.631090
9555.000000;0.630625
9554.000000;0.630121
9553.000000;0.629807
9552.000000;0.629566
9551.000000;0.629165
9550.000000;0.628695
9549.000000;0.628409
9548.000000;0.628236
9547.000000;0.627883
9546.000000;0.627377
9545.000000;0.627074
9544.000000;0.627058
9543.000000;0.626977
9542.000000;0.626557
9541.000000;0.625924
9540.000000;0.625290
9539.000000;0.624673
9538.000000;0.624075
9537.000000;0.623598
9536.000000;0.623252
9535.000000;0.622883
9534.000000;0.622442
9533.000000;0.622088
9532.000000;0.621934
9531.000000;0.621893
9530.000000;0.621837
9529.000000;0.621679
9528.000000;0.621270
9527.000000;0.620501
9526.000000;0.619569
9525.000000;0.618894
9524.000000;0.618657
9523.000000;0.618622
9522.000000;0.618444
9521.000000;0.617995
9520.000000;0.617375
9519.000000;0.616811
9518.000000;0.616517
9517.000000;0.616453
9516.000000;0.616258
9515.000000;0.615647
9514.000000;0.614812
9513.000000;0.614155
9512.000000;0.613729
9511.000000;0.613261
9510.000000;0.612679
9509.000000;0.612218
9508.000000;0.612000
9507.000000;0.611878
9506.000000;0.611768
9505.000000;0.611785
9504.000000;0.611938
9503.000000;0.611986
9502.000000;0.611715
9501.000000;0.611139
9500.000000;0.610384
9499.000000;0.609611
9498.000000;0.609045
9497.000000;0.608816
9496.000000;0.608749
9495.000000;0.608546
9494.000000;0.608166
9493.000000;0.607772
9492.000000;0.607360
9491.000000;0.606790
9490.000000;0.606150
9489.000000;0.605719
9488.000000;0.605504
9487.000000;0.605205
9486.000000;0.604699
9485.000000;0.604229
9484.000000;0.603996
9483.000000;0.603879
9482.000000;0.603686
9481.000000;0.603383
9480.000000;0.602959
9479.000000;0.602342
9478.000000;0.601580
9477.000000;0.600899
9476.000000;0.600456
9475.000000;0.600220
9474.000000;0.600124
9473.000000;0.600122
9472.000000;0.600083
9471.000000;0.599857
9470.000000;0.599471
9469.000000;0.599048
9468.000000;0.598528
9467.000000;0.597735
9466.000000;0.596745
9465.000000;0.595909
9464.000000;0.595438
9463.000000;0.595235
9462.000000;0.595152
9461.000000;0.595146
9460.000000;0.595123
9459.000000;0.594910
9458.000000;0.594476
9457.000000;0.593973
9456.000000;0.593466
9455.000000;0.592871
9454.000000;0.592194
9453.000000;0.591622
9452.000000;0.591268
9451.000000;0.591041
9450.000000;0.590836
9449.000000;0.590677
9448.000000;0.590616
9447.000000;0.590621
9446.000000;0.590591
9445.000000;0.590376
9444.000000;0.589827
9443.000000;0.589002
9442.000000;0.588253
9441.000000;0.587891
9440.000000;0.587820
9439.000000;0.587692
9438.000000;0.587362
9437.000000;0.586938
9436.000000;0.586487
9435.000000;0.585972
9434.000000;0.585456
9433.000000;0.585077
9432.000000;0.584815
9431.000000;0.584527
9430.000000;0.584186
9429.000000;0.583849
9428.000000;0.583464
9427.000000;0.582985
9426.000000;0.582590
9425.000000;0.582481
9424.000000;0.582491
9423.000000;0.582231
9422.000000;0.581609
9421.000000;0.580910
9420.000000;0.580366
9419.000000;0.579970
9418.000000;0.579689
9417.000000;0.579552
9416.000000;0.579487
9415.000000;0.579350
9414.000000;0.579154
9413.000000;0.579014
9412.000000;0.578881
9411.000000;0.578604
9410.000000;0.578209
9409.000000;0.577841
9408.000000;0.577464
9407.000000;0.576919
9406.000000;0.576257
9405.000000;0.575678
9404.000000;0.575194
9403.000000;0.574671
9402.000000;0.574184
9401.000000;0.573963
9400.000000;0.573972
9399.000000;0.573904
9398.000000;0.573624
9397.000000;0.573296
9396.000000;0.573029
9395.000000;0.572734
9394.000000;0.572377
9393.000000;0.572026
9392.000000;0.571634
9391.000000;0.571095
9390.000000;0.570546
9389.000000;0.570254
9388.000000;0.570156
9387.000000;0.569879
9386.000000;0.569292
9385.000000;0.568680
9384.000000;0.568284
9383.000000;0.568029
9382.000000;0.567826
9381.000000;0.567763
9380.000000;0.567822
9379.000000;0.567743
9378.000000;0.567366
9377.000000;0.566862
9376.000000;0.566422
9375.000000;0.565984
9374.000000;0.565434
9373.000000;0.564862
9372.000000;0.564418
9371.000000;0.564083
9370.000000;0.563727
9369.000000;0.563291
9368.000000;0.562832
9367.000000;0.562485
9366.000000;0.562406
9365.000000;0.562586
9364.000000;0.562723
9363.000000;0.562498
9362.000000;0.561962
9361.000000;0.561437
9360.000000;0.561052
9359.000000;0.560639
9358.000000;0.560104
9357.000000;0.559597
9356.000000;0.559229
9355.000000;0.558904
9354.000000;0.558536
9353.000000;0.558218
9352.000000;0.558059
9351.000000;0.558007
9350.000000;0.557914
9349.000000;0.557669
9348.000000;0.557233
9347.000000;0.556704
9346.000000;0.556272
9345.000000;0.555957
9344.000000;0.555492
9343.000000;0.554700
9342.000000;0.553903
9341.000000;0.553610
9340.000000;0.553843
9339.000000;0.554109
9338.000000;0.554051
9337.000000;0.553766
9336.000000;0.553426
9335.000000;0.552984
9334.000000;0.552407
9333.000000;0.551900
9332.000000;0.551657
9331.000000;0.551608
9330.000000;0.551538
9329.000000;0.551317
9328.000000;0.550911
9327.000000;0.550332
9326.000000;0.549694
9325.000000;0.549178
9324.000000;0.548881
9323.000000;0.548796
9322.000000;0.548898
9321.000000;0.549097
9320.000000;0.549137
9319.000000;0.548788
9318.000000;0.548144
9317.000000;0.547514
9316.000000;0.547037
9315.000000;0.546615
9314.000000;0.546203
9313.000000;0.545894
9312.000000;0.545687
9311.000000;0.545444
9310.000000;0.545127
9309.000000;0.544853
9308.000000;0.544668
9307.000000;0.544488
9306.000000;0.544291
9305.000000;0.544120
9304.000000;0.543897
9303.000000;0.543459
9302.000000;0.542842
9301.000000;0.542296
9300.000000;0.541956
9299.000000;0.541729
9298.000000;0.541506
9297.000000;0.541295
9296.000000;0.541077
9295.000000;0.540786
9294.000000;0.540462
9293.000000;0.540223
9292.000000;0.540048
9291.000000;0.539804
9290.000000;0.539502
9289.000000;0.539291
9288.000000;0.539164
9287.000000;0.538929
9286.000000;0.538506
9285.000000;0.538031
9284.000000;0.537610
9283.000000;0.537187
9282.000000;0.536715
9281.000000;0.536238
9280.000000;0.535764
9279.000000;0.535258
9278.000000;0.534811
9277.000000;0.534580
9276.000000;0.534547
9275.000000;0.534526
9274.000000;0.534451
9273.000000;0.534417
9272.000000;0.534398
9271.000000;0.534193
9270.000000;0.533724
9269.000000;0.533179
9268.000000;0.532758
9267.000000;0.532468
9266.000000;0.532236
9265.000000;0.532030
9264.000000;0.531791
9263.000000;0.531455
9262.000000;0.531097
9261.000000;0.530874
9260.000000;0.530773
9259.000000;0.530578
9258.000000;0.530162
9257.000000;0.529619
9256.000000;0.529082
9255.000000;0.528591
9254.000000;0.528213
9253.000000;0.528079
9252.000000;0.528179
9251.000000;0.528278
9250.000000;0.528133
9249.000000;0.527721
9248.000000;0.527202
9247.000000;0.526746
9246.000000;0.526441
9245.000000;0.526266
9244.000000;0.526120
9243.000000;0.525928
9242.000000;0.525707
9241.000000;0.525468
9240.000000;0.525138
9239.000000;0.524685
9238.000000;0.524239
9237.000000;0.523940
9236.000000;0.523752
9235.000000;0.523570
9234.000000;0.523423
9233.000000;0.523378
9232.000000;0.523329
9231.000000;0.523097
9230.000000;0.522686
9229.000000;0.522256
9228.000000;0.521892
9227.000000;0.521584
9226.000000;0.521350
9225.000000;0.521204
9224.000000;0.521054
9223.000000;0.520826
9222.000000;0.520596
9221.000000;0.520413
9220.000000;0.520127
9219.000000;0.519618
9218.000000;0.519073
9217.000000;0.518750
9216.000000;0.518573
9215.000000;0.518274
9214.000000;0.517868
9213.000000;0.517653
9212.000000;0.517745
9211.000000;0.517928
9210.000000;0.517967
9209.000000;0.517800
9208.000000;0.517404
9207.000000;0.516770
9206.000000;0.516058
9205.000000;0.515504
9204.000000;0.515149
9203.000000;0.514852
9202.000000;0.514588
9201.000000;0.514468
9200.000000;0.514458
9199.000000;0.514370
9198.000000;0.514163
9197.000000;0.514015
9196.000000;0.513999
9195.000000;0.513937
9194.000000;0.513647
9193.000000;0.513149
9192.000000;0.512578
9191.000000;0.512058
9190.000000;0.511681
9189.000000;0.511460
9188.000000;0.511270
9187.000000;0.510991
9186.000000;0.510670
9185.000000;0.510412
9184.000000;0.510174
9183.000000;0.509862
9182.000000;0.509560
9181.000000;0.509415
9180.000000;0.509365
9179.000000;0.509220
9178.000000;0.508973
9177.000000;0.508798
9176.000000;0.508753
9175.000000;0.508739
9174.000000;0.508698
9173.000000;0.508597
9172.000000;0.508280
9171.000000;0.507633
9170.000000;0.506873
9169.000000;0.506373
9168.000000;0.506198
9167.000000;0.506107
9166.000000;0.505983
9165.000000;0.505949
9164.000000;0.506025
9163.000000;0.506008
9162.000000;0.505794
9161.000000;0.505521
9160.000000;0.505301
9159.000000;0.505049
9158.000000;0.504679
9157.000000;0.504245
9156.000000;0.503788
9155.000000;0.503263
9154.000000;0.502710
9153.000000;0.502305
9152.000000;0.502137
9151.000000;0.502093
9150.000000;0.502034
9149.000000;0.501930
9148.000000;0.501804
9147.000000;0.501689
9146.000000;0.501635
9145.000000;0.501635
9144.000000;0.501539
9143.000000;0.501236
9142.000000;0.500864
9141.000000;0.500629
9140.000000;0.500481
9139.000000;0.500200
9138.000000;0.499807
9137.000000;0.499572
9136.000000;0.499595
9135.000000;0.499630
9134.000000;0.499403
9133.000000;0.498898
9132.000000;0.498280
9131.000000;0.497738
9130.000000;0.497443
9129.000000;0.497448
9128.000000;0.497591
9127.000000;0.497634
9126.000000;0.497542
9125.000000;0.497434
9124.000000;0.497297
9123.000000;0.496989
9122.000000;0.496535
9121.000000;0.496182
9120.000000;0.496090
9119.000000;0.496170
9118.000000;0.496256
9117.000000;0.496252
9116.000000;0.496093
9115.000000;0.495753
9114.000000;0.495321
9113.000000;0.494910
9112.000000;0.494486
9111.000000;0.493955
9110.000000;0.493391
9109.000000;0.492969
9108.000000;0.492704
9107.000000;0.492467
9106.000000;0.492244
9105.000000;0.492127
9104.000000;0.492085
9103.000000;0.491965
9102.000000;0.491754
9101.000000;0.491574
9100.000000;0.491425
9099.000000;0.491191
9098.000000;0.490928
9097.000000;0.490847
9096.000000;0.490965
9095.000000;0.491025
9094.000000;0.490845
9093.000000;0.490515
9092.000000;0.490173
9091.000000;0.489822
9090.000000;0.489488
9089.000000;0.489287
9088.000000;0.489226
9087.000000;0.489112
9086.000000;0.488805
9085.000000;0.488418
9084.000000;0.488154
9083.000000;0.488079
9082.000000;0.488110
9081.000000;0.488117
9080.000000;0.487959
9079.000000;0.487569
9078.000000;0.487038
9077.000000;0.486551
9076.000000;0.486197
9075.000000;0.485961
9074.000000;0.485848
9073.000000;0.485871
9072.000000;0.485933
9071.000000;0.485889
9070.000000;0.485749
9069.000000;0.485643
9068.000000;0.485595
9067.000000;0.485492
9066.000000;0.485274
9065.000000;0.485006
9064.000000;0.484751
9063.000000;0.484531
9062.000000;0.484399
9061.000000;0.484369
9060.000000;0.484301
9059.000000;0.484038
9058.000000;0.483654
9057.000000;0.483352
9056.000000;0.483132
9055.000000;0.482786
9054.000000;0.482241
9053.000000;0.481685
9052.000000;0.481306
9051.000000;0.481112
9050.000000;0.481062
9049.000000;0.481142
9048.000000;0.481241
9047.000000;0.481140
9046.000000;0.480746
9045.000000;0.480221
9044.000000;0.479805
9043.000000;0.479582
9042.000000;0.479486
9041.000000;0.479414
9040.000000;0.479290
9039.000000;0.479101
9038.000000;0.478892
9037.000000;0.478687
9036.000000;0.478447
9035.000000;0.478153
9034.000000;0.477884
9033.000000;0.477709
9032.000000;0.477593
9031.000000;0.477485
9030.000000;0.477430
9029.000000;0.477435
9028.000000;0.477350
9027.000000;0.477042
9026.000000;0.476615
9025.000000;0.476288
9024.000000;0.476115
9023.000000;0.475999
9022.000000;0.475874
9021.000000;0.475713
9020.000000;0.475436
9019.000000;0.475035
9018.000000;0.474714
9017.000000;0.474683
9016.000000;0.474871
9015.000000;0.475027
9014.000000;0.475039
9013.000000;0.474935
9012.000000;0.474685
9011.000000;0.474269
9010.000000;0.473870
9009.000000;0.473722
9008.000000;0.473757
9007.000000;0.473677
9006.000000;0.473375
9005.000000;0.473037
9004.000000;0.472810
9003.000000;0.472626
9002.000000;0.472397
9001.000000;0.472163
9000.000000;0.472003
8999.000000;0.471949
8998.000000;0.472006
8997.000000;0.472088
8996.000000;0.471959
8995.000000;0.471472
8994.000000;0.470823
8993.000000;0.470375
8992.000000;0.470219
8991.000000;0.470121
8990.000000;0.469896
8989.000000;0.469597
8988.000000;0.469356
8987.000000;0.469243
8986.000000;0.469312
8985.000000;0.469557
8984.000000;0.469800
8983.000000;0.469818
8982.000000;0.469612
8981.000000;0.469358
8980.000000;0.469106
8979.000000;0.468728
8978.000000;0.468181
8977.000000;0.467611
8976.000000;0.467157
8975.000000;0.466834
8974.000000;0.466652
8973.000000;0.466644
8972.000000;0.466756
8971.000000;0.466861
8970.000000;0.466902
8969.000000;0.466886
8968.000000;0.466744
8967.000000;0.466391
8966.000000;0.465925
8965.000000;0.465570
8964.000000;0.465406
8963.000000;0.465315
8962.000000;0.465204
8961.000000;0.465112
8960.000000;0.465093
8959.000000;0.465150
8958.000000;0.465273
8957.000000;0.465407
8956.000000;0.465397
8955.000000;0.465147
8954.000000;0.464805
8953.000000;0.464598
8952.000000;0.464515
8951.000000;0.464345
8950.000000;0.463996
8949.000000;0.463600
8948.000000;0.463308
8947.000000;0.463169
8946.000000;0.463184
8945.000000;0.463295
8944.000000;0.463333
8943.000000;0.463188
8942.000000;0.462992
8941.000000;0.462950
8940.000000;0.463029
8939.000000;0.463018
8938.000000;0.462849
8937.000000;0.462623
8936.000000;0.462367
8935.000000;0.462023
8934.000000;0.461659
8933.000000;0.461418
8932.000000;0.461235
8931.000000;0.460873
8930.000000;0.460301
8929.000000;0.459800
8928.000000;0.459622
8927.000000;0.459731
8926.000000;0.459923
8925.000000;0.460024
8924.000000;0.459933
8923.000000;0.459670
8922.000000;0.459419
8921.000000;0.459360
8920.000000;0.459424
8919.000000;0.459365
8918.000000;0.459100
8917.000000;0.458786
8916.000000;0.458572
8915.000000;0.458449
8914.000000;0.458362
8913.000000;0.458288
8912.000000;0.458197
8911.000000;0.458091
8910.000000;0.458079
8909.000000;0.458229
8908.000000;0.458381
8907.000000;0.458285
8906.000000;0.457922
8905.000000;0.457487
8904.000000;0.457090
8903.000000;0.456703
8902.000000;0.456391
8901.000000;0.456318
8900.000000;0.456466
8899.000000;0.456585
8898.000000;0.456488
8897.000000;0.456208
8896.000000;0.455842
8895.000000;0.455436
8894.000000;0.455079
8893.000000;0.454887
8892.000000;0.454831
8891.000000;0.454744
8890.000000;0.454575
8889.000000;0.454471
8888.000000;0.454567
8887.000000;0.454821
8886.000000;0.455088
8885.000000;0.455206
8884.000000;0.455018
8883.000000;0.454504
8882.000000;0.453902
8881.000000;0.453534
8880.000000;0.453461
8879.000000;0.453477
8878.000000;0.453442
8877.000000;0.453429
8876.000000;0.453513
8875.000000;0.453626
8874.000000;0.453672
8873.000000;0.453622
8872.000000;0.453449
8871.000000;0.453129
8870.000000;0.452768
8869.000000;0.452564
8868.000000;0.452559
8867.000000;0.452569
8866.000000;0.452413
8865.000000;0.452123
8864.000000;0.451869
8863.000000;0.451771
8862.000000;0.451806
8861.000000;0.451831
8860.000000;0.451701
8859.000000;0.451439
8858.000000;0.451234
8857.000000;0.451196
8856.000000;0.451203
8855.000000;0.451103
8854.000000;0.450967
8853.000000;0.450955
8852.000000;0.451027
8851.000000;0.451003
8850.000000;0.450863
8849.000000;0.450752
8848.000000;0.450725
8847.000000;0.450694
8846.000000;0.450646
8845.000000;0.450668
8844.000000;0.450744
8843.000000;0.450731
8842.000000;0.450594
8841.000000;0.450465
8840.000000;0.450408
8839.000000;0.450316
8838.000000;0.450094
8837.000000;0.449808
8836.000000;0.449569
8835.000000;0.449427
8834.000000;0.449388
8833.000000;0.449452
8832.000000;0.449566
8831.000000;0.449671
8830.000000;0.449783
8829.000000;0.449930
8828.000000;0.450034
8827.000000;0.449980
8826.000000;0.449793
8825.000000;0.449634
8824.000000;0.449605
8823.000000;0.449681
8822.000000;0.449804
8821.000000;0.449935
8820.000000;0.450027
8819.000000;0.450069
8818.000000;0.450127
8817.000000;0.450259
8816.000000;0.450439
8815.000000;0.450646
8814.000000;0.450925
8813.000000;0.451230
8812.000000;0.451344
8811.000000;0.451135
8810.000000;0.450787
8809.000000;0.450565
8808.000000;0.450452
8807.000000;0.450246
8806.000000;0.449935
8805.000000;0.449711
8804.000000;0.449669
8803.000000;0.449723
8802.000000;0.449808
8801.000000;0.449923
8800.000000;0.449985
8799.000000;0.449876
8798.000000;0.449661
8797.000000;0.449545
8796.000000;0.449610
8795.000000;0.449764
8794.000000;0.449955
8793.000000;0.450213
8792.000000;0.450500
8791.000000;0.450711
8790.000000;0.450827
8789.000000;0.450912
8788.000000;0.450959
8787.000000;0.450945
8786.000000;0.450974
8785.000000;0.451155
8784.000000;0.451344
8783.000000;0.451271
8782.000000;0.450919
8781.000000;0.450574
8780.000000;0.450447
8779.000000;0.450496
8778.000000;0.450630
8777.000000;0.450849
8776.000000;0.451119
8775.000000;0.451307
8774.000000;0.451350
8773.000000;0.451331
8772.000000;0.451332
8771.000000;0.451364
8770.000000;0.451460
8769.000000;0.451692
8768.000000;0.452035
8767.000000;0.452347
8766.000000;0.452513
8765.000000;0.452525
8764.000000;0.452418
8763.000000;0.452274
8762.000000;0.452244
8761.000000;0.452429
8760.000000;0.452742
8759.000000;0.453025
8758.000000;0.453256
8757.000000;0.453493
8756.000000;0.453668
8755.000000;0.453661
8754.000000;0.453535
8753.000000;0.453486
8752.000000;0.453570
8751.000000;0.453672
8750.000000;0.453736
8749.000000;0.453821
8748.000000;0.453926
8747.000000;0.453986
8746.000000;0.454047
8745.000000;0.454231
8744.000000;0.454513
8743.000000;0.454740
8742.000000;0.454886
8741.000000;0.455080
8740.000000;0.455352
8739.000000;0.455549
8738.000000;0.455573
8737.000000;0.455510
8736.000000;0.455481
8735.000000;0.455519
8734.000000;0.455632
8733.000000;0.455827
8732.000000;0.456013
8731.000000;0.456065
8730.000000;0.456015
8729.000000;0.456047
8728.000000;0.456253
8727.000000;0.456532
8726.000000;0.456748
8725.000000;0.456861
8724.000000;0.456872
8723.000000;0.456804
8722.000000;0.456764
8721.000000;0.456878
8720.000000;0.457128
8719.000000;0.457365
8718.000000;0.457498
8717.000000;0.457547
8716.000000;0.457544
8715.000000;0.457487
8714.000000;0.457422
8713.000000;0.457410
8712.000000;0.457433
8711.000000;0.457445
8710.000000;0.457487
8709.000000;0.457630
8708.000000;0.457834
8707.000000;0.458011
8706.000000;0.458178
8705.000000;0.458385
8704.000000;0.458532
8703.000000;0.458453
8702.000000;0.458175
8701.000000;0.457921
8700.000000;0.457863
8699.000000;0.458013
8698.000000;0.458316
8697.000000;0.458664
8696.000000;0.458865
8695.000000;0.458788
8694.000000;0.458561
8693.000000;0.458440
8692.000000;0.458500
8691.000000;0.458604
8690.000000;0.458681
8689.000000;0.458813
8688.000000;0.459051
8687.000000;0.459300
8686.000000;0.459444
8685.000000;0.459440
8684.000000;0.459301
8683.000000;0.459116
8682.000000;0.459050
8681.000000;0.459173
8680.000000;0.459339
8679.000000;0.459372
8678.000000;0.459321
8677.000000;0.459338
8676.000000;0.459396
8675.000000;0.459326
8674.000000;0.459126
8673.000000;0.458960
8672.000000;0.458895
8671.000000;0.458839
8670.000000;0.458771
8669.000000;0.458785
8668.000000;0.458871
8667.000000;0.458879
8666.000000;0.458763
8665.000000;0.458663
8664.000000;0.458714
8663.000000;0.458901
8662.000000;0.459138
8661.000000;0.459317
8660.000000;0.459263
8659.000000;0.458856
8658.000000;0.458244
8657.000000;0.457767
8656.000000;0.457617
8655.000000;0.457702
8654.000000;0.457841
8653.000000;0.457935
8652.000000;0.457923
8651.000000;0.457771
8650.000000;0.457572
8649.000000;0.457508
8648.000000;0.457641
8647.000000;0.457830
8646.000000;0.457899
8645.000000;0.457793
8644.000000;0.457574
8643.000000;0.457357
8642.000000;0.457239
8641.000000;0.457189
8640.000000;0.457037
8639.000000;0.456688
8638.000000;0.456294
8637.000000;0.456085
8636.000000;0.456066
8635.000000;0.456058
8634.000000;0.455951
8633.000000;0.455775
8632.000000;0.455551
8631.000000;0.455289
8630.000000;0.455108
8629.000000;0.455139
8628.000000;0.455303
8627.000000;0.455364
8626.000000;0.455233
8625.000000;0.455040
8624.000000;0.454902
8623.000000;0.454812
8622.000000;0.454752
8621.000000;0.454738
8620.000000;0.454698
8619.000000;0.454503
8618.000000;0.454179
8617.000000;0.453910
8616.000000;0.453810
8615.000000;0.453803
8614.000000;0.453789
8613.000000;0.453760
8612.000000;0.453724
8611.000000;0.453627
8610.000000;0.453425
8609.000000;0.453137
8608.000000;0.452814
8607.000000;0.452529
8606.000000;0.452367
8605.000000;0.452338
8604.000000;0.452323
8603.000000;0.452218
8602.000000;0.452074
8601.000000;0.451996
8600.000000;0.451951
8599.000000;0.451825
8598.000000;0.451628
8597.000000;0.451463
8596.000000;0.451342
8595.000000;0.451190
8594.000000;0.451019
8593.000000;0.450926
8592.000000;0.450915
8591.000000;0.450860
8590.000000;0.450681
8589.000000;0.450426
8588.000000;0.450172
8587.000000;0.449963
8586.000000;0.449825
8585.000000;0.449735
8584.000000;0.449602
8583.000000;0.449373
8582.000000;0.449124
8581.000000;0.448941
8580.000000;0.448781
8579.000000;0.448580
8578.000000;0.448398
8577.000000;0.448326
8576.000000;0.448324
8575.000000;0.448317
8574.000000;0.448365
8573.000000;0.448537
8572.000000;0.448682
8571.000000;0.448552
8570.000000;0.448126
8569.000000;0.447617
8568.000000;0.447192
8567.000000;0.446878
8566.000000;0.446700
8565.000000;0.446689
8564.000000;0.446737
8563.000000;0.446655
8562.000000;0.446405
8561.000000;0.446107
8560.000000;0.445822
8559.000000;0.445511
8558.000000;0.445219
8557.000000;0.445094
8556.000000;0.445172
8555.000000;0.445316
8554.000000;0.445396
8553.000000;0.445396
8552.000000;0.445321
8551.000000;0.445132
8550.000000;0.444827
8549.000000;0.444471
8548.000000;0.444123
8547.000000;0.443819
8546.000000;0.443620
8545.000000;0.443539
8544.000000;0.443464
8543.000000;0.443275
8542.000000;0.443019
8541.000000;0.442830
8540.000000;0.442709
8539.000000;0.442537
8538.000000;0.442287
8537.000000;0.442064
8536.000000;0.441928
8535.000000;0.441824
8534.000000;0.441698
8533.000000;0.441544
8532.000000;0.441351
8531.000000;0.441116
8530.000000;0.440904
8529.000000;0.440777
8528.000000;0.440685
8527.000000;0.440540
8526.000000;0.440357
8525.000000;0.440215
8524.000000;0.440112
8523.000000;0.439982
8522.000000;0.439833
8521.000000;0.439731
8520.000000;0.439694
8519.000000;0.439678
8518.000000;0.439642
8517.000000;0.439511
8516.000000;0.439193
8515.000000;0.438749
8514.000000;0.438439
8513.000000;0.438444
8512.000000;0.438609
8511.000000;0.438640
8510.000000;0.438451
8509.000000;0.438138
8508.000000;0.437741
8507.000000;0.437250
8506.000000;0.436792
8505.000000;0.436558
8504.000000;0.436553
8503.000000;0.436622
8502.000000;0.436689
8501.000000;0.436770
8500.000000;0.436785
8499.000000;0.436601
8498.000000;0.436270
8497.000000;0.436002
8496.000000;0.435881
8495.000000;0.435793
8494.000000;0.435639
8493.000000;0.435438
8492.000000;0.435216
8491.000000;0.434982
8490.000000;0.434817
8489.000000;0.434806
8488.000000;0.434873
8487.000000;0.434838
8486.000000;0.434667
8485.000000;0.434496
8484.000000;0.434403
8483.000000;0.434314
8482.000000;0.434145
8481.000000;0.433901
8480.000000;0.433608
8479.000000;0.433300
8478.000000;0.433050
8477.000000;0.432894
8476.000000;0.432736
8475.000000;0.432475
8474.000000;0.432205
8473.000000;0.432106
8472.000000;0.432165
8471.000000;0.432171
8470.000000;0.431996
8469.000000;0.431724
8468.000000;0.431483
8467.000000;0.431300
8466.000000;0.431143
8465.000000;0.430981
8464.000000;0.430784
8463.000000;0.430574
8462.000000;0.430438
8461.000000;0.430399
8460.000000;0.430329
8459.000000;0.430113
8458.000000;0.429835
8457.000000;0.429645
8456.000000;0.429532
8455.000000;0.429391
8454.000000;0.429237
8453.000000;0.429146
8452.000000;0.429061
8451.000000;0.428872
8450.000000;0.428664
8449.000000;0.428638
8448.000000;0.428798
8447.000000;0.428928
8446.000000;0.428881
8445.000000;0.428696
8444.000000;0.428426
8443.000000;0.428078
8442.000000;0.427733
8441.000000;0.427529
8440.000000;0.427479
8439.000000;0.427486
8438.000000;0.427523
8437.000000;0.427618
8436.000000;0.427657
8435.000000;0.427451
8434.000000;0.427040
8433.000000;0.426709
8432.000000;0.426618
8431.000000;0.426595
8430.000000;0.426405
8429.000000;0.426050
8428.000000;0.425707
8427.000000;0.425493
8426.000000;0.425401
8425.000000;0.425374
8424.000000;0.425347
8423.000000;0.425270
8422.000000;0.425142
8421.000000;0.424979
8420.000000;0.424779
8419.000000;0.424567
8418.000000;0.424427
8417.000000;0.424405
8416.000000;0.424399
8415.000000;0.424285
8414.000000;0.424082
8413.000000;0.423895
8412.000000;0.423723
8411.000000;0.423489
8410.000000;0.423203
8409.000000;0.422961
8408.000000;0.422781
8407.000000;0.422629
8406.000000;0.422548
8405.000000;0.422599
8404.000000;0.422690
8403.000000;0.422643
8402.000000;0.422432
8401.000000;0.422194
8400.000000;0.422006
8399.000000;0.421830
8398.000000;0.421677
8397.000000;0.421614
8396.000000;0.421594
8395.000000;0.421457
8394.000000;0.421166
8393.000000;0.420879
8392.000000;0.420722
8391.000000;0.420632
8390.000000;0.420478
8389.000000;0.420229
8388.000000;0.419938
8387.000000;0.419665
8386.000000;0.419463
8385.000000;0.419351
8384.000000;0.419270
8383.000000;0.419143
8382.000000;0.418980
8381.000000;0.418845
8380.000000;0.418736
8379.000000;0.418598
8378.000000;0.418436
8377.000000;0.418297
8376.000000;0.418163
8375.000000;0.417984
8374.000000;0.417804
8373.000000;0.417705
8372.000000;0.417652
8371.000000;0.417518
8370.000000;0.417275
8369.000000;0.417028
8368.000000;0.416840
8367.000000;0.416683
8366.000000;0.416542
8365.000000;0.416442
8364.000000;0.416345
8363.000000;0.416167
8362.000000;0.415922
8361.000000;0.415713
8360.000000;0.415576
8359.000000;0.415440
8358.000000;0.415275
8357.000000;0.415141
8356.000000;0.415071
8355.000000;0.414995
8354.000000;0.414846
8353.000000;0.414632
8352.000000;0.414388
8351.000000;0.414130
8350.000000;0.413896
8349.000000;0.413743
8348.000000;0.413684
8347.000000;0.413667
8346.000000;0.413626
8345.000000;0.413512
8344.000000;0.413303
8343.000000;0.413033
8342.000000;0.412774
8341.000000;0.412549
8340.000000;0.412311
8339.000000;0.412050
8338.000000;0.411841
8337.000000;0.411713
8336.000000;0.411584
8335.000000;0.411401
8334.000000;0.411251
8333.000000;0.411199
8332.000000;0.411146
8331.000000;0.410978
8330.000000;0.410769
8329.000000;0.410658
8328.000000;0.410615
8327.000000;0.410491
8326.000000;0.410249
8325.000000;0.409969
8324.000000;0.409673
8323.000000;0.409333
8322.000000;0.409002
8321.000000;0.408765
8320.000000;0.408582
8319.000000;0.408356
8318.000000;0.408124
8317.000000;0.408009
8316.000000;0.407993
8315.000000;0.407931
8314.000000;0.407775
8313.000000;0.407605
8312.000000;0.407446
8311.000000;0.407233
8310.000000;0.406976
8309.000000;0.406763
8308.000000;0.406603
8307.000000;0.406409
8306.000000;0.406167
8305.000000;0.405964
8304.000000;0.405827
8303.000000;0.405682
8302.000000;0.405497
8301.000000;0.405335
8300.000000;0.405232
8299.000000;0.405156
8298.000000;0.405102
8297.000000;0.405091
8296.000000;0.405060
8295.000000;0.404885
8294.000000;0.404552
8293.000000;0.404179
8292.000000;0.403857
8291.000000;0.403592
8290.000000;0.403383
8289.000000;0.403237
8288.000000;0.403089
8287.000000;0.402843
8286.000000;0.402527
8285.000000;0.402270
8284.000000;0.402122
8283.000000;0.401999
8282.000000;0.401823
8281.000000;0.401609
8280.000000;0.401378
8279.000000;0.401125
8278.000000;0.400881
8277.000000;0.400707
8276.000000;0.400606
8275.000000;0.400525
8274.000000;0.400455
8273.000000;0.400415
8272.000000;0.400330
8271.000000;0.400082
8270.000000;0.399699
8269.000000;0.399373
8268.000000;0.399243
8267.000000;0.399250
8266.000000;0.399232
8265.000000;0.399087
8264.000000;0.398801
8263.000000;0.398422
8262.000000;0.398049
8261.000000;0.397780
8260.000000;0.397625
8259.000000;0.397513
8258.000000;0.397389
8257.000000;0.397257
8256.000000;0.397144
8255.000000;0.397069
8254.000000;0.397030
8253.000000;0.396979
8252.000000;0.396835
8251.000000;0.396587
8250.000000;0.396322
8249.000000;0.396101
8248.000000;0.395867
8247.000000;0.395564
8246.000000;0.395266
8245.000000;0.395066
8244.000000;0.394911
8243.000000;0.394683
8242.000000;0.394405
8241.000000;0.394222
8240.000000;0.394175
8239.000000;0.394143
8238.000000;0.394005
8237.000000;0.393759
8236.000000;0.393463
8235.000000;0.393173
8234.000000;0.392927
8233.000000;0.392711
8232.000000;0.392441
8231.000000;0.392079
8230.000000;0.391748
8229.000000;0.391618
8228.000000;0.391680
8227.000000;0.391737
8226.000000;0.391639
8225.000000;0.391417
8224.000000;0.391193
8223.000000;0.391041
8222.000000;0.390949
8221.000000;0.390847
8220.000000;0.390645
8219.000000;0.390324
8218.000000;0.389972
8217.000000;0.389698
8216.000000;0.389530
8215.000000;0.389440
8214.000000;0.389412
8213.000000;0.389406
8212.000000;0.389320
8211.000000;0.389083
8210.000000;0.388774
8209.000000;0.388534
8208.000000;0.388402
8207.000000;0.388303
8206.000000;0.388159
8205.000000;0.387944
8204.000000;0.387665
8203.000000;0.387372
8202.000000;0.387140
8201.000000;0.386977
8200.000000;0.386785
8199.000000;0.386507
8198.000000;0.386228
8197.000000;0.386051
8196.000000;0.385946
8195.000000;0.385818
8194.000000;0.385657
8193.000000;0.385509
8192.000000;0.385356
8191.000000;0.385154
8190.000000;0.384931
8189.000000;0.384747
8188.000000;0.384595
8187.000000;0.384445
8186.000000;0.384341
8185.000000;0.384317
8184.000000;0.384289
8183.000000;0.384137
8182.000000;0.383868
8181.000000;0.383580
8180.000000;0.383316
8179.000000;0.383050
8178.000000;0.382780
8177.000000;0.382517
8176.000000;0.382233
8175.000000;0.381925
8174.000000;0.381679
8173.000000;0.381564
8172.000000;0.381508
8171.000000;0.381405
8170.000000;0.381264
8169.000000;0.381144
8168.000000;0.381006
8167.000000;0.380793
8166.000000;0.380571
8165.000000;0.380436
8164.000000;0.380329
8163.000000;0.380119
8162.000000;0.379823
8161.000000;0.379579
8160.000000;0.379413
8159.000000;0.379206
8158.000000;0.378902
8157.000000;0.378587
8156.000000;0.378351
8155.000000;0.378191
8154.000000;0.378076
8153.000000;0.377988
8152.000000;0.377892
8151.000000;0.377755
8150.000000;0.377599
8149.000000;0.377461
8148.000000;0.377310
8147.000000;0.377099
8146.000000;0.376875
8145.000000;0.376726
8144.000000;0.376643
8143.000000;0.376529
8142.000000;0.376335
8141.000000;0.376074
8140.000000;0.375758
8139.000000;0.375414
8138.000000;0.375130
8137.000000;0.374971
8136.000000;0.374877
8135.000000;0.374738
8134.000000;0.374546
8133.000000;0.374351
8132.000000;0.374134
8131.000000;0.373838
8130.000000;0.373504
8129.000000;0.373242
8128.000000;0.373080
8127.000000;0.372966
8126.000000;0.372890
8125.000000;0.372883
8124.000000;0.372904
8123.000000;0.372849
8122.000000;0.372656
8121.000000;0.372330
8120.000000;0.371890
8119.000000;0.371403
8118.000000;0.371018
8117.000000;0.370841
8116.000000;0.370791
8115.000000;0.370679
8114.000000;0.370432
8113.000000;0.370115
8112.000000;0.369800
8111.000000;0.369520
8110.000000;0.369324
8109.000000;0.369245
8108.000000;0.369201
8107.000000;0.369075
8106.000000;0.368874
8105.000000;0.368702
8104.000000;0.368596
8103.000000;0.368489
8102.000000;0.368332
8101.000000;0.368126
8100.000000;0.367865
8099.000000;0.367555
8098.000000;0.367263
8097.000000;0.367058
8096.000000;0.366898
8095.000000;0.366702
8094.000000;0.366490
8093.000000;0.366346
8092.000000;0.366263
8091.000000;0.366141
8090.000000;0.365936
8089.000000;0.365700
8088.000000;0.365484
8087.000000;0.365293
8086.000000;0.365118
8085.000000;0.364936
8084.000000;0.364704
8083.000000;0.364432
8082.000000;0.364219
8081.000000;0.364113
8080.000000;0.364002
8079.000000;0.363764
8078.000000;0.363447
8077.000000;0.363189
8076.000000;0.363005
8075.000000;0.362815
8074.000000;0.362630
8073.000000;0.362538
8072.000000;0.362517
8071.000000;0.362423
8070.000000;0.362170
8069.000000;0.361804
8068.000000;0.361400
8067.000000;0.361028
8066.000000;0.360794
8065.000000;0.360767
8064.000000;0.360850
8063.000000;0.360851
8062.000000;0.360701
8061.000000;0.360481
8060.000000;0.360258
8059.000000;0.360013
8058.000000;0.359754
8057.000000;0.359542
8056.000000;0.359385
8055.000000;0.359199
8054.000000;0.358935
8053.000000;0.358638
8052.000000;0.358375
8051.000000;0.358175
8050.000000;0.358063
8049.000000;0.358046
8048.000000;0.358055
8047.000000;0.357970
8046.000000;0.357734
8045.000000;0.357376
8044.000000;0.356950
8043.000000;0.356521
8042.000000;0.356190
8041.000000;0.356019
8040.000000;0.355951
8039.000000;0.355872
8038.000000;0.355750
8037.000000;0.355648
8036.000000;0.355602
8035.000000;0.355567
8034.000000;0.355467
8033.000000;0.355234
8032.000000;0.354845
8031.000000;0.354371
8030.000000;0.353973
8029.000000;0.353746
8028.000000;0.353623
8027.000000;0.353497
8026.000000;0.353371
8025.000000;0.353284
8024.000000;0.353174
8023.000000;0.352939
8022.000000;0.352603
8021.000000;0.352278
8020.000000;0.351985
8019.000000;0.351658
8018.000000;0.351305
8017.000000;0.351020
8016.000000;0.350844
8015.000000;0.350712
8014.000000;0.350558
8013.000000;0.350373
8012.000000;0.350162
8011.000000;0.349936
8010.000000;0.349743
8009.000000;0.349604
8008.000000;0.349450
8007.000000;0.349224
8006.000000;0.349003
8005.000000;0.348897
8004.000000;0.348850
8003.000000;0.348691
8002.000000;0.348371
8001.000000;0.348016
8000.000000;0.347733
7999.000000;0.347492
7998.000000;0.347241
7997.000000;0.346989
7996.000000;0.346767
7995.000000;0.346583
7994.000000;0.346456
7993.000000;0.346410
7992.000000;0.346387
7991.000000;0.346279
7990.000000;0.346056
7989.000000;0.345805
7988.000000;0.345626
7987.000000;0.345542
7986.000000;0.345521
7985.000000;0.345514
7984.000000;0.345443
7983.000000;0.345230
7982.000000;0.344864
7981.000000;0.344413
7980.000000;0.343961
7979.000000;0.343593
7978.000000;0.343386
7977.000000;0.343332
7976.000000;0.343303
7975.000000;0.343152
7974.000000;0.342877
7973.000000;0.342597
7972.000000;0.342406
7971.000000;0.342304
7970.000000;0.342244
7969.000000;0.342168
7968.000000;0.342005
7967.000000;0.341723
7966.000000;0.341385
7965.000000;0.341079
7964.000000;0.340814
7963.000000;0.340550
7962.000000;0.340295
7961.000000;0.340089
7960.000000;0.339921
7959.000000;0.339745
7958.000000;0.339567
7957.000000;0.339420
7956.000000;0.339283
7955.000000;0.339094
7954.000000;0.338839
7953.000000;0.338548
7952.000000;0.338231
7951.000000;0.337885
7950.000000;0.337558
7949.000000;0.337302
7948.000000;0.337090
7947.000000;0.336852
7946.000000;0.336589
7945.000000;0.336376
7944.000000;0.336239
7943.000000;0.336130
7942.000000;0.335992
7941.000000;0.335817
7940.000000;0.335623
7939.000000;0.335453
7938.000000;0.335360
7937.000000;0.335342
7936.000000;0.335300
7935.000000;0.335140
7934.000000;0.334879
7933.000000;0.334602
7932.000000;0.334350
7931.000000;0.334119
7930.000000;0.333933
7929.000000;0.333810
7928.000000;0.333691
7927.000000;0.333503
7926.000000;0.333256
7925.000000;0.333027
7924.000000;0.332838
7923.000000;0.332649
7922.000000;0.332442
7921.000000;0.332232
7920.000000;0.332017
7919.000000;0.331777
7918.000000;0.331530
7917.000000;0.331307
7916.000000;0.331098
7915.000000;0.330890
7914.000000;0.330725
7913.000000;0.330652
7912.000000;0.330624
7911.000000;0.330543
7910.000000;0.330381
7909.000000;0.330190
7908.000000;0.330004
7907.000000;0.329803
7906.000000;0.329566
7905.000000;0.329313
7904.000000;0.329074
7903.000000;0.328889
7902.000000;0.328799
7901.000000;0.328792
7900.000000;0.328781
7899.000000;0.328680
7898.000000;0.328490
7897.000000;0.328267
7896.000000;0.328041
7895.000000;0.327810
7894.000000;0.327584
7893.000000;0.327374
7892.000000;0.327163
7891.000000;0.326931
7890.000000;0.326683
7889.000000;0.326428
7888.000000;0.326164
7887.000000;0.325912
7886.000000;0.325704
7885.000000;0.325518
7884.000000;0.325290
7883.000000;0.325030
7882.000000;0.324845
7881.000000;0.324778
7880.000000;0.324727
7879.000000;0.324577
7878.000000;0.324337
7877.000000;0.324068
7876.000000;0.323781
7875.000000;0.323490
7874.000000;0.323278
7873.000000;0.323188
7872.000000;0.323120
7871.000000;0.322961
7870.000000;0.322750
7869.000000;0.322599
7868.000000;0.322515
7867.000000;0.322406
7866.000000;0.322225
7865.000000;0.321995
7864.000000;0.321733
7863.000000;0.321453
7862.000000;0.321215
7861.000000;0.321062
7860.000000;0.320938
7859.000000;0.320768
7858.000000;0.320568
7857.000000;0.320403
7856.000000;0.320263
7855.000000;0.320099
7854.000000;0.319936
7853.000000;0.319841
7852.000000;0.319792
7851.000000;0.319699
7850.000000;0.319535
7849.000000;0.319362
7848.000000;0.319224
7847.000000;0.319116
7846.000000;0.319022
7845.000000;0.318906
7844.000000;0.318682
7843.000000;0.318305
7842.000000;0.317878
7841.000000;0.317588
7840.000000;0.317520
7839.000000;0.317590
7838.000000;0.317642
7837.000000;0.317558
7836.000000;0.317302
7835.000000;0.316945
7834.000000;0.316619
7833.000000;0.316404
7832.000000;0.316252
7831.000000;0.316074
7830.000000;0.315844
7829.000000;0.315594
7828.000000;0.315362
7827.000000;0.315206
7826.000000;0.315190
7825.000000;0.315274
7824.000000;0.315295
7823.000000;0.315143
7822.000000;0.314889
7821.000000;0.314670
7820.000000;0.314503
7819.000000;0.314329
7818.000000;0.314152
7817.000000;0.314004
7816.000000;0.313839
7815.000000;0.313591
7814.000000;0.313314
7813.000000;0.313132
7812.000000;0.313074
7811.000000;0.313047
7810.000000;0.312973
7809.000000;0.312834
7808.000000;0.312625
7807.000000;0.312357
7806.000000;0.312109
7805.000000;0.311964
7804.000000;0.311905
7803.000000;0.311855
7802.000000;0.311787
7801.000000;0.311718
7800.000000;0.311626
7799.000000;0.311468
7798.000000;0.311269
7797.000000;0.311086
7796.000000;0.310918
7795.000000;0.310727
7794.000000;0.310542
7793.000000;0.310430
7792.000000;0.310384
7791.000000;0.310328
7790.000000;0.310223
7789.000000;0.310088
7788.000000;0.309934
7787.000000;0.309744
7786.000000;0.309528
7785.000000;0.309306
7784.000000;0.309066
7783.000000;0.308814
7782.000000;0.308617
7781.000000;0.308523
7780.000000;0.308466
7779.000000;0.308340
7778.000000;0.308139
7777.000000;0.307948
7776.000000;0.307817
7775.000000;0.307728
7774.000000;0.307673
7773.000000;0.307648
7772.000000;0.307609
7771.000000;0.307507
7770.000000;0.307371
7769.000000;0.307266
7768.000000;0.307181
7767.000000;0.307051
7766.000000;0.306866
7765.000000;0.306685
7764.000000;0.306533
7763.000000;0.306390
7762.000000;0.306251
7761.000000;0.306132
7760.000000;0.306005
7759.000000;0.305832
7758.000000;0.305640
7757.000000;0.305517
7756.000000;0.305500
7755.000000;0.305532
7754.000000;0.305529
7753.000000;0.305438
7752.000000;0.305244
7751.000000;0.304981
7750.000000;0.304737
7749.000000;0.304580
7748.000000;0.304501
7747.000000;0.304445
7746.000000;0.304391
7745.000000;0.304337
7744.000000;0.304252
7743.000000;0.304106
7742.000000;0.303920
7741.000000;0.303743
7740.000000;0.303592
7739.000000;0.303468
7738.000000;0.303394
7737.000000;0.303378
7736.000000;0.303379
7735.000000;0.303349
7734.000000;0.303287
7733.000000;0.303199
7732.000000;0.303069
7731.000000;0.302899
7730.000000;0.302743
7729.000000;0.302639
7728.000000;0.302551
7727.000000;0.302445
7726.000000;0.302362
7725.000000;0.302358
7724.000000;0.302396
7723.000000;0.302385
7722.000000;0.302284
7721.000000;0.302107
7720.000000;0.301879
7719.000000;0.301640
7718.000000;0.301470
7717.000000;0.301424
7716.000000;0.301470
7715.000000;0.301528
7714.000000;0.301540
7713.000000;0.301475
7712.000000;0.301320
7711.000000;0.301118
7710.000000;0.300970
7709.000000;0.300914
7708.000000;0.300882
7707.000000;0.300811
7706.000000;0.300731
7705.000000;0.300683
7704.000000;0.300614
7703.000000;0.300454
7702.000000;0.300237
7701.000000;0.300056
7700.000000;0.299960
7699.000000;0.299946
7698.000000;0.300007
7697.000000;0.300097
7696.000000;0.300118
7695.000000;0.300015
7694.000000;0.299859
7693.000000;0.299744
7692.000000;0.299667
7691.000000;0.299570
7690.000000;0.299458
7689.000000;0.299374
7688.000000;0.299310
7687.000000;0.299228
7686.000000;0.299131
7685.000000;0.299053
7684.000000;0.298998
7683.000000;0.298964
7682.000000;0.298971
7681.000000;0.299005
7680.000000;0.298991
7679.000000;0.298894
7678.000000;0.298791
7677.000000;0.298774
7676.000000;0.298824
7675.000000;0.298855
7674.000000;0.298831
7673.000000;0.298759
7672.000000;0.298630
7671.000000;0.298450
7670.000000;0.298289
7669.000000;0.298213
7668.000000;0.298203
7667.000000;0.298206
7666.000000;0.298219
7665.000000;0.298250
7664.000000;0.298252
7663.000000;0.298186
7662.000000;0.298106
7661.000000;0.298094
7660.000000;0.298150
7659.000000;0.298218
7658.000000;0.298261
7657.000000;0.298250
7656.000000;0.298137
7655.000000;0.297930
7654.000000;0.297747
7653.000000;0.297704
7652.000000;0.297784
7651.000000;0.297879
7650.000000;0.297922
7649.000000;0.297896
7648.000000;0.297792
7647.000000;0.297640
7646.000000;0.297538
7645.000000;0.297558
7644.000000;0.297663
7643.000000;0.297779
7642.000000;0.297895
7641.000000;0.298012
7640.000000;0.298079
7639.000000;0.298059
7638.000000;0.298004
7637.000000;0.297975
7636.000000;0.297930
7635.000000;0.297804
7634.000000;0.297640
7633.000000;0.297548
7632.000000;0.297561
7631.000000;0.297647
7630.000000;0.297784
7629.000000;0.297951
7628.000000;0.298074
7627.000000;0.298098
7626.000000;0.298067
7625.000000;0.298049
7624.000000;0.298028
7623.000000;0.297955
7622.000000;0.297872
7621.000000;0.297865
7620.000000;0.297941
7619.000000;0.298028
7618.000000;0.298070
7617.000000;0.298049
7616.000000;0.297955
7615.000000;0.297833
7614.000000;0.297815
7613.000000;0.297983
7612.000000;0.298246
7611.000000;0.298431
7610.000000;0.298477
7609.000000;0.298454
7608.000000;0.298434
7607.000000;0.298446
7606.000000;0.298514
7605.000000;0.298633
7604.000000;0.298728
7603.000000;0.298725
7602.000000;0.298656
7601.000000;0.298614
7600.000000;0.298635
7599.000000;0.298698
7598.000000;0.298799
7597.000000;0.298945
7596.000000;0.299095
7595.000000;0.299198
7594.000000;0.299265
7593.000000;0.299339
7592.000000;0.299412
7591.000000;0.299458
7590.000000;0.299511
7589.000000;0.299615
7588.000000;0.299740
7587.000000;0.299807
7586.000000;0.299802
7585.000000;0.299789
7584.000000;0.299833
7583.000000;0.299954
7582.000000;0.300130
7581.000000;0.300283
7580.000000;0.300314
7579.000000;0.300221
7578.000000;0.300136
7577.000000;0.300185
7576.000000;0.300367
7575.000000;0.300610
7574.000000;0.300884
7573.000000;0.301177
7572.000000;0.301427
7571.000000;0.301572
7570.000000;0.301628
7569.000000;0.301648
7568.000000;0.301661
7567.000000;0.301700
7566.000000;0.301836
7565.000000;0.302079
7564.000000;0.302312
7563.000000;0.302429
7562.000000;0.302460
7561.000000;0.302503
7560.000000;0.302585
7559.000000;0.302678
7558.000000;0.302800
7557.000000;0.302972
7556.000000;0.303138
7555.000000;0.303230
7554.000000;0.303279
7553.000000;0.303380
7552.000000;0.303553
7551.000000;0.303751
7550.000000;0.303947
7549.000000;0.304144
7548.000000;0.304336
7547.000000;0.304527
7546.000000;0.304754
7545.000000;0.305015
7544.000000;0.305218
7543.000000;0.305295
7542.000000;0.305303
7541.000000;0.305347
7540.000000;0.305435
7539.000000;0.305513
7538.000000;0.305576
7537.000000;0.305660
7536.000000;0.305774
7535.000000;0.305918
7534.000000;0.306125
7533.000000;0.306402
7532.000000;0.306668
7531.000000;0.306842
7530.000000;0.306958
7529.000000;0.307106
7528.000000;0.307316
7527.000000;0.307559
7526.000000;0.307827
7525.000000;0.308112
7524.000000;0.308359
7523.000000;0.308526
7522.000000;0.308651
7521.000000;0.308789
7520.000000;0.308930
7519.000000;0.309051
7518.000000;0.309198
7517.000000;0.309424
7516.000000;0.309708
7515.000000;0.309987
7514.000000;0.310246
7513.000000;0.310490
7512.000000;0.310687
7511.000000;0.310810
7510.000000;0.310904
7509.000000;0.311033
7508.000000;0.311210
7507.000000;0.311418
7506.000000;0.311656
7505.000000;0.311901
7504.000000;0.312089
7503.000000;0.312201
7502.000000;0.312307
7501.000000;0.312482
7500.000000;0.312706
7499.000000;0.312949
7498.000000;0.313238
7497.000000;0.313559
7496.000000;0.313834
7495.000000;0.314017
7494.000000;0.314155
7493.000000;0.314300
7492.000000;0.314437
7491.000000;0.314575
7490.000000;0.314797
7489.000000;0.315122
7488.000000;0.315448
7487.000000;0.315696
7486.000000;0.315919
7485.000000;0.316174
7484.000000;0.316404
7483.000000;0.316563
7482.000000;0.316739
7481.000000;0.317029
7480.000000;0.317369
7479.000000;0.317628
7478.000000;0.317803
7477.000000;0.317982
7476.000000;0.318192
7475.000000;0.318405
7474.000000;0.318633
7473.000000;0.318903
7472.000000;0.319178
7471.000000;0.319430
7470.000000;0.319713
7469.000000;0.320064
7468.000000;0.320401
7467.000000;0.320628
7466.000000;0.320774
7465.000000;0.320913
7464.000000;0.321031
7463.000000;0.321097
7462.000000;0.321190
7461.000000;0.321414
7460.000000;0.321745
7459.000000;0.322084
7458.000000;0.322413
7457.000000;0.322761
7456.000000;0.323073
7455.000000;0.323256
7454.000000;0.323329
7453.000000;0.323406
7452.000000;0.323550
7451.000000;0.323738
7450.000000;0.323934
7449.000000;0.324127
7448.000000;0.324310
7447.000000;0.324510
7446.000000;0.324779
7445.000000;0.325121
7444.000000;0.325457
7443.000000;0.325717
7442.000000;0.325905
7441.000000;0.326029
7440.000000;0.326090
7439.000000;0.326168
7438.000000;0.326412
7437.000000;0.326849
7436.000000;0.327307
7435.000000;0.327627
7434.000000;0.327827
7433.000000;0.327993
7432.000000;0.328147
7431.000000;0.328313
7430.000000;0.328582
7429.000000;0.328968
7428.000000;0.329339
7427.000000;0.329598
7426.000000;0.329821
7425.000000;0.330103
7424.000000;0.330404
7423.000000;0.330649
7422.000000;0.330875
7421.000000;0.331163
7420.000000;0.331491
7419.000000;0.331788
7418.000000;0.332026
7417.000000;0.332186
7416.000000;0.332231
7415.000000;0.332213
7414.000000;0.332307
7413.000000;0.332607
7412.000000;0.333011
7411.000000;0.333406
7410.000000;0.333821
7409.000000;0.334250
7408.000000;0.334522
7407.000000;0.334516
7406.000000;0.334382
7405.000000;0.334373
7404.000000;0.334540
7403.000000;0.334760
7402.000000;0.334994
7401.000000;0.335313
7400.000000;0.335701
7399.000000;0.336081
7398.000000;0.336450
7397.000000;0.336769
7396.000000;0.336893
7395.000000;0.336826
7394.000000;0.336790
7393.000000;0.336878
7392.000000;0.336881
7391.000000;0.336670
7390.000000;0.336541
7389.000000;0.336842
7388.000000;0.337481
7387.000000;0.338128
7386.000000;0.338671
7385.000000;0.339158
7384.000000;0.339521
7383.000000;0.339639
7382.000000;0.339597
7381.000000;0.339654
7380.000000;0.339933
7379.000000;0.340322
7378.000000;0.340661
7377.000000;0.340873
7376.000000;0.341014
7375.000000;0.341225
7374.000000;0.341581
7373.000000;0.341970
7372.000000;0.342158
7371.000000;0.342045
7370.000000;0.341835
7369.000000;0.341788
7368.000000;0.341934
7367.000000;0.342257
7366.000000;0.342841
7365.000000;0.343512
7364.000000;0.343798
7363.000000;0.343533
7362.000000;0.343140
7361.000000;0.343214
7360.000000;0.343919
7359.000000;0.344893
7358.000000;0.345619
7357.000000;0.345803
7356.000000;0.345566
7355.000000;0.345361
7354.000000;0.345652
7353.000000;0.346445
7352.000000;0.347232
7351.000000;0.347542
7350.000000;0.347480
7349.000000;0.347535
7348.000000;0.347911
7347.000000;0.348302
7346.000000;0.348332
7345.000000;0.348062
7344.000000;0.347930
7343.000000;0.348347
7342.000000;0.349333
7341.000000;0.350490
7340.000000;0.351323
7339.000000;0.351675
7338.000000;0.351826
7337.000000;0.352036
7336.000000;0.352257
7335.000000;0.352375
7334.000000;0.352498
7333.000000;0.352869
7332.000000;0.353519
7331.000000;0.354091
7330.000000;0.354184
7329.000000;0.353924
7328.000000;0.353947
7327.000000;0.354592
7326.000000;0.355454
7325.000000;0.355967
7324.000000;0.356011
7323.000000;0.355933
7322.000000;0.356170
7321.000000;0.356883
7320.000000;0.357826
7319.000000;0.358649
7318.000000;0.359358
7317.000000;0.360192
7316.000000;0.361109
7315.000000;0.361728
7314.000000;0.361802
7313.000000;0.361677
7312.000000;0.362062
7311.000000;0.363184
7310.000000;0.364421
7309.000000;0.364978
7308.000000;0.364790
7307.000000;0.364522
7306.000000;0.364815
7305.000000;0.365834
7304.000000;0.367276
7303.000000;0.368519
7302.000000;0.369055
7301.000000;0.368941
7300.000000;0.368823
7299.000000;0.369422
7298.000000;0.370820
7297.000000;0.372329
7296.000000;0.373175
7295.000000;0.373408
7294.000000;0.373819
7293.000000;0.374954
7292.000000;0.376593
7291.000000;0.378154
7290.000000;0.379333
7289.000000;0.380288
7288.000000;0.381321
7287.000000;0.382459
7286.000000;0.383460
7285.000000;0.384237
7284.000000;0.385025
7283.000000;0.386011
7282.000000;0.387135
7281.000000;0.388202
7280.000000;0.389120
7279.000000;0.390027
7278.000000;0.391103
7277.000000;0.392388
7276.000000;0.393796
7275.000000;0.395216
7274.000000;0.396576
7273.000000;0.397898
7272.000000;0.399249
7271.000000;0.400626
7270.000000;0.401975
7269.000000;0.403309
7268.000000;0.404722
7267.000000;0.406257
7266.000000;0.407853
7265.000000;0.409450
7264.000000;0.411082
7263.000000;0.412785
7262.000000;0.414501
7261.000000;0.416147
7260.000000;0.417715
7259.000000;0.419269
7258.000000;0.420890
7257.000000;0.422655
7256.000000;0.424583
7255.000000;0.426622
7254.000000;0.428760
7253.000000;0.431011
7252.000000;0.433234
7251.000000;0.435266
7250.000000;0.437098
7249.000000;0.438867
7248.000000;0.440822
7247.000000;0.443087
7246.000000;0.445424
7245.000000;0.447465
7244.000000;0.449281
7243.000000;0.451431
7242.000000;0.454254
7241.000000;0.457386
7240.000000;0.460224
7239.000000;0.462556
7238.000000;0.464675
7237.000000;0.467053
7236.000000;0.469834
7235.000000;0.472719
7234.000000;0.475437
7233.000000;0.478027
7232.000000;0.480588
7231.000000;0.483158
7230.000000;0.485749
7229.000000;0.488348
7228.000000;0.491039
7227.000000;0.493957
7226.000000;0.497102
7225.000000;0.500333
7224.000000;0.503558
7223.000000;0.506748
7222.000000;0.509811
7221.000000;0.512733
7220.000000;0.515734
7219.000000;0.519002
7218.000000;0.522440
7217.000000;0.525851
7216.000000;0.529212
7215.000000;0.532613
7214.000000;0.536117
7213.000000;0.539743
7212.000000;0.543492
7211.000000;0.547369
7210.000000;0.551344
7209.000000;0.555363
7208.000000;0.559425
7207.000000;0.563558
7206.000000;0.567730
7205.000000;0.571909
7204.000000;0.576130
7203.000000;0.580394
7202.000000;0.584585
7201.000000;0.588653
7200.000000;0.592738
7199.000000;0.596991
7198.000000;0.601382
7197.000000;0.605801
7196.000000;0.610243
7195.000000;0.614773
7194.000000;0.619376
7193.000000;0.624012
7192.000000;0.628758
7191.000000;0.633716
7190.000000;0.638795
7189.000000;0.643759
7188.000000;0.648507
7187.000000;0.653206
7186.000000;0.658106
7185.000000;0.663178
7184.000000;0.668120
7183.000000;0.672809
7182.000000;0.677586
7181.000000;0.682909
7180.000000;0.688860
7179.000000;0.695103
7178.000000;0.701208
7177.000000;0.706982
7176.000000;0.712518
7175.000000;0.717959
7174.000000;0.723352
7173.000000;0.728759
7172.000000;0.734357
7171.000000;0.740344
7170.000000;0.746679
7169.000000;0.753044
7168.000000;0.759005
7167.000000;0.764441
7166.000000;0.769823
7165.000000;0.775587
7164.000000;0.781443
7163.000000;0.786720
7162.000000;0.791405
7161.000000;0.796311
7160.000000;0.802112
7159.000000;0.808635
7158.000000;0.815199
7157.000000;0.821369
7156.000000;0.827214
7155.000000;0.832987
7154.000000;0.838883
7153.000000;0.845039
7152.000000;0.851424
7151.000000;0.857925
7150.000000;0.864573
7149.000000;0.871377
7148.000000;0.878011
7147.000000;0.884092
7146.000000;0.889702
7145.000000;0.895297
7144.000000;0.901175
7143.000000;0.907236
7142.000000;0.913260
7141.000000;0.919166
7140.000000;0.924995
7139.000000;0.930844
7138.000000;0.936829
7137.000000;0.942963
7136.000000;0.949082
7135.000000;0.955007
7134.000000;0.960790
7133.000000;0.966618
7132.000000;0.972457
7131.000000;0.978104
7130.000000;0.983556
7129.000000;0.989036
7128.000000;0.994701
7127.000000;1.000552
7126.000000;1.006538
7125.000000;1.012547
7124.000000;1.018381
7123.000000;1.024027
7122.000000;1.029753
7121.000000;1.035618
7120.000000;1.041183
7119.000000;1.046110
7118.000000;1.050811
7117.000000;1.055952
7116.000000;1.061500
7115.000000;1.066834
7114.000000;1.071707
7113.000000;1.076507
7112.000000;1.081586
7111.000000;1.086825
7110.000000;1.091967
7109.000000;1.097004
7108.000000;1.102005
7107.000000;1.106874
7106.000000;1.111543
7105.000000;1.116052
7104.000000;1.120330
7103.000000;1.124418
7102.000000;1.128763
7101.000000;1.133777
7100.000000;1.139227
7099.000000;1.144418
7098.000000;1.148932
7097.000000;1.152866
7096.000000;1.156483
7095.000000;1.160049
7094.000000;1.163940
7093.000000;1.168404
7092.000000;1.173174
7091.000000;1.177696
7090.000000;1.181728
7089.000000;1.185407
7088.000000;1.188824
7087.000000;1.191966
7086.000000;1.195015
7085.000000;1.198244
7084.000000;1.201628
7083.000000;1.204968
7082.000000;1.208313
7081.000000;1.211839
7080.000000;1.215468
7079.000000;1.218993
7078.000000;1.222389
7077.000000;1.225684
7076.000000;1.228695
7075.000000;1.231251
7074.000000;1.233587
7073.000000;1.236118
7072.000000;1.238957
7071.000000;1.241978
7070.000000;1.245143
7069.000000;1.248406
7068.000000;1.251511
7067.000000;1.254324
7066.000000;1.257134
7065.000000;1.260120
7064.000000;1.262807
7063.000000;1.264724
7062.000000;1.266343
7061.000000;1.268545
7060.000000;1.271378
7059.000000;1.274112
7058.000000;1.276312
7057.000000;1.278204
7056.000000;1.280044
7055.000000;1.281843
7054.000000;1.283753
7053.000000;1.286045
7052.000000;1.288564
7051.000000;1.290805
7050.000000;1.292617
7049.000000;1.294225
7048.000000;1.295608
7047.000000;1.296558
7046.000000;1.297396
7045.000000;1.298883
7044.000000;1.301186
7043.000000;1.303595
7042.000000;1.305495
7041.000000;1.307019
7040.000000;1.308556
7039.000000;1.310204
7038.000000;1.311937
7037.000000;1.313815
7036.000000;1.315765
7035.000000;1.317471
7034.000000;1.318665
7033.000000;1.319348
7032.000000;1.319726
7031.000000;1.320198
7030.000000;1.321251
7029.000000;1.322940
7028.000000;1.324570
7027.000000;1.325377
7026.000000;1.325490
7025.000000;1.325714
7024.000000;1.326459
7023.000000;1.327422
7022.000000;1.328278
7021.000000;1.329056
7020.000000;1.329807
7019.000000;1.330481
7018.000000;1.331150
7017.000000;1.331896
7016.000000;1.332515
7015.000000;1.332854
7014.000000;1.333379
7013.000000;1.334700
7012.000000;1.336504
7011.000000;1.337691
7010.000000;1.337766
7009.000000;1.337459
7008.000000;1.337763
7007.000000;1.338863
7006.000000;1.340249
7005.000000;1.341386
7004.000000;1.342010
7003.000000;1.342103
7002.000000;1.341817
7001.000000;1.341360
7000.000000;1.340882
6999.000000;1.340587
6998.000000;1.340781
6997.000000;1.341518
6996.000000;1.342429
6995.000000;1.343289
6994.000000;1.344422
6993.000000;1.346027
6992.000000;1.347370
6991.000000;1.347373
6990.000000;1.346024
6989.000000;1.344497
6988.000000;1.343801
6987.000000;1.343931
6986.000000;1.344372
6985.000000;1.344778
6984.000000;1.345021
6983.000000;1.345108
6982.000000;1.345237
6981.000000;1.345562
6980.000000;1.345843
6979.000000;1.345752
6978.000000;1.345474
6977.000000;1.345488
6976.000000;1.345727
6975.000000;1.345566
6974.000000;1.344796
6973.000000;1.344072
6972.000000;1.344090
6971.000000;1.344706
6970.000000;1.345204
6969.000000;1.345193
6968.000000;1.344909
6967.000000;1.344737
6966.000000;1.344682
6965.000000;1.344323
6964.000000;1.343330
6963.000000;1.342072
6962.000000;1.341455
6961.000000;1.341925
6960.000000;1.342788
6959.000000;1.342802
6958.000000;1.341429
6957.000000;1.339269
6956.000000;1.337368
6955.000000;1.336373
6954.000000;1.336252
6953.000000;1.336414
6952.000000;1.336165
6951.000000;1.335346
6950.000000;1.334481
6949.000000;1.334109
6948.000000;1.334106
6947.000000;1.333937
6946.000000;1.333432
6945.000000;1.332980
6944.000000;1.332963
6943.000000;1.333280
6942.000000;1.333460
6941.000000;1.333079
6940.000000;1.332151
6939.000000;1.331195
6938.000000;1.330762
6937.000000;1.330787
6936.000000;1.330667
6935.000000;1.330099
6934.000000;1.329442
6933.000000;1.329005
6932.000000;1.328474
6931.000000;1.327477
6930.000000;1.326315
6929.000000;1.325580
6928.000000;1.325307
6927.000000;1.324977
6926.000000;1.324208
6925.000000;1.323046
6924.000000;1.321674
6923.000000;1.320319
6922.000000;1.319348
6921.000000;1.318967
6920.000000;1.318893
6919.000000;1.318647
6918.000000;1.318072
6917.000000;1.317268
6916.000000;1.316209
6915.000000;1.314886
6914.000000;1.313684
6913.000000;1.313090
6912.000000;1.313056
6911.000000;1.313023
6910.000000;1.312557
6909.000000;1.311631
6908.000000;1.310385
6907.000000;1.309000
6906.000000;1.307781
6905.000000;1.307011
6904.000000;1.306655
6903.000000;1.306403
6902.000000;1.306018
6901.000000;1.305469
6900.000000;1.304861
6899.000000;1.304439
6898.000000;1.304435
6897.000000;1.304662
6896.000000;1.304498
6895.000000;1.303522
6894.000000;1.301985
6893.000000;1.300423
6892.000000;1.299092
6891.000000;1.298058
6890.000000;1.297455
6889.000000;1.297186
6888.000000;1.296691
6887.000000;1.295525
6886.000000;1.294024
6885.000000;1.292913
6884.000000;1.292388
6883.000000;1.292027
6882.000000;1.291521
6881.000000;1.291041
6880.000000;1.290817
6879.000000;1.290715
6878.000000;1.290320
6877.000000;1.289282
6876.000000;1.287649
6875.000000;1.285932
6874.000000;1.284683
6873.000000;1.283882
6872.000000;1.282971
6871.000000;1.281621
6870.000000;1.280143
6869.000000;1.278931
6868.000000;1.277874
6867.000000;1.276666
6866.000000;1.275345
6865.000000;1.274167
6864.000000;1.273168
6863.000000;1.272240
6862.000000;1.271453
6861.000000;1.270939
6860.000000;1.270576
6859.000000;1.270081
6858.000000;1.269250
6857.000000;1.267945
6856.000000;1.266084
6855.000000;1.263874
6854.000000;1.261811
6853.000000;1.260209
6852.000000;1.258927
6851.000000;1.257741
6850.000000;1.256650
6849.000000;1.255581
6848.000000;1.254222
6847.000000;1.252522
6846.000000;1.250986
6845.000000;1.250029
6844.000000;1.249333
6843.000000;1.248274
6842.000000;1.246759
6841.000000;1.245128
6840.000000;1.243468
6839.000000;1.241548
6838.000000;1.239347
6837.000000;1.237144
6836.000000;1.235129
6835.000000;1.233292
6834.000000;1.231645
6833.000000;1.230232
6832.000000;1.228932
6831.000000;1.227556
6830.000000;1.226102
6829.000000;1.224679
6828.000000;1.223246
6827.000000;1.221651
6826.000000;1.219818
6825.000000;1.217704
6824.000000;1.215251
6823.000000;1.212591
6822.000000;1.210092
6821.000000;1.207953
6820.000000;1.205968
6819.000000;1.203892
6818.000000;1.201780
6817.000000;1.199692
6816.000000;1.197360
6815.000000;1.194543
6814.000000;1.191500
6813.000000;1.188717
6812.000000;1.186333
6811.000000;1.184173
6810.000000;1.182178
6809.000000;1.180386
6808.000000;1.178580
6807.000000;1.176423
6806.000000;1.173909
6805.000000;1.171336
6804.000000;1.168857
6803.000000;1.166359
6802.000000;1.163784
6801.000000;1.161248
6800.000000;1.158833
6799.000000;1.156485
6798.000000;1.154156
6797.000000;1.151830
6796.000000;1.149418
6795.000000;1.146807
6794.000000;1.144011
6793.000000;1.141172
6792.000000;1.138443
6791.000000;1.135950
6790.000000;1.133738
6789.000000;1.131631
6788.000000;1.129279
6787.000000;1.126515
6786.000000;1.123564
6785.000000;1.120749
6784.000000;1.118110
6783.000000;1.115465
6782.000000;1.112671
6781.000000;1.109654
6780.000000;1.106384
6779.000000;1.103006
6778.000000;1.099862
6777.000000;1.097173
6776.000000;1.094796
6775.000000;1.092466
6774.000000;1.090138
6773.000000;1.087894
6772.000000;1.085658
6771.000000;1.083232
6770.000000;1.080545
6769.000000;1.077674
6768.000000;1.074716
6767.000000;1.071793
6766.000000;1.069047
6765.000000;1.066459
6764.000000;1.063788
6763.000000;1.060857
6762.000000;1.057811
6761.000000;1.054930
6760.000000;1.052268
6759.000000;1.049646
6758.000000;1.046914
6757.000000;1.044086
6756.000000;1.041246
6755.000000;1.038444
6754.000000;1.035643
6753.000000;1.032739
6752.000000;1.029692
6751.000000;1.026664
6750.000000;1.023845
6749.000000;1.021166
6748.000000;1.018383
6747.000000;1.015478
6746.000000;1.012704
6745.000000;1.010159
6744.000000;1.007587
6743.000000;1.004756
6742.000000;1.001756
6741.000000;0.998766
6740.000000;0.995791
6739.000000;0.992827
6738.000000;0.990057
6737.000000;0.987621
6736.000000;0.985315
6735.000000;0.982800
6734.000000;0.980015
6733.000000;0.977196
6732.000000;0.974576
6731.000000;0.972204
6730.000000;0.969943
6729.000000;0.967502
6728.000000;0.964593
6727.000000;0.961239
6726.000000;0.957829
6725.000000;0.954756
6724.000000;0.952078
6723.000000;0.949617
6722.000000;0.947204
6721.000000;0.944689
6720.000000;0.941918
6719.000000;0.938888
6718.000000;0.935829
6717.000000;0.932959
6716.000000;0.930191
6715.000000;0.927318
6714.000000;0.924296
6713.000000;0.921286
6712.000000;0.918494
6711.000000;0.916018
6710.000000;0.913745
6709.000000;0.911440
6708.000000;0.908868
6707.000000;0.906038
6706.000000;0.903260
6705.000000;0.900721
6704.000000;0.898275
6703.000000;0.895801
6702.000000;0.893348
6701.000000;0.890880
6700.000000;0.888156
6699.000000;0.885090
6698.000000;0.882014
6697.000000;0.879304
6696.000000;0.876903
6695.000000;0.874440
6694.000000;0.871737
6693.000000;0.868956
6692.000000;0.866323
6691.000000;0.863896
6690.000000;0.861561
6689.000000;0.859132
6688.000000;0.856500
6687.000000;0.853785
6686.000000;0.851214
6685.000000;0.848784
6684.000000;0.846215
6683.000000;0.843356
6682.000000;0.840435
6681.000000;0.837740
6680.000000;0.835238
6679.000000;0.832726
6678.000000;0.830186
6677.000000;0.827752
6676.000000;0.825445
6675.000000;0.823161
6674.000000;0.820852
6673.000000;0.818504
6672.000000;0.816024
6671.000000;0.813343
6670.000000;0.810579
6669.000000;0.807905
6668.000000;0.805328
6667.000000;0.802766
6666.000000;0.800252
6665.000000;0.797862
6664.000000;0.795506
6663.000000;0.793028
6662.000000;0.790466
6661.000000;0.788020
6660.000000;0.785765
6659.000000;0.783567
6658.000000;0.781268
6657.000000;0.778809
6656.000000;0.776190
6655.000000;0.773461
6654.000000;0.770770
6653.000000;0.768279
6652.000000;0.766009
6651.000000;0.763853
6650.000000;0.761694
6649.000000;0.759434
6648.000000;0.756976
6647.000000;0.754335
6646.000000;0.751716
6645.000000;0.749356
6644.000000;0.747257
6643.000000;0.745197
6642.000000;0.742975
6641.000000;0.740567
6640.000000;0.738068
6639.000000;0.735592
6638.000000;0.733221
6637.000000;0.730950
6636.000000;0.728698
6635.000000;0.726396
6634.000000;0.724057
6633.000000;0.721707
6632.000000;0.719338
6631.000000;0.716988
6630.000000;0.714759
6629.000000;0.712661
6628.000000;0.710540
6627.000000;0.708261
6626.000000;0.705903
6625.000000;0.703651
6624.000000;0.701556
6623.000000;0.699511
6622.000000;0.697396
6621.000000;0.695143
6620.000000;0.692715
6619.000000;0.690178
6618.000000;0.687731
6617.000000;0.685541
6616.000000;0.683553
6615.000000;0.681572
6614.000000;0.679502
6613.000000;0.677404
6612.000000;0.675358
6611.000000;0.673382
6610.000000;0.671466
6609.000000;0.669555
6608.000000;0.667526
6607.000000;0.665289
6606.000000;0.662931
6605.000000;0.660637
6604.000000;0.658479
6603.000000;0.656358
6602.000000;0.654164
6601.000000;0.651901
6600.000000;0.649653
6599.000000;0.647500
6598.000000;0.645485
6597.000000;0.643606
6596.000000;0.641800
6595.000000;0.639976
6594.000000;0.638063
6593.000000;0.636033
6592.000000;0.633899
6591.000000;0.631721
6590.000000;0.629572
6589.000000;0.627469
6588.000000;0.625381
6587.000000;0.623319
6586.000000;0.621348
6585.000000;0.619483
6584.000000;0.617641
6583.000000;0.615749
6582.000000;0.613825
6581.000000;0.611899
6580.000000;0.609922
6579.000000;0.607842
6578.000000;0.605705
6577.000000;0.603603
6576.000000;0.601591
6575.000000;0.599687
6574.000000;0.597911
6573.000000;0.596227
6572.000000;0.594525
6571.000000;0.592737
6570.000000;0.590907
6569.000000;0.589090
6568.000000;0.587239
6567.000000;0.585284
6566.000000;0.583258
6565.000000;0.581245
6564.000000;0.579262
6563.000000;0.577294
6562.000000;0.575386
6561.000000;0.573577
6560.000000;0.571784
6559.000000;0.569874
6558.000000;0.567845
6557.000000;0.565834
6556.000000;0.563950
6555.000000;0.562179
6554.000000;0.560467
6553.000000;0.558782
6552.000000;0.557103
6551.000000;0.555404
6550.000000;0.553688
6549.000000;0.551969
6548.000000;0.550235
6547.000000;0.548455
6546.000000;0.546636
6545.000000;0.544821
6544.000000;0.543044
6543.000000;0.541325
6542.000000;0.539693
6541.000000;0.538141
6540.000000;0.536591
6539.000000;0.534945
6538.000000;0.533179
6537.000000;0.531357
6536.000000;0.529551
6535.000000;0.527806
6534.000000;0.526151
6533.000000;0.524584
6532.000000;0.523053
6531.000000;0.521485
6530.000000;0.519856
6529.000000;0.518188
6528.000000;0.516510
6527.000000;0.514832
6526.000000;0.513150
6525.000000;0.511455
6524.000000;0.509748
6523.000000;0.508062
6522.000000;0.506436
6521.000000;0.504859
6520.000000;0.503266
6519.000000;0.501630
6518.000000;0.499988
6517.000000;0.498372
6516.000000;0.496760
6515.000000;0.495131
6514.000000;0.493515
6513.000000;0.491944
6512.000000;0.490398
6511.000000;0.488864
6510.000000;0.487373
6509.000000;0.485941
6508.000000;0.484506
6507.000000;0.482979
6506.000000;0.481339
6505.000000;0.479643
6504.000000;0.477968
6503.000000;0.476388
6502.000000;0.474947
6501.000000;0.473607
6500.000000;0.472261
6499.000000;0.470844
6498.000000;0.469384
6497.000000;0.467915
6496.000000;0.466400
6495.000000;0.464811
6494.000000;0.463221
6493.000000;0.461732
6492.000000;0.460333
6491.000000;0.458920
6490.000000;0.457430
6489.000000;0.455885
6488.000000;0.454335
6487.000000;0.452827
6486.000000;0.451411
6485.000000;0.450110
6484.000000;0.448875
6483.000000;0.447629
6482.000000;0.446345
6481.000000;0.445027
6480.000000;0.443659
6479.000000;0.442212
6478.000000;0.440693
6477.000000;0.439135
6476.000000;0.437538
6475.000000;0.435913
6474.000000;0.434340
6473.000000;0.432914
6472.000000;0.431626
6471.000000;0.430366
6470.000000;0.429050
6469.000000;0.427688
6468.000000;0.426333
6467.000000;0.425016
6466.000000;0.423767
6465.000000;0.422598
6464.000000;0.421454
6463.000000;0.420224
6462.000000;0.418846
6461.000000;0.417382
6460.000000;0.415954
6459.000000;0.414632
6458.000000;0.413404
6457.000000;0.412220
6456.000000;0.411028
6455.000000;0.409788
6454.000000;0.408474
6453.000000;0.407089
6452.000000;0.405668
6451.000000;0.404255
6450.000000;0.402880
6449.000000;0.401554
6448.000000;0.400274
6447.000000;0.399036
6446.000000;0.397834
6445.000000;0.396652
6444.000000;0.395469
6443.000000;0.394284
6442.000000;0.393088
6441.000000;0.391850
6440.000000;0.390537
6439.000000;0.389177
6438.000000;0.387849
6437.000000;0.386603
6436.000000;0.385414
6435.000000;0.384231
6434.000000;0.383039
6433.000000;0.381857
6432.000000;0.380684
6431.000000;0.379512
6430.000000;0.378359
6429.000000;0.377250
6428.000000;0.376174
6427.000000;0.375077
6426.000000;0.373913
6425.000000;0.372695
6424.000000;0.371491
6423.000000;0.370357
6422.000000;0.369284
6421.000000;0.368211
6420.000000;0.367093
6419.000000;0.365952
6418.000000;0.364833
6417.000000;0.363737
6416.000000;0.362629
6415.000000;0.361499
6414.000000;0.360366
6413.000000;0.359233
6412.000000;0.358077
6411.000000;0.356915
6410.000000;0.355806
6409.000000;0.354772
6408.000000;0.353739
6407.000000;0.352624
6406.000000;0.351433
6405.000000;0.350247
6404.000000;0.349123
6403.000000;0.348060
6402.000000;0.347031
6401.000000;0.346014
6400.000000;0.344987
6399.000000;0.343933
6398.000000;0.342847
6397.000000;0.341741
6396.000000;0.340637
6395.000000;0.339568
6394.000000;0.338565
6393.000000;0.337632
6392.000000;0.336736
6391.000000;0.335845
6390.000000;0.334948
6389.000000;0.334029
6388.000000;0.333037
6387.000000;0.331922
6386.000000;0.330707
6385.000000;0.329489
6384.000000;0.328376
6383.000000;0.327403
6382.000000;0.326513
6381.000000;0.325612
6380.000000;0.324643
6379.000000;0.323618
6378.000000;0.322574
6377.000000;0.321530
6376.000000;0.320484
6375.000000;0.319444
6374.000000;0.318433
6373.000000;0.317465
6372.000000;0.316554
6371.000000;0.315713
6370.000000;0.314919
6369.000000;0.314105
6368.000000;0.313205
6367.000000;0.312233
6366.000000;0.311252
6365.000000;0.310288
6364.000000;0.309303
6363.000000;0.308273
6362.000000;0.307235
6361.000000;0.306249
6360.000000;0.305339
6359.000000;0.304489
6358.000000;0.303667
6357.000000;0.302835
6356.000000;0.301970
6355.000000;0.301080
6354.000000;0.300183
6353.000000;0.299275
6352.000000;0.298338
6351.000000;0.297385
6350.000000;0.296447
6349.000000;0.295521
6348.000000;0.294583
6347.000000;0.293650
6346.000000;0.292782
6345.000000;0.291996
6344.000000;0.291227
6343.000000;0.290416
6342.000000;0.289581
6341.000000;0.288776
6340.000000;0.287999
6339.000000;0.287199
6338.000000;0.286349
6337.000000;0.285476
6336.000000;0.284622
6335.000000;0.283803
6334.000000;0.283002
6333.000000;0.282189
6332.000000;0.281345
6331.000000;0.280481
6330.000000;0.279624
6329.000000;0.278794
6328.000000;0.277988
6327.000000;0.277187
6326.000000;0.276365
6325.000000;0.275492
6324.000000;0.274574
6323.000000;0.273669
6322.000000;0.272837
6321.000000;0.272082
6320.000000;0.271350
6319.000000;0.270589
6318.000000;0.269784
6317.000000;0.268938
6316.000000;0.268070
6315.000000;0.267218
6314.000000;0.266424
6313.000000;0.265683
6312.000000;0.264961
6311.000000;0.264245
6310.000000;0.263539
6309.000000;0.262821
6308.000000;0.262053
6307.000000;0.261243
6306.000000;0.260450
6305.000000;0.259710
6304.000000;0.258998
6303.000000;0.258289
6302.000000;0.257604
6301.000000;0.256956
6300.000000;0.256303
6299.000000;0.255592
6298.000000;0.254829
6297.000000;0.254074
6296.000000;0.253363
6295.000000;0.252679
6294.000000;0.251981
6293.000000;0.251244
6292.000000;0.250474
6291.000000;0.249705
6290.000000;0.248965
6289.000000;0.248256
6288.000000;0.247554
6287.000000;0.246844
6286.000000;0.246117
6285.000000;0.245366
6284.000000;0.244597
6283.000000;0.243856
6282.000000;0.243194
6281.000000;0.242597
6280.000000;0.241995
6279.000000;0.241339
6278.000000;0.240647
6277.000000;0.239953
6276.000000;0.239250
6275.000000;0.238515
6274.000000;0.237764
6273.000000;0.237046
6272.000000;0.236385
6271.000000;0.235765
6270.000000;0.235148
6269.000000;0.234504
6268.000000;0.233826
6267.000000;0.233126
6266.000000;0.232422
6265.000000;0.231733
6264.000000;0.231078
6263.000000;0.230476
6262.000000;0.229916
6261.000000;0.229354
6260.000000;0.228752
6259.000000;0.228116
6258.000000;0.227474
6257.000000;0.226820
6256.000000;0.226127
6255.000000;0.225402
6254.000000;0.224700
6253.000000;0.224055
6252.000000;0.223438
6251.000000;0.222795
6250.000000;0.222093
6249.000000;0.221345
6248.000000;0.220611
6247.000000;0.219974
6246.000000;0.219473
6245.000000;0.219050
6244.000000;0.218593
6243.000000;0.218031
6242.000000;0.217378
6241.000000;0.216689
6240.000000;0.216003
6239.000000;0.215341
6238.000000;0.214715
6237.000000;0.214119
6236.000000;0.213536
6235.000000;0.212964
6234.000000;0.212408
6233.000000;0.211847
6232.000000;0.211248
6231.000000;0.210606
6230.000000;0.209955
6229.000000;0.209324
6228.000000;0.208717
6227.000000;0.208139
6226.000000;0.207601
6225.000000;0.207096
6224.000000;0.206588
6223.000000;0.206052
6222.000000;0.205482
6221.000000;0.204878
6220.000000;0.204250
6219.000000;0.203630
6218.000000;0.203049
6217.000000;0.202490
6216.000000;0.201911
6215.000000;0.201320
6214.000000;0.200766
6213.000000;0.200263
6212.000000;0.199754
6211.000000;0.199194
6210.000000;0.198602
6209.000000;0.198029
6208.000000;0.197492
6207.000000;0.196980
6206.000000;0.196492
6205.000000;0.196029
6204.000000;0.195587
6203.000000;0.195149
6202.000000;0.194698
6201.000000;0.194197
6200.000000;0.193606
6199.000000;0.192930
6198.000000;0.192236
6197.000000;0.191599
6196.000000;0.191040
6195.000000;0.190537
6194.000000;0.190056
6193.000000;0.189561
6192.000000;0.189036
6191.000000;0.188490
6190.000000;0.187958
6189.000000;0.187456
6188.000000;0.186981
6187.000000;0.186518
6186.000000;0.186040
6185.000000;0.185505
6184.000000;0.184888
6183.000000;0.184237
6182.000000;0.183633
6181.000000;0.183112
6180.000000;0.182640
6179.000000;0.182183
6178.000000;0.181745
6177.000000;0.181323
6176.000000;0.180875
6175.000000;0.180369
6174.000000;0.179826
6173.000000;0.179285
6172.000000;0.178759
6171.000000;0.178246
6170.000000;0.177760
6169.000000;0.177319
6168.000000;0.176908
6167.000000;0.176501
6166.000000;0.176082
6165.000000;0.175644
6164.000000;0.175178
6163.000000;0.174684
6162.000000;0.174185
6161.000000;0.173699
6160.000000;0.173221
6159.000000;0.172745
6158.000000;0.172283
6157.000000;0.171846
6156.000000;0.171419
6155.000000;0.170973
6154.000000;0.170498
6153.000000;0.169998
6152.000000;0.169472
6151.000000;0.168931
6150.000000;0.168404
6149.000000;0.167906
6148.000000;0.167425
6147.000000;0.166947
6146.000000;0.166478
6145.000000;0.166030
6144.000000;0.165593
6143.000000;0.165148
6142.000000;0.164690
6141.000000;0.164230
6140.000000;0.163776
6139.000000;0.163327
6138.000000;0.162886
6137.000000;0.162463
6136.000000;0.162060
6135.000000;0.161668
6134.000000;0.161267
6133.000000;0.160832
6132.000000;0.160351
6131.000000;0.159839
6130.000000;0.159337
6129.000000;0.158878
6128.000000;0.158471
6127.000000;0.158097
6126.000000;0.157733
6125.000000;0.157355
6124.000000;0.156960
6123.000000;0.156562
6122.000000;0.156174
6121.000000;0.155782
6120.000000;0.155367
6119.000000;0.154937
6118.000000;0.154509
6117.000000;0.154082
6116.000000;0.153635
6115.000000;0.153164
6114.000000;0.152685
6113.000000;0.152204
6112.000000;0.151720
6111.000000;0.151253
6110.000000;0.150844
6109.000000;0.150497
6108.000000;0.150160
6107.000000;0.149784
6106.000000;0.149374
6105.000000;0.148974
6104.000000;0.148614
6103.000000;0.148298
6102.000000;0.148009
6101.000000;0.147716
6100.000000;0.147380
6099.000000;0.146977
6098.000000;0.146523
6097.000000;0.146055
6096.000000;0.145602
6095.000000;0.145173
6094.000000;0.144764
6093.000000;0.144375
6092.000000;0.144010
6091.000000;0.143669
6090.000000;0.143338
6089.000000;0.143000
6088.000000;0.142652
6087.000000;0.142305
6086.000000;0.141952
6085.000000;0.141559
6084.000000;0.141112
6083.000000;0.140649
6082.000000;0.140227
6081.000000;0.139864
6080.000000;0.139539
6079.000000;0.139235
6078.000000;0.138945
6077.000000;0.138640
6076.000000;0.138285
6075.000000;0.137882
6074.000000;0.137483
6073.000000;0.137130
6072.000000;0.136806
6071.000000;0.136460
6070.000000;0.136063
6069.000000;0.135634
6068.000000;0.135223
6067.000000;0.134870
6066.000000;0.134572
6065.000000;0.134285
6064.000000;0.133973
6063.000000;0.133642
6062.000000;0.133316
6061.000000;0.132995
6060.000000;0.132662
6059.000000;0.132321
6058.000000;0.131991
6057.000000;0.131678
6056.000000;0.131373
6055.000000;0.131084
6054.000000;0.130823
6053.000000;0.130571
6052.000000;0.130280
6051.000000;0.129926
6050.000000;0.129523
6049.000000;0.129099
6048.000000;0.128683
6047.000000;0.128321
6046.000000;0.128048
6045.000000;0.127854
6044.000000;0.127684
6043.000000;0.127486
6042.000000;0.127239
6041.000000;0.126934
6040.000000;0.126573
6039.000000;0.126184
6038.000000;0.125809
6037.000000;0.125464
6036.000000;0.125134
6035.000000;0.124815
6034.000000;0.124525
6033.000000;0.124272
6032.000000;0.124032
6031.000000;0.123771
6030.000000;0.123470
6029.000000;0.123126
6028.000000;0.122758
6027.000000;0.122409
6026.000000;0.122116
6025.000000;0.121877
6024.000000;0.121652
6023.000000;0.121414
6022.000000;0.121158
6021.000000;0.120887
6020.000000;0.120597
6019.000000;0.120300
6018.000000;0.120024
6017.000000;0.119784
6016.000000;0.119574
6015.000000;0.119383
6014.000000;0.119202
6013.000000;0.119008
6012.000000;0.118772
6011.000000;0.118489
6010.000000;0.118180
6009.000000;0.117856
6008.000000;0.117524
6007.000000;0.117205
6006.000000;0.116923
6005.000000;0.116667
6004.000000;0.116404
6003.000000;0.116126
6002.000000;0.115855
6001.000000;0.115604
6000.000000;0.115364
5999.000000;0.115140
5998.000000;0.114961
5997.000000;0.114826
5996.000000;0.114685
5995.000000;0.114493
5994.000000;0.114262
5993.000000;0.114025
5992.000000;0.113793
5991.000000;0.113556
5990.000000;0.113317
5989.000000;0.113086
5988.000000;0.112859
5987.000000;0.112628
5986.000000;0.112402
5985.000000;0.112201
5984.000000;0.112029
5983.000000;0.111867
5982.000000;0.111686
5981.000000;0.111466
5980.000000;0.111204
5979.000000;0.110924
5978.000000;0.110661
5977.000000;0.110440
5976.000000;0.110258
5975.000000;0.110094
5974.000000;0.109922
5973.000000;0.109723
5972.000000;0.109494
5971.000000;0.109256
5970.000000;0.109035
5969.000000;0.108835
5968.000000;0.108641
5967.000000;0.108441
5966.000000;0.108232
5965.000000;0.108018
5964.000000;0.107816
5963.000000;0.107647
5962.000000;0.107507
5961.000000;0.107361
5960.000000;0.107182
5959.000000;0.106994
5958.000000;0.106845
5957.000000;0.106742
5956.000000;0.106649
5955.000000;0.106545
5954.000000;0.106441
5953.000000;0.106345
5952.000000;0.106243
5951.000000;0.106122
5950.000000;0.105987
5949.000000;0.105843
5948.000000;0.105687
5947.000000;0.105524
5946.000000;0.105371
5945.000000;0.105232
5944.000000;0.105093
5943.000000;0.104947
5942.000000;0.104801
5941.000000;0.104671
5940.000000;0.104565
5939.000000;0.104491
5938.000000;0.104436
5937.000000;0.104358
5936.000000;0.104217
5935.000000;0.104024
5934.000000;0.103827
5933.000000;0.103659
5932.000000;0.103515
5931.000000;0.103377
5930.000000;0.103239
5929.000000;0.103096
5928.000000;0.102950
5927.000000;0.102823
5926.000000;0.102736
5925.000000;0.102676
5924.000000;0.102612
5923.000000;0.102543
5922.000000;0.102488
5921.000000;0.102443
5920.000000;0.102377
5919.000000;0.102279
5918.000000;0.102175
5917.000000;0.102085
5916.000000;0.101991
5915.000000;0.101875
5914.000000;0.101753
5913.000000;0.101647
5912.000000;0.101556
5911.000000;0.101477
5910.000000;0.101410
5909.000000;0.101336
5908.000000;0.101218
5907.000000;0.101050
5906.000000;0.100876
5905.000000;0.100741
5904.000000;0.100646
5903.000000;0.100569
5902.000000;0.100501
5901.000000;0.100441
5900.000000;0.100372
5899.000000;0.100276
5898.000000;0.100165
5897.000000;0.100068
5896.000000;0.099998
5895.000000;0.099955
5894.000000;0.099936
5893.000000;0.099929
5892.000000;0.099901
5891.000000;0.099828
5890.000000;0.099726
5889.000000;0.099645
5888.000000;0.099621
5887.000000;0.099645
5886.000000;0.099679
5885.000000;0.099686
5884.000000;0.099650
5883.000000;0.099573
5882.000000;0.099473
5881.000000;0.099375
5880.000000;0.099294
5879.000000;0.099232
5878.000000;0.099192
5877.000000;0.099177
5876.000000;0.099189
5875.000000;0.099218
5874.000000;0.099249
5873.000000;0.099270
5872.000000;0.099290
5871.000000;0.099328
5870.000000;0.099379
5869.000000;0.099413
5868.000000;0.099404
5867.000000;0.099360
5866.000000;0.099309
5865.000000;0.099272
5864.000000;0.099255
5863.000000;0.099274
5862.000000;0.099344
5861.000000;0.099454
5860.000000;0.099560
5859.000000;0.099622
5858.000000;0.099635
5857.000000;0.099630
5856.000000;0.099647
5855.000000;0.099709
5854.000000;0.099805
5853.000000;0.099891
5852.000000;0.099940
5851.000000;0.099963
5850.000000;0.099992
5849.000000;0.100041
5848.000000;0.100096
5847.000000;0.100145
5846.000000;0.100193
5845.000000;0.100248
5844.000000;0.100310
5843.000000;0.100370
5842.000000;0.100429
5841.000000;0.100495
5840.000000;0.100580
5839.000000;0.100691
5838.000000;0.100819
5837.000000;0.100945
5836.000000;0.101061
5835.000000;0.101184
5834.000000;0.101326
5833.000000;0.101480
5832.000000;0.101627
5831.000000;0.101761
5830.000000;0.101883
5829.000000;0.101982
5828.000000;0.102048
5827.000000;0.102103
5826.000000;0.102197
5825.000000;0.102368
5824.000000;0.102604
5823.000000;0.102854
5822.000000;0.103061
5821.000000;0.103200
5820.000000;0.103296
5819.000000;0.103395
5818.000000;0.103530
5817.000000;0.103695
5816.000000;0.103877
5815.000000;0.104071
5814.000000;0.104273
5813.000000;0.104469
5812.000000;0.104650
5811.000000;0.104823
5810.000000;0.104999
5809.000000;0.105167
5808.000000;0.105308
5807.000000;0.105432
5806.000000;0.105582
5805.000000;0.105796
5804.000000;0.106077
5803.000000;0.106389
5802.000000;0.106674
5801.000000;0.106892
5800.000000;0.107048
5799.000000;0.107188
5798.000000;0.107353
5797.000000;0.107550
5796.000000;0.107769
5795.000000;0.107999
5794.000000;0.108224
5793.000000;0.108435
5792.000000;0.108645
5791.000000;0.108893
5790.000000;0.109195
5789.000000;0.109523
5788.000000;0.109835
5787.000000;0.110124
5786.000000;0.110417
5785.000000;0.110731
5784.000000;0.111058
5783.000000;0.111375
5782.000000;0.111668
5781.000000;0.111944
5780.000000;0.112230
5779.000000;0.112548
5778.000000;0.112890
5777.000000;0.113219
5776.000000;0.113511
5775.000000;0.113781
5774.000000;0.114045
5773.000000;0.114305
5772.000000;0.114564
5771.000000;0.114847
5770.000000;0.115173
5769.000000;0.115533
5768.000000;0.115898
5767.000000;0.116250
5766.000000;0.116579
5765.000000;0.116883
5764.000000;0.117177
5763.000000;0.117489
5762.000000;0.117827
5761.000000;0.118178
5760.000000;0.118544
5759.000000;0.118948
5758.000000;0.119385
5757.000000;0.119805
5756.000000;0.120173
5755.000000;0.120528
5754.000000;0.120943
5753.000000;0.121439
5752.000000;0.121968
5751.000000;0.122477
5750.000000;0.122949
5749.000000;0.123390
5748.000000;0.123811
5747.000000;0.124214
5746.000000;0.124593
5745.000000;0.124952
5744.000000;0.125332
5743.000000;0.125785
5742.000000;0.126325
5741.000000;0.126903
5740.000000;0.127470
5739.000000;0.128022
5738.000000;0.128564
5737.000000;0.129072
5736.000000;0.129514
5735.000000;0.129909
5734.000000;0.130316
5733.000000;0.130780
5732.000000;0.131297
5731.000000;0.131841
5730.000000;0.132380
5729.000000;0.132885
5728.000000;0.133359
5727.000000;0.133842
5726.000000;0.134372
5725.000000;0.134943
5724.000000;0.135514
5723.000000;0.136056
5722.000000;0.136568
5721.000000;0.137063
5720.000000;0.137558
5719.000000;0.138066
5718.000000;0.138590
5717.000000;0.139134
5716.000000;0.139714
5715.000000;0.140353
5714.000000;0.141040
5713.000000;0.141735
5712.000000;0.142416
5711.000000;0.143097
5710.000000;0.143771
5709.000000;0.144385
5708.000000;0.144901
5707.000000;0.145360
5706.000000;0.145846
5705.000000;0.146402
5704.000000;0.147006
5703.000000;0.147618
5702.000000;0.148209
5701.000000;0.148802
5700.000000;0.149418
5699.000000;0.150084
5698.000000;0.150780
5697.000000;0.151441
5696.000000;0.152049
5695.000000;0.152660
5694.000000;0.153328
5693.000000;0.154036
5692.000000;0.154724
5691.000000;0.155371
5690.000000;0.155987
5689.000000;0.156576
5688.000000;0.157148
5687.000000;0.157750
5686.000000;0.158431
5685.000000;0.159177
5684.000000;0.159913
5683.000000;0.160580
5682.000000;0.161175
5681.000000;0.161735
5680.000000;0.162310
5679.000000;0.162941
5678.000000;0.163634
5677.000000;0.164348
5676.000000;0.165036
5675.000000;0.165686
5674.000000;0.166310
5673.000000;0.166918
5672.000000;0.167529
5671.000000;0.168167
5670.000000;0.168829
5669.000000;0.169477
5668.000000;0.170096
5667.000000;0.170736
5666.000000;0.171451
5665.000000;0.172222
5664.000000;0.172976
5663.000000;0.173663
5662.000000;0.174269
5661.000000;0.174785
5660.000000;0.175221
5659.000000;0.175650
5658.000000;0.176156
5657.000000;0.176759
5656.000000;0.177406
5655.000000;0.178045
5654.000000;0.178668
5653.000000;0.179289
5652.000000;0.179912
5651.000000;0.180535
5650.000000;0.181161
5649.000000;0.181786
5648.000000;0.182406
5647.000000;0.183023
5646.000000;0.183624
5645.000000;0.184180
5644.000000;0.184671
5643.000000;0.185132
5642.000000;0.185621
5641.000000;0.186162
5640.000000;0.186728
5639.000000;0.187270
5638.000000;0.187763
5637.000000;0.188224
5636.000000;0.188699
5635.000000;0.189227
5634.000000;0.189795
5633.000000;0.190347
5632.000000;0.190835
5631.000000;0.191249
5630.000000;0.191607
5629.000000;0.191933
5628.000000;0.192263
5627.000000;0.192631
5626.000000;0.193038
5625.000000;0.193447
5624.000000;0.193839
5623.000000;0.194230
5622.000000;0.194628
5621.000000;0.195019
5620.000000;0.195398
5619.000000;0.195779
5618.000000;0.196171
5617.000000;0.196557
5616.000000;0.196938
5615.000000;0.197337
5614.000000;0.197748
5613.000000;0.198116
5612.000000;0.198408
5611.000000;0.198670
5610.000000;0.198965
5609.000000;0.199300
5608.000000;0.199647
5607.000000;0.199989
5606.000000;0.200316
5605.000000;0.200607
5604.000000;0.200861
5603.000000;0.201113
5602.000000;0.201379
5601.000000;0.201611
5600.000000;0.201753
5599.000000;0.201815
5598.000000;0.201864
5597.000000;0.201964
5596.000000;0.202148
5595.000000;0.202401
5594.000000;0.202655
5593.000000;0.202832
5592.000000;0.202933
5591.000000;0.203038
5590.000000;0.203201
5589.000000;0.203382
5588.000000;0.203528
5587.000000;0.203647
5586.000000;0.203766
5585.000000;0.203870
5584.000000;0.203930
5583.000000;0.203954
5582.000000;0.203958
5581.000000;0.203936
5580.000000;0.203892
5579.000000;0.203863
5578.000000;0.203883
5577.000000;0.203947
5576.000000;0.204041
5575.000000;0.204170
5574.000000;0.204293
5573.000000;0.204329
5572.000000;0.204257
5571.000000;0.204161
5570.000000;0.204130
5569.000000;0.204161
5568.000000;0.204196
5567.000000;0.204211
5566.000000;0.204198
5565.000000;0.204128
5564.000000;0.204001
5563.000000;0.203895
5562.000000;0.203891
5561.000000;0.203968
5560.000000;0.204051
5559.000000;0.204094
5558.000000;0.204089
5557.000000;0.204028
5556.000000;0.203924
5555.000000;0.203818
5554.000000;0.203730
5553.000000;0.203631
5552.000000;0.203520
5551.000000;0.203453
5550.000000;0.203467
5549.000000;0.203507
5548.000000;0.203484
5547.000000;0.203369
5546.000000;0.203199
5545.000000;0.203017
5544.000000;0.202867
5543.000000;0.202777
5542.000000;0.202735
5541.000000;0.202725
5540.000000;0.202758
5539.000000;0.202825
5538.000000;0.202829
5537.000000;0.202665
5536.000000;0.202353
5535.000000;0.202038
5534.000000;0.201824
5533.000000;0.201704
5532.000000;0.201635
5531.000000;0.201597
5530.000000;0.201570
5529.000000;0.201518
5528.000000;0.201448
5527.000000;0.201423
5526.000000;0.201480
5525.000000;0.201564
5524.000000;0.201608
5523.000000;0.201597
5522.000000;0.201537
5521.000000;0.201438
5520.000000;0.201327
5519.000000;0.201240
5518.000000;0.201176
5517.000000;0.201092
5516.000000;0.200988
5515.000000;0.200915
5514.000000;0.200896
5513.000000;0.200924
5512.000000;0.201014
5511.000000;0.201174
5510.000000;0.201322
5509.000000;0.201355
5508.000000;0.201271
5507.000000;0.201155
5506.000000;0.201048
5505.000000;0.200919
5504.000000;0.200795
5503.000000;0.200759
5502.000000;0.200800
5501.000000;0.200857
5500.000000;0.200899
5499.000000;0.200945
5498.000000;0.201070
5497.000000;0.201317
5496.000000;0.201657
5495.000000;0.201992
5494.000000;0.202234
5493.000000;0.202385
5492.000000;0.202479
5491.000000;0.202511
5490.000000;0.202436
5489.000000;0.202243
5488.000000;0.201999
5487.000000;0.201787
5486.000000;0.201649
5485.000000;0.201591
5484.000000;0.201683
5483.000000;0.201997
5482.000000;0.202385
5481.000000;0.202681
5480.000000;0.202982
5479.000000;0.203449
5478.000000;0.204002
5477.000000;0.204412
5476.000000;0.204666
5475.000000;0.204899
5474.000000;0.205074
5473.000000;0.205114
5472.000000;0.205142
5471.000000;0.205311
5470.000000;0.205581
5469.000000;0.205902
5468.000000;0.206343
5467.000000;0.206898
5466.000000;0.207423
5465.000000;0.207846
5464.000000;0.208301
5463.000000;0.208866
5462.000000;0.209341
5461.000000;0.209600
5460.000000;0.209855
5459.000000;0.210230
5458.000000;0.210544
5457.000000;0.210732
5456.000000;0.211059
5455.000000;0.211708
5454.000000;0.212556
5453.000000;0.213420
5452.000000;0.214255
5451.000000;0.215055
5450.000000;0.215804
5449.000000;0.216630
5448.000000;0.217582
5447.000000;0.218400
5446.000000;0.218933
5445.000000;0.219420
5444.000000;0.220111
5443.000000;0.220912
5442.000000;0.221584
5441.000000;0.222146
5440.000000;0.222857
5439.000000;0.223840
5438.000000;0.224967
5437.000000;0.226112
5436.000000;0.227258
5435.000000;0.228338
5434.000000;0.229333
5433.000000;0.230419
5432.000000;0.231655
5431.000000;0.232781
5430.000000;0.233696
5429.000000;0.234683
5428.000000;0.235883
5427.000000;0.237115
5426.000000;0.238265
5425.000000;0.239427
5424.000000;0.240703
5423.000000;0.242101
5422.000000;0.243642
5421.000000;0.245316
5420.000000;0.247075
5419.000000;0.248986
5418.000000;0.251138
5417.000000;0.253451
5416.000000;0.255683
5415.000000;0.257716
5414.000000;0.259677
5413.000000;0.261632
5412.000000;0.263495
5411.000000;0.265259
5410.000000;0.267068
5409.000000;0.269071
5408.000000;0.271257
5407.000000;0.273511
5406.000000;0.275753
5405.000000;0.278058
5404.000000;0.280564
5403.000000;0.283227
5402.000000;0.286050
5401.000000;0.289078
5400.000000;0.292160
5399.000000;0.295231
5398.000000;0.298396
5397.000000;0.301694
5396.000000;0.305051
5395.000000;0.308438
5394.000000;0.311965
5393.000000;0.315581
5392.000000;0.319117
5391.000000;0.322677
5390.000000;0.326499
5389.000000;0.330575
5388.000000;0.334692
5387.000000;0.338808
5386.000000;0.343095
5385.000000;0.347683
5384.000000;0.352426
5383.000000;0.357121
5382.000000;0.361940
5381.000000;0.367106
5380.000000;0.372435
5379.000000;0.377672
5378.000000;0.382952
5377.000000;0.388544
5376.000000;0.394373
5375.000000;0.400241
5374.000000;0.406275
5373.000000;0.412620
5372.000000;0.419141
5371.000000;0.425744
5370.000000;0.432570
5369.000000;0.439729
5368.000000;0.447132
5367.000000;0.454720
5366.000000;0.462581
5365.000000;0.470797
5364.000000;0.479243
5363.000000;0.487800
5362.000000;0.496639
5361.000000;0.505847
5360.000000;0.515240
5359.000000;0.524812
5358.000000;0.534859
5357.000000;0.545415
5356.000000;0.556040
5355.000000;0.566547
5354.000000;0.577405
5353.000000;0.588989
5352.000000;0.600906
5351.000000;0.612644
5350.000000;0.624480
5349.000000;0.637011
5348.000000;0.650197
5347.000000;0.663603
5346.000000;0.677243
5345.000000;0.691449
5344.000000;0.706103
5343.000000;0.720788
5342.000000;0.735579
5341.000000;0.750767
5340.000000;0.766400
5339.000000;0.782608
5338.000000;0.799574
5337.000000;0.817078
5336.000000;0.834602
5335.000000;0.852005
5334.000000;0.869714
5333.000000;0.888226
5332.000000;0.907486
5331.000000;0.927084
5330.000000;0.946992
5329.000000;0.967460
5328.000000;0.988507
5327.000000;1.010126
5326.000000;1.032428
5325.000000;1.055114
5324.000000;1.077487
5323.000000;1.099416
5322.000000;1.121760
5321.000000;1.145233
5320.000000;1.169424
5319.000000;1.193637
5318.000000;1.218035
5317.000000;1.243038
5316.000000;1.268257
5315.000000;1.293091
5314.000000;1.317622
5313.000000;1.342016
5312.000000;1.365654
5311.000000;1.387987
5310.000000;1.409759
5309.000000;1.432088
5308.000000;1.454851
5307.000000;1.477123
5306.000000;1.498667
5305.000000;1.519620
5304.000000;1.539412
5303.000000;1.557531
5302.000000;1.574519
5301.000000;1.590813
5300.000000;1.605771
5299.000000;1.619416
5298.000000;1.633592
5297.000000;1.649410
5296.000000;1.665253
5295.000000;1.678962
5294.000000;1.690235
5293.000000;1.699436
5292.000000;1.706237
5291.000000;1.711386
5290.000000;1.717410
5289.000000;1.725329
5288.000000;1.732947
5287.000000;1.738353
5286.000000;1.742637
5285.000000;1.747107
5284.000000;1.750710
5283.000000;1.752531
5282.000000;1.754190
5281.000000;1.757158
5280.000000;1.760234
5279.000000;1.762030
5278.000000;1.763334
5277.000000;1.764850
5276.000000;1.765476
5275.000000;1.764910
5274.000000;1.765237
5273.000000;1.767606
5272.000000;1.769860
5271.000000;1.769705
5270.000000;1.768089
5269.000000;1.767318
5268.000000;1.768001
5267.000000;1.769544
5266.000000;1.771509
5265.000000;1.772840
5264.000000;1.772064
5263.000000;1.770115
5262.000000;1.769844
5261.000000;1.771483
5260.000000;1.772006
5259.000000;1.770306
5258.000000;1.769406
5257.000000;1.771517
5256.000000;1.774435
5255.000000;1.775156
5254.000000;1.774359
5253.000000;1.774348
5252.000000;1.774937
5251.000000;1.774325
5250.000000;1.772409
5249.000000;1.770511
5248.000000;1.769013
5247.000000;1.767786
5246.000000;1.767440
5245.000000;1.768080
5244.000000;1.768456
5243.000000;1.768113
5242.000000;1.768416
5241.000000;1.769703
5240.000000;1.769847
5239.000000;1.767615
5238.000000;1.765272
5237.000000;1.765704
5236.000000;1.768778
5235.000000;1.772114
5234.000000;1.774043
5233.000000;1.774286
5232.000000;1.773073
5231.000000;1.771355
5230.000000;1.770648
5229.000000;1.771185
5228.000000;1.771586
5227.000000;1.771446
5226.000000;1.772395
5225.000000;1.775214
5224.000000;1.777948
5223.000000;1.778639
5222.000000;1.777923
5221.000000;1.777313
5220.000000;1.776810
5219.000000;1.775712
5218.000000;1.773997
5217.000000;1.771618
5216.000000;1.768307
5215.000000;1.765297
5214.000000;1.765172
5213.000000;1.768621
5212.000000;1.773218
5211.000000;1.776577
5210.000000;1.778724
5209.000000;1.780148
5208.000000;1.780046
5207.000000;1.778171
5206.000000;1.776007
5205.000000;1.774597
5204.000000;1.773446
5203.000000;1.772552
5202.000000;1.773139
5201.000000;1.775116
5200.000000;1.776144
5199.000000;1.774795
5198.000000;1.772635
5197.000000;1.771663
5196.000000;1.771737
5195.000000;1.772144
5194.000000;1.773451
5193.000000;1.775871
5192.000000;1.777729
5191.000000;1.777527
5190.000000;1.776128
5189.000000;1.775383
5188.000000;1.776073
5187.000000;1.778048
5186.000000;1.780631
5185.000000;1.782091
5184.000000;1.780630
5183.000000;1.776930
5182.000000;1.773698
5181.000000;1.772063
5180.000000;1.770647
5179.000000;1.768713
5178.000000;1.767699
5177.000000;1.768652
5176.000000;1.770622
5175.000000;1.772740
5174.000000;1.775566
5173.000000;1.779080
5172.000000;1.781541
5171.000000;1.781838
5170.000000;1.780982
5169.000000;1.780011
5168.000000;1.778535
5167.000000;1.776520
5166.000000;1.775291
5165.000000;1.775469
5164.000000;1.776019
5163.000000;1.776397
5162.000000;1.777550
5161.000000;1.779656
5160.000000;1.781044
5159.000000;1.780657
5158.000000;1.779698
5157.000000;1.779654
5156.000000;1.780252
5155.000000;1.780630
5154.000000;1.780889
5153.000000;1.781404
5152.000000;1.782277
5151.000000;1.783927
5150.000000;1.786627
5149.000000;1.789023
5148.000000;1.789079
5147.000000;1.787176
5146.000000;1.785830
5145.000000;1.786007
5144.000000;1.786188
5143.000000;1.785454
5142.000000;1.784908
5141.000000;1.785126
5140.000000;1.784708
5139.000000;1.782949
5138.000000;1.781653
5137.000000;1.782484
5136.000000;1.784694
5135.000000;1.786736
5134.000000;1.788299
5133.000000;1.789515
5132.000000;1.789530
5131.000000;1.787784
5130.000000;1.785444
5129.000000;1.783939
5128.000000;1.783478
5127.000000;1.783724
5126.000000;1.784577
5125.000000;1.785732
5124.000000;1.786689
5123.000000;1.787597
5122.000000;1.788755
5121.000000;1.789265
5120.000000;1.787966
5119.000000;1.785855
5118.000000;1.785282
5117.000000;1.786660
5116.000000;1.788051
5115.000000;1.788175
5114.000000;1.787715
5113.000000;1.786988
5112.000000;1.784987
5111.000000;1.781898
5110.000000;1.780083
5109.000000;1.781304
5108.000000;1.784543
5107.000000;1.787605
5106.000000;1.789602
5105.000000;1.790744
5104.000000;1.791087
5103.000000;1.790654
5102.000000;1.789750
5101.000000;1.788617
5100.000000;1.787559
5099.000000;1.787500
5098.000000;1.789287
5097.000000;1.792156
5096.000000;1.794245
5095.000000;1.794776
5094.000000;1.794236
5093.000000;1.792728
5092.000000;1.789993
5091.000000;1.786787
5090.000000;1.784342
5089.000000;1.782743
5088.000000;1.781475
5087.000000;1.781093
5086.000000;1.782429
5085.000000;1.784549
5084.000000;1.785681
5083.000000;1.785879
5082.000000;1.786367
5081.000000;1.786726
5080.000000;1.785476
5079.000000;1.783184
5078.000000;1.782173
5077.000000;1.783062
5076.000000;1.784322
5075.000000;1.785477
5074.000000;1.787760
5073.000000;1.790918
5072.000000;1.792367
5071.000000;1.790610
5070.000000;1.786941
5069.000000;1.782916
5068.000000;1.778840
5067.000000;1.775567
5066.000000;1.774888
5065.000000;1.776933
5064.000000;1.779344
5063.000000;1.780025
5062.000000;1.779042
5061.000000;1.777218
5060.000000;1.774992
5059.000000;1.773421
5058.000000;1.773969
5057.000000;1.776239
5056.000000;1.777903
5055.000000;1.777740
5054.000000;1.776925
5053.000000;1.776648
5052.000000;1.776493
5051.000000;1.776212
5050.000000;1.776734
5049.000000;1.778108
5048.000000;1.778683
5047.000000;1.777535
5046.000000;1.776038
5045.000000;1.775774
5044.000000;1.776489
5043.000000;1.777144
5042.000000;1.777238
5041.000000;1.776351
5040.000000;1.774036
5039.000000;1.770996
5038.000000;1.768998
5037.000000;1.768928
5036.000000;1.770050
5035.000000;1.771346
5034.000000;1.772256
5033.000000;1.772119
5032.000000;1.770442
5031.000000;1.768053
5030.000000;1.766445
5029.000000;1.765620
5028.000000;1.764259
5027.000000;1.762066
5026.000000;1.759865
5025.000000;1.757642
5024.000000;1.754701
5023.000000;1.751778
5022.000000;1.750769
5021.000000;1.751750
5020.000000;1.752383
5019.000000;1.751265
5018.000000;1.749724
5017.000000;1.749176
5016.000000;1.749012
5015.000000;1.748119
5014.000000;1.746744
5013.000000;1.745686
5012.000000;1.745087
5011.000000;1.745045
5010.000000;1.745852
5009.000000;1.746872
5008.000000;1.746781
5007.000000;1.745651
5006.000000;1.745148
5005.000000;1.746008
5004.000000;1.746776
5003.000000;1.745996
5002.000000;1.744252
5001.000000;1.742712
5000.000000;1.741265
4999.000000;1.739083
4998.000000;1.735854
4997.000000;1.731727
4996.000000;1.727033
4995.000000;1.722594
4994.000000;1.719356
4993.000000;1.717202
4992.000000;1.715095
4991.000000;1.712709
4990.000000;1.710718
4989.000000;1.709331
4988.000000;1.707859
4987.000000;1.705980
4986.000000;1.704240
4985.000000;1.702894
4984.000000;1.701542
4983.000000;1.700236
4982.000000;1.699577
4981.000000;1.699320
4980.000000;1.698009
4979.000000;1.694665
4978.000000;1.689910
4977.000000;1.684860
4976.000000;1.680073
4975.000000;1.675925
4974.000000;1.672894
4973.000000;1.671074
4972.000000;1.670056
4971.000000;1.669427
4970.000000;1.668740
4969.000000;1.667105
4968.000000;1.663783
4967.000000;1.659204
4966.000000;1.654472
4965.000000;1.650042
4964.000000;1.645848
4963.000000;1.642343
4962.000000;1.640125
4961.000000;1.638720
4960.000000;1.637020
4959.000000;1.634837
4958.000000;1.632777
4957.000000;1.630731
4956.000000;1.627927
4955.000000;1.624467
4954.000000;1.621375
4953.000000;1.618853
4952.000000;1.615820
4951.000000;1.611631
4950.000000;1.607018
4949.000000;1.602909
4948.000000;1.599416
4947.000000;1.596344
4946.000000;1.593653
4945.000000;1.591166
4944.000000;1.588456
4943.000000;1.585190
4942.000000;1.581278
4941.000000;1.576693
4940.000000;1.571835
4939.000000;1.567792
4938.000000;1.565298
4937.000000;1.563604
4936.000000;1.561280
4935.000000;1.557974
4934.000000;1.554373
4933.000000;1.550797
4932.000000;1.547127
4931.000000;1.543822
4930.000000;1.541680
4929.000000;1.540429
4928.000000;1.538702
4927.000000;1.535626
4926.000000;1.531396
4925.000000;1.526276
4924.000000;1.520279
4923.000000;1.513997
4922.000000;1.508567
4921.000000;1.504442
4920.000000;1.500980
4919.000000;1.497499
4918.000000;1.494026
4917.000000;1.490742
4916.000000;1.487529
4915.000000;1.484339
4914.000000;1.481294
4913.000000;1.478242
4912.000000;1.474871
4911.000000;1.471356
4910.000000;1.468199
4909.000000;1.465356
4908.000000;1.462208
4907.000000;1.458512
4906.000000;1.454590
4905.000000;1.450585
4904.000000;1.446377
4903.000000;1.442207
4902.000000;1.438511
4901.000000;1.435086
4900.000000;1.431157
4899.000000;1.426439
4898.000000;1.421508
4897.000000;1.416951
4896.000000;1.412804
4895.000000;1.408935
4894.000000;1.405343
4893.000000;1.401885
4892.000000;1.398253
4891.000000;1.394435
4890.000000;1.390729
4889.000000;1.387139
4888.000000;1.383268
4887.000000;1.378916
4886.000000;1.374356
4885.000000;1.369934
4884.000000;1.365767
4883.000000;1.361868
4882.000000;1.358213
4881.000000;1.354653
4880.000000;1.351052
4879.000000;1.347442
4878.000000;1.343759
4877.000000;1.339659
4876.000000;1.334991
4875.000000;1.330164
4874.000000;1.325664
4873.000000;1.321535
4872.000000;1.317735
4871.000000;1.314549
4870.000000;1.312039
4869.000000;1.309487
4868.000000;1.306126
4867.000000;1.302157
4866.000000;1.298305
4865.000000;1.294582
4864.000000;1.290346
4863.000000;1.285516
4862.000000;1.280842
4861.000000;1.276888
4860.000000;1.273443
4859.000000;1.270036
4858.000000;1.266468
4857.000000;1.262757
4856.000000;1.259052
4855.000000;1.255632
4854.000000;1.252525
4853.000000;1.249171
4852.000000;1.245017
4851.000000;1.240371
4850.000000;1.236079
4849.000000;1.232421
4848.000000;1.228886
4847.000000;1.225077
4846.000000;1.221215
4845.000000;1.217635
4844.000000;1.214310
4843.000000;1.211038
4842.000000;1.207670
4841.000000;1.204006
4840.000000;1.199876
4839.000000;1.195444
4838.000000;1.191140
4837.000000;1.187209
4836.000000;1.183609
4835.000000;1.180299
4834.000000;1.177255
4833.000000;1.174214
4832.000000;1.170814
4831.000000;1.167015
4830.000000;1.163072
4829.000000;1.159129
4828.000000;1.155200
4827.000000;1.151506
4826.000000;1.148352
4825.000000;1.145624
4824.000000;1.142752
4823.000000;1.139279
4822.000000;1.135254
4821.000000;1.131049
4820.000000;1.127086
4819.000000;1.123679
4818.000000;1.120808
4817.000000;1.118008
4816.000000;1.114777
4815.000000;1.111097
4814.000000;1.107384
4813.000000;1.103966
4812.000000;1.100852
4811.000000;1.097906
4810.000000;1.094891
4809.000000;1.091468
4808.000000;1.087478
4807.000000;1.083256
4806.000000;1.079364
4805.000000;1.075999
4804.000000;1.072924
4803.000000;1.069857
4802.000000;1.066677
4801.000000;1.063294
4800.000000;1.059721
4799.000000;1.056231
4798.000000;1.053165
4797.000000;1.050584
4796.000000;1.048288
4795.000000;1.046089
4794.000000;1.043806
4793.000000;1.041117
4792.000000;1.037781
4791.000000;1.033993
4790.000000;1.030218
4789.000000;1.026698
4788.000000;1.023355
4787.000000;1.020083
4786.000000;1.016864
4785.000000;1.013655
4784.000000;1.010447
4783.000000;1.007383
4782.000000;1.004548
4781.000000;1.001719
4780.000000;0.998603
4779.000000;0.995242
4778.000000;0.991935
4777.000000;0.988838
4776.000000;0.985909
4775.000000;0.983160
4774.000000;0.980629
4773.000000;0.978172
4772.000000;0.975538
4771.000000;0.972634
4770.000000;0.969481
4769.000000;0.966051
4768.000000;0.962448
4767.000000;0.959109
4766.000000;0.956429
4765.000000;0.954224
4764.000000;0.951911
4763.000000;0.949221
4762.000000;0.946384
4761.000000;0.943654
4760.000000;0.941027
4759.000000;0.938487
4758.000000;0.936107
4757.000000;0.933799
4756.000000;0.931262
4755.000000;0.928353
4754.000000;0.925298
4753.000000;0.922397
4752.000000;0.919695
4751.000000;0.917046
4750.000000;0.914343
4749.000000;0.911614
4748.000000;0.908969
4747.000000;0.906497
4746.000000;0.904130
4745.000000;0.901666
4744.000000;0.899040
4743.000000;0.896504
4742.000000;0.894327
4741.000000;0.892406
4740.000000;0.890360
4739.000000;0.887976
4738.000000;0.885351
4737.000000;0.882627
4736.000000;0.879853
4735.000000;0.877114
4734.000000;0.874571
4733.000000;0.872277
4732.000000;0.870116
4731.000000;0.867961
4730.000000;0.865787
4729.000000;0.863625
4728.000000;0.861521
4727.000000;0.859515
4726.000000;0.857567
4725.000000;0.855536
4724.000000;0.853330
4723.000000;0.851034
4722.000000;0.848768
4721.000000;0.846541
4720.000000;0.844363
4719.000000;0.842384
4718.000000;0.840690
4717.000000;0.839061
4716.000000;0.837156
4715.000000;0.834910
4714.000000;0.832564
4713.000000;0.830341
4712.000000;0.828291
4711.000000;0.826393
4710.000000;0.824590
4709.000000;0.822743
4708.000000;0.820765
4707.000000;0.818798
4706.000000;0.817073
4705.000000;0.815597
4704.000000;0.814139
4703.000000;0.812521
4702.000000;0.810742
4701.000000;0.808847
4700.000000;0.806855
4699.000000;0.804837
4698.000000;0.802890
4697.000000;0.801036
4696.000000;0.799265
4695.000000;0.797638
4694.000000;0.796203
4693.000000;0.794858
4692.000000;0.793467
4691.000000;0.792061
4690.000000;0.790740
4689.000000;0.789412
4688.000000;0.787839
4687.000000;0.785960
4686.000000;0.783985
4685.000000;0.782156
4684.000000;0.780578
4683.000000;0.779267
4682.000000;0.778182
4681.000000;0.777156
4680.000000;0.775973
4679.000000;0.774575
4678.000000;0.773101
4677.000000;0.771687
4676.000000;0.770351
4675.000000;0.769060
4674.000000;0.767806
4673.000000;0.766584
4672.000000;0.765387
4671.000000;0.764221
4670.000000;0.763057
4669.000000;0.761798
4668.000000;0.760400
4667.000000;0.758997
4666.000000;0.757771
4665.000000;0.756723
4664.000000;0.755677
4663.000000;0.754504
4662.000000;0.753214
4661.000000;0.751877
4660.000000;0.750559
4659.000000;0.749362
4658.000000;0.748398
4657.000000;0.747671
4656.000000;0.747042
4655.000000;0.746308
4654.000000;0.745298
4653.000000;0.743964
4652.000000;0.742446
4651.000000;0.741020
4650.000000;0.739889
4649.000000;0.739060
4648.000000;0.738418
4647.000000;0.737857
4646.000000;0.737260
4645.000000;0.736477
4644.000000;0.735458
4643.000000;0.734350
4642.000000;0.733357
4641.000000;0.732558
4640.000000;0.731912
4639.000000;0.731349
4638.000000;0.730752
4637.000000;0.729979
4636.000000;0.729013
4635.000000;0.728046
4634.000000;0.727253
4633.000000;0.726570
4632.000000;0.725810
4631.000000;0.724943
4630.000000;0.724127
4629.000000;0.723502
4628.000000;0.723070
4627.000000;0.722742
4626.000000;0.722386
4625.000000;0.721858
4624.000000;0.721103
4623.000000;0.720228
4622.000000;0.719414
4621.000000;0.718778
4620.000000;0.718330
4619.000000;0.717997
4618.000000;0.717649
4617.000000;0.717185
4616.000000;0.716664
4615.000000;0.716234
4614.000000;0.715900
4613.000000;0.715485
4612.000000;0.714898
4611.000000;0.714287
4610.000000;0.713809
4609.000000;0.713416
4608.000000;0.712991
4607.000000;0.712578
4606.000000;0.712310
4605.000000;0.712198
4604.000000;0.712121
4603.000000;0.711968
4602.000000;0.711680
4601.000000;0.711258
4600.000000;0.710812
4599.000000;0.710501
4598.000000;0.710306
4597.000000;0.710026
4596.000000;0.709610
4595.000000;0.709314
4594.000000;0.709365
4593.000000;0.709622
4592.000000;0.709792
4591.000000;0.709840
4590.000000;0.709953
4589.000000;0.710188
4588.000000;0.710394
4587.000000;0.710454
4586.000000;0.710384
4585.000000;0.710214
4584.000000;0.709963
4583.000000;0.709701
4582.000000;0.709496
4581.000000;0.709331
4580.000000;0.709199
4579.000000;0.709222
4578.000000;0.709503
4577.000000;0.709935
4576.000000;0.710314
4575.000000;0.710600
4574.000000;0.710907
4573.000000;0.711275
4572.000000;0.711641
4571.000000;0.711990
4570.000000;0.712369
4569.000000;0.712748
4568.000000;0.713035
4567.000000;0.713228
4566.000000;0.713433
4565.000000;0.713741
4564.000000;0.714179
4563.000000;0.714756
4562.000000;0.715426
4561.000000;0.716053
4560.000000;0.716547
4559.000000;0.717003
4558.000000;0.717593
4557.000000;0.718356
4556.000000;0.719169
4555.000000;0.719922
4554.000000;0.720595
4553.000000;0.721223
4552.000000;0.721882
4551.000000;0.722671
4550.000000;0.723607
4549.000000;0.724575
4548.000000;0.725449
4547.000000;0.726220
4546.000000;0.726961
4545.000000;0.727727
4544.000000;0.728555
4543.000000;0.729472
4542.000000;0.730420
4541.000000;0.731268
4540.000000;0.731964
4539.000000;0.732589
4538.000000;0.733216
4537.000000;0.733851
4536.000000;0.734571
4535.000000;0.735539
4534.000000;0.736766
4533.000000;0.738029
4532.000000;0.739163
4531.000000;0.740251
4530.000000;0.741406
4529.000000;0.742511
4528.000000;0.743368
4527.000000;0.743978
4526.000000;0.744507
4525.000000;0.745081
4524.000000;0.745764
4523.000000;0.746611
4522.000000;0.747585
4521.000000;0.748537
4520.000000;0.749411
4519.000000;0.750336
4518.000000;0.751388
4517.000000;0.752424
4516.000000;0.753323
4515.000000;0.754198
4514.000000;0.755202
4513.000000;0.756251
4512.000000;0.757177
4511.000000;0.758006
4510.000000;0.758879
4509.000000;0.759810
4508.000000;0.760715
4507.000000;0.761590
4506.000000;0.762474
4505.000000;0.763344
4504.000000;0.764230
4503.000000;0.765297
4502.000000;0.766632
4501.000000;0.768076
4500.000000;0.769428
4499.000000;0.770684
4498.000000;0.771888
4497.000000;0.772939
4496.000000;0.773787
4495.000000;0.774663
4494.000000;0.775833
4493.000000;0.777227
4492.000000;0.778554
4491.000000;0.779706
4490.000000;0.780811
4489.000000;0.781973
4488.000000;0.783220
4487.000000;0.784627
4486.000000;0.786228
4485.000000;0.787858
4484.000000;0.789305
4483.000000;0.790580
4482.000000;0.791835
4481.000000;0.793105
4480.000000;0.794340
4479.000000;0.795636
4478.000000;0.797189
4477.000000;0.799042
4476.000000;0.801042
4475.000000;0.803022
4474.000000;0.804878
4473.000000;0.806563
4472.000000;0.808156
4471.000000;0.809860
4470.000000;0.811758
4469.000000;0.813683
4468.000000;0.815468
4467.000000;0.817194
4466.000000;0.819033
4465.000000;0.821006
4464.000000;0.823057
4463.000000;0.825196
4462.000000;0.827368
4461.000000;0.829376
4460.000000;0.831152
4459.000000;0.832941
4458.000000;0.834947
4457.000000;0.837012
4456.000000;0.838901
4455.000000;0.840720
4454.000000;0.842712
4453.000000;0.844820
4452.000000;0.846839
4451.000000;0.848863
4450.000000;0.851181
4449.000000;0.853792
4448.000000;0.856367
4447.000000;0.858707
4446.000000;0.860921
4445.000000;0.863169
4444.000000;0.865486
4443.000000;0.867871
4442.000000;0.870292
4441.000000;0.872642
4440.000000;0.874892
4439.000000;0.877221
4438.000000;0.879781
4437.000000;0.882463
4436.000000;0.885097
4435.000000;0.887743
4434.000000;0.890486
4433.000000;0.893129
4432.000000;0.895408
4431.000000;0.897417
4430.000000;0.899475
4429.000000;0.901689
4428.000000;0.903996
4427.000000;0.906547
4426.000000;0.909583
4425.000000;0.912967
4424.000000;0.916230
4423.000000;0.919150
4422.000000;0.921945
4421.000000;0.924846
4420.000000;0.927783
4419.000000;0.930597
4418.000000;0.933272
4417.000000;0.935880
4416.000000;0.938509
4415.000000;0.941269
4414.000000;0.944209
4413.000000;0.947225
4412.000000;0.950183
4411.000000;0.953101
4410.000000;0.956051
4409.000000;0.959011
4408.000000;0.961997
4407.000000;0.965174
4406.000000;0.968576
4405.000000;0.971913
4404.000000;0.974943
4403.000000;0.977897
4402.000000;0.981169
4401.000000;0.984724
4400.000000;0.988180
4399.000000;0.991404
4398.000000;0.994639
4397.000000;0.998058
4396.000000;1.001557
4395.000000;1.005032
4394.000000;1.008515
4393.000000;1.012001
4392.000000;1.015371
4391.000000;1.018533
4390.000000;1.021474
4389.000000;1.024274
4388.000000;1.027238
4387.000000;1.030823
4386.000000;1.035137
4385.000000;1.039639
4384.000000;1.043643
4383.000000;1.047048
4382.000000;1.050270
4381.000000;1.053616
4380.000000;1.057072
4379.000000;1.060593
4378.000000;1.064214
4377.000000;1.067885
4376.000000;1.071535
4375.000000;1.075269
4374.000000;1.079256
4373.000000;1.083473
4372.000000;1.087779
4371.000000;1.092109
4370.000000;1.096348
4369.000000;1.100216
4368.000000;1.103603
4367.000000;1.106880
4366.000000;1.110547
4365.000000;1.114729
4364.000000;1.119267
4363.000000;1.124071
4362.000000;1.129028
4361.000000;1.133806
4360.000000;1.138172
4359.000000;1.142309
4358.000000;1.146482
4357.000000;1.150634
4356.000000;1.154688
4355.000000;1.158942
4354.000000;1.163622
4353.000000;1.168315
4352.000000;1.172445
4351.000000;1.176184
4350.000000;1.180265
4349.000000;1.184991
4348.000000;1.189966
4347.000000;1.194768
4346.000000;1.199316
4345.000000;1.203568
4344.000000;1.207394
4343.000000;1.210917
4342.000000;1.214601
4341.000000;1.218883
4340.000000;1.223889
4339.000000;1.229431
4338.000000;1.235114
4337.000000;1.240585
4336.000000;1.245883
4335.000000;1.251289
4334.000000;1.256679
4333.000000;1.261512
4332.000000;1.265743
4331.000000;1.270222
4330.000000;1.275633
4329.000000;1.281478
4328.000000;1.286756
4327.000000;1.291270
4326.000000;1.295613
4325.000000;1.300196
4324.000000;1.305022
4323.000000;1.310176
4322.000000;1.315754
4321.000000;1.321478
4320.000000;1.326979
4319.000000;1.332326
4318.000000;1.337732
4317.000000;1.343013
4316.000000;1.348017
4315.000000;1.353320
4314.000000;1.359693
4313.000000;1.366912
4312.000000;1.373767
4311.000000;1.379321
4310.000000;1.383628
4309.000000;1.387363
4308.000000;1.391324
4307.000000;1.396180
4306.000000;1.402063
4305.000000;1.408430
4304.000000;1.414718
4303.000000;1.420936
4302.000000;1.427193
4301.000000;1.433035
4300.000000;1.437890
4299.000000;1.441963
4298.000000;1.446070
4297.000000;1.450874
4296.000000;1.456673
4295.000000;1.463523
4294.000000;1.470953
4293.000000;1.477929
4292.000000;1.483865
4291.000000;1.489440
4290.000000;1.495785
4289.000000;1.503187
4288.000000;1.511041
4287.000000;1.518501
4286.000000;1.524707
4285.000000;1.529152
4284.000000;1.532559
4283.000000;1.536595
4282.000000;1.542055
4281.000000;1.548118
4280.000000;1.553998
4279.000000;1.560399
4278.000000;1.568174
4277.000000;1.576539
4276.000000;1.583981
4275.000000;1.590315
4274.000000;1.596455
4273.000000;1.602712
4272.000000;1.608740
4271.000000;1.614693
4270.000000;1.620959
4269.000000;1.627156
4268.000000;1.632674
4267.000000;1.637926
4266.000000;1.643834
4265.000000;1.650338
4264.000000;1.656665
4263.000000;1.662629
4262.000000;1.668528
4261.000000;1.674438
4260.000000;1.680654
4259.000000;1.688142
4258.000000;1.697233
4257.000000;1.706270
4256.000000;1.713026
4255.000000;1.717339
4254.000000;1.721136
4253.000000;1.726367
4252.000000;1.733680
4251.000000;1.742480
4250.000000;1.750923
4249.000000;1.756971
4248.000000;1.760604
4247.000000;1.764528
4246.000000;1.771232
4245.000000;1.780206
4244.000000;1.789257
4243.000000;1.797479
4242.000000;1.805225
4241.000000;1.812468
4240.000000;1.818834
4239.000000;1.824620
4238.000000;1.830457
4237.000000;1.836187
4236.000000;1.841616
4235.000000;1.847761
4234.000000;1.855834
4233.000000;1.865523
4232.000000;1.875333
4231.000000;1.884042
4230.000000;1.890755
4229.000000;1.894809
4228.000000;1.897434
4227.000000;1.901904
4226.000000;1.910338
4225.000000;1.921543
4224.000000;1.932499
4223.000000;1.941259
4222.000000;1.947210
4221.000000;1.949809
4220.000000;1.949792
4219.000000;1.950481
4218.000000;1.955331
4217.000000;1.964706
4216.000000;1.976117
4215.000000;1.986741
4214.000000;1.994355
4213.000000;1.998229
4212.000000;2.001200
4211.000000;2.008161
4210.000000;2.020391
4209.000000;2.033262
4208.000000;2.041687
4207.000000;2.046175
4206.000000;2.049948
4205.000000;2.053976
4204.000000;2.058630
4203.000000;2.065778
4202.000000;2.075504
4201.000000;2.083347
4200.000000;2.085516
4199.000000;2.085190
4198.000000;2.088330
4197.000000;2.095911
4196.000000;2.104889
4195.000000;2.114543
4194.000000;2.126636
4193.000000;2.139624
4192.000000;2.148031
4191.000000;2.150131
4190.000000;2.150795
4189.000000;2.155177
4188.000000;2.164130
4187.000000;2.175647
4186.000000;2.187256
4185.000000;2.197049
4184.000000;2.204909
4183.000000;2.212726
4182.000000;2.221822
4181.000000;2.230292
4180.000000;2.234922
4179.000000;2.236427
4178.000000;2.239372
4177.000000;2.247516
4176.000000;2.261267
4175.000000;2.278479
4174.000000;2.293453
4173.000000;2.299633
4172.000000;2.297607
4171.000000;2.294734
4170.000000;2.297075
4169.000000;2.304517
4168.000000;2.313298
4167.000000;2.321314
4166.000000;2.326507
4165.000000;2.327680
4164.000000;2.327841
4163.000000;2.330847
4162.000000;2.336476
4161.000000;2.342407
4160.000000;2.349124
4159.000000;2.358282
4158.000000;2.367312
4157.000000;2.370710
4156.000000;2.369384
4155.000000;2.369644
4154.000000;2.373222
4153.000000;2.377381
4152.000000;2.381287
4151.000000;2.389550
4150.000000;2.403899
4149.000000;2.416471
4148.000000;2.421647
4147.000000;2.426204
4146.000000;2.437836
4145.000000;2.454897
4144.000000;2.472895
4143.000000;2.491736
4142.000000;2.509403
4141.000000;2.514354
4140.000000;2.497485
4139.000000;2.478457
4138.000000;2.478752
4137.000000;2.495817
4136.000000;2.512558
4135.000000;2.515370
4134.000000;2.507755
4133.000000;2.501176
4132.000000;2.501347
4131.000000;2.509284
4130.000000;2.522285
4129.000000;2.530059
4128.000000;2.525475
4127.000000;2.513473
4126.000000;2.504506
4125.000000;2.507970
4124.000000;2.526303
4123.000000;2.555963
4122.000000;2.585274
4121.000000;2.596464
4120.000000;2.586239
4119.000000;2.570734
4118.000000;2.564476
4117.000000;2.567506
4116.000000;2.575080
4115.000000;2.591991
4114.000000;2.620742
4113.000000;2.652223
4112.000000;2.677466
4111.000000;2.694213
4110.000000;2.695779
4109.000000;2.679751
4108.000000;2.651286
4107.000000;2.628786
4106.000000;2.626722
4105.000000;2.635181
4104.000000;2.640981
4103.000000;2.648905
4102.000000;2.670260
4101.000000;2.701106
4100.000000;2.723867
4099.000000;2.730057
4098.000000;2.718954
4097.000000;2.694538
4096.000000;2.674292
4095.000000;2.679393
4094.000000;2.717173
4093.000000;2.770893
4092.000000;2.802429
4091.000000;2.797610
4090.000000;2.769732
4089.000000;2.740109
4088.000000;2.734262
4087.000000;2.757474
4086.000000;2.785971
4085.000000;2.787561
4084.000000;2.758343
4083.000000;2.727813
4082.000000;2.725008
4081.000000;2.748665
4080.000000;2.783156
4079.000000;2.812246
4078.000000;2.815906
4077.000000;2.798225
4076.000000;2.777853
4075.000000;2.770023
4074.000000;2.775873
4073.000000;2.777953
4072.000000;2.773121
4071.000000;2.775120
4070.000000;2.786089
4069.000000;2.795095
4068.000000;2.795622
4067.000000;2.806541
4066.000000;2.842382
4065.000000;2.876954
4064.000000;2.873489
4063.000000;2.845347
4062.000000;2.813301
4061.000000;2.786201
4060.000000;2.776330
4059.000000;2.792142
4058.000000;2.825616
4057.000000;2.849617
4056.000000;2.855322
4055.000000;2.862430
4054.000000;2.876113
4053.000000;2.883692
4052.000000;2.867828
4051.000000;2.847279
4050.000000;2.851200
4049.000000;2.873153
4048.000000;2.903849
4047.000000;2.939459
4046.000000;2.968564
4045.000000;2.970448
4044.000000;2.922409
4043.000000;2.866836
4042.000000;2.845592
4041.000000;2.862311
4040.000000;2.900169
4039.000000;2.945792
4038.000000;2.996346
4037.000000;3.028954
4036.000000;3.005313
4035.000000;2.958594
4034.000000;2.939997
4033.000000;2.951654
4032.000000;2.968413
4031.000000;2.981104
4030.000000;2.984266
4029.000000;2.950765
4028.000000;2.892845
4027.000000;2.854027
4026.000000;2.848318
4025.000000;2.858425
4024.000000;2.872568
4023.000000;2.896713
4022.000000;2.929690
4021.000000;2.951537
4020.000000;2.949641
4019.000000;2.947047
4018.000000;2.962394
4017.000000;2.983548
4016.000000;2.973864
4015.000000;2.940250
4014.000000;2.923618
4013.000000;2.927822
4012.000000;2.939826
4011.000000;2.953909
4010.000000;2.968456
4009.000000;2.983496
4008.000000;3.001561
4007.000000;3.024619
4006.000000;3.031594
4005.000000;3.001951
4004.000000;2.962705
4003.000000;2.978358
4002.000000;3.051372
4001.000000;3.076014
4000.000000;2.995061
3999.000000;2.905830
3998.000000;2.880386
3997.000000;2.916784
3996.000000;2.962589
3995.000000;3.005072
3994.000000;3.065558
3993.000000;3.123369
3992.000000;3.141632
3991.000000;3.108118
3990.000000;3.059489
3989.000000;3.008213
3988.000000;2.967129
3987.000000;2.969378
3986.000000;3.003454
3985.000000;3.033001
3984.000000;3.055920
3983.000000;3.108502
3982.000000;3.162355
3981.000000;3.133382
3980.000000;3.033410
3979.000000;2.919687
3978.000000;2.844917
3977.000000;2.853464
3976.000000;2.938000
3975.000000;3.061809
3974.000000;3.197019
3973.000000;3.263766
3972.000000;3.243469
3971.000000;3.261684
3970.000000;3.351508
3969.000000;3.420291
3968.000000;3.420384
3967.000000;3.318277
3966.000000;3.151836
3965.000000;3.005660
3964.000000;2.893347
3963.000000;2.859372
3962.000000;2.920114
3961.000000;3.040908
3960.000000;3.177162
3959.000000;3.327476
3958.000000;3.437461
3957.000000;3.467554
3956.000000;3.446243
3955.000000;3.299692
3954.000000;3.150795
3953.000000;3.047442
3952.000000;2.983154
3951.000000;2.994066
3950.000000;3.062716
3949.000000;3.085521
3948.000000;3.077256
3947.000000;3.100413
3946.000000;3.120262
3945.000000;3.100983
3944.000000;3.062186
3943.000000;3.068640
3942.000000;3.148301
3941.000000;3.159005
3940.000000;3.061809
3939.000000;3.008095
3938.000000;2.997485
3937.000000;2.985688
3936.000000;2.970775
3935.000000;2.973191
3934.000000;2.986439
3933.000000;2.988175
3932.000000;2.961415
3931.000000;2.959401
3930.000000;2.995183
3929.000000;3.012915
3928.000000;3.010074
3927.000000;3.060614
3926.000000;3.193694
3925.000000;3.323079
3924.000000;3.391484
3923.000000;3.362869
3922.000000;3.344349
3921.000000;3.477256
3920.000000;3.518104
3919.000000;3.292283
3918.000000;3.161734
3917.000000;3.063156
3916.000000;3.025302
3915.000000;3.079126
3914.000000;3.192124
3913.000000;3.320863
3912.000000;3.488319
3911.000000;3.670701
3910.000000;3.651108
3909.000000;3.696269
3908.000000;4.103395
3907.000000;3.853408
3906.000000;3.560504
3905.000000;3.444408
3904.000000;3.347454
3903.000000;3.269866
3902.000000;3.390924
3901.000000;3.760790
3900.000000;3.372222
3899.000000;3.229015
3898.000000;3.163919
3897.000000;3.132908
3896.000000;3.197524
3895.000000;3.343397
3894.000000;3.592758
3893.000000;3.959102
3892.000000;4.062638
3891.000000;3.763272
3890.000000;3.523514
3889.000000;3.392663
3888.000000;3.298475
3887.000000;3.240642
3886.000000;3.325555
3885.000000;3.512348
3884.000000;3.688829
3883.000000;3.946501
3882.000000;3.626136
3881.000000;3.440166
3880.000000;3.409840
3879.000000;3.419048
3878.000000;3.509714
3877.000000;3.688153
3876.000000;3.740350
3875.000000;3.474430
3874.000000;3.215878
3873.000000;3.158191
3872.000000;3.267181
3871.000000;3.403887
3870.000000;3.392760
3869.000000;3.391057
3868.000000;3.390724
3867.000000;3.283500
3866.000000;3.224651
3865.000000;3.252237
3864.000000;3.327214
3863.000000;3.414526
3862.000000;3.506704
3861.000000;3.465484
3860.000000;3.269721
3859.000000;3.192013
3858.000000;3.314120
3857.000000;3.738805
3856.000000;3.645324
3855.000000;3.366528
3854.000000;3.293893
3853.000000;3.385564
3852.000000;3.959327
3851.000000;3.697809
3850.000000;3.484677
3849.000000;3.539386
3848.000000;3.453890
3847.000000;3.321846
3846.000000;3.236363
3845.000000;3.242295
3844.000000;3.323275
3843.000000;3.375830
3842.000000;3.452372
3841.000000;3.800720
3840.000000;3.517352
3839.000000;3.679771
3838.000000;3.752732
3837.000000;3.479963
3836.000000;3.515914
3835.000000;3.609390
3834.000000;3.693792
3833.000000;3.765454
3832.000000;3.813249
3831.000000;3.927895
3830.000000;3.917863
3829.000000;3.456033
3828.000000;3.282866
3827.000000;3.375321
3826.000000;3.668193
3825.000000;3.994688
3824.000000;4.032896
3823.000000;3.802506
3822.000000;3.530037
3821.000000;3.345312
3820.000000;3.256088
3819.000000;3.222783
3818.000000;3.242668
3817.000000;3.418053
3816.000000;3.748237
3815.000000;3.777389
3814.000000;3.662133
3813.000000;3.606396
3812.000000;3.613622
3811.000000;3.674910
3810.000000;3.685519
3809.000000;3.616535
3808.000000;3.553847
3807.000000;3.611841
3806.000000;3.728703
3805.000000;3.732048
3804.000000;3.798699
3803.000000;3.722909
3802.000000;3.529408
3801.000000;3.449060
3800.000000;3.460935
3799.000000;3.463821
3798.000000;3.464490
3797.000000;3.632768
3796.000000;4.422342
3795.000000;3.979356
3794.000000;3.789725
3793.000000;3.857676
3792.000000;3.973743
3791.000000;3.610216
3790.000000;3.340424
3789.000000;3.303948
3788.000000;3.343345
3787.000000;3.319776
3786.000000;3.338031
3785.000000;3.778158
3784.000000;4.429933
3783.000000;3.777664
3782.000000;3.871308
3781.000000;3.901728
3780.000000;3.836828
3779.000000;3.805053
3778.000000;3.842887
3777.000000;3.632405
3776.000000;3.593225
3775.000000;4.068843
3774.000000;3.670380
3773.000000;3.542715
3772.000000;3.721757
3771.000000;3.727402
3770.000000;3.643337
3769.000000;3.654455
3768.000000;3.729583
3767.000000;3.736082
3766.000000;3.605455
3765.000000;3.564475
3764.000000;3.582409
3763.000000;3.555357
3762.000000;3.450533
3761.000000;3.345673
3760.000000;3.277101
3759.000000;3.224315
3758.000000;3.245615
3757.000000;3.353576
3756.000000;3.401749
3755.000000;3.228818
3754.000000;3.091233
3753.000000;3.317750
3752.000000;3.850756
3751.000000;3.802976
3750.000000;3.786142
3749.000000;3.592630
3748.000000;3.532927
3747.000000;3.520739
3746.000000;3.373610
3745.000000;3.240817
3744.000000;3.125142
3743.000000;3.032368
3742.000000;3.005754
3741.000000;3.078372
3740.000000;3.197266
3739.000000;3.227330
3738.000000;3.453361
3737.000000;4.153517
3736.000000;3.427801
3735.000000;3.223776
3734.000000;3.297050
3733.000000;3.449471
3732.000000;3.674742
3731.000000;3.944866
3730.000000;3.549156
3729.000000;3.186238
3728.000000;3.120717
3727.000000;3.228210
3726.000000;3.542185
3725.000000;4.059220
3724.000000;3.707473
3723.000000;3.342707
3722.000000;3.223757
3721.000000;3.275331
3720.000000;3.364827
3719.000000;3.270361
3718.000000;3.117828
3717.000000;3.086090
3716.000000;3.181144
3715.000000;3.293051
3714.000000;3.422643
3713.000000;3.673650
3712.000000;3.727003
3711.000000;3.620417
3710.000000;3.641563
3709.000000;3.700394
3708.000000;3.552767
3707.000000;3.426337
3706.000000;3.512917
3705.000000;3.597937
3704.000000;3.414527
3703.000000;3.324191
3702.000000;3.397505
3701.000000;3.615870
3700.000000;4.065934
3699.000000;3.790317
3698.000000;3.498093
3697.000000;3.443705
3696.000000;3.404657
3695.000000;3.462223
3694.000000;3.584279
3693.000000;3.585341
3692.000000;3.517336
3691.000000;3.778412
3690.000000;3.979982
3689.000000;3.825343
3688.000000;3.864133
3687.000000;4.045568
3686.000000;4.122355
3685.000000;3.934848
3684.000000;3.920140
3683.000000;3.604603
3682.000000;3.427570
3681.000000;3.347188
3680.000000;3.396010
3679.000000;3.590216
3678.000000;3.560106
3677.000000;3.516503
3676.000000;3.529738
3675.000000;3.513404
3674.000000;3.617335
3673.000000;3.697387
3672.000000;3.565758
3671.000000;3.665841
3670.000000;3.856953
3669.000000;3.694355
3668.000000;3.564313
3667.000000;3.478020
3666.000000;3.372821
3665.000000;3.335395
3664.000000;3.384640
3663.000000;3.483278
3662.000000;3.600757
3661.000000;3.625999
3660.000000;3.684361
3659.000000;3.821079
3658.000000;3.724938
3657.000000;3.722686
3656.000000;3.763429
3655.000000;3.578660
3654.000000;3.441317
3653.000000;3.476186
3652.000000;3.644181
3651.000000;3.905972
3650.000000;4.112290
3649.000000;3.562725
3648.000000;3.306069
3647.000000;3.273480
3646.000000;3.299727
3645.000000;3.247185
3644.000000;3.150011
3643.000000;3.152788
3642.000000;3.259753
3641.000000;3.407727
3640.000000;3.621740
3639.000000;3.860951
3638.000000;3.617745
3637.000000;3.448565
3636.000000;3.454159
3635.000000;3.489535
3634.000000;3.428913
3633.000000;3.416580
3632.000000;3.452190
3631.000000;3.339544
3630.000000;3.253477
3629.000000;3.408916
3628.000000;3.789988
3627.000000;3.970434
3626.000000;4.216518
3625.000000;3.938108
3624.000000;3.727768
3623.000000;3.613541
3622.000000;3.789242
3621.000000;3.660350
3620.000000;3.256119
3619.000000;3.216343
3618.000000;3.425578
3617.000000;3.769976
3616.000000;4.585380
3615.000000;3.987011
3614.000000;3.667108
3613.000000;3.774353
3612.000000;3.676237
3611.000000;3.473531
3610.000000;3.268496
3609.000000;3.170899
3608.000000;3.238541
3607.000000;3.353626
3606.000000;3.583283
3605.000000;3.908904
3604.000000;3.451748
3603.000000;3.324693
3602.000000;3.355385
3601.000000;3.418975
3600.000000;3.482823
3599.000000;3.357229
3598.000000;3.279433
3597.000000;3.275895
3596.000000;3.284278
3595.000000;3.316579
3594.000000;3.440414
3593.000000;3.519836
3592.000000;3.458046
3591.000000;3.606595
3590.000000;3.690151
3589.000000;3.476718
3588.000000;3.680739
3587.000000;4.182606
3586.000000;3.874125
3585.000000;3.857491
3584.000000;3.868178
3583.000000;3.608880
3582.000000;3.488344
3581.000000;3.614807
3580.000000;4.160428
3579.000000;4.160519
3578.000000;3.699997
3577.000000;3.602010
3576.000000;3.630981
3575.000000;3.600016
3574.000000;3.520542
3573.000000;3.440518
3572.000000;3.293709
3571.000000;3.162084
3570.000000;3.118634
3569.000000;3.252452
3568.000000;3.654249
3567.000000;3.719453
3566.000000;3.587630
3565.000000;3.697250
3564.000000;3.605205
3563.000000;3.477763
3562.000000;3.425254
3561.000000;3.394602
3560.000000;3.445658
3559.000000;3.524856
3558.000000;3.604007
3557.000000;3.430592
3556.000000;3.223878
3555.000000;3.190966
3554.000000;3.308993
3553.000000;3.402017
3552.000000;3.388058
3551.000000;3.451550
3550.000000;3.562584
3549.000000;3.384003
3548.000000;3.227781
3547.000000;3.228597
3546.000000;3.245556
3545.000000;3.455420
3544.000000;3.912702
3543.000000;3.938472
3542.000000;3.539708
3541.000000;3.276824
3540.000000;3.245845
3539.000000;3.346961
3538.000000;3.600049
3537.000000;3.971455
3536.000000;3.661437
3535.000000;3.555068
3534.000000;3.777822
3533.000000;3.702592
3532.000000;3.406877
3531.000000;3.247298
3530.000000;3.231971
3529.000000;3.225096
3528.000000;3.341106
3527.000000;3.699287
3526.000000;3.364676
3525.000000;3.331875
3524.000000;3.564090
3523.000000;3.450365
3522.000000;3.336153
3521.000000;3.377402
3520.000000;3.497454
3519.000000;3.551175
3518.000000;3.652294
3517.000000;3.624040
3516.000000;3.645251
3515.000000;3.977985
3514.000000;3.671136
3513.000000;3.564868
3512.000000;3.894204
3511.000000;3.872819
3510.000000;3.725135
3509.000000;3.749709
3508.000000;3.864909
3507.000000;3.731699
3506.000000;3.497531
3505.000000;3.464295
3504.000000;3.382776
3503.000000;3.258224
3502.000000;3.244136
3501.000000;3.334863
3500.000000;3.437347
3499.000000;3.395368
3498.000000;3.301189
3497.000000;3.304269
3496.000000;3.390302
3495.000000;3.448945
3494.000000;3.504961
3493.000000;3.855478
3492.000000;4.004580
3491.000000;3.552681
3490.000000;3.529060
3489.000000;3.542032
3488.000000;3.509312
3487.000000;3.462907
3486.000000;3.339260
3485.000000;3.296866
3484.000000;3.353075
3483.000000;3.487916
3482.000000;3.547377
3481.000000;3.422559
3480.000000;3.352818
3479.000000;3.425550
3478.000000;3.513250
3477.000000;3.419640
3476.000000;3.229620
3475.000000;3.084030
3474.000000;3.039202
3473.000000;3.095801
3472.000000;3.204554
3471.000000;3.323065
3470.000000;3.479139
3469.000000;3.525011
3468.000000;3.462704
3467.000000;3.472438
3466.000000;3.443632
3465.000000;3.409520
3464.000000;3.533357
3463.000000;3.824711
3462.000000;3.604993
3461.000000;3.483954
3460.000000;3.666123
3459.000000;3.846920
3458.000000;4.243529
3457.000000;3.960803
3456.000000;3.484372
3455.000000;3.374183
3454.000000;3.471229
3453.000000;3.814541
3452.000000;4.079950
3451.000000;3.619349
3450.000000;3.377115
3449.000000;3.384733
3448.000000;3.576442
3447.000000;3.698322
3446.000000;3.776069
3445.000000;3.882446
3444.000000;3.842698
3443.000000;3.880424
3442.000000;3.620950
3441.000000;3.342029
3440.000000;3.241026
3439.000000;3.276839
3438.000000;3.413763
3437.000000;3.486715
3436.000000;3.432094
3435.000000;3.810951
3434.000000;4.197789
3433.000000;3.545518
3432.000000;3.541487
3431.000000;3.648294
3430.000000;3.826442
3429.000000;3.813996
3428.000000;3.944845
3427.000000;3.877493
3426.000000;3.578449
3425.000000;3.937972
3424.000000;3.815654
3423.000000;3.449726
3422.000000;3.521527
3421.000000;3.764664
3420.000000;3.984128
3419.000000;3.934042
3418.000000;3.652612
3417.000000;3.735767
3416.000000;3.982357
3415.000000;3.787519
3414.000000;3.692605
3413.000000;3.496532
3412.000000;3.303340
3411.000000;3.230376
3410.000000;3.261029
3409.000000;3.345397
3408.000000;3.599472
3407.000000;3.801528
3406.000000;3.411264
3405.000000;3.302648
3404.000000;3.433397
3403.000000;3.463818
3402.000000;3.303875
3401.000000;3.229610
3400.000000;3.257615
3399.000000;3.259855
3398.000000;3.278647
3397.000000;3.396816
3396.000000;3.696947
3395.000000;4.508723
3394.000000;3.951304
3393.000000;3.685773
3392.000000;3.767633
3391.000000;3.711256
3390.000000;3.706864
3389.000000;3.739645
3388.000000;3.914379
3387.000000;4.393993
3386.000000;3.752700
3385.000000;3.611242
3384.000000;3.662054
3383.000000;3.614775
3382.000000;3.619586
3381.000000;3.686883
3380.000000;3.772034
3379.000000;3.913306
3378.000000;4.224538
3377.000000;3.947602
3376.000000;3.641009
3375.000000;3.471179
3374.000000;3.333285
3373.000000;3.298419
3372.000000;3.379838
3371.000000;3.452686
3370.000000;3.416716
3369.000000;3.414624
3368.000000;3.563572
3367.000000;3.659071
3366.000000;3.643705
3365.000000;3.680962
3364.000000;3.667742
3363.000000;3.834877
3362.000000;3.794514
3361.000000;3.541103
3360.000000;3.477534
3359.000000;3.471911
3358.000000;3.513717
3357.000000;3.840121
3356.000000;4.535566
3355.000000;3.990653
3354.000000;3.780993
3353.000000;3.525403
3352.000000;3.320850
3351.000000;3.274638
3350.000000;3.291039
3349.000000;3.299673
3348.000000;3.276713
3347.000000;3.288061
3346.000000;3.378916
3345.000000;3.482370
3344.000000;3.458168
3343.000000;3.490129
3342.000000;3.597137
3341.000000;3.798501
3340.000000;4.098403
3339.000000;3.477978
3338.000000;3.209576
3337.000000;3.213736
3336.000000;3.327375
3335.000000;3.410527
3334.000000;3.413829
3333.000000;3.449277
3332.000000;3.545250
3331.000000;3.590073
3330.000000;3.560959
3329.000000;3.722440
3328.000000;3.900373
3327.000000;3.611951
3326.000000;3.459675
3325.000000;3.592640
3324.000000;3.891830
3323.000000;3.713636
3322.000000;3.456104
3321.000000;3.404455
3320.000000;3.505828
3319.000000;3.577407
3318.000000;3.672223
3317.000000;3.739997
3316.000000;3.775972
3315.000000;4.172743
3314.000000;3.737384
3313.000000;3.455593
3312.000000;3.381068
3311.000000;3.310213
3310.000000;3.404406
3309.000000;3.706545
3308.000000;3.636267
3307.000000;3.369363
3306.000000;3.260674
3305.000000;3.254072
3304.000000;3.333412
3303.000000;3.434613
3302.000000;3.464010
3301.000000;3.624502
3300.000000;4.044556
3299.000000;3.768476
3298.000000;3.540523
3297.000000;3.404283
3296.000000;3.308349
3295.000000;3.364185
3294.000000;3.497743
3293.000000;3.593101
3292.000000;3.671589
3291.000000;3.747712
3290.000000;3.639582
3289.000000;3.578181
3288.000000;3.455589
3287.000000;3.246676
3286.000000;3.129371
3285.000000;3.083709
3284.000000;3.134586
3283.000000;3.333059
3282.000000;3.725159
3281.000000;3.996179
3280.000000;3.667441
3279.000000;3.724845
3278.000000;4.144030
3277.000000;3.859802
3276.000000;3.570212
3275.000000;3.400513
3274.000000;3.298238
3273.000000;3.308436
3272.000000;3.517267
3271.000000;3.665668
3270.000000;3.525264
3269.000000;3.470910
3268.000000;3.429032
3267.000000;3.522584
3266.000000;3.747266
3265.000000;3.790135
3264.000000;3.601220
3263.000000;3.397748
3262.000000;3.311968
3261.000000;3.240215
3260.000000;3.163804
3259.000000;3.195032
3258.000000;3.313975
3257.000000;3.372729
3256.000000;3.368284
3255.000000;3.517540
3254.000000;3.796085
3253.000000;3.738110
3252.000000;3.674031
3251.000000;3.570798
3250.000000;3.559786
3249.000000;3.742248
3248.000000;3.589936
3247.000000;3.490750
3246.000000;3.670603
3245.000000;3.865003
3244.000000;4.230836
3243.000000;4.308197
3242.000000;4.014953
3241.000000;3.973921
3240.000000;3.690806
3239.000000;3.696548
3238.000000;3.968003
3237.000000;3.811149
3236.000000;3.559494
3235.000000;3.438325
3234.000000;3.358154
3233.000000;3.233354
3232.000000;3.181424
3231.000000;3.275960
3230.000000;3.547554
3229.000000;4.020641
3228.000000;4.058913
3227.000000;3.762003
3226.000000;3.583322
3225.000000;3.556392
3224.000000;3.519957
3223.000000;3.377157
3222.000000;3.280938
3221.000000;3.390495
3220.000000;3.610476
3219.000000;3.549422
3218.000000;3.478272
3217.000000;3.360387
3216.000000;3.262313
3215.000000;3.352900
3214.000000;3.640809
3213.000000;3.818979
3212.000000;3.775176
3211.000000;3.843057
3210.000000;3.872196
3209.000000;3.630478
3208.000000;3.555226
3207.000000;3.836261
3206.000000;4.147454
3205.000000;4.128803
3204.000000;3.906674
3203.000000;3.703749
3202.000000;3.541752
3201.000000;3.496897
3200.000000;3.623291
3199.000000;3.675764
3198.000000;3.617977
3197.000000;3.514903
3196.000000;3.408865
3195.000000;3.418963
3194.000000;3.475879
3193.000000;3.397775
3192.000000;3.324827
3191.000000;3.447469
3190.000000;3.677062
3189.000000;3.587205
3188.000000;3.484335
3187.000000;3.619668
3186.000000;3.970333
3185.000000;3.785939
3184.000000;3.418539
3183.000000;3.339049
3182.000000;3.458427
3181.000000;3.536151
3180.000000;3.514998
3179.000000;3.531455
3178.000000;3.658173
3177.000000;3.820291
3176.000000;3.783116
3175.000000;4.023607
3174.000000;3.947510
3173.000000;3.642253
3172.000000;3.621020
3171.000000;3.522908
3170.000000;3.452379
3169.000000;3.428927
3168.000000;3.393465
3167.000000;3.409446
3166.000000;3.445146
3165.000000;3.543366
3164.000000;3.688844
3163.000000;3.569027
3162.000000;3.427093
3161.000000;3.459748
3160.000000;3.529633
3159.000000;3.425833
3158.000000;3.368326
3157.000000;3.657408
3156.000000;4.063446
3155.000000;3.787597
3154.000000;3.640735
3153.000000;3.484163
3152.000000;3.388087
3151.000000;3.421947
3150.000000;3.549183
3149.000000;3.549592
3148.000000;3.437613
3147.000000;3.376870
3146.000000;3.338361
3145.000000;3.353633
3144.000000;3.396755
3143.000000;3.475911
3142.000000;3.531789
3141.000000;3.564409
3140.000000;3.675354
3139.000000;3.655000
3138.000000;3.820972
3137.000000;3.908743
3136.000000;3.503648
3135.000000;3.517380
3134.000000;3.959183
3133.000000;3.900455
3132.000000;3.534540
3131.000000;3.320403
3130.000000;3.189376
3129.000000;3.179099
3128.000000;3.270587
3127.000000;3.408345
3126.000000;3.453189
3125.000000;3.435105
3124.000000;3.430502
3123.000000;3.496249
3122.000000;3.736037
3121.000000;3.928552
3120.000000;3.941297
3119.000000;3.663622
3118.000000;3.420374
3117.000000;3.472674
3116.000000;3.601225
3115.000000;3.453393
3114.000000;3.309354
3113.000000;3.321474
3112.000000;3.472773
3111.000000;3.576070
3110.000000;3.592202
3109.000000;3.522482
3108.000000;3.518876
3107.000000;3.683532
3106.000000;3.572962
3105.000000;3.417208
3104.000000;3.379871
3103.000000;3.420425
3102.000000;3.567046
3101.000000;3.646522
3100.000000;3.631708
3099.000000;3.643019
3098.000000;3.627976
3097.000000;3.565876
3096.000000;3.467514
3095.000000;3.513154
3094.000000;3.649037
3093.000000;3.573501
3092.000000;3.508527
3091.000000;3.466355
3090.000000;3.419025
3089.000000;3.401694
3088.000000;3.362906
3087.000000;3.405511
3086.000000;3.591589
3085.000000;3.731074
3084.000000;3.751199
3083.000000;3.936833
3082.000000;4.104236
3081.000000;4.171862
3080.000000;4.433483
3079.000000;3.775475
3078.000000;3.439747
3077.000000;3.455506
3076.000000;3.635306
3075.000000;3.838771
3074.000000;4.315252
3073.000000;4.046521
3072.000000;3.730518
3071.000000;3.925526
3070.000000;4.122221
3069.000000;3.762528
3068.000000;3.485661
3067.000000;3.396653
3066.000000;3.394745
3065.000000;3.269978
3064.000000;3.122661
3063.000000;3.079656
3062.000000;3.123762
3061.000000;3.192535
3060.000000;3.279280
3059.000000;3.629819
3058.000000;4.167937
3057.000000;3.909328
3056.000000;3.854981
3055.000000;3.766086
3054.000000;3.988843
3053.000000;3.873443
3052.000000;3.749315
3051.000000;3.955012
3050.000000;3.991414
3049.000000;3.932874
3048.000000;3.702510
3047.000000;3.664693
3046.000000;3.617376
3045.000000;3.435746
3044.000000;3.429667
3043.000000;3.449394
3042.000000;3.538893
3041.000000;3.975315
3040.000000;3.623295
3039.000000;3.338035
3038.000000;3.277233
3037.000000;3.225676
3036.000000;3.189116
3035.000000;3.143518
3034.000000;3.131670
3033.000000;3.238342
3032.000000;3.469211
3031.000000;3.693092
3030.000000;3.738699
3029.000000;3.672132
3028.000000;3.618253
3027.000000;3.456991
3026.000000;3.394233
3025.000000;3.659706
3024.000000;4.042615
3023.000000;3.929900
3022.000000;3.521585
3021.000000;3.454621
3020.000000;4.069699
3019.000000;3.795476
3018.000000;3.418624
3017.000000;3.386992
3016.000000;3.434111
3015.000000;3.646645
3014.000000;3.919609
3013.000000;3.758205
3012.000000;3.597217
3011.000000;3.777392
3010.000000;3.986278
3009.000000;3.841642
3008.000000;3.641108
3007.000000;3.385666
3006.000000;3.269590
3005.000000;3.288771
3004.000000;3.399727
3003.000000;3.353570
3002.000000;3.243542
3001.000000;3.338813
3000.000000;3.501914
2999.000000;3.465690
2998.000000;3.490563
2997.000000;3.718992
2996.000000;3.909490
2995.000000;4.134141
2994.000000;3.802187
2993.000000;3.539471
2992.000000;3.520718
2991.000000;3.413410
2990.000000;3.388096
2989.000000;3.510111
2988.000000;3.573948
2987.000000;3.533405
2986.000000;3.402262
2985.000000;3.391294
2984.000000;3.446324
2983.000000;3.396045
2982.000000;3.496990
2981.000000;3.686167
2980.000000;3.693984
2979.000000;3.717902
2978.000000;3.666556
2977.000000;3.665201
2976.000000;3.691591
2975.000000;3.561916
2974.000000;3.499803
2973.000000;3.427568
2972.000000;3.477015
2971.000000;3.926841
2970.000000;3.915937
2969.000000;3.662746
2968.000000;3.471297
2967.000000;3.384708
2966.000000;3.590504
2965.000000;3.779240
2964.000000;3.673631
2963.000000;3.479135
2962.000000;3.387134
2961.000000;3.492402
2960.000000;3.762254
2959.000000;3.842987
2958.000000;3.691053
2957.000000;3.702986
2956.000000;3.796359
2955.000000;3.603045
2954.000000;3.596269
2953.000000;3.862410
2952.000000;3.579490
2951.000000;3.669126
2950.000000;3.981551
2949.000000;3.569847
2948.000000;3.585335
2947.000000;3.663275
2946.000000;3.599953
2945.000000;3.708990
2944.000000;4.108857
2943.000000;4.329244
2942.000000;3.964549
2941.000000;3.979657
2940.000000;3.900338
2939.000000;3.674139
2938.000000;3.695636
2937.000000;3.768462
2936.000000;3.706705
2935.000000;3.595776
2934.000000;3.471229
2933.000000;3.586175
2932.000000;3.678926
2931.000000;3.488260
2930.000000;3.444206
2929.000000;3.420098
2928.000000;3.403971
2927.000000;3.442504
2926.000000;3.490777
2925.000000;3.464305
2924.000000;3.391356
2923.000000;3.644786
2922.000000;3.817928
2921.000000;3.382973
2920.000000;3.247555
2919.000000;3.174829
2918.000000;3.119028
2917.000000;3.089225
2916.000000;3.112688
2915.000000;3.248834
2914.000000;3.571356
2913.000000;4.128080
2912.000000;3.913686
2911.000000;3.684455
2910.000000;3.792795
2909.000000;4.206861
2908.000000;3.742334
2907.000000;3.470789
2906.000000;3.395314
2905.000000;3.374046
2904.000000;3.383807
2903.000000;3.459072
2902.000000;3.730299
2901.000000;3.942396
2900.000000;3.997672
2899.000000;4.092330
2898.000000;3.939269
2897.000000;4.129760
2896.000000;3.792609
2895.000000;3.419724
2894.000000;3.363633
2893.000000;3.394476
2892.000000;3.410641
2891.000000;3.419192
2890.000000;3.469169
2889.000000;3.530944
2888.000000;3.578099
2887.000000;3.617320
2886.000000;3.558935
2885.000000;3.659727
2884.000000;4.097229
2883.000000;3.832209
2882.000000;3.482639
2881.000000;3.350194
2880.000000;3.329783
2879.000000;3.443466
2878.000000;3.722620
2877.000000;3.930562
2876.000000;3.661277
2875.000000;3.550882
2874.000000;3.558748
2873.000000;3.536420
2872.000000;3.610012
2871.000000;3.677583
2870.000000;3.944762
2869.000000;4.027371
2868.000000;3.486596
2867.000000;3.406932
2866.000000;3.511211
2865.000000;3.534717
2864.000000;3.565597
2863.000000;3.569435
2862.000000;3.436113
2861.000000;3.391737
2860.000000;3.391680
2859.000000;3.371427
2858.000000;3.511708
2857.000000;3.721344
2856.000000;3.488412
2855.000000;3.216316
2854.000000;3.096474
2853.000000;3.113712
2852.000000;3.221260
2851.000000;3.306975
2850.000000;3.397151
2849.000000;3.544030
2848.000000;3.541205
2847.000000;3.580861
2846.000000;3.727392
2845.000000;3.627079
2844.000000;3.529052
2843.000000;3.538019
2842.000000;3.515881
2841.000000;3.544493
2840.000000;3.607222
2839.000000;3.585132
2838.000000;3.471223
2837.000000;3.275485
2836.000000;3.213460
2835.000000;3.263618
2834.000000;3.276250
2833.000000;3.351045
2832.000000;3.570113
2831.000000;3.920057
2830.000000;4.446704
2829.000000;3.964377
2828.000000;3.565248
2827.000000;3.454266
2826.000000;3.452855
2825.000000;3.471911
2824.000000;3.663214
2823.000000;3.765142
2822.000000;3.548671
2821.000000;3.495438
2820.000000;3.381740
2819.000000;3.378980
2818.000000;3.635818
2817.000000;3.855665
2816.000000;4.136896
2815.000000;3.975166
2814.000000;3.470340
2813.000000;3.495234
2812.000000;3.772890
2811.000000;3.693249
2810.000000;3.461112
2809.000000;3.472718
2808.000000;3.835570
2807.000000;3.926119
2806.000000;3.685804
2805.000000;3.617680
2804.000000;3.501458
2803.000000;3.570978
2802.000000;3.706895
2801.000000;3.514749
2800.000000;3.400395
2799.000000;3.341470
2798.000000;3.262050
2797.000000;3.226690
2796.000000;3.252984
2795.000000;3.362219
2794.000000;3.462192
2793.000000;3.444553
2792.000000;3.578547
2791.000000;3.919497
2790.000000;3.601316
2789.000000;3.269318
2788.000000;3.138949
2787.000000;3.120407
2786.000000;3.134331
2785.000000;3.139697
2784.000000;3.181342
2783.000000;3.371816
2782.000000;4.125776
2781.000000;4.019782
2780.000000;3.535403
2779.000000;3.440429
2778.000000;3.512568
2777.000000;4.085052
2776.000000;3.848826
2775.000000;3.568501
2774.000000;3.622084
2773.000000;3.705877
2772.000000;3.603311
2771.000000;3.588307
2770.000000;3.679383
2769.000000;3.648436
2768.000000;3.534508
2767.000000;3.357268
2766.000000;3.294307
2765.000000;3.413735
2764.000000;3.553104
2763.000000;3.680999
2762.000000;3.861622
2761.000000;3.844802
2760.000000;3.925518
2759.000000;3.828408
2758.000000;3.687305
2757.000000;3.711116
2756.000000;3.740418
2755.000000;3.558341
2754.000000;3.364485
2753.000000;3.247842
2752.000000;3.330484
2751.000000;3.919453
2750.000000;3.864340
2749.000000;3.780995
2748.000000;3.886117
2747.000000;3.810305
2746.000000;4.004124
2745.000000;3.794533
2744.000000;3.709307
2743.000000;3.888274
2742.000000;3.830556
2741.000000;3.801348
2740.000000;3.751010
2739.000000;3.761855
2738.000000;3.889601
2737.000000;3.661444
2736.000000;3.397636
2735.000000;3.305161
2734.000000;3.282517
2733.000000;3.226132
2732.000000;3.217862
2731.000000;3.372278
2730.000000;3.757906
2729.000000;3.861930
2728.000000;3.607102
2727.000000;3.618856
2726.000000;3.705461
2725.000000;3.692090
2724.000000;3.731478
2723.000000;3.694055
2722.000000;3.497487
2721.000000;3.541815
2720.000000;3.920179
2719.000000;3.674728
2718.000000;3.367344
2717.000000;3.259264
2716.000000;3.233272
2715.000000;3.225958
2714.000000;3.258651
2713.000000;3.313083
2712.000000;3.321575
2711.000000;3.474415
2710.000000;3.622217
2709.000000;3.505591
2708.000000;3.512031
2707.000000;3.472533
2706.000000;3.596376
2705.000000;3.915907
2704.000000;3.513609
2703.000000;3.345054
2702.000000;3.414136
2701.000000;3.415130
2700.000000;3.516816
2699.000000;3.836005
2698.000000;3.649087
2697.000000;3.694858
2696.000000;3.826929
2695.000000;3.607199
2694.000000;3.565964
2693.000000;3.754388
2692.000000;4.029907
2691.000000;3.903885
2690.000000;3.708986
2689.000000;3.614036
2688.000000;3.560372
2687.000000;3.515912
2686.000000;3.423885
2685.000000;3.366510
2684.000000;3.362771
2683.000000;3.382455
2682.000000;3.448473
2681.000000;3.483844
2680.000000;3.471500
2679.000000;3.604137
2678.000000;3.925483
2677.000000;3.829054
2676.000000;3.584336
2675.000000;3.874248
2674.000000;3.972333
2673.000000;3.528217
2672.000000;3.387975
2671.000000;3.312857
2670.000000;3.317794
2669.000000;3.510733
2668.000000;4.068985
2667.000000;4.338734
2666.000000;4.264897
2665.000000;3.923876
2664.000000;3.640095
2663.000000;3.593527
2662.000000;3.476091
2661.000000;3.493945
2660.000000;3.602519
2659.000000;3.509516
2658.000000;3.493031
2657.000000;3.560199
2656.000000;3.995522
2655.000000;4.568317
2654.000000;3.958960
2653.000000;4.096841
2652.000000;3.982916
2651.000000;3.909416
2650.000000;3.600623
2649.000000;3.463668
2648.000000;3.444184
2647.000000;3.353184
2646.000000;3.288859
2645.000000;3.381004
2644.000000;3.517706
2643.000000;3.390163
2642.000000;3.355428
2641.000000;3.480124
2640.000000;3.401612
2639.000000;3.366205
2638.000000;3.520224
2637.000000;3.735938
2636.000000;3.995205
2635.000000;4.080267
2634.000000;3.806563
2633.000000;3.663017
2632.000000;3.381477
2631.000000;3.275283
2630.000000;3.307920
2629.000000;3.346615
2628.000000;3.387403
2627.000000;3.523692
2626.000000;3.523893
2625.000000;3.341137
2624.000000;3.306349
2623.000000;3.406504
2622.000000;3.567741
2621.000000;3.818574
2620.000000;4.402947
2619.000000;3.976971
2618.000000;3.603341
2617.000000;3.668520
2616.000000;3.795438
2615.000000;3.580705
2614.000000;3.535812
2613.000000;3.867704
2612.000000;3.725642
2611.000000;3.584657
2610.000000;3.696022
2609.000000;3.696856
2608.000000;3.799464
2607.000000;4.161272
2606.000000;3.713371
2605.000000;3.691122
2604.000000;3.726361
2603.000000;3.704051
2602.000000;3.615017
2601.000000;3.544582
2600.000000;3.626972
2599.000000;3.564488
2598.000000;3.424542
2597.000000;3.378949
2596.000000;3.674399
2595.000000;3.998501
2594.000000;3.689079
2593.000000;3.565499
2592.000000;3.324666
2591.000000;3.209874
2590.000000;3.221630
2589.000000;3.234777
2588.000000;3.266192
2587.000000;3.362260
2586.000000;3.549630
2585.000000;3.644319
2584.000000;3.640296
2583.000000;3.882607
2582.000000;3.526932
2581.000000;3.452162
2580.000000;3.598528
2579.000000;3.590749
2578.000000;3.530024
2577.000000;3.436491
2576.000000;3.434322
2575.000000;3.561346
2574.000000;3.631360
2573.000000;3.527217
2572.000000;3.326310
2571.000000;3.322372
2570.000000;3.536868
2569.000000;3.677902
2568.000000;3.681438
2567.000000;3.713648
2566.000000;4.046962
2565.000000;3.889853
2564.000000;3.553638
2563.000000;3.591615
2562.000000;3.832908
2561.000000;4.300330
2560.000000;4.918003
2559.000000;3.678340
2558.000000;3.334388
2557.000000;3.280542
2556.000000;3.324045
2555.000000;3.302776
2554.000000;3.320361
2553.000000;3.582614
2552.000000;3.548960
2551.000000;3.325191
2550.000000;3.380444
2549.000000;3.710232
2548.000000;4.142760
2547.000000;3.537591
2546.000000;3.396184
2545.000000;3.525398
2544.000000;3.647044
2543.000000;3.653097
2542.000000;3.776172
2541.000000;3.724243
2540.000000;3.599458
2539.000000;3.621387
2538.000000;3.747839
2537.000000;3.987930
2536.000000;3.958950
2535.000000;3.885056
2534.000000;3.677815
2533.000000;3.519585
2532.000000;3.448334
2531.000000;3.470108
2530.000000;3.487295
2529.000000;3.447108
2528.000000;3.494723
2527.000000;3.595432
2526.000000;3.522800
2525.000000;3.403817
2524.000000;3.353015
2523.000000;3.418892
2522.000000;3.464048
2521.000000;3.496771
2520.000000;3.522515
2519.000000;3.395215
2518.000000;3.337065
2517.000000;3.476608
2516.000000;3.865257
2515.000000;3.783390
2514.000000;3.497220
2513.000000;3.409055
2512.000000;3.285456
2511.000000;3.236031
2510.000000;3.295483
2509.000000;3.352703
2508.000000;3.362451
2507.000000;3.339500
2506.000000;3.340255
2505.000000;3.414277
2504.000000;3.460701
2503.000000;3.403284
2502.000000;3.398055
2501.000000;3.594351
2500.000000;3.911477
2499.000000;3.819269
2498.000000;3.745485
2497.000000;3.824339
2496.000000;3.624650
2495.000000;3.399950
2494.000000;3.321942
2493.000000;3.268167
2492.000000;3.233911
2491.000000;3.314106
2490.000000;3.603588
2489.000000;3.824760
2488.000000;4.164345
2487.000000;4.114058
2486.000000;3.648297
2485.000000;3.766672
2484.000000;3.963373
2483.000000;4.595649
2482.000000;4.338835
2481.000000;4.156855
2480.000000;4.137918
2479.000000;3.972930
2478.000000;3.586674
2477.000000;3.567927
2476.000000;3.824842
2475.000000;3.875708
2474.000000;3.713122
2473.000000;3.762593
2472.000000;3.888700
2471.000000;3.650652
2470.000000;3.440479
2469.000000;3.345126
2468.000000;3.320438
2467.000000;3.347075
2466.000000;3.382531
2465.000000;3.442243
2464.000000;3.503844
2463.000000;3.483238
2462.000000;3.521109
2461.000000;3.675691
2460.000000;3.732388
2459.000000;3.673658
2458.000000;3.652190
2457.000000;3.684267
2456.000000;3.528467
2455.000000;3.429289
2454.000000;3.397223
2453.000000;3.285660
2452.000000;3.236239
2451.000000;3.412304
2450.000000;3.789525
2449.000000;3.632500
2448.000000;3.594380
2447.000000;3.700008
2446.000000;3.865872
2445.000000;3.737808
2444.000000;3.564763
2443.000000;3.647561
2442.000000;3.760652
2441.000000;3.632970
2440.000000;3.510572
2439.000000;3.341519
2438.000000;3.283398
2437.000000;3.481637
2436.000000;3.918134
2435.000000;3.875896
2434.000000;3.713006
2433.000000;3.646832
2432.000000;3.654629
2431.000000;3.980522
2430.000000;3.852028
2429.000000;3.453115
2428.000000;3.249929
2427.000000;3.217872
2426.000000;3.352780
2425.000000;3.504983
2424.000000;3.481461
2423.000000;3.610660
2422.000000;4.001691
2421.000000;4.047259
2420.000000;3.910728
2419.000000;4.113945
2418.000000;4.495028
2417.000000;4.108403
2416.000000;3.953665
2415.000000;3.820875
2414.000000;3.450327
2413.000000;3.411437
2412.000000;3.567588
2411.000000;3.609387
2410.000000;3.546107
2409.000000;3.495569
2408.000000;3.518842
2407.000000;3.495253
2406.000000;3.347097
2405.000000;3.382458
2404.000000;3.580548
2403.000000;3.782052
2402.000000;3.812812
2401.000000;3.937514
2400.000000;4.265231
2399.000000;3.850664
2398.000000;3.519940
2397.000000;3.471100
2396.000000;3.589850
2395.000000;3.803235
2394.000000;3.811697
2393.000000;3.954822
2392.000000;4.163529
2391.000000;3.750744
2390.000000;3.714037
2389.000000;3.677747
2388.000000;3.572878
2387.000000;3.762467
2386.000000;3.582231
2385.000000;3.309428
2384.000000;3.287396
2383.000000;3.274257
2382.000000;3.555517
2381.000000;3.694642
2380.000000;3.278319
2379.000000;3.339163
2378.000000;3.569668
2377.000000;3.554597
2376.000000;3.486053
2375.000000;3.953778
2374.000000;3.462385
2373.000000;3.364447
2372.000000;3.761733
2371.000000;3.897049
2370.000000;3.709027
2369.000000;3.609151
2368.000000;3.543233
2367.000000;3.612857
2366.000000;3.662370
2365.000000;3.599745
2364.000000;3.505082
2363.000000;3.400397
2362.000000;3.423620
2361.000000;3.583060
2360.000000;3.552012
2359.000000;3.523636
2358.000000;3.628040
2357.000000;3.549333
2356.000000;3.424623
2355.000000;3.421804
2354.000000;3.559398
2353.000000;3.690633
2352.000000;3.751077
2351.000000;3.573176
2350.000000;3.740481
2349.000000;3.603542
2348.000000;3.368600
2347.000000;3.679979
2346.000000;4.315805
2345.000000;3.949360
2344.000000;3.818792
2343.000000;3.706647
2342.000000;3.575395
2341.000000;3.541220
2340.000000;3.445274
2339.000000;3.441769
2338.000000;3.521261
2337.000000;3.564192
2336.000000;3.706432
2335.000000;4.000668
2334.000000;3.781608
2333.000000;3.748769
2332.000000;3.703967
2331.000000;3.670586
2330.000000;3.704738
2329.000000;3.571580
2328.000000;3.433238
2327.000000;3.416182
2326.000000;3.426704
2325.000000;3.626250
2324.000000;3.841519
2323.000000;4.064111
2322.000000;3.602268
2321.000000;3.415751
2320.000000;3.402968
2319.000000;3.464933
2318.000000;3.450608
2317.000000;3.204847
2316.000000;3.155164
2315.000000;3.421105
2314.000000;3.678192
2313.000000;3.371148
2312.000000;3.225404
2311.000000;3.322531
2310.000000;3.549946
2309.000000;3.826575
2308.000000;4.288847
2307.000000;3.628814
2306.000000;3.391836
2305.000000;3.386897
2304.000000;3.619310
2303.000000;3.681665
2302.000000;3.714856
2301.000000;3.708078
2300.000000;3.370654
2299.000000;3.309441
2298.000000;3.284024
2297.000000;3.253243
2296.000000;3.347280
2295.000000;3.512051
2294.000000;3.739232
2293.000000;3.849201
2292.000000;3.608421
2291.000000;3.473125
2290.000000;3.531113
2289.000000;3.620947
2288.000000;3.400143
2287.000000;3.367176
2286.000000;3.449307
2285.000000;3.444183
2284.000000;3.458111
2283.000000;3.694095
2282.000000;3.597273
2281.000000;3.364244
2280.000000;3.359027
2279.000000;3.411274
2278.000000;3.378656
2277.000000;3.376905
2276.000000;3.433723
2275.000000;3.382968
2274.000000;3.274430
2273.000000;3.297329
2272.000000;3.389910
2271.000000;3.489636
2270.000000;3.521942
2269.000000;3.572306
2268.000000;3.829475
2267.000000;4.010414
2266.000000;4.132718
2265.000000;3.902872
2264.000000;3.746155
2263.000000;3.815869
2262.000000;3.718071
2261.000000;3.760591
2260.000000;3.511861
2259.000000;3.469322
2258.000000;3.547537
2257.000000;3.631640
2256.000000;3.770709
2255.000000;4.140517
2254.000000;4.151738
2253.000000;3.850244
2252.000000;3.875563
2251.000000;3.894960
2250.000000;4.125988
2249.000000;4.197948
2248.000000;3.957570
2247.000000;3.789429
2246.000000;3.494426
2245.000000;3.579959
2244.000000;3.886800
2243.000000;4.002888
2242.000000;3.923047
2241.000000;4.117409
2240.000000;3.812084
2239.000000;3.945716
2238.000000;3.812713
2237.000000;3.621472
2236.000000;3.616074
2235.000000;3.532381
2234.000000;3.513327
2233.000000;3.555759
2232.000000;3.627922
2231.000000;4.013708
2230.000000;3.847334
2229.000000;3.822234
2228.000000;3.657304
2227.000000;3.410702
2226.000000;3.377641
2225.000000;3.444760
2224.000000;3.584531
2223.000000;3.757424
2222.000000;3.661264
2221.000000;3.526654
2220.000000;3.425416
2219.000000;3.576836
2218.000000;3.866255
2217.000000;3.699167
2216.000000;3.669648
2215.000000;3.619690
2214.000000;3.811852
2213.000000;4.007436
2212.000000;3.597090
2211.000000;3.628767
2210.000000;3.810833
2209.000000;3.634630
2208.000000;3.500019
2207.000000;3.703229
2206.000000;3.586886
2205.000000;3.518836
2204.000000;3.752602
2203.000000;3.546777
2202.000000;3.399960
2201.000000;3.422333
2200.000000;3.438848
2199.000000;3.601519
2198.000000;3.880777
2197.000000;3.792313
2196.000000;3.782082
2195.000000;3.917798
2194.000000;4.513228
2193.000000;4.534884
2192.000000;4.053923
2191.000000;3.766414
2190.000000;3.603769
2189.000000;4.258489
2188.000000;3.950979
2187.000000;3.655837
2186.000000;3.603075
2185.000000;3.575738
2184.000000;3.476634
2183.000000;3.389320
2182.000000;3.388859
2181.000000;3.391213
2180.000000;3.383613
2179.000000;3.492302
2178.000000;3.799114
2177.000000;4.065848
2176.000000;3.964502
2175.000000;4.362028
2174.000000;3.474167
2173.000000;3.407885
2172.000000;3.480614
2171.000000;3.518672
2170.000000;3.498902
2169.000000;3.775660
2168.000000;3.916843
2167.000000;3.573217
2166.000000;3.536746
2165.000000;3.593202
2164.000000;3.537030
2163.000000;3.566081
2162.000000;3.686307
2161.000000;4.110287
2160.000000;4.226573
2159.000000;4.074158
2158.000000;4.102094
2157.000000;3.825392
2156.000000;3.571515
2155.000000;3.603486
2154.000000;3.824489
2153.000000;4.033293
2152.000000;3.703257
2151.000000;3.432098
2150.000000;3.306525
2149.000000;3.417949
2148.000000;3.723851
2147.000000;3.795002
2146.000000;3.544494
2145.000000;3.449835
2144.000000;3.462398
2143.000000;3.468297
2142.000000;3.529536
2141.000000;3.685073
2140.000000;3.848796
2139.000000;3.673001
2138.000000;3.500143
2137.000000;3.576528
2136.000000;3.621341
2135.000000;3.509317
2134.000000;3.396930
2133.000000;3.422449
2132.000000;3.678128
2131.000000;4.138537
2130.000000;4.228501
2129.000000;3.553863
2128.000000;3.309719
2127.000000;3.343400
2126.000000;3.467800
2125.000000;3.426761
2124.000000;3.396594
2123.000000;3.489375
2122.000000;3.514702
2121.000000;3.436808
2120.000000;3.525320
2119.000000;3.829859
2118.000000;4.515438
2117.000000;4.070253
2116.000000;3.814245
2115.000000;3.927905
2114.000000;3.574811
2113.000000;3.738024
2112.000000;3.838910
2111.000000;3.611263
2110.000000;3.763310
2109.000000;3.858134
2108.000000;3.827423
2107.000000;4.142064
2106.000000;3.918012
2105.000000;3.593692
2104.000000;3.454885
2103.000000;3.517753
2102.000000;3.678006
2101.000000;3.520587
2100.000000;3.422934
2099.000000;3.369677
2098.000000;3.432296
2097.000000;3.857264
2096.000000;3.642158
2095.000000;3.758625
2094.000000;4.324886
2093.000000;3.712994
2092.000000;3.708402
2091.000000;3.654983
2090.000000;3.569633
2089.000000;3.397324
2088.000000;3.328469
2087.000000;3.398927
2086.000000;3.442136
2085.000000;3.500719
2084.000000;3.523581
2083.000000;3.551240
2082.000000;3.713705
2081.000000;3.618685
2080.000000;3.469775
2079.000000;3.555511
2078.000000;3.719879
2077.000000;3.645255
2076.000000;3.610842
2075.000000;3.717683
2074.000000;3.690353
2073.000000;3.710615
2072.000000;3.543610
2071.000000;3.204703
2070.000000;3.032322
2069.000000;3.068761
2068.000000;3.260037
2067.000000;3.434334
2066.000000;3.557001
2065.000000;3.743015
2064.000000;4.158022
2063.000000;3.935741
2062.000000;3.798949
2061.000000;4.010499
2060.000000;3.620810
2059.000000;3.621988
2058.000000;3.900286
2057.000000;3.780831
2056.000000;3.548636
2055.000000;3.591880
2054.000000;3.737166
2053.000000;3.712647
2052.000000;3.752014
2051.000000;4.086348
2050.000000;3.830441
2049.000000;3.744305
2048.000000;3.755058
2047.000000;3.693491
2046.000000;3.687173
2045.000000;3.706102
2044.000000;3.564136
2043.000000;3.563302
2042.000000;3.409671
2041.000000;3.319549
2040.000000;3.346186
2039.000000;3.360274
2038.000000;3.399950
2037.000000;3.560302
2036.000000;3.501842
2035.000000;3.384000
2034.000000;3.353833
2033.000000;3.269429
2032.000000;3.246545
2031.000000;3.482979
2030.000000;4.079555
2029.000000;3.856676
2028.000000;3.677088
2027.000000;3.604347
2026.000000;3.527876
2025.000000;3.554982
2024.000000;3.510530
2023.000000;3.666431
2022.000000;4.011904
2021.000000;4.242279
2020.000000;4.215090
2019.000000;3.932276
2018.000000;3.648279
2017.000000;3.681930
2016.000000;3.916366
2015.000000;4.230604
2014.000000;4.672358
2013.000000;3.910888
2012.000000;3.600703
2011.000000;3.588755
2010.000000;3.580596
2009.000000;3.533857
2008.000000;3.620444
2007.000000;3.833952
2006.000000;3.829065
2005.000000;3.710936
2004.000000;3.679378
2003.000000;3.661901
2002.000000;3.696868
2001.000000;3.505498
2000.000000;3.356297
1999.000000;3.452314
1998.000000;3.601764
1997.000000;3.446032
1996.000000;3.336644
1995.000000;3.421250
1994.000000;3.629896
1993.000000;3.640768
1992.000000;3.553118
1991.000000;3.793432
1990.000000;3.867923
1989.000000;3.547084
1988.000000;3.529504
1987.000000;3.517703
1986.000000;3.452523
1985.000000;3.339777
1984.000000;3.249052
1983.000000;3.291672
1982.000000;3.413545
1981.000000;3.587516
1980.000000;3.843926
1979.000000;3.990782
1978.000000;3.851843
1977.000000;3.811311
1976.000000;3.829520
1975.000000;3.525640
1974.000000;3.317245
1973.000000;3.350836
1972.000000;3.580200
1971.000000;3.794130
1970.000000;3.798731
1969.000000;3.956585
1968.000000;3.709086
1967.000000;3.527302
1966.000000;3.482821
1965.000000;3.519765
1964.000000;3.576245
1963.000000;3.661895
1962.000000;3.584069
1961.000000;3.691092
1960.000000;4.063424
1959.000000;3.845825
1958.000000;3.567934
1957.000000;3.651753
1956.000000;3.812333
1955.000000;3.810175
1954.000000;3.980365
1953.000000;3.864095
1952.000000;3.659281
1951.000000;4.080956
1950.000000;4.014662
1949.000000;3.409840
1948.000000;3.328333
1947.000000;3.370835
1946.000000;3.487271
1945.000000;3.652206
1944.000000;3.471441
1943.000000;3.393119
1942.000000;3.557838
1941.000000;3.902551
1940.000000;3.963519
1939.000000;3.468186
1938.000000;3.321707
1937.000000;3.443743
1936.000000;3.532371
1935.000000;3.456680
1934.000000;3.387408
1933.000000;3.402903
1932.000000;3.479972
1931.000000;3.464447
1930.000000;3.486327
1929.000000;3.536187
1928.000000;3.566538
1927.000000;3.616934
1926.000000;3.948703
1925.000000;4.021925
1924.000000;3.507243
1923.000000;3.452492
1922.000000;3.560134
1921.000000;3.623737
1920.000000;3.486274
1919.000000;3.309185
1918.000000;3.220153
1917.000000;3.218581
1916.000000;3.244171
1915.000000;3.356103
1914.000000;3.529439
1913.000000;3.765862
1912.000000;4.063069
1911.000000;3.614255
1910.000000;3.442449
1909.000000;3.594212
1908.000000;3.685196
1907.000000;3.647855
1906.000000;3.968016
1905.000000;3.937984
1904.000000;3.533036
1903.000000;3.335970
1902.000000;3.328733
1901.000000;3.443040
1900.000000;3.564132
1899.000000;3.630174
1898.000000;3.527703
1897.000000;3.482225
1896.000000;3.573833
1895.000000;3.758236
1894.000000;3.940869
1893.000000;3.709297
1892.000000;3.565398
1891.000000;3.768979
1890.000000;3.692696
1889.000000;3.817314
1888.000000;4.063832
1887.000000;3.855292
1886.000000;3.909561
1885.000000;3.828677
1884.000000;3.669166
1883.000000;3.674073
1882.000000;3.636559
1881.000000;3.708042
1880.000000;3.807398
1879.000000;3.847414
1878.000000;3.667445
1877.000000;3.601021
1876.000000;3.422922
1875.000000;3.381203
1874.000000;3.637280
1873.000000;3.892726
1872.000000;3.805229
1871.000000;3.772623
1870.000000;3.497606
1869.000000;3.541047
1868.000000;3.676765
1867.000000;3.679567
1866.000000;3.805257
1865.000000;3.958509
1864.000000;4.201228
1863.000000;3.747055
1862.000000;3.549626
1861.000000;3.863299
1860.000000;3.629392
1859.000000;3.549359
1858.000000;3.739914
1857.000000;3.763314
1856.000000;3.570426
1855.000000;3.498571
1854.000000;3.438259
1853.000000;3.242430
1852.000000;3.146673
1851.000000;3.230289
1850.000000;3.465874
1849.000000;3.686587
1848.000000;4.029229
1847.000000;4.067023
1846.000000;3.667235
1845.000000;4.054220
1844.000000;4.097474
1843.000000;3.833124
1842.000000;3.759226
1841.000000;3.611525
1840.000000;3.621989
1839.000000;3.497947
1838.000000;3.394986
1837.000000;3.537156
1836.000000;4.140542
1835.000000;4.261695
1834.000000;3.974656
1833.000000;3.707682
1832.000000;3.634600
1831.000000;4.078860
1830.000000;3.492036
1829.000000;3.287190
1828.000000;3.184962
1827.000000;3.117611
1826.000000;3.174869
1825.000000;3.437354
1824.000000;3.819601
1823.000000;3.661232
1822.000000;3.532044
1821.000000;3.506407
1820.000000;3.896214
1819.000000;4.026549
1818.000000;3.336151
1817.000000;3.249059
1816.000000;3.313504
1815.000000;3.401005
1814.000000;3.433002
1813.000000;3.499658
1812.000000;3.826717
1811.000000;3.712024
1810.000000;3.484963
1809.000000;3.492727
1808.000000;3.513640
1807.000000;3.653618
1806.000000;3.657459
1805.000000;3.629381
1804.000000;3.598067
1803.000000;3.496906
1802.000000;3.415201
1801.000000;3.422534
1800.000000;3.504540
1799.000000;3.491769
1798.000000;3.369174
1797.000000;3.471769
1796.000000;3.849869
1795.000000;3.703058
1794.000000;3.321949
1793.000000;3.232205
1792.000000;3.250990
1791.000000;3.240824
1790.000000;3.255514
1789.000000;3.421806
1788.000000;3.739621
1787.000000;3.707287
1786.000000;3.471913
1785.000000;3.480575
1784.000000;3.705733
1783.000000;3.802931
1782.000000;3.680008
1781.000000;3.544219
1780.000000;3.497785
1779.000000;3.653774
1778.000000;3.926611
1777.000000;3.931950
1776.000000;3.667114
1775.000000;3.666003
1774.000000;3.633121
1773.000000;3.627050
1772.000000;3.703760
1771.000000;3.821606
1770.000000;3.897187
1769.000000;3.628121
1768.000000;3.402420
1767.000000;3.282600
1766.000000;3.249282
1765.000000;3.302020
1764.000000;3.371820
1763.000000;3.600792
1762.000000;4.055093
1761.000000;4.231477
1760.000000;3.947622
1759.000000;3.981376
1758.000000;4.193461
1757.000000;3.753123
1756.000000;3.523539
1755.000000;3.715255
1754.000000;3.984906
1753.000000;3.818838
1752.000000;3.815863
1751.000000;3.627535
1750.000000;3.479538
1749.000000;3.639498
1748.000000;4.291085
1747.000000;4.277750
1746.000000;3.924910
1745.000000;3.623956
1744.000000;3.363893
1743.000000;3.313856
1742.000000;3.369433
1741.000000;3.404079
1740.000000;3.368225
1739.000000;3.336154
1738.000000;3.373389
1737.000000;3.428333
1736.000000;3.478593
1735.000000;3.674625
1734.000000;3.591965
1733.000000;3.527097
1732.000000;3.695809
1731.000000;3.685191
1730.000000;3.572828
1729.000000;3.634941
1728.000000;4.001393
1727.000000;4.183195
1726.000000;4.078239
1725.000000;4.085959
1724.000000;3.785952
1723.000000;4.234632
1722.000000;3.571376
1721.000000;3.395795
1720.000000;3.471327
1719.000000;3.508110
1718.000000;3.569687
1717.000000;3.732775
1716.000000;3.754643
1715.000000;3.748728
1714.000000;3.814520
1713.000000;3.786867
1712.000000;3.748739
1711.000000;3.842633
1710.000000;3.530510
1709.000000;3.414294
1708.000000;3.464425
1707.000000;3.348588
1706.000000;3.204141
1705.000000;3.125360
1704.000000;3.152908
1703.000000;3.317778
1702.000000;3.670488
1701.000000;3.661584
1700.000000;3.340802
1699.000000;3.404284
1698.000000;3.505464
1697.000000;3.210167
1696.000000;3.127306
1695.000000;3.215250
1694.000000;3.298227
1693.000000;3.445223
1692.000000;3.889818
1691.000000;4.542767
1690.000000;3.894249
1689.000000;3.665562
1688.000000;3.648110
1687.000000;3.614738
1686.000000;3.701452
1685.000000;3.678771
1684.000000;3.403073
1683.000000;3.475076
1682.000000;3.559504
1681.000000;3.439535
1680.000000;3.397860
1679.000000;3.510335
1678.000000;3.707849
1677.000000;3.572026
1676.000000;3.429586
1675.000000;3.659426
1674.000000;3.795255
1673.000000;3.712742
1672.000000;3.515590
1671.000000;3.252536
1670.000000;3.177278
1669.000000;3.272994
1668.000000;3.374669
1667.000000;3.481876
1666.000000;3.799718
1665.000000;4.006183
1664.000000;3.682043
1663.000000;3.561677
1662.000000;3.365099
1661.000000;3.266478
1660.000000;3.203506
1659.000000;3.188328
1658.000000;3.211489
1657.000000;3.212696
1656.000000;3.210574
1655.000000;3.200306
1654.000000;3.216532
1653.000000;3.236922
1652.000000;3.215761
1651.000000;3.209890
1650.000000;3.216444
1649.000000;3.140609
1648.000000;3.116472
1647.000000;3.265037
1646.000000;3.408996
1645.000000;3.490185
1644.000000;3.489190
1643.000000;3.464943
1642.000000;3.551169
1641.000000;3.903609
1640.000000;4.448975
1639.000000;4.096371
1638.000000;3.451154
1637.000000;3.322637
1636.000000;3.454426
1635.000000;3.523386
1634.000000;3.532403
1633.000000;3.684084
1632.000000;4.026590
1631.000000;3.942661
1630.000000;3.570305
1629.000000;3.655595
1628.000000;3.630912
1627.000000;3.533883
1626.000000;3.548109
1625.000000;3.501892
1624.000000;3.598878
1623.000000;3.675180
1622.000000;3.592410
1621.000000;3.385731
1620.000000;3.216841
1619.000000;3.212293
1618.000000;3.515758
1617.000000;3.769118
1616.000000;3.620678
1615.000000;3.916335
1614.000000;4.018335
1613.000000;3.850493
1612.000000;3.534861
1611.000000;3.450881
1610.000000;3.483348
1609.000000;3.405866
1608.000000;3.410420
1607.000000;3.752697
1606.000000;4.591675
1605.000000;3.855748
1604.000000;3.774952
1603.000000;4.000623
1602.000000;3.676918
1601.000000;3.695880
1600.000000;3.758795
1599.000000;3.552843
1598.000000;3.578001
1597.000000;3.543192
1596.000000;3.567963
1595.000000;3.715388
1594.000000;3.477193
1593.000000;3.352348
1592.000000;3.372019
1591.000000;3.312137
1590.000000;3.275811
1589.000000;3.442434
1588.000000;3.994016
1587.000000;4.213876
1586.000000;3.953067
1585.000000;3.967443
1584.000000;3.897595
1583.000000;3.704303
1582.000000;3.403285
1581.000000;3.360468
1580.000000;3.407247
1579.000000;3.318724
1578.000000;3.256574
1577.000000;3.421268
1576.000000;3.678475
1575.000000;3.653811
1574.000000;3.625230
1573.000000;3.738624
1572.000000;3.556764
1571.000000;3.334265
1570.000000;3.327200
1569.000000;3.307434
1568.000000;3.241797
1567.000000;3.199331
1566.000000;3.212416
1565.000000;3.289041
1564.000000;3.290545
1563.000000;3.380466
1562.000000;3.735188
1561.000000;3.599350
1560.000000;3.639541
1559.000000;3.830831
1558.000000;3.548327
1557.000000;3.623117
1556.000000;3.579618
1555.000000;3.428077
1554.000000;3.416893
1553.000000;3.416970
1552.000000;3.445479
1551.000000;3.518114
1550.000000;3.529931
1549.000000;3.631199
1548.000000;3.746730
1547.000000;3.972554
1546.000000;3.618599
1545.000000;3.204491
1544.000000;3.064230
1543.000000;3.026241
1542.000000;3.040222
1541.000000;3.158293
1540.000000;3.504515
1539.000000;3.997483
1538.000000;3.998885
1537.000000;3.575572
1536.000000;3.318422
1535.000000;3.351190
1534.000000;3.484654
1533.000000;3.556349
1532.000000;3.884717
1531.000000;3.806918
1530.000000;3.410838
1529.000000;3.527376
1528.000000;3.759323
1527.000000;3.400361
1526.000000;3.198233
1525.000000;3.188293
1524.000000;3.214344
1523.000000;3.145692
1522.000000;3.335777
1521.000000;3.685176
1520.000000;3.468191
1519.000000;3.464508
1518.000000;3.684637
1517.000000;3.619396
1516.000000;3.511593
1515.000000;3.663365
1514.000000;4.123278
1513.000000;4.140644
1512.000000;4.107975
1511.000000;4.146409
1510.000000;3.664120
1509.000000;3.571490
1508.000000;3.609750
1507.000000;3.469332
1506.000000;3.325226
1505.000000;3.580712
1504.000000;4.099965
1503.000000;3.504619
1502.000000;3.393537
1501.000000;3.260344
1500.000000;3.204032
1499.000000;3.433156
1498.000000;3.797233
1497.000000;3.903606
1496.000000;3.942433
1495.000000;3.471925
1494.000000;3.227044
1493.000000;3.288153
1492.000000;3.644387
1491.000000;3.751979
1490.000000;3.524425
1489.000000;3.654568
1488.000000;3.713570
1487.000000;3.618962
1486.000000;3.641501
1485.000000;3.585954
1484.000000;3.475770
1483.000000;3.585178
1482.000000;3.867235
1481.000000;3.849468
1480.000000;4.110056
1479.000000;3.612539
1478.000000;3.484702
1477.000000;3.650341
1476.000000;3.352079
1475.000000;3.346080
1474.000000;3.547892
1473.000000;3.490215
1472.000000;3.364267
1471.000000;3.219294
1470.000000;3.150896
1469.000000;3.224210
1468.000000;3.402610
1467.000000;3.417657
1466.000000;3.291455
1465.000000;3.252497
1464.000000;3.340052
1463.000000;3.457556
1462.000000;3.366067
1461.000000;3.424943
1460.000000;3.474202
1459.000000;3.526559
1458.000000;3.857680
1457.000000;3.490111
1456.000000;3.352663
1455.000000;3.406338
1454.000000;3.442442
1453.000000;3.375035
1452.000000;3.264848
1451.000000;3.299684
1450.000000;3.403390
1449.000000;3.495627
1448.000000;3.567238
1447.000000;3.723259
1446.000000;3.991099
1445.000000;4.088897
1444.000000;3.754014
1443.000000;3.285306
1442.000000;3.081409
1441.000000;3.150989
1440.000000;3.465151
1439.000000;3.676713
1438.000000;3.340655
1437.000000;3.139066
1436.000000;3.148581
1435.000000;3.399418
1434.000000;3.867386
1433.000000;3.639056
1432.000000;3.463025
1431.000000;3.602013
1430.000000;3.821376
1429.000000;3.852365
1428.000000;3.827656
1427.000000;3.527976
1426.000000;3.313113
1425.000000;3.272577
1424.000000;3.283850
1423.000000;3.453623
1422.000000;3.666042
1421.000000;3.364435
1420.000000;3.201236
1419.000000;3.254992
1418.000000;3.408562
1417.000000;3.480537
1416.000000;3.471899
1415.000000;3.537841
1414.000000;3.538079
1413.000000;3.376606
1412.000000;3.285096
1411.000000;3.451675
1410.000000;3.964927
1409.000000;4.152551
1408.000000;4.054833
1407.000000;3.900280
1406.000000;3.742043
1405.000000;3.621377
1404.000000;3.431225
1403.000000;3.238164
1402.000000;3.155164
1401.000000;3.356636
1400.000000;4.184490
1399.000000;4.057543
1398.000000;3.390053
1397.000000;3.136792
1396.000000;3.099005
1395.000000;3.200775
1394.000000;3.467568
1393.000000;3.905466
1392.000000;3.575583
1391.000000;3.515338
1390.000000;3.541204
1389.000000;3.352591
1388.000000;3.367104
1387.000000;3.556972
1386.000000;3.943431
1385.000000;3.978643
1384.000000;3.535637
1383.000000;3.347454
1382.000000;3.176585
1381.000000;3.097479
1380.000000;3.125939
1379.000000;3.144758
1378.000000;3.190404
1377.000000;3.229071
1376.000000;3.294619
1375.000000;3.670894
1374.000000;3.787964
1373.000000;3.358905
1372.000000;3.198398
1371.000000;3.174036
1370.000000;3.237976
1369.000000;3.287923
1368.000000;3.392873
1367.000000;3.533940
1366.000000;3.449600
1365.000000;3.499226
1364.000000;3.568639
1363.000000;3.359984
1362.000000;3.262849
1361.000000;3.442041
1360.000000;3.630934
1359.000000;3.580249
1358.000000;3.411263
1357.000000;3.140365
1356.000000;3.078318
1355.000000;3.220157
1354.000000;3.337789
1353.000000;3.270450
1352.000000;3.232677
1351.000000;3.179993
1350.000000;3.125351
1349.000000;3.145727
1348.000000;3.131634
1347.000000;3.028152
1346.000000;2.946731
1345.000000;3.017980
1344.000000;3.301517
1343.000000;3.659209
1342.000000;3.568567
1341.000000;3.404497
1340.000000;3.321921
1339.000000;3.272186
1338.000000;3.268612
1337.000000;3.195080
1336.000000;3.106333
1335.000000;3.158195
1334.000000;3.349418
1333.000000;3.459148
1332.000000;3.411644
1331.000000;3.602583
1330.000000;3.639659
1329.000000;3.381776
1328.000000;3.366496
1327.000000;3.590069
1326.000000;3.974519
1325.000000;3.687271
1324.000000;3.558100
1323.000000;3.535426
1322.000000;3.374489
1321.000000;3.362213
1320.000000;3.390409
1319.000000;3.280184
1318.000000;3.227322
1317.000000;3.366024
1316.000000;3.393351
1315.000000;3.205180
1314.000000;3.123979
1313.000000;3.077966
1312.000000;3.052265
1311.000000;3.270122
1310.000000;3.782602
1309.000000;3.432482
1308.000000;3.232316
1307.000000;3.168608
1306.000000;3.182222
1305.000000;3.453747
1304.000000;3.632611
1303.000000;3.467205
1302.000000;3.352766
1301.000000;3.192823
1300.000000;3.169596
1299.000000;3.425536
1298.000000;3.799008
1297.000000;3.557870
1296.000000;3.450655
1295.000000;3.755058
1294.000000;3.761994
1293.000000;3.439988
1292.000000;3.332764
1291.000000;3.374860
1290.000000;3.384463
1289.000000;3.561363
1288.000000;4.064789
1287.000000;3.755062
1286.000000;3.617146
1285.000000;3.595842
1284.000000;3.567333
1283.000000;3.462139
1282.000000;3.428967
1281.000000;3.553585
1280.000000;3.677523
1279.000000;3.880288
1278.000000;3.474269
1277.000000;3.100375
1276.000000;2.973277
1275.000000;3.109689
1274.000000;3.887908
1273.000000;3.712774
1272.000000;3.191177
1271.000000;3.065102
1270.000000;3.091862
1269.000000;3.183545
1268.000000;3.263732
1267.000000;3.533548
1266.000000;3.388903
1265.000000;3.344673
1264.000000;3.518648
1263.000000;3.312192
1262.000000;3.367849
1261.000000;3.539557
1260.000000;3.525948
1259.000000;3.769816
1258.000000;3.756929
1257.000000;3.578744
1256.000000;3.288842
1255.000000;3.054014
1254.000000;2.995162
1253.000000;3.110323
1252.000000;3.463381
1251.000000;3.814068
1250.000000;3.570611
1249.000000;3.240785
1248.000000;3.091572
1247.000000;3.250220
1246.000000;3.734652
1245.000000;3.745320
1244.000000;3.500642
1243.000000;3.494329
1242.000000;3.759692
1241.000000;3.484791
1240.000000;3.447653
1239.000000;3.903336
1238.000000;3.421781
1237.000000;3.345522
1236.000000;3.459078
1235.000000;3.212748
1234.000000;3.031393
1233.000000;2.983038
1232.000000;3.024074
1231.000000;3.192661
1230.000000;3.600882
1229.000000;3.522239
1228.000000;3.314256
1227.000000;3.241047
1226.000000;3.116379
1225.000000;3.342961
1224.000000;3.680677
1223.000000;3.282216
1222.000000;3.246057
1221.000000;3.569508
1220.000000;3.894743
1219.000000;3.304851
1218.000000;3.026839
1217.000000;2.963791
1216.000000;2.973922
1215.000000;3.023352
1214.000000;3.274260
1213.000000;3.652969
1212.000000;3.279471
1211.000000;3.235514
1210.000000;3.444919
1209.000000;3.599777
1208.000000;3.720986
1207.000000;3.709924
1206.000000;3.625254
1205.000000;3.306005
1204.000000;3.295495
1203.000000;3.645157
1202.000000;3.691147
1201.000000;3.500800
1200.000000;3.377798
