Criado como novo conjunto de dados;"e2410_daniel_v2.spp","59044.8 Secs"
cm-1;Abs
10000.000000;1.170045
9999.000000;1.169808
9998.000000;1.169796
9997.000000;1.169527
9996.000000;1.169026
9995.000000;1.168608
9994.000000;1.168400
9993.000000;1.168202
9992.000000;1.167837
9991.000000;1.167489
9990.000000;1.167496
9989.000000;1.167827
9988.000000;1.167953
9987.000000;1.167379
9986.000000;1.166181
9985.000000;1.164865
9984.000000;1.163790
9983.000000;1.162930
9982.000000;1.162187
9981.000000;1.161681
9980.000000;1.161601
9979.000000;1.161875
9978.000000;1.162156
9977.000000;1.162132
9976.000000;1.161780
9975.000000;1.161287
9974.000000;1.160790
9973.000000;1.160240
9972.000000;1.159488
9971.000000;1.158419
9970.000000;1.157035
9969.000000;1.155479
9968.000000;1.153972
9967.000000;1.152662
9966.000000;1.151549
9965.000000;1.150677
9964.000000;1.150349
9963.000000;1.150912
9962.000000;1.152195
9961.000000;1.153348
9960.000000;1.153493
9959.000000;1.152502
9958.000000;1.150961
9957.000000;1.149519
9956.000000;1.148481
9955.000000;1.147874
9954.000000;1.147510
9953.000000;1.147017
9952.000000;1.146211
9951.000000;1.145465
9950.000000;1.145326
9949.000000;1.145682
9948.000000;1.145745
9947.000000;1.145078
9946.000000;1.144173
9945.000000;1.143699
9944.000000;1.143549
9943.000000;1.143130
9942.000000;1.142329
9941.000000;1.141648
9940.000000;1.141411
9939.000000;1.141317
9938.000000;1.140889
9937.000000;1.140042
9936.000000;1.139071
9935.000000;1.138296
9934.000000;1.137868
9933.000000;1.137755
9932.000000;1.137814
9931.000000;1.137891
9930.000000;1.137869
9929.000000;1.137601
9928.000000;1.136928
9927.000000;1.135875
9926.000000;1.134645
9925.000000;1.133310
9924.000000;1.131735
9923.000000;1.130037
9922.000000;1.128862
9921.000000;1.128764
9920.000000;1.129405
9919.000000;1.129796
9918.000000;1.129373
9917.000000;1.128445
9916.000000;1.127523
9915.000000;1.126716
9914.000000;1.126018
9913.000000;1.125725
9912.000000;1.126113
9911.000000;1.126931
9910.000000;1.127582
9909.000000;1.127749
9908.000000;1.127526
9907.000000;1.127030
9906.000000;1.126203
9905.000000;1.125011
9904.000000;1.123596
9903.000000;1.122194
9902.000000;1.121053
9901.000000;1.120397
9900.000000;1.120268
9899.000000;1.120353
9898.000000;1.120179
9897.000000;1.119569
9896.000000;1.118812
9895.000000;1.118303
9894.000000;1.118115
9893.000000;1.117974
9892.000000;1.117582
9891.000000;1.116894
9890.000000;1.116126
9889.000000;1.115511
9888.000000;1.115035
9887.000000;1.114462
9886.000000;1.113678
9885.000000;1.112919
9884.000000;1.112495
9883.000000;1.112332
9882.000000;1.112023
9881.000000;1.111409
9880.000000;1.110867
9879.000000;1.110815
9878.000000;1.111101
9877.000000;1.111141
9876.000000;1.110638
9875.000000;1.109913
9874.000000;1.109456
9873.000000;1.109336
9872.000000;1.109161
9871.000000;1.108501
9870.000000;1.107278
9869.000000;1.105808
9868.000000;1.104492
9867.000000;1.103450
9866.000000;1.102475
9865.000000;1.101433
9864.000000;1.100634
9863.000000;1.100552
9862.000000;1.101172
9861.000000;1.101832
9860.000000;1.101891
9859.000000;1.101335
9858.000000;1.100574
9857.000000;1.099845
9856.000000;1.099077
9855.000000;1.098175
9854.000000;1.097163
9853.000000;1.096071
9852.000000;1.094944
9851.000000;1.093963
9850.000000;1.093357
9849.000000;1.093177
9848.000000;1.093266
9847.000000;1.093411
9846.000000;1.093381
9845.000000;1.092970
9844.000000;1.092235
9843.000000;1.091601
9842.000000;1.091423
9841.000000;1.091505
9840.000000;1.091353
9839.000000;1.090869
9838.000000;1.090420
9837.000000;1.090206
9836.000000;1.089968
9835.000000;1.089449
9834.000000;1.088739
9833.000000;1.088019
9832.000000;1.087363
9831.000000;1.086981
9830.000000;1.087221
9829.000000;1.087957
9828.000000;1.088337
9827.000000;1.087656
9826.000000;1.086281
9825.000000;1.085221
9824.000000;1.084874
9823.000000;1.084696
9822.000000;1.084114
9821.000000;1.083274
9820.000000;1.082661
9819.000000;1.082324
9818.000000;1.081808
9817.000000;1.080776
9816.000000;1.079513
9815.000000;1.078760
9814.000000;1.079008
9813.000000;1.079875
9812.000000;1.080270
9811.000000;1.079374
9810.000000;1.077489
9809.000000;1.075711
9808.000000;1.074786
9807.000000;1.074487
9806.000000;1.074150
9805.000000;1.073538
9804.000000;1.072993
9803.000000;1.072880
9802.000000;1.073118
9801.000000;1.073271
9800.000000;1.072965
9799.000000;1.072164
9798.000000;1.071124
9797.000000;1.070163
9796.000000;1.069498
9795.000000;1.069213
9794.000000;1.069249
9793.000000;1.069379
9792.000000;1.069285
9791.000000;1.068804
9790.000000;1.068105
9789.000000;1.067538
9788.000000;1.067249
9787.000000;1.067001
9786.000000;1.066416
9785.000000;1.065412
9784.000000;1.064335
9783.000000;1.063631
9782.000000;1.063399
9781.000000;1.063290
9780.000000;1.062887
9779.000000;1.062132
9778.000000;1.061331
9777.000000;1.060817
9776.000000;1.060704
9775.000000;1.060898
9774.000000;1.061134
9773.000000;1.061015
9772.000000;1.060286
9771.000000;1.059177
9770.000000;1.058303
9769.000000;1.058055
9768.000000;1.058172
9767.000000;1.058046
9766.000000;1.057360
9765.000000;1.056278
9764.000000;1.055122
9763.000000;1.054093
9762.000000;1.053266
9761.000000;1.052672
9760.000000;1.052323
9759.000000;1.052195
9758.000000;1.052212
9757.000000;1.052224
9756.000000;1.052095
9755.000000;1.051847
9754.000000;1.051621
9753.000000;1.051387
9752.000000;1.050852
9751.000000;1.049816
9750.000000;1.048527
9749.000000;1.047466
9748.000000;1.046852
9747.000000;1.046508
9746.000000;1.046174
9745.000000;1.045731
9744.000000;1.045147
9743.000000;1.044441
9742.000000;1.043798
9741.000000;1.043535
9740.000000;1.043774
9739.000000;1.044186
9738.000000;1.044172
9737.000000;1.043353
9736.000000;1.041908
9735.000000;1.040478
9734.000000;1.039708
9733.000000;1.039783
9732.000000;1.040340
9731.000000;1.040836
9730.000000;1.040970
9729.000000;1.040760
9728.000000;1.040326
9727.000000;1.039740
9726.000000;1.039073
9725.000000;1.038417
9724.000000;1.037831
9723.000000;1.037324
9722.000000;1.036900
9721.000000;1.036579
9720.000000;1.036369
9719.000000;1.036273
9718.000000;1.036266
9717.000000;1.036184
9716.000000;1.035760
9715.000000;1.034919
9714.000000;1.033962
9713.000000;1.033252
9712.000000;1.032747
9711.000000;1.032079
9710.000000;1.031091
9709.000000;1.030026
9708.000000;1.029100
9707.000000;1.028156
9706.000000;1.026998
9705.000000;1.025861
9704.000000;1.025251
9703.000000;1.025346
9702.000000;1.025816
9701.000000;1.026251
9700.000000;1.026552
9699.000000;1.026783
9698.000000;1.026840
9697.000000;1.026484
9696.000000;1.025651
9695.000000;1.024573
9694.000000;1.023578
9693.000000;1.022845
9692.000000;1.022386
9691.000000;1.022138
9690.000000;1.021963
9689.000000;1.021648
9688.000000;1.021032
9687.000000;1.020213
9686.000000;1.019524
9685.000000;1.019222
9684.000000;1.019221
9683.000000;1.019183
9682.000000;1.018852
9681.000000;1.018214
9680.000000;1.017370
9679.000000;1.016391
9678.000000;1.015384
9677.000000;1.014562
9676.000000;1.014121
9675.000000;1.014026
9674.000000;1.014058
9673.000000;1.014064
9672.000000;1.014045
9671.000000;1.013967
9670.000000;1.013640
9669.000000;1.012951
9668.000000;1.012112
9667.000000;1.011480
9666.000000;1.011157
9665.000000;1.010916
9664.000000;1.010579
9663.000000;1.010249
9662.000000;1.010104
9661.000000;1.010096
9660.000000;1.009974
9659.000000;1.009541
9658.000000;1.008810
9657.000000;1.008000
9656.000000;1.007446
9655.000000;1.007339
9654.000000;1.007415
9653.000000;1.007014
9652.000000;1.005717
9651.000000;1.003908
9650.000000;1.002501
9649.000000;1.002094
9648.000000;1.002480
9647.000000;1.002935
9646.000000;1.002856
9645.000000;1.002146
9644.000000;1.001157
9643.000000;1.000337
9642.000000;0.999854
9641.000000;0.999537
9640.000000;0.999197
9639.000000;0.998926
9638.000000;0.998925
9637.000000;0.999132
9636.000000;0.999240
9635.000000;0.999058
9634.000000;0.998660
9633.000000;0.998154
9632.000000;0.997524
9631.000000;0.996756
9630.000000;0.995897
9629.000000;0.994958
9628.000000;0.993963
9627.000000;0.993148
9626.000000;0.992838
9625.000000;0.992989
9624.000000;0.993115
9623.000000;0.992841
9622.000000;0.992343
9621.000000;0.992015
9620.000000;0.991888
9619.000000;0.991635
9618.000000;0.991036
9617.000000;0.990203
9616.000000;0.989372
9615.000000;0.988709
9614.000000;0.988300
9613.000000;0.988139
9612.000000;0.988099
9611.000000;0.987983
9610.000000;0.987647
9609.000000;0.987021
9608.000000;0.986101
9607.000000;0.985016
9606.000000;0.984000
9605.000000;0.983190
9604.000000;0.982522
9603.000000;0.981919
9602.000000;0.981471
9601.000000;0.981294
9600.000000;0.981288
9599.000000;0.981233
9598.000000;0.981038
9597.000000;0.980749
9596.000000;0.980338
9595.000000;0.979699
9594.000000;0.978868
9593.000000;0.978080
9592.000000;0.977525
9591.000000;0.977170
9590.000000;0.976837
9589.000000;0.976413
9588.000000;0.975936
9587.000000;0.975523
9586.000000;0.975216
9585.000000;0.974870
9584.000000;0.974281
9583.000000;0.973466
9582.000000;0.972743
9581.000000;0.972433
9580.000000;0.972524
9579.000000;0.972705
9578.000000;0.972695
9577.000000;0.972447
9576.000000;0.972085
9575.000000;0.971775
9574.000000;0.971606
9573.000000;0.971500
9572.000000;0.971278
9571.000000;0.970883
9570.000000;0.970471
9569.000000;0.970197
9568.000000;0.970011
9567.000000;0.969786
9566.000000;0.969529
9565.000000;0.969287
9564.000000;0.968936
9563.000000;0.968288
9562.000000;0.967404
9561.000000;0.966577
9560.000000;0.965979
9559.000000;0.965497
9558.000000;0.964940
9557.000000;0.964235
9556.000000;0.963374
9555.000000;0.962378
9554.000000;0.961439
9553.000000;0.960926
9552.000000;0.961070
9551.000000;0.961658
9550.000000;0.962133
9549.000000;0.962044
9548.000000;0.961403
9547.000000;0.960645
9546.000000;0.960246
9545.000000;0.960307
9544.000000;0.960491
9543.000000;0.960364
9542.000000;0.959773
9541.000000;0.958874
9540.000000;0.957916
9539.000000;0.957118
9538.000000;0.956657
9537.000000;0.956575
9536.000000;0.956668
9535.000000;0.956627
9534.000000;0.956330
9533.000000;0.955857
9532.000000;0.955271
9531.000000;0.954539
9530.000000;0.953727
9529.000000;0.953085
9528.000000;0.952817
9527.000000;0.952848
9526.000000;0.952879
9525.000000;0.952594
9524.000000;0.951831
9523.000000;0.950727
9522.000000;0.949709
9521.000000;0.949193
9520.000000;0.949182
9519.000000;0.949264
9518.000000;0.949051
9517.000000;0.948499
9516.000000;0.947767
9515.000000;0.946985
9514.000000;0.946265
9513.000000;0.945779
9512.000000;0.945615
9511.000000;0.945660
9510.000000;0.945770
9509.000000;0.945946
9508.000000;0.946172
9507.000000;0.946201
9506.000000;0.945747
9505.000000;0.944882
9504.000000;0.944027
9503.000000;0.943499
9502.000000;0.943236
9501.000000;0.943016
9500.000000;0.942766
9499.000000;0.942563
9498.000000;0.942416
9497.000000;0.942189
9496.000000;0.941762
9495.000000;0.941215
9494.000000;0.940791
9493.000000;0.940636
9492.000000;0.940578
9491.000000;0.940260
9490.000000;0.939527
9489.000000;0.938599
9488.000000;0.937770
9487.000000;0.937082
9486.000000;0.936439
9485.000000;0.935928
9484.000000;0.935752
9483.000000;0.935844
9482.000000;0.935796
9481.000000;0.935309
9480.000000;0.934533
9479.000000;0.933844
9478.000000;0.933433
9477.000000;0.933266
9476.000000;0.933275
9475.000000;0.933370
9474.000000;0.933325
9473.000000;0.932916
9472.000000;0.932199
9471.000000;0.931461
9470.000000;0.930874
9469.000000;0.930366
9468.000000;0.929894
9467.000000;0.929639
9466.000000;0.929768
9465.000000;0.930097
9464.000000;0.930140
9463.000000;0.929522
9462.000000;0.928276
9461.000000;0.926794
9460.000000;0.925573
9459.000000;0.924950
9458.000000;0.924931
9457.000000;0.925213
9456.000000;0.925430
9455.000000;0.925414
9454.000000;0.925194
9453.000000;0.924818
9452.000000;0.924284
9451.000000;0.923660
9450.000000;0.923123
9449.000000;0.922799
9448.000000;0.922623
9447.000000;0.922426
9446.000000;0.922126
9445.000000;0.921765
9444.000000;0.921420
9443.000000;0.921153
9442.000000;0.921052
9441.000000;0.921203
9440.000000;0.921567
9439.000000;0.921910
9438.000000;0.921930
9437.000000;0.921475
9436.000000;0.920680
9435.000000;0.919881
9434.000000;0.919346
9433.000000;0.919041
9432.000000;0.918641
9431.000000;0.917847
9430.000000;0.916717
9429.000000;0.915672
9428.000000;0.915141
9427.000000;0.915222
9426.000000;0.915660
9425.000000;0.916081
9424.000000;0.916220
9423.000000;0.915966
9422.000000;0.915333
9421.000000;0.914422
9420.000000;0.913413
9419.000000;0.912533
9418.000000;0.911993
9417.000000;0.911857
9416.000000;0.911950
9415.000000;0.911931
9414.000000;0.911581
9413.000000;0.911001
9412.000000;0.910452
9411.000000;0.910004
9410.000000;0.909473
9409.000000;0.908732
9408.000000;0.907950
9407.000000;0.907393
9406.000000;0.907103
9405.000000;0.906909
9404.000000;0.906714
9403.000000;0.906602
9402.000000;0.906631
9401.000000;0.906666
9400.000000;0.906500
9399.000000;0.906090
9398.000000;0.905576
9397.000000;0.905130
9396.000000;0.904814
9395.000000;0.904596
9394.000000;0.904445
9393.000000;0.904398
9392.000000;0.904471
9391.000000;0.904497
9390.000000;0.904157
9389.000000;0.903311
9388.000000;0.902268
9387.000000;0.901568
9386.000000;0.901429
9385.000000;0.901532
9384.000000;0.901396
9383.000000;0.900854
9382.000000;0.900102
9381.000000;0.899407
9380.000000;0.898913
9379.000000;0.898656
9378.000000;0.898594
9377.000000;0.898587
9376.000000;0.898463
9375.000000;0.898179
9374.000000;0.897868
9373.000000;0.897694
9372.000000;0.897676
9371.000000;0.897657
9370.000000;0.897454
9369.000000;0.897024
9368.000000;0.896482
9367.000000;0.895960
9366.000000;0.895507
9365.000000;0.895115
9364.000000;0.894753
9363.000000;0.894299
9362.000000;0.893558
9361.000000;0.892516
9360.000000;0.891500
9359.000000;0.890913
9358.000000;0.890798
9357.000000;0.890849
9356.000000;0.890819
9355.000000;0.890714
9354.000000;0.890523
9353.000000;0.890073
9352.000000;0.889312
9351.000000;0.888531
9350.000000;0.888101
9349.000000;0.888102
9348.000000;0.888366
9347.000000;0.888724
9346.000000;0.889020
9345.000000;0.889043
9344.000000;0.888702
9343.000000;0.888206
9342.000000;0.887823
9341.000000;0.887500
9340.000000;0.886949
9339.000000;0.886065
9338.000000;0.885055
9337.000000;0.884165
9336.000000;0.883509
9335.000000;0.883172
9334.000000;0.883220
9333.000000;0.883543
9332.000000;0.883886
9331.000000;0.884086
9330.000000;0.884140
9329.000000;0.884036
9328.000000;0.883716
9327.000000;0.883247
9326.000000;0.882813
9325.000000;0.882480
9324.000000;0.882118
9323.000000;0.881604
9322.000000;0.880950
9321.000000;0.880177
9320.000000;0.879310
9319.000000;0.878548
9318.000000;0.878204
9317.000000;0.878331
9316.000000;0.878569
9315.000000;0.878554
9314.000000;0.878320
9313.000000;0.878146
9312.000000;0.878135
9311.000000;0.878158
9310.000000;0.878086
9309.000000;0.877884
9308.000000;0.877513
9307.000000;0.876946
9306.000000;0.876296
9305.000000;0.875758
9304.000000;0.875381
9303.000000;0.875036
9302.000000;0.874619
9301.000000;0.874195
9300.000000;0.873886
9299.000000;0.873686
9298.000000;0.873449
9297.000000;0.873024
9296.000000;0.872414
9295.000000;0.871792
9294.000000;0.871381
9293.000000;0.871284
9292.000000;0.871439
9291.000000;0.871728
9290.000000;0.872055
9289.000000;0.872286
9288.000000;0.872191
9287.000000;0.871573
9286.000000;0.870480
9285.000000;0.869261
9284.000000;0.868371
9283.000000;0.868074
9282.000000;0.868296
9281.000000;0.868712
9280.000000;0.868988
9279.000000;0.868965
9278.000000;0.868641
9277.000000;0.868068
9276.000000;0.867349
9275.000000;0.866695
9274.000000;0.866332
9273.000000;0.866292
9272.000000;0.866361
9271.000000;0.866301
9270.000000;0.866061
9269.000000;0.865740
9268.000000;0.865417
9267.000000;0.865089
9266.000000;0.864718
9265.000000;0.864270
9264.000000;0.863720
9263.000000;0.863103
9262.000000;0.862573
9261.000000;0.862329
9260.000000;0.862421
9259.000000;0.862635
9258.000000;0.862638
9257.000000;0.862269
9256.000000;0.861688
9255.000000;0.861175
9254.000000;0.860807
9253.000000;0.860397
9252.000000;0.859792
9251.000000;0.859132
9250.000000;0.858723
9249.000000;0.858685
9248.000000;0.858800
9247.000000;0.858717
9246.000000;0.858257
9245.000000;0.857556
9244.000000;0.856969
9243.000000;0.856806
9242.000000;0.857043
9241.000000;0.857288
9240.000000;0.857110
9239.000000;0.856417
9238.000000;0.855509
9237.000000;0.854811
9236.000000;0.854593
9235.000000;0.854831
9234.000000;0.855193
9233.000000;0.855207
9232.000000;0.854627
9231.000000;0.853668
9230.000000;0.852792
9229.000000;0.852287
9228.000000;0.852146
9227.000000;0.852265
9226.000000;0.852550
9225.000000;0.852816
9224.000000;0.852810
9223.000000;0.852473
9222.000000;0.852035
9221.000000;0.851735
9220.000000;0.851563
9219.000000;0.851340
9218.000000;0.850954
9217.000000;0.850455
9216.000000;0.849997
9215.000000;0.849766
9214.000000;0.849827
9213.000000;0.849948
9212.000000;0.849692
9211.000000;0.848844
9210.000000;0.847705
9209.000000;0.846846
9208.000000;0.846617
9207.000000;0.846941
9206.000000;0.847487
9205.000000;0.847905
9204.000000;0.847957
9203.000000;0.847584
9202.000000;0.846919
9201.000000;0.846164
9200.000000;0.845457
9199.000000;0.844879
9198.000000;0.844536
9197.000000;0.844527
9196.000000;0.844801
9195.000000;0.845105
9194.000000;0.845110
9193.000000;0.844626
9192.000000;0.843746
9191.000000;0.842815
9190.000000;0.842203
9189.000000;0.842020
9188.000000;0.842069
9187.000000;0.842069
9186.000000;0.841918
9185.000000;0.841704
9184.000000;0.841554
9183.000000;0.841547
9182.000000;0.841716
9181.000000;0.842019
9180.000000;0.842286
9179.000000;0.842285
9178.000000;0.841919
9177.000000;0.841340
9176.000000;0.840818
9175.000000;0.840500
9174.000000;0.840282
9173.000000;0.839939
9172.000000;0.839370
9171.000000;0.838701
9170.000000;0.838142
9169.000000;0.837761
9168.000000;0.837437
9167.000000;0.837029
9166.000000;0.836536
9165.000000;0.836106
9164.000000;0.835930
9163.000000;0.836100
9162.000000;0.836488
9161.000000;0.836780
9160.000000;0.836694
9159.000000;0.836236
9158.000000;0.835689
9157.000000;0.835342
9156.000000;0.835263
9155.000000;0.835351
9154.000000;0.835496
9153.000000;0.835618
9152.000000;0.835617
9151.000000;0.835409
9150.000000;0.835014
9149.000000;0.834554
9148.000000;0.834128
9147.000000;0.833720
9146.000000;0.833280
9145.000000;0.832841
9144.000000;0.832516
9143.000000;0.832318
9142.000000;0.832079
9141.000000;0.831639
9140.000000;0.831114
9139.000000;0.830838
9138.000000;0.830972
9137.000000;0.831297
9136.000000;0.831477
9135.000000;0.831428
9134.000000;0.831260
9133.000000;0.830940
9132.000000;0.830261
9131.000000;0.829204
9130.000000;0.828138
9129.000000;0.827526
9128.000000;0.827513
9127.000000;0.827875
9126.000000;0.828256
9125.000000;0.828412
9124.000000;0.828284
9123.000000;0.827993
9122.000000;0.827730
9121.000000;0.827587
9120.000000;0.827451
9119.000000;0.827109
9118.000000;0.826460
9117.000000;0.825628
9116.000000;0.824899
9115.000000;0.824505
9114.000000;0.824434
9113.000000;0.824423
9112.000000;0.824215
9111.000000;0.823822
9110.000000;0.823488
9109.000000;0.823393
9108.000000;0.823457
9107.000000;0.823476
9106.000000;0.823382
9105.000000;0.823290
9104.000000;0.823312
9103.000000;0.823380
9102.000000;0.823289
9101.000000;0.822937
9100.000000;0.822466
9099.000000;0.822115
9098.000000;0.821942
9097.000000;0.821778
9096.000000;0.821495
9095.000000;0.821210
9094.000000;0.821118
9093.000000;0.821201
9092.000000;0.821248
9091.000000;0.821123
9090.000000;0.820891
9089.000000;0.820689
9088.000000;0.820586
9087.000000;0.820562
9086.000000;0.820515
9085.000000;0.820282
9084.000000;0.819781
9083.000000;0.819136
9082.000000;0.818550
9081.000000;0.818075
9080.000000;0.817635
9079.000000;0.817259
9078.000000;0.817110
9077.000000;0.817218
9076.000000;0.817378
9075.000000;0.817366
9074.000000;0.817169
9073.000000;0.816905
9072.000000;0.816653
9071.000000;0.816474
9070.000000;0.816455
9069.000000;0.816607
9068.000000;0.816756
9067.000000;0.816661
9066.000000;0.816243
9065.000000;0.815650
9064.000000;0.815148
9063.000000;0.814959
9062.000000;0.815105
9061.000000;0.815346
9060.000000;0.815331
9059.000000;0.814902
9058.000000;0.814209
9057.000000;0.813525
9056.000000;0.813000
9055.000000;0.812627
9054.000000;0.812343
9053.000000;0.812068
9052.000000;0.811751
9051.000000;0.811472
9050.000000;0.811423
9049.000000;0.811682
9048.000000;0.812017
9047.000000;0.812033
9046.000000;0.811548
9045.000000;0.810783
9044.000000;0.810158
9043.000000;0.809928
9042.000000;0.810004
9041.000000;0.810106
9040.000000;0.810065
9039.000000;0.809969
9038.000000;0.809982
9037.000000;0.810093
9036.000000;0.810127
9035.000000;0.809971
9034.000000;0.809663
9033.000000;0.809274
9032.000000;0.808814
9031.000000;0.808314
9030.000000;0.807884
9029.000000;0.807598
9028.000000;0.807402
9027.000000;0.807203
9026.000000;0.807002
9025.000000;0.806864
9024.000000;0.806814
9023.000000;0.806817
9022.000000;0.806789
9021.000000;0.806600
9020.000000;0.806146
9019.000000;0.805519
9018.000000;0.805040
9017.000000;0.805013
9016.000000;0.805403
9015.000000;0.805826
9014.000000;0.805892
9013.000000;0.805546
9012.000000;0.805055
9011.000000;0.804689
9010.000000;0.804453
9009.000000;0.804171
9008.000000;0.803784
9007.000000;0.803449
9006.000000;0.803282
9005.000000;0.803140
9004.000000;0.802783
9003.000000;0.802197
9002.000000;0.801610
9001.000000;0.801212
9000.000000;0.801017
8999.000000;0.800996
8998.000000;0.801142
8997.000000;0.801375
8996.000000;0.801528
8995.000000;0.801539
8994.000000;0.801535
8993.000000;0.801618
8992.000000;0.801692
8991.000000;0.801585
8990.000000;0.801276
8989.000000;0.800899
8988.000000;0.800577
8987.000000;0.800322
8986.000000;0.800081
8985.000000;0.799823
8984.000000;0.799597
8983.000000;0.799487
8982.000000;0.799470
8981.000000;0.799364
8980.000000;0.799010
8979.000000;0.798507
8978.000000;0.798125
8977.000000;0.797990
8976.000000;0.797982
8975.000000;0.797950
8974.000000;0.797857
8973.000000;0.797674
8972.000000;0.797349
8971.000000;0.796979
8970.000000;0.796831
8969.000000;0.797018
8968.000000;0.797298
8967.000000;0.797321
8966.000000;0.797007
8965.000000;0.796528
8964.000000;0.796034
8963.000000;0.795566
8962.000000;0.795171
8961.000000;0.794943
8960.000000;0.794920
8959.000000;0.795052
8958.000000;0.795248
8957.000000;0.795373
8956.000000;0.795265
8955.000000;0.794845
8954.000000;0.794215
8953.000000;0.793580
8952.000000;0.793126
8951.000000;0.792981
8950.000000;0.793160
8949.000000;0.793469
8948.000000;0.793584
8947.000000;0.793366
8946.000000;0.793031
8945.000000;0.792890
8944.000000;0.793013
8943.000000;0.793219
8942.000000;0.793326
8941.000000;0.793247
8940.000000;0.792932
8939.000000;0.792410
8938.000000;0.791860
8937.000000;0.791504
8936.000000;0.791408
8935.000000;0.791460
8934.000000;0.791516
8933.000000;0.791469
8932.000000;0.791270
8931.000000;0.790983
8930.000000;0.790780
8929.000000;0.790737
8928.000000;0.790697
8927.000000;0.790469
8926.000000;0.790098
8925.000000;0.789783
8924.000000;0.789593
8923.000000;0.789440
8922.000000;0.789308
8921.000000;0.789281
8920.000000;0.789340
8919.000000;0.789309
8918.000000;0.789055
8917.000000;0.788606
8916.000000;0.788060
8915.000000;0.787546
8914.000000;0.787277
8913.000000;0.787452
8912.000000;0.788011
8911.000000;0.788611
8910.000000;0.788943
8909.000000;0.788956
8908.000000;0.788738
8907.000000;0.788354
8906.000000;0.787884
8905.000000;0.787455
8904.000000;0.787106
8903.000000;0.786745
8902.000000;0.786346
8901.000000;0.786077
8900.000000;0.786065
8899.000000;0.786157
8898.000000;0.786068
8897.000000;0.785735
8896.000000;0.785343
8895.000000;0.785056
8894.000000;0.784884
8893.000000;0.784833
8892.000000;0.784977
8891.000000;0.785314
8890.000000;0.785687
8889.000000;0.785931
8888.000000;0.786026
8887.000000;0.786020
8886.000000;0.785882
8885.000000;0.785531
8884.000000;0.785002
8883.000000;0.784482
8882.000000;0.784141
8881.000000;0.783972
8880.000000;0.783833
8879.000000;0.783644
8878.000000;0.783497
8877.000000;0.783529
8876.000000;0.783700
8875.000000;0.783755
8874.000000;0.783462
8873.000000;0.782897
8872.000000;0.782407
8871.000000;0.782293
8870.000000;0.782530
8869.000000;0.782814
8868.000000;0.782857
8867.000000;0.782626
8866.000000;0.782314
8865.000000;0.782113
8864.000000;0.782028
8863.000000;0.781921
8862.000000;0.781706
8861.000000;0.781457
8860.000000;0.781303
8859.000000;0.781266
8858.000000;0.781251
8857.000000;0.781190
8856.000000;0.781123
8855.000000;0.781117
8854.000000;0.781185
8853.000000;0.781309
8852.000000;0.781477
8851.000000;0.781627
8850.000000;0.781621
8849.000000;0.781356
8848.000000;0.780891
8847.000000;0.780401
8846.000000;0.780015
8845.000000;0.779768
8844.000000;0.779674
8843.000000;0.779747
8842.000000;0.779933
8841.000000;0.780114
8840.000000;0.780193
8839.000000;0.780132
8838.000000;0.779909
8837.000000;0.779528
8836.000000;0.779102
8835.000000;0.778808
8834.000000;0.778712
8833.000000;0.778705
8832.000000;0.778670
8831.000000;0.778610
8830.000000;0.778574
8829.000000;0.778573
8828.000000;0.778647
8827.000000;0.778898
8826.000000;0.779316
8825.000000;0.779669
8824.000000;0.779714
8823.000000;0.779494
8822.000000;0.779271
8821.000000;0.779194
8820.000000;0.779186
8819.000000;0.779141
8818.000000;0.779087
8817.000000;0.779113
8816.000000;0.779279
8815.000000;0.779634
8814.000000;0.780190
8813.000000;0.780793
8812.000000;0.781143
8811.000000;0.781049
8810.000000;0.780613
8809.000000;0.780105
8808.000000;0.779709
8807.000000;0.779439
8806.000000;0.779229
8805.000000;0.779023
8804.000000;0.778815
8803.000000;0.778668
8802.000000;0.778670
8801.000000;0.778841
8800.000000;0.779071
8799.000000;0.779195
8798.000000;0.779112
8797.000000;0.778837
8796.000000;0.778498
8795.000000;0.778291
8794.000000;0.778353
8793.000000;0.778639
8792.000000;0.778941
8791.000000;0.779101
8790.000000;0.779157
8789.000000;0.779234
8788.000000;0.779355
8787.000000;0.779443
8786.000000;0.779476
8785.000000;0.779554
8784.000000;0.779769
8783.000000;0.780062
8782.000000;0.780243
8781.000000;0.780149
8780.000000;0.779784
8779.000000;0.779317
8778.000000;0.778970
8777.000000;0.778879
8776.000000;0.779044
8775.000000;0.779365
8774.000000;0.779721
8773.000000;0.780019
8772.000000;0.780206
8771.000000;0.780279
8770.000000;0.780289
8769.000000;0.780326
8768.000000;0.780453
8767.000000;0.780633
8766.000000;0.780742
8765.000000;0.780722
8764.000000;0.780682
8763.000000;0.780792
8762.000000;0.781050
8761.000000;0.781275
8760.000000;0.781354
8759.000000;0.781406
8758.000000;0.781611
8757.000000;0.781930
8756.000000;0.782130
8755.000000;0.782061
8754.000000;0.781797
8753.000000;0.781512
8752.000000;0.781318
8751.000000;0.781230
8750.000000;0.781208
8749.000000;0.781198
8748.000000;0.781209
8747.000000;0.781372
8746.000000;0.781826
8745.000000;0.782526
8744.000000;0.783213
8743.000000;0.783635
8742.000000;0.783757
8741.000000;0.783741
8740.000000;0.783782
8739.000000;0.783977
8738.000000;0.784274
8737.000000;0.784489
8736.000000;0.784420
8735.000000;0.784035
8734.000000;0.783551
8733.000000;0.783292
8732.000000;0.783431
8731.000000;0.783860
8730.000000;0.784295
8729.000000;0.784518
8728.000000;0.784550
8727.000000;0.784588
8726.000000;0.784782
8725.000000;0.785073
8724.000000;0.785269
8723.000000;0.785224
8722.000000;0.784943
8721.000000;0.784545
8720.000000;0.784218
8719.000000;0.784162
8718.000000;0.784490
8717.000000;0.785109
8716.000000;0.785735
8715.000000;0.786098
8714.000000;0.786137
8713.000000;0.786015
8712.000000;0.785935
8711.000000;0.785949
8710.000000;0.785962
8709.000000;0.785895
8708.000000;0.785802
8707.000000;0.785785
8706.000000;0.785839
8705.000000;0.785874
8704.000000;0.785862
8703.000000;0.785876
8702.000000;0.785974
8701.000000;0.786153
8700.000000;0.786422
8699.000000;0.786783
8698.000000;0.787085
8697.000000;0.787075
8696.000000;0.786704
8695.000000;0.786273
8694.000000;0.786144
8693.000000;0.786376
8692.000000;0.786750
8691.000000;0.787013
8690.000000;0.786990
8689.000000;0.786600
8688.000000;0.785972
8687.000000;0.785489
8686.000000;0.785490
8685.000000;0.785904
8684.000000;0.786345
8683.000000;0.786532
8682.000000;0.786473
8681.000000;0.786282
8680.000000;0.786040
8679.000000;0.785870
8678.000000;0.785931
8677.000000;0.786235
8676.000000;0.786591
8675.000000;0.786798
8674.000000;0.786798
8673.000000;0.786644
8672.000000;0.786444
8671.000000;0.786339
8670.000000;0.786421
8669.000000;0.786586
8668.000000;0.786608
8667.000000;0.786388
8666.000000;0.786044
8665.000000;0.785751
8664.000000;0.785625
8663.000000;0.785751
8662.000000;0.786132
8661.000000;0.786555
8660.000000;0.786680
8659.000000;0.786361
8658.000000;0.785794
8657.000000;0.785264
8656.000000;0.784886
8655.000000;0.784664
8654.000000;0.784626
8653.000000;0.784775
8652.000000;0.784964
8651.000000;0.784994
8650.000000;0.784807
8649.000000;0.784513
8648.000000;0.784258
8647.000000;0.784123
8646.000000;0.784120
8645.000000;0.784220
8644.000000;0.784409
8643.000000;0.784690
8642.000000;0.785013
8641.000000;0.785208
8640.000000;0.785118
8639.000000;0.784793
8638.000000;0.784454
8637.000000;0.784249
8636.000000;0.784127
8635.000000;0.783986
8634.000000;0.783809
8633.000000;0.783628
8632.000000;0.783476
8631.000000;0.783428
8630.000000;0.783545
8629.000000;0.783719
8628.000000;0.783699
8627.000000;0.783371
8626.000000;0.782931
8625.000000;0.782667
8624.000000;0.782645
8623.000000;0.782701
8622.000000;0.782669
8621.000000;0.782533
8620.000000;0.782388
8619.000000;0.782328
8618.000000;0.782350
8617.000000;0.782312
8616.000000;0.782037
8615.000000;0.781502
8614.000000;0.780882
8613.000000;0.780411
8612.000000;0.780242
8611.000000;0.780429
8610.000000;0.780898
8609.000000;0.781384
8608.000000;0.781525
8607.000000;0.781133
8606.000000;0.780339
8605.000000;0.779442
8604.000000;0.778707
8603.000000;0.778309
8602.000000;0.778309
8601.000000;0.778548
8600.000000;0.778692
8599.000000;0.778531
8598.000000;0.778197
8597.000000;0.777988
8596.000000;0.778024
8595.000000;0.778173
8594.000000;0.778254
8593.000000;0.778187
8592.000000;0.777964
8591.000000;0.777605
8590.000000;0.777170
8589.000000;0.776764
8588.000000;0.776486
8587.000000;0.776401
8586.000000;0.776526
8585.000000;0.776801
8584.000000;0.777083
8583.000000;0.777226
8582.000000;0.777184
8581.000000;0.777016
8580.000000;0.776812
8579.000000;0.776610
8578.000000;0.776382
8577.000000;0.776078
8576.000000;0.775721
8575.000000;0.775425
8574.000000;0.775289
8573.000000;0.775282
8572.000000;0.775274
8571.000000;0.775160
8570.000000;0.774901
8569.000000;0.774507
8568.000000;0.774066
8567.000000;0.773767
8566.000000;0.773755
8565.000000;0.773944
8564.000000;0.774099
8563.000000;0.774099
8562.000000;0.774014
8561.000000;0.773878
8560.000000;0.773597
8559.000000;0.773145
8558.000000;0.772706
8557.000000;0.772475
8556.000000;0.772416
8555.000000;0.772345
8554.000000;0.772201
8553.000000;0.772089
8552.000000;0.772096
8551.000000;0.772139
8550.000000;0.772046
8549.000000;0.771723
8548.000000;0.771247
8547.000000;0.770808
8546.000000;0.770503
8545.000000;0.770228
8544.000000;0.769811
8543.000000;0.769259
8542.000000;0.768789
8541.000000;0.768572
8540.000000;0.768577
8539.000000;0.768668
8538.000000;0.768752
8537.000000;0.768788
8536.000000;0.768753
8535.000000;0.768676
8534.000000;0.768620
8533.000000;0.768559
8532.000000;0.768368
8531.000000;0.767987
8530.000000;0.767510
8529.000000;0.767059
8528.000000;0.766675
8527.000000;0.766381
8526.000000;0.766253
8525.000000;0.766300
8524.000000;0.766397
8523.000000;0.766416
8522.000000;0.766373
8521.000000;0.766340
8520.000000;0.766305
8519.000000;0.766219
8518.000000;0.766103
8517.000000;0.765998
8516.000000;0.765858
8515.000000;0.765618
8514.000000;0.765334
8513.000000;0.765141
8512.000000;0.765073
8511.000000;0.765040
8510.000000;0.764940
8509.000000;0.764757
8508.000000;0.764541
8507.000000;0.764360
8506.000000;0.764240
8505.000000;0.764118
8504.000000;0.763892
8503.000000;0.763574
8502.000000;0.763318
8501.000000;0.763246
8500.000000;0.763301
8499.000000;0.763314
8498.000000;0.763157
8497.000000;0.762795
8496.000000;0.762283
8495.000000;0.761799
8494.000000;0.761570
8493.000000;0.761669
8492.000000;0.761908
8491.000000;0.762024
8490.000000;0.761899
8489.000000;0.761568
8488.000000;0.761111
8487.000000;0.760664
8486.000000;0.760408
8485.000000;0.760410
8484.000000;0.760524
8483.000000;0.760572
8482.000000;0.760568
8481.000000;0.760610
8480.000000;0.760653
8479.000000;0.760553
8478.000000;0.760298
8477.000000;0.760016
8476.000000;0.759752
8475.000000;0.759416
8474.000000;0.758979
8473.000000;0.758553
8472.000000;0.758256
8471.000000;0.758107
8470.000000;0.758103
8469.000000;0.758245
8468.000000;0.758438
8467.000000;0.758497
8466.000000;0.758337
8465.000000;0.758069
8464.000000;0.757828
8463.000000;0.757594
8462.000000;0.757270
8461.000000;0.756877
8460.000000;0.756567
8459.000000;0.756454
8458.000000;0.756504
8457.000000;0.756590
8456.000000;0.756586
8455.000000;0.756437
8454.000000;0.756182
8453.000000;0.755919
8452.000000;0.755717
8451.000000;0.755551
8450.000000;0.755358
8449.000000;0.755138
8448.000000;0.754976
8447.000000;0.754936
8446.000000;0.754974
8445.000000;0.754987
8444.000000;0.754912
8443.000000;0.754740
8442.000000;0.754442
8441.000000;0.753981
8440.000000;0.753443
8439.000000;0.753059
8438.000000;0.753004
8437.000000;0.753172
8436.000000;0.753280
8435.000000;0.753185
8434.000000;0.752996
8433.000000;0.752839
8432.000000;0.752651
8431.000000;0.752288
8430.000000;0.751785
8429.000000;0.751386
8428.000000;0.751316
8427.000000;0.751582
8426.000000;0.751963
8425.000000;0.752176
8424.000000;0.752075
8423.000000;0.751756
8422.000000;0.751441
8421.000000;0.751237
8420.000000;0.751051
8419.000000;0.750757
8418.000000;0.750394
8417.000000;0.750116
8416.000000;0.750009
8415.000000;0.750014
8414.000000;0.750018
8413.000000;0.749965
8412.000000;0.749877
8411.000000;0.749817
8410.000000;0.749820
8409.000000;0.749840
8408.000000;0.749784
8407.000000;0.749623
8406.000000;0.749409
8405.000000;0.749167
8404.000000;0.748838
8403.000000;0.748399
8402.000000;0.747975
8401.000000;0.747738
8400.000000;0.747719
8399.000000;0.747789
8398.000000;0.747810
8397.000000;0.747731
8396.000000;0.747545
8395.000000;0.747250
8394.000000;0.746888
8393.000000;0.746564
8392.000000;0.746377
8391.000000;0.746363
8390.000000;0.746488
8389.000000;0.746664
8388.000000;0.746757
8387.000000;0.746655
8386.000000;0.746349
8385.000000;0.745962
8384.000000;0.745651
8383.000000;0.745479
8382.000000;0.745368
8381.000000;0.745185
8380.000000;0.744882
8379.000000;0.744537
8378.000000;0.744251
8377.000000;0.744026
8376.000000;0.743800
8375.000000;0.743559
8374.000000;0.743365
8373.000000;0.743258
8372.000000;0.743211
8371.000000;0.743206
8370.000000;0.743255
8369.000000;0.743322
8368.000000;0.743287
8367.000000;0.743067
8366.000000;0.742719
8365.000000;0.742376
8364.000000;0.742108
8363.000000;0.741902
8362.000000;0.741719
8361.000000;0.741519
8360.000000;0.741259
8359.000000;0.740924
8358.000000;0.740561
8357.000000;0.740260
8356.000000;0.740118
8355.000000;0.740219
8354.000000;0.740562
8353.000000;0.740979
8352.000000;0.741221
8351.000000;0.741166
8350.000000;0.740900
8349.000000;0.740538
8348.000000;0.740082
8347.000000;0.739556
8346.000000;0.739136
8345.000000;0.738989
8344.000000;0.739024
8343.000000;0.738971
8342.000000;0.738705
8341.000000;0.738356
8340.000000;0.738091
8339.000000;0.737928
8338.000000;0.737820
8337.000000;0.737765
8336.000000;0.737754
8335.000000;0.737701
8334.000000;0.737517
8333.000000;0.737227
8332.000000;0.736930
8331.000000;0.736670
8330.000000;0.736411
8329.000000;0.736121
8328.000000;0.735826
8327.000000;0.735577
8326.000000;0.735407
8325.000000;0.735317
8324.000000;0.735267
8323.000000;0.735183
8322.000000;0.734988
8321.000000;0.734673
8320.000000;0.734323
8319.000000;0.734078
8318.000000;0.734022
8317.000000;0.734103
8316.000000;0.734157
8315.000000;0.734046
8314.000000;0.733772
8313.000000;0.733453
8312.000000;0.733196
8311.000000;0.733010
8310.000000;0.732845
8309.000000;0.732653
8308.000000;0.732406
8307.000000;0.732086
8306.000000;0.731702
8305.000000;0.731315
8304.000000;0.731006
8303.000000;0.730810
8302.000000;0.730692
8301.000000;0.730606
8300.000000;0.730552
8299.000000;0.730544
8298.000000;0.730540
8297.000000;0.730452
8296.000000;0.730257
8295.000000;0.730042
8294.000000;0.729906
8293.000000;0.729825
8292.000000;0.729670
8291.000000;0.729342
8290.000000;0.728887
8289.000000;0.728456
8288.000000;0.728191
8287.000000;0.728127
8286.000000;0.728183
8285.000000;0.728228
8284.000000;0.728180
8283.000000;0.728030
8282.000000;0.727774
8281.000000;0.727372
8280.000000;0.726848
8279.000000;0.726378
8278.000000;0.726189
8277.000000;0.726319
8276.000000;0.726562
8275.000000;0.726658
8274.000000;0.726521
8273.000000;0.726228
8272.000000;0.725877
8271.000000;0.725525
8270.000000;0.725235
8269.000000;0.725096
8268.000000;0.725152
8267.000000;0.725308
8266.000000;0.725355
8265.000000;0.725116
8264.000000;0.724581
8263.000000;0.723902
8262.000000;0.723261
8261.000000;0.722744
8260.000000;0.722368
8259.000000;0.722142
8258.000000;0.722065
8257.000000;0.722073
8256.000000;0.722066
8255.000000;0.722004
8254.000000;0.721919
8253.000000;0.721842
8252.000000;0.721768
8251.000000;0.721706
8250.000000;0.721684
8249.000000;0.721671
8248.000000;0.721543
8247.000000;0.721200
8246.000000;0.720696
8245.000000;0.720211
8244.000000;0.719868
8243.000000;0.719619
8242.000000;0.719302
8241.000000;0.718824
8240.000000;0.718279
8239.000000;0.717867
8238.000000;0.717717
8237.000000;0.717812
8236.000000;0.718071
8235.000000;0.718409
8234.000000;0.718685
8233.000000;0.718691
8232.000000;0.718328
8231.000000;0.717755
8230.000000;0.717244
8229.000000;0.716901
8228.000000;0.716626
8227.000000;0.716351
8226.000000;0.716169
8225.000000;0.716176
8224.000000;0.716298
8223.000000;0.716367
8222.000000;0.716308
8221.000000;0.716165
8220.000000;0.715986
8219.000000;0.715776
8218.000000;0.715536
8217.000000;0.715294
8216.000000;0.715063
8215.000000;0.714818
8214.000000;0.714520
8213.000000;0.714164
8212.000000;0.713809
8211.000000;0.713534
8210.000000;0.713349
8209.000000;0.713166
8208.000000;0.712910
8207.000000;0.712625
8206.000000;0.712404
8205.000000;0.712256
8204.000000;0.712113
8203.000000;0.711964
8202.000000;0.711865
8201.000000;0.711801
8200.000000;0.711651
8199.000000;0.711368
8198.000000;0.711085
8197.000000;0.710965
8196.000000;0.710987
8195.000000;0.710971
8194.000000;0.710782
8193.000000;0.710446
8192.000000;0.710084
8191.000000;0.709800
8190.000000;0.709623
8189.000000;0.709508
8188.000000;0.709397
8187.000000;0.709274
8186.000000;0.709154
8185.000000;0.709000
8184.000000;0.708729
8183.000000;0.708338
8182.000000;0.707962
8181.000000;0.707744
8180.000000;0.707657
8179.000000;0.707539
8178.000000;0.707295
8177.000000;0.707024
8176.000000;0.706911
8175.000000;0.707011
8174.000000;0.707165
8173.000000;0.707148
8172.000000;0.706889
8171.000000;0.706537
8170.000000;0.706281
8169.000000;0.706144
8168.000000;0.705995
8167.000000;0.705723
8166.000000;0.705340
8165.000000;0.704912
8164.000000;0.704510
8163.000000;0.704214
8162.000000;0.704097
8161.000000;0.704125
8160.000000;0.704152
8159.000000;0.704039
8158.000000;0.703771
8157.000000;0.703418
8156.000000;0.703044
8155.000000;0.702693
8154.000000;0.702404
8153.000000;0.702196
8152.000000;0.702056
8151.000000;0.701970
8150.000000;0.701933
8149.000000;0.701912
8148.000000;0.701842
8147.000000;0.701700
8146.000000;0.701536
8145.000000;0.701402
8144.000000;0.701297
8143.000000;0.701189
8142.000000;0.701069
8141.000000;0.700917
8140.000000;0.700685
8139.000000;0.700336
8138.000000;0.699885
8137.000000;0.699395
8136.000000;0.698942
8135.000000;0.698601
8134.000000;0.698408
8133.000000;0.698321
8132.000000;0.698269
8131.000000;0.698228
8130.000000;0.698198
8129.000000;0.698104
8128.000000;0.697843
8127.000000;0.697447
8126.000000;0.697097
8125.000000;0.696922
8124.000000;0.696859
8123.000000;0.696786
8122.000000;0.696687
8121.000000;0.696595
8120.000000;0.696466
8119.000000;0.696226
8118.000000;0.695918
8117.000000;0.695662
8116.000000;0.695489
8115.000000;0.695330
8114.000000;0.695157
8113.000000;0.695017
8112.000000;0.694902
8111.000000;0.694688
8110.000000;0.694275
8109.000000;0.693743
8108.000000;0.693301
8107.000000;0.693102
8106.000000;0.693123
8105.000000;0.693201
8104.000000;0.693154
8103.000000;0.692911
8102.000000;0.692545
8101.000000;0.692201
8100.000000;0.691970
8099.000000;0.691842
8098.000000;0.691756
8097.000000;0.691666
8096.000000;0.691538
8095.000000;0.691317
8094.000000;0.690954
8093.000000;0.690491
8092.000000;0.690093
8091.000000;0.689929
8090.000000;0.689986
8089.000000;0.690044
8088.000000;0.689894
8087.000000;0.689561
8086.000000;0.689253
8085.000000;0.689101
8084.000000;0.689028
8083.000000;0.688891
8082.000000;0.688673
8081.000000;0.688456
8080.000000;0.688265
8079.000000;0.688046
8078.000000;0.687782
8077.000000;0.687547
8076.000000;0.687403
8075.000000;0.687301
8074.000000;0.687138
8073.000000;0.686904
8072.000000;0.686694
8071.000000;0.686557
8070.000000;0.686398
8069.000000;0.686081
8068.000000;0.685623
8067.000000;0.685201
8066.000000;0.684964
8065.000000;0.684900
8064.000000;0.684893
8063.000000;0.684836
8062.000000;0.684665
8061.000000;0.684370
8060.000000;0.684047
8059.000000;0.683872
8058.000000;0.683917
8057.000000;0.684035
8056.000000;0.684004
8055.000000;0.683754
8054.000000;0.683374
8053.000000;0.682948
8052.000000;0.682498
8051.000000;0.682087
8050.000000;0.681813
8049.000000;0.681681
8048.000000;0.681582
8047.000000;0.681435
8046.000000;0.681249
8045.000000;0.681019
8044.000000;0.680681
8043.000000;0.680239
8042.000000;0.679832
8041.000000;0.679591
8040.000000;0.679508
8039.000000;0.679489
8038.000000;0.679466
8037.000000;0.679389
8036.000000;0.679195
8035.000000;0.678879
8034.000000;0.678555
8033.000000;0.678346
8032.000000;0.678255
8031.000000;0.678194
8030.000000;0.678119
8029.000000;0.678042
8028.000000;0.677947
8027.000000;0.677781
8026.000000;0.677524
8025.000000;0.677219
8024.000000;0.676918
8023.000000;0.676636
8022.000000;0.676381
8021.000000;0.676174
8020.000000;0.676037
8019.000000;0.675962
8018.000000;0.675893
8017.000000;0.675756
8016.000000;0.675509
8015.000000;0.675183
8014.000000;0.674844
8013.000000;0.674515
8012.000000;0.674165
8011.000000;0.673786
8010.000000;0.673432
8009.000000;0.673184
8008.000000;0.673079
8007.000000;0.673072
8006.000000;0.673037
8005.000000;0.672819
8004.000000;0.672389
8003.000000;0.671930
8002.000000;0.671685
8001.000000;0.671685
8000.000000;0.671692
7999.000000;0.671458
7998.000000;0.670996
7997.000000;0.670544
7996.000000;0.670323
7995.000000;0.670355
7994.000000;0.670474
7993.000000;0.670458
7992.000000;0.670190
7991.000000;0.669747
7990.000000;0.669308
7989.000000;0.668976
7988.000000;0.668714
7987.000000;0.668475
7986.000000;0.668283
7985.000000;0.668172
7984.000000;0.668097
7983.000000;0.667975
7982.000000;0.667784
7981.000000;0.667567
7980.000000;0.667377
7979.000000;0.667248
7978.000000;0.667174
7977.000000;0.667087
7976.000000;0.666908
7975.000000;0.666647
7974.000000;0.666392
7973.000000;0.666179
7972.000000;0.665937
7971.000000;0.665633
7970.000000;0.665356
7969.000000;0.665179
7968.000000;0.665032
7967.000000;0.664813
7966.000000;0.664562
7965.000000;0.664390
7964.000000;0.664271
7963.000000;0.664052
7962.000000;0.663673
7961.000000;0.663267
7960.000000;0.662993
7959.000000;0.662873
7958.000000;0.662824
7957.000000;0.662780
7956.000000;0.662708
7955.000000;0.662565
7954.000000;0.662321
7953.000000;0.662002
7952.000000;0.661668
7951.000000;0.661354
7950.000000;0.661059
7949.000000;0.660778
7948.000000;0.660501
7947.000000;0.660190
7946.000000;0.659815
7945.000000;0.659419
7944.000000;0.659118
7943.000000;0.658993
7942.000000;0.658989
7941.000000;0.658962
7940.000000;0.658822
7939.000000;0.658626
7938.000000;0.658493
7937.000000;0.658456
7936.000000;0.658418
7935.000000;0.658253
7934.000000;0.657929
7933.000000;0.657534
7932.000000;0.657212
7931.000000;0.657034
7930.000000;0.656919
7929.000000;0.656709
7928.000000;0.656352
7927.000000;0.655972
7926.000000;0.655740
7925.000000;0.655691
7924.000000;0.655709
7923.000000;0.655657
7922.000000;0.655461
7921.000000;0.655112
7920.000000;0.654677
7919.000000;0.654311
7918.000000;0.654153
7917.000000;0.654183
7916.000000;0.654230
7915.000000;0.654149
7914.000000;0.653940
7913.000000;0.653699
7912.000000;0.653492
7911.000000;0.653329
7910.000000;0.653183
7909.000000;0.653014
7908.000000;0.652784
7907.000000;0.652495
7906.000000;0.652174
7905.000000;0.651848
7904.000000;0.651550
7903.000000;0.651334
7902.000000;0.651220
7901.000000;0.651134
7900.000000;0.650990
7899.000000;0.650802
7898.000000;0.650646
7897.000000;0.650501
7896.000000;0.650246
7895.000000;0.649841
7894.000000;0.649429
7893.000000;0.649178
7892.000000;0.649107
7891.000000;0.649104
7890.000000;0.649059
7889.000000;0.648923
7888.000000;0.648694
7887.000000;0.648421
7886.000000;0.648197
7885.000000;0.648079
7884.000000;0.648038
7883.000000;0.647997
7882.000000;0.647873
7881.000000;0.647608
7880.000000;0.647213
7879.000000;0.646820
7878.000000;0.646584
7877.000000;0.646490
7876.000000;0.646340
7875.000000;0.646002
7874.000000;0.645591
7873.000000;0.645314
7872.000000;0.645214
7871.000000;0.645148
7870.000000;0.644995
7869.000000;0.644767
7868.000000;0.644529
7867.000000;0.644303
7866.000000;0.644063
7865.000000;0.643785
7864.000000;0.643489
7863.000000;0.643242
7862.000000;0.643102
7861.000000;0.643046
7860.000000;0.642984
7859.000000;0.642871
7858.000000;0.642752
7857.000000;0.642675
7856.000000;0.642603
7855.000000;0.642484
7854.000000;0.642344
7853.000000;0.642257
7852.000000;0.642240
7851.000000;0.642240
7850.000000;0.642203
7849.000000;0.642104
7848.000000;0.641920
7847.000000;0.641629
7846.000000;0.641234
7845.000000;0.640765
7844.000000;0.640279
7843.000000;0.639845
7842.000000;0.639526
7841.000000;0.639324
7840.000000;0.639189
7839.000000;0.639100
7838.000000;0.639080
7837.000000;0.639114
7836.000000;0.639111
7835.000000;0.638990
7834.000000;0.638772
7833.000000;0.638535
7832.000000;0.638335
7831.000000;0.638184
7830.000000;0.638068
7829.000000;0.637947
7828.000000;0.637777
7827.000000;0.637587
7826.000000;0.637458
7825.000000;0.637394
7824.000000;0.637278
7823.000000;0.637036
7822.000000;0.636761
7821.000000;0.636600
7820.000000;0.636543
7819.000000;0.636459
7818.000000;0.636292
7817.000000;0.636121
7816.000000;0.636012
7815.000000;0.635924
7814.000000;0.635789
7813.000000;0.635613
7812.000000;0.635443
7811.000000;0.635289
7810.000000;0.635111
7809.000000;0.634874
7808.000000;0.634585
7807.000000;0.634294
7806.000000;0.634063
7805.000000;0.633906
7804.000000;0.633774
7803.000000;0.633618
7802.000000;0.633444
7801.000000;0.633285
7800.000000;0.633135
7799.000000;0.632955
7798.000000;0.632749
7797.000000;0.632583
7796.000000;0.632505
7795.000000;0.632477
7794.000000;0.632398
7793.000000;0.632192
7792.000000;0.631882
7791.000000;0.631566
7790.000000;0.631337
7789.000000;0.631215
7788.000000;0.631174
7787.000000;0.631181
7786.000000;0.631193
7785.000000;0.631121
7784.000000;0.630885
7783.000000;0.630513
7782.000000;0.630136
7781.000000;0.629867
7780.000000;0.629712
7779.000000;0.629620
7778.000000;0.629544
7777.000000;0.629437
7776.000000;0.629281
7775.000000;0.629133
7774.000000;0.629093
7773.000000;0.629162
7772.000000;0.629210
7771.000000;0.629134
7770.000000;0.628972
7769.000000;0.628817
7768.000000;0.628672
7767.000000;0.628498
7766.000000;0.628326
7765.000000;0.628213
7764.000000;0.628128
7763.000000;0.627978
7762.000000;0.627742
7761.000000;0.627500
7760.000000;0.627324
7759.000000;0.627230
7758.000000;0.627218
7757.000000;0.627275
7756.000000;0.627326
7755.000000;0.627265
7754.000000;0.627057
7753.000000;0.626770
7752.000000;0.626491
7751.000000;0.626255
7750.000000;0.626063
7749.000000;0.625919
7748.000000;0.625825
7747.000000;0.625774
7746.000000;0.625746
7745.000000;0.625695
7744.000000;0.625562
7743.000000;0.625338
7742.000000;0.625104
7741.000000;0.624954
7740.000000;0.624888
7739.000000;0.624829
7738.000000;0.624715
7737.000000;0.624540
7736.000000;0.624320
7735.000000;0.624090
7734.000000;0.623911
7733.000000;0.623814
7732.000000;0.623739
7731.000000;0.623591
7730.000000;0.623382
7729.000000;0.623218
7728.000000;0.623163
7727.000000;0.623162
7726.000000;0.623144
7725.000000;0.623103
7724.000000;0.623049
7723.000000;0.622939
7722.000000;0.622746
7721.000000;0.622544
7720.000000;0.622457
7719.000000;0.622510
7718.000000;0.622596
7717.000000;0.622595
7716.000000;0.622493
7715.000000;0.622355
7714.000000;0.622223
7713.000000;0.622082
7712.000000;0.621917
7711.000000;0.621766
7710.000000;0.621671
7709.000000;0.621614
7708.000000;0.621539
7707.000000;0.621416
7706.000000;0.621264
7705.000000;0.621097
7704.000000;0.620917
7703.000000;0.620761
7702.000000;0.620708
7701.000000;0.620773
7700.000000;0.620847
7699.000000;0.620800
7698.000000;0.620618
7697.000000;0.620395
7696.000000;0.620210
7695.000000;0.620080
7694.000000;0.620007
7693.000000;0.619997
7692.000000;0.620014
7691.000000;0.619975
7690.000000;0.619838
7689.000000;0.619656
7688.000000;0.619533
7687.000000;0.619525
7686.000000;0.619605
7685.000000;0.619696
7684.000000;0.619730
7683.000000;0.619678
7682.000000;0.619564
7681.000000;0.619445
7680.000000;0.619366
7679.000000;0.619339
7678.000000;0.619344
7677.000000;0.619342
7676.000000;0.619284
7675.000000;0.619142
7674.000000;0.618933
7673.000000;0.618716
7672.000000;0.618555
7671.000000;0.618489
7670.000000;0.618517
7669.000000;0.618607
7668.000000;0.618702
7667.000000;0.618748
7666.000000;0.618696
7665.000000;0.618523
7664.000000;0.618264
7663.000000;0.618019
7662.000000;0.617906
7661.000000;0.617967
7660.000000;0.618145
7659.000000;0.618352
7658.000000;0.618536
7657.000000;0.618653
7656.000000;0.618632
7655.000000;0.618428
7654.000000;0.618101
7653.000000;0.617808
7652.000000;0.617701
7651.000000;0.617812
7650.000000;0.618034
7649.000000;0.618191
7648.000000;0.618162
7647.000000;0.617979
7646.000000;0.617797
7645.000000;0.617745
7644.000000;0.617792
7643.000000;0.617799
7642.000000;0.617675
7641.000000;0.617481
7640.000000;0.617356
7639.000000;0.617393
7638.000000;0.617585
7637.000000;0.617859
7636.000000;0.618125
7635.000000;0.618282
7634.000000;0.618246
7633.000000;0.618015
7632.000000;0.617707
7631.000000;0.617501
7630.000000;0.617491
7629.000000;0.617605
7628.000000;0.617681
7627.000000;0.617620
7626.000000;0.617457
7625.000000;0.617297
7624.000000;0.617237
7623.000000;0.617332
7622.000000;0.617563
7621.000000;0.617813
7620.000000;0.617923
7619.000000;0.617837
7618.000000;0.617664
7617.000000;0.617570
7616.000000;0.617616
7615.000000;0.617746
7614.000000;0.617894
7613.000000;0.618053
7612.000000;0.618220
7611.000000;0.618341
7610.000000;0.618344
7609.000000;0.618211
7608.000000;0.618004
7607.000000;0.617822
7606.000000;0.617742
7605.000000;0.617788
7604.000000;0.617932
7603.000000;0.618107
7602.000000;0.618236
7601.000000;0.618277
7600.000000;0.618241
7599.000000;0.618182
7598.000000;0.618149
7597.000000;0.618154
7596.000000;0.618184
7595.000000;0.618246
7594.000000;0.618379
7593.000000;0.618614
7592.000000;0.618911
7591.000000;0.619152
7590.000000;0.619215
7589.000000;0.619088
7588.000000;0.618899
7587.000000;0.618789
7586.000000;0.618780
7585.000000;0.618781
7584.000000;0.618739
7583.000000;0.618735
7582.000000;0.618887
7581.000000;0.619203
7580.000000;0.619570
7579.000000;0.619852
7578.000000;0.619978
7577.000000;0.619952
7576.000000;0.619838
7575.000000;0.619738
7574.000000;0.619729
7573.000000;0.619801
7572.000000;0.619891
7571.000000;0.619968
7570.000000;0.620066
7569.000000;0.620227
7568.000000;0.620449
7567.000000;0.620683
7566.000000;0.620866
7565.000000;0.620947
7564.000000;0.620919
7563.000000;0.620828
7562.000000;0.620750
7561.000000;0.620758
7560.000000;0.620901
7559.000000;0.621179
7558.000000;0.621508
7557.000000;0.621756
7556.000000;0.621848
7555.000000;0.621831
7554.000000;0.621806
7553.000000;0.621847
7552.000000;0.622001
7551.000000;0.622297
7550.000000;0.622686
7549.000000;0.623006
7548.000000;0.623116
7547.000000;0.623056
7546.000000;0.623003
7545.000000;0.623069
7544.000000;0.623221
7543.000000;0.623374
7542.000000;0.623501
7541.000000;0.623611
7540.000000;0.623712
7539.000000;0.623817
7538.000000;0.623958
7537.000000;0.624156
7536.000000;0.624418
7535.000000;0.624735
7534.000000;0.625059
7533.000000;0.625295
7532.000000;0.625385
7531.000000;0.625384
7530.000000;0.625415
7529.000000;0.625542
7528.000000;0.625741
7527.000000;0.625974
7526.000000;0.626222
7525.000000;0.626460
7524.000000;0.626658
7523.000000;0.626815
7522.000000;0.626942
7521.000000;0.627027
7520.000000;0.627072
7519.000000;0.627135
7518.000000;0.627271
7517.000000;0.627457
7516.000000;0.627653
7515.000000;0.627895
7514.000000;0.628231
7513.000000;0.628591
7512.000000;0.628844
7511.000000;0.628974
7510.000000;0.629081
7509.000000;0.629205
7508.000000;0.629287
7507.000000;0.629321
7506.000000;0.629415
7505.000000;0.629636
7504.000000;0.629918
7503.000000;0.630175
7502.000000;0.630396
7501.000000;0.630575
7500.000000;0.630660
7499.000000;0.630653
7498.000000;0.630659
7497.000000;0.630726
7496.000000;0.630912
7495.000000;0.631137
7494.000000;0.631413
7493.000000;0.631745
7492.000000;0.632076
7491.000000;0.632358
7490.000000;0.632633
7489.000000;0.632953
7488.000000;0.633292
7487.000000;0.633588
7486.000000;0.633824
7485.000000;0.634008
7484.000000;0.634122
7483.000000;0.634179
7482.000000;0.634261
7481.000000;0.634441
7480.000000;0.634707
7479.000000;0.634998
7478.000000;0.635286
7477.000000;0.635544
7476.000000;0.635721
7475.000000;0.635802
7474.000000;0.635880
7473.000000;0.636087
7472.000000;0.636473
7471.000000;0.636956
7470.000000;0.637388
7469.000000;0.637648
7468.000000;0.637721
7467.000000;0.637724
7466.000000;0.637800
7465.000000;0.637984
7464.000000;0.638188
7463.000000;0.638336
7462.000000;0.638437
7461.000000;0.638547
7460.000000;0.638724
7459.000000;0.639011
7458.000000;0.639392
7457.000000;0.639755
7456.000000;0.639987
7455.000000;0.640130
7454.000000;0.640339
7453.000000;0.640660
7452.000000;0.640959
7451.000000;0.641105
7450.000000;0.641133
7449.000000;0.641171
7448.000000;0.641299
7447.000000;0.641528
7446.000000;0.641819
7445.000000;0.642090
7444.000000;0.642278
7443.000000;0.642436
7442.000000;0.642681
7441.000000;0.643010
7440.000000;0.643287
7439.000000;0.643451
7438.000000;0.643608
7437.000000;0.643845
7436.000000;0.644088
7435.000000;0.644229
7434.000000;0.644300
7433.000000;0.644406
7432.000000;0.644583
7431.000000;0.644803
7430.000000;0.645054
7429.000000;0.645315
7428.000000;0.645533
7427.000000;0.645696
7426.000000;0.645872
7425.000000;0.646083
7424.000000;0.646267
7423.000000;0.646418
7422.000000;0.646672
7421.000000;0.647125
7420.000000;0.647655
7419.000000;0.648061
7418.000000;0.648308
7417.000000;0.648496
7416.000000;0.648676
7415.000000;0.648820
7414.000000;0.648925
7413.000000;0.649039
7412.000000;0.649188
7411.000000;0.649356
7410.000000;0.649507
7409.000000;0.649599
7408.000000;0.649638
7407.000000;0.649723
7406.000000;0.649968
7405.000000;0.650339
7404.000000;0.650666
7403.000000;0.650857
7402.000000;0.650984
7401.000000;0.651173
7400.000000;0.651456
7399.000000;0.651740
7398.000000;0.651863
7397.000000;0.651766
7396.000000;0.651617
7395.000000;0.651663
7394.000000;0.651891
7393.000000;0.651986
7392.000000;0.651765
7391.000000;0.651484
7390.000000;0.651536
7389.000000;0.651962
7388.000000;0.652496
7387.000000;0.652989
7386.000000;0.653470
7385.000000;0.653845
7384.000000;0.653949
7383.000000;0.653975
7382.000000;0.654371
7381.000000;0.655110
7380.000000;0.655499
7379.000000;0.655129
7378.000000;0.654598
7377.000000;0.654790
7376.000000;0.655739
7375.000000;0.656678
7374.000000;0.657036
7373.000000;0.656924
7372.000000;0.656738
7371.000000;0.656732
7370.000000;0.656970
7369.000000;0.657344
7368.000000;0.657636
7367.000000;0.657768
7366.000000;0.657924
7365.000000;0.658190
7364.000000;0.658328
7363.000000;0.658237
7362.000000;0.658317
7361.000000;0.658891
7360.000000;0.659530
7359.000000;0.659628
7358.000000;0.659417
7357.000000;0.659627
7356.000000;0.660347
7355.000000;0.660958
7354.000000;0.661159
7353.000000;0.661258
7352.000000;0.661466
7351.000000;0.661676
7350.000000;0.661950
7349.000000;0.662437
7348.000000;0.662823
7347.000000;0.662706
7346.000000;0.662444
7345.000000;0.662778
7344.000000;0.663610
7343.000000;0.664183
7342.000000;0.664496
7341.000000;0.665379
7340.000000;0.666859
7339.000000;0.667669
7338.000000;0.667099
7337.000000;0.666138
7336.000000;0.666037
7335.000000;0.666784
7334.000000;0.667652
7333.000000;0.668259
7332.000000;0.668455
7331.000000;0.668135
7330.000000;0.667810
7329.000000;0.668411
7328.000000;0.669876
7327.000000;0.670867
7326.000000;0.670641
7325.000000;0.670190
7324.000000;0.670660
7323.000000;0.671668
7322.000000;0.672122
7321.000000;0.671986
7320.000000;0.672183
7319.000000;0.673103
7318.000000;0.674281
7317.000000;0.675326
7316.000000;0.676145
7315.000000;0.676550
7314.000000;0.676579
7313.000000;0.676967
7312.000000;0.678252
7311.000000;0.679683
7310.000000;0.680111
7309.000000;0.679719
7308.000000;0.679720
7307.000000;0.680521
7306.000000;0.681317
7305.000000;0.681582
7304.000000;0.681816
7303.000000;0.682431
7302.000000;0.683066
7301.000000;0.683449
7300.000000;0.683951
7299.000000;0.684755
7298.000000;0.685352
7297.000000;0.685573
7296.000000;0.686195
7295.000000;0.687784
7294.000000;0.689655
7293.000000;0.690760
7292.000000;0.691191
7291.000000;0.691891
7290.000000;0.693248
7289.000000;0.694800
7288.000000;0.696045
7287.000000;0.696935
7286.000000;0.697594
7285.000000;0.698072
7284.000000;0.698531
7283.000000;0.699231
7282.000000;0.700240
7281.000000;0.701383
7280.000000;0.702535
7279.000000;0.703716
7278.000000;0.704896
7277.000000;0.705989
7276.000000;0.707051
7275.000000;0.708286
7274.000000;0.709771
7273.000000;0.711318
7272.000000;0.712659
7271.000000;0.713728
7270.000000;0.714719
7269.000000;0.715901
7268.000000;0.717373
7267.000000;0.718976
7266.000000;0.720494
7265.000000;0.721970
7264.000000;0.723680
7263.000000;0.725721
7262.000000;0.727757
7261.000000;0.729378
7260.000000;0.730620
7259.000000;0.731886
7258.000000;0.733410
7257.000000;0.735084
7256.000000;0.736850
7255.000000;0.738892
7254.000000;0.741261
7253.000000;0.743599
7252.000000;0.745431
7251.000000;0.746712
7250.000000;0.747985
7249.000000;0.749846
7248.000000;0.752237
7247.000000;0.754428
7246.000000;0.755966
7245.000000;0.757409
7244.000000;0.759688
7243.000000;0.762859
7242.000000;0.765926
7241.000000;0.768103
7240.000000;0.769815
7239.000000;0.772020
7238.000000;0.774885
7237.000000;0.777624
7236.000000;0.779637
7235.000000;0.781358
7234.000000;0.783715
7233.000000;0.786997
7232.000000;0.790425
7231.000000;0.792979
7230.000000;0.794622
7229.000000;0.796376
7228.000000;0.799142
7227.000000;0.802744
7226.000000;0.806284
7225.000000;0.809105
7224.000000;0.811252
7223.000000;0.813273
7222.000000;0.815766
7221.000000;0.818984
7220.000000;0.822657
7219.000000;0.826236
7218.000000;0.829441
7217.000000;0.832480
7216.000000;0.835710
7215.000000;0.839196
7214.000000;0.842690
7213.000000;0.846016
7212.000000;0.849309
7211.000000;0.852798
7210.000000;0.856498
7209.000000;0.860251
7208.000000;0.863990
7207.000000;0.867860
7206.000000;0.872089
7205.000000;0.876690
7204.000000;0.881283
7203.000000;0.885351
7202.000000;0.888790
7201.000000;0.892076
7200.000000;0.895759
7199.000000;0.899880
7198.000000;0.904083
7197.000000;0.908211
7196.000000;0.912531
7195.000000;0.917239
7194.000000;0.922049
7193.000000;0.926542
7192.000000;0.930726
7191.000000;0.934945
7190.000000;0.939371
7189.000000;0.943949
7188.000000;0.948739
7187.000000;0.953803
7186.000000;0.958833
7185.000000;0.963399
7184.000000;0.967645
7183.000000;0.972237
7182.000000;0.977462
7181.000000;0.982873
7180.000000;0.988037
7179.000000;0.993189
7178.000000;0.998731
7177.000000;1.004491
7176.000000;1.009979
7175.000000;1.015064
7174.000000;1.019979
7173.000000;1.024869
7172.000000;1.029810
7171.000000;1.035109
7170.000000;1.041005
7169.000000;1.047205
7168.000000;1.053185
7167.000000;1.058767
7166.000000;1.064021
7165.000000;1.068876
7164.000000;1.073405
7163.000000;1.078205
7162.000000;1.083826
7161.000000;1.089922
7160.000000;1.095576
7159.000000;1.100558
7158.000000;1.105624
7157.000000;1.111380
7156.000000;1.117522
7155.000000;1.123443
7154.000000;1.128995
7153.000000;1.134385
7152.000000;1.139708
7151.000000;1.144952
7150.000000;1.150182
7149.000000;1.155504
7148.000000;1.160956
7147.000000;1.166568
7146.000000;1.172443
7145.000000;1.178545
7144.000000;1.184474
7143.000000;1.189793
7142.000000;1.194710
7141.000000;1.200030
7140.000000;1.206166
7139.000000;1.212449
7138.000000;1.217879
7137.000000;1.222434
7136.000000;1.227095
7135.000000;1.232558
7134.000000;1.238457
7133.000000;1.244070
7132.000000;1.249323
7131.000000;1.254643
7130.000000;1.260135
7129.000000;1.265456
7128.000000;1.270420
7127.000000;1.275189
7126.000000;1.279925
7125.000000;1.284739
7124.000000;1.289910
7123.000000;1.295604
7122.000000;1.301346
7121.000000;1.306364
7120.000000;1.310639
7119.000000;1.315018
7118.000000;1.320011
7117.000000;1.325006
7116.000000;1.329171
7115.000000;1.332718
7114.000000;1.336642
7113.000000;1.341499
7112.000000;1.346975
7111.000000;1.352453
7110.000000;1.357510
7109.000000;1.361991
7108.000000;1.366047
7107.000000;1.370005
7106.000000;1.373848
7105.000000;1.377120
7104.000000;1.379751
7103.000000;1.382620
7102.000000;1.386713
7101.000000;1.391871
7100.000000;1.396851
7099.000000;1.400652
7098.000000;1.403487
7097.000000;1.406326
7096.000000;1.409843
7095.000000;1.413984
7094.000000;1.418298
7093.000000;1.422446
7092.000000;1.426418
7091.000000;1.430354
7090.000000;1.434190
7089.000000;1.437631
7088.000000;1.440604
7087.000000;1.443532
7086.000000;1.446841
7085.000000;1.450327
7084.000000;1.453383
7083.000000;1.455836
7082.000000;1.458194
7081.000000;1.460968
7080.000000;1.464024
7079.000000;1.466843
7078.000000;1.469210
7077.000000;1.471358
7076.000000;1.473585
7075.000000;1.475999
7074.000000;1.478530
7073.000000;1.480941
7072.000000;1.482967
7071.000000;1.484706
7070.000000;1.486735
7069.000000;1.489579
7068.000000;1.493109
7067.000000;1.496704
7066.000000;1.499915
7065.000000;1.502745
7064.000000;1.505276
7063.000000;1.507363
7062.000000;1.508866
7061.000000;1.509937
7060.000000;1.510878
7059.000000;1.511860
7058.000000;1.512999
7057.000000;1.514542
7056.000000;1.516683
7055.000000;1.519252
7054.000000;1.521790
7053.000000;1.523942
7052.000000;1.525701
7051.000000;1.527316
7050.000000;1.529080
7049.000000;1.531170
7048.000000;1.533455
7047.000000;1.535422
7046.000000;1.536558
7045.000000;1.536989
7044.000000;1.537491
7043.000000;1.538612
7042.000000;1.540055
7041.000000;1.541224
7040.000000;1.542188
7039.000000;1.543655
7038.000000;1.546009
7037.000000;1.548792
7036.000000;1.551201
7035.000000;1.552752
7034.000000;1.553375
7033.000000;1.553305
7032.000000;1.553140
7031.000000;1.553565
7030.000000;1.554653
7029.000000;1.555719
7028.000000;1.556266
7027.000000;1.556772
7026.000000;1.558034
7025.000000;1.559897
7024.000000;1.561241
7023.000000;1.561338
7022.000000;1.560761
7021.000000;1.560761
7020.000000;1.562042
7019.000000;1.564319
7018.000000;1.566707
7017.000000;1.568302
7016.000000;1.568628
7015.000000;1.567840
7014.000000;1.566619
7013.000000;1.565796
7012.000000;1.566000
7011.000000;1.567429
7010.000000;1.569745
7009.000000;1.572187
7008.000000;1.573992
7007.000000;1.574875
7006.000000;1.575112
7005.000000;1.575202
7004.000000;1.575507
7003.000000;1.576031
7002.000000;1.576379
7001.000000;1.576060
7000.000000;1.575051
6999.000000;1.574032
6998.000000;1.573855
6997.000000;1.574808
6996.000000;1.576478
6995.000000;1.578201
6994.000000;1.579505
6993.000000;1.580233
6992.000000;1.580537
6991.000000;1.580768
6990.000000;1.581022
6989.000000;1.580841
6988.000000;1.579822
6987.000000;1.578497
6986.000000;1.578094
6985.000000;1.579249
6984.000000;1.581290
6983.000000;1.582968
6982.000000;1.583635
6981.000000;1.583460
6980.000000;1.582837
6979.000000;1.582010
6978.000000;1.581107
6977.000000;1.580122
6976.000000;1.578864
6975.000000;1.577225
6974.000000;1.575505
6973.000000;1.574262
6972.000000;1.573866
6971.000000;1.574354
6970.000000;1.575566
6969.000000;1.577173
6968.000000;1.578646
6967.000000;1.579440
6966.000000;1.579348
6965.000000;1.578621
6964.000000;1.577716
6963.000000;1.577030
6962.000000;1.576768
6961.000000;1.576862
6960.000000;1.577002
6959.000000;1.576982
6958.000000;1.577063
6957.000000;1.577691
6956.000000;1.578738
6955.000000;1.579321
6954.000000;1.578680
6953.000000;1.577118
6952.000000;1.575683
6951.000000;1.574944
6950.000000;1.574454
6949.000000;1.573525
6948.000000;1.572231
6947.000000;1.571319
6946.000000;1.571239
6945.000000;1.571645
6944.000000;1.571913
6943.000000;1.571852
6942.000000;1.571755
6941.000000;1.571932
6940.000000;1.572426
6939.000000;1.572991
6938.000000;1.573188
6937.000000;1.572651
6936.000000;1.571477
6935.000000;1.570217
6934.000000;1.569287
6933.000000;1.568525
6932.000000;1.567564
6931.000000;1.566449
6930.000000;1.565497
6929.000000;1.564636
6928.000000;1.563413
6927.000000;1.561803
6926.000000;1.560482
6925.000000;1.560006
6924.000000;1.560060
6923.000000;1.559880
6922.000000;1.559192
6921.000000;1.558410
6920.000000;1.558025
6919.000000;1.558161
6918.000000;1.558613
6917.000000;1.559008
6916.000000;1.558874
6915.000000;1.557878
6914.000000;1.556180
6913.000000;1.554388
6912.000000;1.553017
6911.000000;1.552092
6910.000000;1.551337
6909.000000;1.550627
6908.000000;1.550119
6907.000000;1.549986
6906.000000;1.550150
6905.000000;1.550299
6904.000000;1.550136
6903.000000;1.549559
6902.000000;1.548634
6901.000000;1.547469
6900.000000;1.546214
6899.000000;1.545121
6898.000000;1.544459
6897.000000;1.544299
6896.000000;1.544388
6895.000000;1.544278
6894.000000;1.543626
6893.000000;1.542422
6892.000000;1.540969
6891.000000;1.539645
6890.000000;1.538681
6889.000000;1.538134
6888.000000;1.537959
6887.000000;1.537956
6886.000000;1.537743
6885.000000;1.537012
6884.000000;1.535932
6883.000000;1.535077
6882.000000;1.534772
6881.000000;1.534642
6880.000000;1.534051
6879.000000;1.532902
6878.000000;1.531734
6877.000000;1.531021
6876.000000;1.530669
6875.000000;1.530252
6874.000000;1.529500
6873.000000;1.528463
6872.000000;1.527456
6871.000000;1.526938
6870.000000;1.527152
6869.000000;1.527655
6868.000000;1.527453
6867.000000;1.525931
6866.000000;1.523568
6865.000000;1.521487
6864.000000;1.520404
6863.000000;1.520159
6862.000000;1.520077
6861.000000;1.519538
6860.000000;1.518260
6859.000000;1.516399
6858.000000;1.514455
6857.000000;1.512892
6856.000000;1.511756
6855.000000;1.510743
6854.000000;1.509648
6853.000000;1.508606
6852.000000;1.507897
6851.000000;1.507584
6850.000000;1.507376
6849.000000;1.506776
6848.000000;1.505446
6847.000000;1.503572
6846.000000;1.501803
6845.000000;1.500668
6844.000000;1.500079
6843.000000;1.499503
6842.000000;1.498567
6841.000000;1.497329
6840.000000;1.496027
6839.000000;1.494745
6838.000000;1.493358
6837.000000;1.491623
6836.000000;1.489371
6835.000000;1.486820
6834.000000;1.484652
6833.000000;1.483454
6832.000000;1.482977
6831.000000;1.482244
6830.000000;1.480605
6829.000000;1.478477
6828.000000;1.476790
6827.000000;1.475870
6826.000000;1.475156
6825.000000;1.473949
6824.000000;1.472121
6823.000000;1.470008
6822.000000;1.467889
6821.000000;1.465808
6820.000000;1.463799
6819.000000;1.461984
6818.000000;1.460355
6817.000000;1.458637
6816.000000;1.456526
6815.000000;1.454084
6814.000000;1.451736
6813.000000;1.449843
6812.000000;1.448366
6811.000000;1.446991
6810.000000;1.445421
6809.000000;1.443447
6808.000000;1.440943
6807.000000;1.438047
6806.000000;1.435256
6805.000000;1.433035
6804.000000;1.431265
6803.000000;1.429350
6802.000000;1.426964
6801.000000;1.424408
6800.000000;1.422101
6799.000000;1.420033
6798.000000;1.417931
6797.000000;1.415732
6796.000000;1.413571
6795.000000;1.411423
6794.000000;1.409078
6793.000000;1.406480
6792.000000;1.403812
6791.000000;1.401229
6790.000000;1.398715
6789.000000;1.396258
6788.000000;1.393964
6787.000000;1.391882
6786.000000;1.389879
6785.000000;1.387767
6784.000000;1.385457
6783.000000;1.382934
6782.000000;1.380243
6781.000000;1.377573
6780.000000;1.375210
6779.000000;1.373244
6778.000000;1.371399
6777.000000;1.369250
6776.000000;1.366587
6775.000000;1.363511
6774.000000;1.360285
6773.000000;1.357175
6772.000000;1.354361
6771.000000;1.351852
6770.000000;1.349492
6769.000000;1.347134
6768.000000;1.344778
6767.000000;1.342494
6766.000000;1.340269
6765.000000;1.338022
6764.000000;1.335712
6763.000000;1.333323
6762.000000;1.330784
6761.000000;1.328044
6760.000000;1.325242
6759.000000;1.322695
6758.000000;1.320620
6757.000000;1.318881
6756.000000;1.317066
6755.000000;1.314816
6754.000000;1.312095
6753.000000;1.309132
6752.000000;1.306133
6751.000000;1.303121
6750.000000;1.300077
6749.000000;1.297139
6748.000000;1.294498
6747.000000;1.292100
6746.000000;1.289651
6745.000000;1.287022
6744.000000;1.284491
6743.000000;1.282406
6742.000000;1.280684
6741.000000;1.278822
6740.000000;1.276441
6739.000000;1.273688
6738.000000;1.271030
6737.000000;1.268730
6736.000000;1.266592
6735.000000;1.264188
6734.000000;1.261301
6733.000000;1.258119
6732.000000;1.255010
6731.000000;1.252161
6730.000000;1.249507
6729.000000;1.246989
6728.000000;1.244691
6727.000000;1.242640
6726.000000;1.240597
6725.000000;1.238207
6724.000000;1.235355
6723.000000;1.232278
6722.000000;1.229345
6721.000000;1.226823
6720.000000;1.224759
6719.000000;1.222920
6718.000000;1.220868
6717.000000;1.218292
6716.000000;1.215336
6715.000000;1.212485
6714.000000;1.210071
6713.000000;1.208007
6712.000000;1.205960
6711.000000;1.203740
6710.000000;1.201348
6709.000000;1.198784
6708.000000;1.196040
6707.000000;1.193208
6706.000000;1.190450
6705.000000;1.187875
6704.000000;1.185481
6703.000000;1.183235
6702.000000;1.180711
6701.000000;1.177927
6700.000000;1.175039
6699.000000;1.172363
6698.000000;1.170068
6697.000000;1.167965
6696.000000;1.165661
6695.000000;1.162977
6694.000000;1.160152
6693.000000;1.157587
6692.000000;1.155421
6691.000000;1.153417
6690.000000;1.151233
6689.000000;1.148733
6688.000000;1.146007
6687.000000;1.143197
6686.000000;1.140442
6685.000000;1.137938
6684.000000;1.135845
6683.000000;1.134040
6682.000000;1.132104
6681.000000;1.129715
6680.000000;1.127013
6679.000000;1.124443
6678.000000;1.122238
6677.000000;1.120195
6676.000000;1.117949
6675.000000;1.115362
6674.000000;1.112607
6673.000000;1.109957
6672.000000;1.107545
6671.000000;1.105284
6670.000000;1.102996
6669.000000;1.100648
6668.000000;1.098403
6667.000000;1.096374
6666.000000;1.094370
6665.000000;1.092025
6664.000000;1.089226
6663.000000;1.086274
6662.000000;1.083573
6661.000000;1.081260
6660.000000;1.079197
6659.000000;1.077206
6658.000000;1.075201
6657.000000;1.073132
6656.000000;1.070924
6655.000000;1.068500
6654.000000;1.065841
6653.000000;1.063040
6652.000000;1.060292
6651.000000;1.057770
6650.000000;1.055482
6649.000000;1.053299
6648.000000;1.051151
6647.000000;1.049109
6646.000000;1.047232
6645.000000;1.045392
6644.000000;1.043368
6643.000000;1.041063
6642.000000;1.038553
6641.000000;1.035958
6640.000000;1.033364
6639.000000;1.030865
6638.000000;1.028571
6637.000000;1.026513
6636.000000;1.024583
6635.000000;1.022632
6634.000000;1.020616
6633.000000;1.018579
6632.000000;1.016530
6631.000000;1.014365
6630.000000;1.011973
6629.000000;1.009410
6628.000000;1.006895
6627.000000;1.004607
6626.000000;1.002516
6625.000000;1.000455
6624.000000;0.998326
6623.000000;0.996167
6622.000000;0.994041
6621.000000;0.991945
6620.000000;0.989879
6619.000000;0.987898
6618.000000;0.986027
6617.000000;0.984158
6616.000000;0.982127
6615.000000;0.979891
6614.000000;0.977591
6613.000000;0.975429
6612.000000;0.973487
6611.000000;0.971679
6610.000000;0.969845
6609.000000;0.967900
6608.000000;0.965891
6607.000000;0.963917
6606.000000;0.961991
6605.000000;0.960020
6604.000000;0.957923
6603.000000;0.955736
6602.000000;0.953568
6601.000000;0.951469
6600.000000;0.949387
6599.000000;0.947263
6598.000000;0.945136
6597.000000;0.943126
6596.000000;0.941295
6595.000000;0.939558
6594.000000;0.937754
6593.000000;0.935807
6592.000000;0.933781
6591.000000;0.931765
6590.000000;0.929764
6589.000000;0.927732
6588.000000;0.925681
6587.000000;0.923688
6586.000000;0.921811
6585.000000;0.920028
6584.000000;0.918271
6583.000000;0.916464
6582.000000;0.914547
6581.000000;0.912519
6580.000000;0.910447
6579.000000;0.908414
6578.000000;0.906438
6577.000000;0.904484
6576.000000;0.902548
6575.000000;0.900669
6574.000000;0.898871
6573.000000;0.897129
6572.000000;0.895393
6571.000000;0.893595
6570.000000;0.891655
6569.000000;0.889553
6568.000000;0.887421
6567.000000;0.885473
6566.000000;0.883810
6565.000000;0.882322
6564.000000;0.880803
6563.000000;0.879125
6562.000000;0.877300
6561.000000;0.875427
6560.000000;0.873618
6559.000000;0.871912
6558.000000;0.870233
6557.000000;0.868471
6556.000000;0.866613
6555.000000;0.864743
6554.000000;0.862918
6553.000000;0.861103
6552.000000;0.859268
6551.000000;0.857473
6550.000000;0.855794
6549.000000;0.854223
6548.000000;0.852681
6547.000000;0.851108
6546.000000;0.849494
6545.000000;0.847852
6544.000000;0.846200
6543.000000;0.844532
6542.000000;0.842804
6541.000000;0.840974
6540.000000;0.839073
6539.000000;0.837201
6538.000000;0.835420
6537.000000;0.833720
6536.000000;0.832106
6535.000000;0.830633
6534.000000;0.829311
6533.000000;0.828028
6532.000000;0.826639
6531.000000;0.825097
6530.000000;0.823432
6529.000000;0.821674
6528.000000;0.819856
6527.000000;0.818047
6526.000000;0.816312
6525.000000;0.814653
6524.000000;0.813051
6523.000000;0.811513
6522.000000;0.810018
6521.000000;0.808451
6520.000000;0.806692
6519.000000;0.804790
6518.000000;0.802960
6517.000000;0.801389
6516.000000;0.800073
6515.000000;0.798847
6514.000000;0.797514
6513.000000;0.795952
6512.000000;0.794182
6511.000000;0.792349
6510.000000;0.790617
6509.000000;0.789038
6508.000000;0.787541
6507.000000;0.786041
6506.000000;0.784514
6505.000000;0.782984
6504.000000;0.781469
6503.000000;0.779977
6502.000000;0.778501
6501.000000;0.777018
6500.000000;0.775501
6499.000000;0.773959
6498.000000;0.772434
6497.000000;0.770966
6496.000000;0.769575
6495.000000;0.768260
6494.000000;0.766996
6493.000000;0.765733
6492.000000;0.764412
6491.000000;0.763004
6490.000000;0.761506
6489.000000;0.759924
6488.000000;0.758287
6487.000000;0.756670
6486.000000;0.755157
6485.000000;0.753777
6484.000000;0.752485
6483.000000;0.751213
6482.000000;0.749919
6481.000000;0.748586
6480.000000;0.747210
6479.000000;0.745801
6478.000000;0.744386
6477.000000;0.742988
6476.000000;0.741602
6475.000000;0.740214
6474.000000;0.738820
6473.000000;0.737441
6472.000000;0.736105
6471.000000;0.734807
6470.000000;0.733500
6469.000000;0.732138
6468.000000;0.730741
6467.000000;0.729395
6466.000000;0.728169
6465.000000;0.727033
6464.000000;0.725883
6463.000000;0.724619
6462.000000;0.723210
6461.000000;0.721704
6460.000000;0.720199
6459.000000;0.718791
6458.000000;0.717516
6457.000000;0.716336
6456.000000;0.715175
6455.000000;0.713973
6454.000000;0.712700
6453.000000;0.711354
6452.000000;0.709968
6451.000000;0.708596
6450.000000;0.707286
6449.000000;0.706078
6448.000000;0.705004
6447.000000;0.704039
6446.000000;0.703050
6445.000000;0.701863
6444.000000;0.700446
6443.000000;0.698966
6442.000000;0.697617
6441.000000;0.696409
6440.000000;0.695206
6439.000000;0.693928
6438.000000;0.692643
6437.000000;0.691442
6436.000000;0.690329
6435.000000;0.689239
6434.000000;0.688130
6433.000000;0.686994
6432.000000;0.685834
6431.000000;0.684662
6430.000000;0.683500
6429.000000;0.682352
6428.000000;0.681190
6427.000000;0.679989
6426.000000;0.678750
6425.000000;0.677504
6424.000000;0.676286
6423.000000;0.675125
6422.000000;0.674020
6421.000000;0.672934
6420.000000;0.671823
6419.000000;0.670678
6418.000000;0.669519
6417.000000;0.668332
6416.000000;0.667081
6415.000000;0.665780
6414.000000;0.664525
6413.000000;0.663391
6412.000000;0.662351
6411.000000;0.661321
6410.000000;0.660273
6409.000000;0.659252
6408.000000;0.658284
6407.000000;0.657319
6406.000000;0.656298
6405.000000;0.655207
6404.000000;0.654059
6403.000000;0.652856
6402.000000;0.651622
6401.000000;0.650446
6400.000000;0.649418
6399.000000;0.648524
6398.000000;0.647633
6397.000000;0.646636
6396.000000;0.645546
6395.000000;0.644450
6394.000000;0.643401
6393.000000;0.642391
6392.000000;0.641406
6391.000000;0.640444
6390.000000;0.639476
6389.000000;0.638433
6388.000000;0.637286
6387.000000;0.636083
6386.000000;0.634903
6385.000000;0.633782
6384.000000;0.632709
6383.000000;0.631682
6382.000000;0.630720
6381.000000;0.629816
6380.000000;0.628915
6379.000000;0.627948
6378.000000;0.626901
6377.000000;0.625838
6376.000000;0.624845
6375.000000;0.623940
6374.000000;0.623048
6373.000000;0.622086
6372.000000;0.621062
6371.000000;0.620068
6370.000000;0.619167
6369.000000;0.618324
6368.000000;0.617456
6367.000000;0.616527
6366.000000;0.615564
6365.000000;0.614599
6364.000000;0.613638
6363.000000;0.612678
6362.000000;0.611740
6361.000000;0.610856
6360.000000;0.610046
6359.000000;0.609285
6358.000000;0.608516
6357.000000;0.607672
6356.000000;0.606725
6355.000000;0.605696
6354.000000;0.604640
6353.000000;0.603607
6352.000000;0.602637
6351.000000;0.601762
6350.000000;0.600980
6349.000000;0.600244
6348.000000;0.599477
6347.000000;0.598627
6346.000000;0.597687
6345.000000;0.596686
6344.000000;0.595662
6343.000000;0.594662
6342.000000;0.593734
6341.000000;0.592910
6340.000000;0.592178
6339.000000;0.591483
6338.000000;0.590766
6337.000000;0.590002
6336.000000;0.589201
6335.000000;0.588384
6334.000000;0.587548
6333.000000;0.586683
6332.000000;0.585796
6331.000000;0.584903
6330.000000;0.584003
6329.000000;0.583078
6328.000000;0.582127
6327.000000;0.581183
6326.000000;0.580281
6325.000000;0.579433
6324.000000;0.578632
6323.000000;0.577867
6322.000000;0.577131
6321.000000;0.576413
6320.000000;0.575704
6319.000000;0.575001
6318.000000;0.574288
6317.000000;0.573532
6316.000000;0.572712
6315.000000;0.571849
6314.000000;0.570987
6313.000000;0.570157
6312.000000;0.569351
6311.000000;0.568555
6310.000000;0.567771
6309.000000;0.567004
6308.000000;0.566234
6307.000000;0.565426
6306.000000;0.564576
6305.000000;0.563731
6304.000000;0.562950
6303.000000;0.562241
6302.000000;0.561555
6301.000000;0.560859
6300.000000;0.560167
6299.000000;0.559498
6298.000000;0.558817
6297.000000;0.558074
6296.000000;0.557274
6295.000000;0.556487
6294.000000;0.555770
6293.000000;0.555112
6292.000000;0.554459
6291.000000;0.553761
6290.000000;0.553001
6289.000000;0.552210
6288.000000;0.551459
6287.000000;0.550808
6286.000000;0.550232
6285.000000;0.549634
6284.000000;0.548939
6283.000000;0.548163
6282.000000;0.547377
6281.000000;0.546625
6280.000000;0.545905
6279.000000;0.545200
6278.000000;0.544505
6277.000000;0.543837
6276.000000;0.543211
6275.000000;0.542609
6274.000000;0.541968
6273.000000;0.541236
6272.000000;0.540434
6271.000000;0.539652
6270.000000;0.538961
6269.000000;0.538351
6268.000000;0.537776
6267.000000;0.537197
6266.000000;0.536582
6265.000000;0.535893
6264.000000;0.535125
6263.000000;0.534336
6262.000000;0.533604
6261.000000;0.532953
6260.000000;0.532346
6259.000000;0.531731
6258.000000;0.531070
6257.000000;0.530343
6256.000000;0.529573
6255.000000;0.528831
6254.000000;0.528186
6253.000000;0.527636
6252.000000;0.527118
6251.000000;0.526574
6250.000000;0.525990
6249.000000;0.525364
6248.000000;0.524688
6247.000000;0.523970
6246.000000;0.523245
6245.000000;0.522567
6244.000000;0.521984
6243.000000;0.521518
6242.000000;0.521134
6241.000000;0.520716
6240.000000;0.520133
6239.000000;0.519354
6238.000000;0.518491
6237.000000;0.517709
6236.000000;0.517093
6235.000000;0.516600
6234.000000;0.516127
6233.000000;0.515588
6232.000000;0.514952
6231.000000;0.514246
6230.000000;0.513531
6229.000000;0.512872
6228.000000;0.512282
6227.000000;0.511727
6226.000000;0.511168
6225.000000;0.510601
6224.000000;0.510049
6223.000000;0.509526
6222.000000;0.509010
6221.000000;0.508466
6220.000000;0.507869
6219.000000;0.507231
6218.000000;0.506588
6217.000000;0.505966
6216.000000;0.505363
6215.000000;0.504772
6214.000000;0.504216
6213.000000;0.503731
6212.000000;0.503300
6211.000000;0.502840
6210.000000;0.502286
6209.000000;0.501672
6208.000000;0.501096
6207.000000;0.500609
6206.000000;0.500166
6205.000000;0.499693
6204.000000;0.499158
6203.000000;0.498563
6202.000000;0.497906
6201.000000;0.497193
6200.000000;0.496469
6199.000000;0.495805
6198.000000;0.495249
6197.000000;0.494796
6196.000000;0.494390
6195.000000;0.493951
6194.000000;0.493413
6193.000000;0.492772
6192.000000;0.492088
6191.000000;0.491441
6190.000000;0.490872
6189.000000;0.490396
6188.000000;0.490005
6187.000000;0.489657
6186.000000;0.489256
6185.000000;0.488715
6184.000000;0.488035
6183.000000;0.487315
6182.000000;0.486662
6181.000000;0.486117
6180.000000;0.485649
6179.000000;0.485205
6178.000000;0.484751
6177.000000;0.484289
6176.000000;0.483840
6175.000000;0.483403
6174.000000;0.482941
6173.000000;0.482416
6172.000000;0.481828
6171.000000;0.481224
6170.000000;0.480659
6169.000000;0.480166
6168.000000;0.479736
6167.000000;0.479319
6166.000000;0.478859
6165.000000;0.478352
6164.000000;0.477855
6163.000000;0.477417
6162.000000;0.477019
6161.000000;0.476592
6160.000000;0.476101
6159.000000;0.475572
6158.000000;0.475063
6157.000000;0.474618
6156.000000;0.474237
6155.000000;0.473870
6154.000000;0.473439
6153.000000;0.472901
6152.000000;0.472292
6151.000000;0.471685
6150.000000;0.471123
6149.000000;0.470593
6148.000000;0.470073
6147.000000;0.469565
6146.000000;0.469085
6145.000000;0.468636
6144.000000;0.468199
6143.000000;0.467731
6142.000000;0.467206
6141.000000;0.466655
6140.000000;0.466160
6139.000000;0.465773
6138.000000;0.465461
6137.000000;0.465149
6136.000000;0.464791
6135.000000;0.464378
6134.000000;0.463908
6133.000000;0.463392
6132.000000;0.462879
6131.000000;0.462424
6130.000000;0.462022
6129.000000;0.461631
6128.000000;0.461233
6127.000000;0.460845
6126.000000;0.460469
6125.000000;0.460076
6124.000000;0.459641
6123.000000;0.459179
6122.000000;0.458718
6121.000000;0.458270
6120.000000;0.457837
6119.000000;0.457412
6118.000000;0.456977
6117.000000;0.456522
6116.000000;0.456050
6115.000000;0.455553
6114.000000;0.455007
6113.000000;0.454422
6112.000000;0.453876
6111.000000;0.453443
6110.000000;0.453103
6109.000000;0.452779
6108.000000;0.452429
6107.000000;0.452073
6106.000000;0.451724
6105.000000;0.451362
6104.000000;0.450996
6103.000000;0.450671
6102.000000;0.450396
6101.000000;0.450110
6100.000000;0.449750
6099.000000;0.449311
6098.000000;0.448818
6097.000000;0.448278
6096.000000;0.447706
6095.000000;0.447153
6094.000000;0.446678
6093.000000;0.446302
6092.000000;0.446004
6091.000000;0.445735
6090.000000;0.445435
6089.000000;0.445070
6088.000000;0.444667
6087.000000;0.444279
6086.000000;0.443905
6085.000000;0.443492
6084.000000;0.443027
6083.000000;0.442574
6082.000000;0.442206
6081.000000;0.441910
6080.000000;0.441608
6079.000000;0.441248
6078.000000;0.440842
6077.000000;0.440427
6076.000000;0.440033
6075.000000;0.439659
6074.000000;0.439287
6073.000000;0.438909
6072.000000;0.438540
6071.000000;0.438194
6070.000000;0.437851
6069.000000;0.437489
6068.000000;0.437125
6067.000000;0.436790
6066.000000;0.436460
6065.000000;0.436070
6064.000000;0.435610
6063.000000;0.435154
6062.000000;0.434771
6061.000000;0.434466
6060.000000;0.434216
6059.000000;0.434001
6058.000000;0.433773
6057.000000;0.433459
6056.000000;0.433035
6055.000000;0.432583
6054.000000;0.432201
6053.000000;0.431908
6052.000000;0.431646
6051.000000;0.431359
6050.000000;0.431028
6049.000000;0.430648
6048.000000;0.430238
6047.000000;0.429853
6046.000000;0.429541
6045.000000;0.429307
6044.000000;0.429128
6043.000000;0.428975
6042.000000;0.428799
6041.000000;0.428532
6040.000000;0.428139
6039.000000;0.427675
6038.000000;0.427229
6037.000000;0.426839
6036.000000;0.426477
6035.000000;0.426127
6034.000000;0.425812
6033.000000;0.425550
6032.000000;0.425327
6031.000000;0.425112
6030.000000;0.424877
6029.000000;0.424596
6028.000000;0.424254
6027.000000;0.423870
6026.000000;0.423494
6025.000000;0.423167
6024.000000;0.422899
6023.000000;0.422666
6022.000000;0.422437
6021.000000;0.422199
6020.000000;0.421973
6019.000000;0.421778
6018.000000;0.421598
6017.000000;0.421383
6016.000000;0.421098
6015.000000;0.420758
6014.000000;0.420399
6013.000000;0.420050
6012.000000;0.419719
6011.000000;0.419406
6010.000000;0.419096
6009.000000;0.418771
6008.000000;0.418444
6007.000000;0.418152
6006.000000;0.417897
6005.000000;0.417626
6004.000000;0.417296
6003.000000;0.416936
6002.000000;0.416625
6001.000000;0.416398
6000.000000;0.416218
5999.000000;0.416023
5998.000000;0.415794
5997.000000;0.415554
5996.000000;0.415345
5995.000000;0.415185
5994.000000;0.415045
5993.000000;0.414868
5992.000000;0.414623
5991.000000;0.414337
5990.000000;0.414073
5989.000000;0.413874
5988.000000;0.413742
5987.000000;0.413637
5986.000000;0.413503
5985.000000;0.413304
5984.000000;0.413052
5983.000000;0.412789
5982.000000;0.412538
5981.000000;0.412273
5980.000000;0.411953
5979.000000;0.411571
5978.000000;0.411167
5977.000000;0.410803
5976.000000;0.410532
5975.000000;0.410360
5974.000000;0.410230
5973.000000;0.410081
5972.000000;0.409905
5971.000000;0.409744
5970.000000;0.409612
5969.000000;0.409459
5968.000000;0.409229
5967.000000;0.408935
5966.000000;0.408636
5965.000000;0.408380
5964.000000;0.408175
5963.000000;0.408000
5962.000000;0.407823
5961.000000;0.407625
5960.000000;0.407426
5959.000000;0.407273
5958.000000;0.407180
5957.000000;0.407107
5956.000000;0.407003
5955.000000;0.406855
5954.000000;0.406692
5953.000000;0.406554
5952.000000;0.406475
5951.000000;0.406459
5950.000000;0.406446
5949.000000;0.406334
5948.000000;0.406072
5947.000000;0.405727
5946.000000;0.405410
5945.000000;0.405171
5944.000000;0.404984
5943.000000;0.404810
5942.000000;0.404645
5941.000000;0.404503
5940.000000;0.404391
5939.000000;0.404300
5938.000000;0.404204
5937.000000;0.404076
5936.000000;0.403917
5935.000000;0.403764
5934.000000;0.403640
5933.000000;0.403520
5932.000000;0.403363
5931.000000;0.403178
5930.000000;0.403004
5929.000000;0.402860
5928.000000;0.402725
5927.000000;0.402590
5926.000000;0.402482
5925.000000;0.402432
5924.000000;0.402433
5923.000000;0.402442
5922.000000;0.402413
5921.000000;0.402326
5920.000000;0.402195
5919.000000;0.402045
5918.000000;0.401885
5917.000000;0.401709
5916.000000;0.401525
5915.000000;0.401359
5914.000000;0.401229
5913.000000;0.401112
5912.000000;0.400973
5911.000000;0.400809
5910.000000;0.400654
5909.000000;0.400533
5908.000000;0.400451
5907.000000;0.400406
5906.000000;0.400395
5905.000000;0.400398
5904.000000;0.400374
5903.000000;0.400300
5902.000000;0.400189
5901.000000;0.400056
5900.000000;0.399892
5899.000000;0.399685
5898.000000;0.399480
5897.000000;0.399365
5896.000000;0.399378
5895.000000;0.399441
5894.000000;0.399414
5893.000000;0.399245
5892.000000;0.399022
5891.000000;0.398879
5890.000000;0.398862
5889.000000;0.398918
5888.000000;0.398970
5887.000000;0.398979
5886.000000;0.398945
5885.000000;0.398886
5884.000000;0.398829
5883.000000;0.398785
5882.000000;0.398732
5881.000000;0.398633
5880.000000;0.398486
5879.000000;0.398329
5878.000000;0.398202
5877.000000;0.398119
5876.000000;0.398077
5875.000000;0.398067
5874.000000;0.398061
5873.000000;0.398035
5872.000000;0.397998
5871.000000;0.397996
5870.000000;0.398058
5869.000000;0.398161
5868.000000;0.398253
5867.000000;0.398285
5866.000000;0.398243
5865.000000;0.398153
5864.000000;0.398063
5863.000000;0.398009
5862.000000;0.397979
5861.000000;0.397947
5860.000000;0.397925
5859.000000;0.397957
5858.000000;0.398054
5857.000000;0.398165
5856.000000;0.398226
5855.000000;0.398225
5854.000000;0.398210
5853.000000;0.398245
5852.000000;0.398355
5851.000000;0.398494
5850.000000;0.398571
5849.000000;0.398537
5848.000000;0.398443
5847.000000;0.398384
5846.000000;0.398398
5845.000000;0.398441
5844.000000;0.398475
5843.000000;0.398519
5842.000000;0.398605
5841.000000;0.398723
5840.000000;0.398831
5839.000000;0.398904
5838.000000;0.398943
5837.000000;0.398969
5836.000000;0.399016
5835.000000;0.399113
5834.000000;0.399249
5833.000000;0.399383
5832.000000;0.399490
5831.000000;0.399583
5830.000000;0.399673
5829.000000;0.399746
5828.000000;0.399784
5827.000000;0.399807
5826.000000;0.399850
5825.000000;0.399923
5824.000000;0.400018
5823.000000;0.400134
5822.000000;0.400293
5821.000000;0.400501
5820.000000;0.400727
5819.000000;0.400925
5818.000000;0.401075
5817.000000;0.401206
5816.000000;0.401356
5815.000000;0.401518
5814.000000;0.401658
5813.000000;0.401777
5812.000000;0.401939
5811.000000;0.402179
5810.000000;0.402440
5809.000000;0.402635
5808.000000;0.402767
5807.000000;0.402916
5806.000000;0.403129
5805.000000;0.403370
5804.000000;0.403591
5803.000000;0.403783
5802.000000;0.403940
5801.000000;0.404037
5800.000000;0.404065
5799.000000;0.404073
5798.000000;0.404132
5797.000000;0.404288
5796.000000;0.404537
5795.000000;0.404835
5794.000000;0.405120
5793.000000;0.405367
5792.000000;0.405612
5791.000000;0.405892
5790.000000;0.406178
5789.000000;0.406407
5788.000000;0.406587
5787.000000;0.406791
5786.000000;0.407057
5785.000000;0.407334
5784.000000;0.407570
5783.000000;0.407779
5782.000000;0.408005
5781.000000;0.408258
5780.000000;0.408534
5779.000000;0.408847
5778.000000;0.409201
5777.000000;0.409564
5776.000000;0.409891
5775.000000;0.410166
5774.000000;0.410399
5773.000000;0.410605
5772.000000;0.410825
5771.000000;0.411114
5770.000000;0.411494
5769.000000;0.411920
5768.000000;0.412322
5767.000000;0.412661
5766.000000;0.412927
5765.000000;0.413143
5764.000000;0.413365
5763.000000;0.413651
5762.000000;0.414000
5761.000000;0.414358
5760.000000;0.414692
5759.000000;0.415029
5758.000000;0.415397
5757.000000;0.415775
5756.000000;0.416132
5755.000000;0.416482
5754.000000;0.416851
5753.000000;0.417232
5752.000000;0.417594
5751.000000;0.417931
5750.000000;0.418275
5749.000000;0.418666
5748.000000;0.419123
5747.000000;0.419623
5746.000000;0.420104
5745.000000;0.420509
5744.000000;0.420846
5743.000000;0.421181
5742.000000;0.421562
5741.000000;0.421991
5740.000000;0.422467
5739.000000;0.423010
5738.000000;0.423608
5737.000000;0.424188
5736.000000;0.424688
5735.000000;0.425118
5734.000000;0.425523
5733.000000;0.425925
5732.000000;0.426315
5731.000000;0.426693
5730.000000;0.427069
5729.000000;0.427455
5728.000000;0.427874
5727.000000;0.428346
5726.000000;0.428859
5725.000000;0.429369
5724.000000;0.429862
5723.000000;0.430377
5722.000000;0.430943
5721.000000;0.431530
5720.000000;0.432073
5719.000000;0.432546
5718.000000;0.432973
5717.000000;0.433402
5716.000000;0.433883
5715.000000;0.434449
5714.000000;0.435097
5713.000000;0.435793
5712.000000;0.436504
5711.000000;0.437194
5710.000000;0.437798
5709.000000;0.438270
5708.000000;0.438674
5707.000000;0.439163
5706.000000;0.439827
5705.000000;0.440595
5704.000000;0.441321
5703.000000;0.441924
5702.000000;0.442419
5701.000000;0.442853
5700.000000;0.443280
5699.000000;0.443755
5698.000000;0.444280
5697.000000;0.444900
5696.000000;0.445569
5695.000000;0.446267
5694.000000;0.446966
5693.000000;0.447627
5692.000000;0.448241
5691.000000;0.448836
5690.000000;0.449425
5689.000000;0.449975
5688.000000;0.450478
5687.000000;0.451001
5686.000000;0.451610
5685.000000;0.452277
5684.000000;0.452909
5683.000000;0.453471
5682.000000;0.454014
5681.000000;0.454596
5680.000000;0.455231
5679.000000;0.455906
5678.000000;0.456597
5677.000000;0.457262
5676.000000;0.457874
5675.000000;0.458461
5674.000000;0.459081
5673.000000;0.459747
5672.000000;0.460414
5671.000000;0.461031
5670.000000;0.461600
5669.000000;0.462148
5668.000000;0.462698
5667.000000;0.463270
5666.000000;0.463881
5665.000000;0.464532
5664.000000;0.465178
5663.000000;0.465765
5662.000000;0.466281
5661.000000;0.466779
5660.000000;0.467313
5659.000000;0.467880
5658.000000;0.468425
5657.000000;0.468908
5656.000000;0.469359
5655.000000;0.469846
5654.000000;0.470412
5653.000000;0.471063
5652.000000;0.471770
5651.000000;0.472478
5650.000000;0.473129
5649.000000;0.473706
5648.000000;0.474255
5647.000000;0.474812
5646.000000;0.475353
5645.000000;0.475826
5644.000000;0.476232
5643.000000;0.476628
5642.000000;0.477056
5641.000000;0.477524
5640.000000;0.478038
5639.000000;0.478598
5638.000000;0.479160
5637.000000;0.479672
5636.000000;0.480137
5635.000000;0.480612
5634.000000;0.481115
5633.000000;0.481602
5632.000000;0.482036
5631.000000;0.482430
5630.000000;0.482798
5629.000000;0.483114
5628.000000;0.483373
5627.000000;0.483619
5626.000000;0.483905
5625.000000;0.484242
5624.000000;0.484615
5623.000000;0.485013
5622.000000;0.485425
5621.000000;0.485839
5620.000000;0.486241
5619.000000;0.486616
5618.000000;0.486929
5617.000000;0.487171
5616.000000;0.487403
5615.000000;0.487703
5614.000000;0.488075
5613.000000;0.488446
5612.000000;0.488765
5611.000000;0.489053
5610.000000;0.489341
5609.000000;0.489628
5608.000000;0.489910
5607.000000;0.490204
5606.000000;0.490510
5605.000000;0.490790
5604.000000;0.491020
5603.000000;0.491230
5602.000000;0.491458
5601.000000;0.491687
5600.000000;0.491862
5599.000000;0.491955
5598.000000;0.492000
5597.000000;0.492073
5596.000000;0.492237
5595.000000;0.492470
5594.000000;0.492672
5593.000000;0.492764
5592.000000;0.492783
5591.000000;0.492819
5590.000000;0.492903
5589.000000;0.492994
5588.000000;0.493065
5587.000000;0.493120
5586.000000;0.493147
5585.000000;0.493117
5584.000000;0.493054
5583.000000;0.493025
5582.000000;0.493065
5581.000000;0.493157
5580.000000;0.493275
5579.000000;0.493386
5578.000000;0.493421
5577.000000;0.493339
5576.000000;0.493220
5575.000000;0.493191
5574.000000;0.493265
5573.000000;0.493327
5572.000000;0.493298
5571.000000;0.493226
5570.000000;0.493175
5569.000000;0.493140
5568.000000;0.493109
5567.000000;0.493119
5566.000000;0.493179
5565.000000;0.493218
5564.000000;0.493171
5563.000000;0.493070
5562.000000;0.493006
5561.000000;0.493025
5560.000000;0.493104
5559.000000;0.493181
5558.000000;0.493172
5557.000000;0.493018
5556.000000;0.492743
5555.000000;0.492439
5554.000000;0.492174
5553.000000;0.491953
5552.000000;0.491780
5551.000000;0.491687
5550.000000;0.491682
5549.000000;0.491716
5548.000000;0.491744
5547.000000;0.491744
5546.000000;0.491688
5545.000000;0.491545
5544.000000;0.491348
5543.000000;0.491180
5542.000000;0.491060
5541.000000;0.490909
5540.000000;0.490677
5539.000000;0.490432
5538.000000;0.490274
5537.000000;0.490206
5536.000000;0.490171
5535.000000;0.490156
5534.000000;0.490180
5533.000000;0.490228
5532.000000;0.490246
5531.000000;0.490200
5530.000000;0.490090
5529.000000;0.489931
5528.000000;0.489771
5527.000000;0.489659
5526.000000;0.489587
5525.000000;0.489519
5524.000000;0.489458
5523.000000;0.489440
5522.000000;0.489442
5521.000000;0.489366
5520.000000;0.489192
5519.000000;0.489035
5518.000000;0.488981
5517.000000;0.488976
5516.000000;0.488917
5515.000000;0.488803
5514.000000;0.488730
5513.000000;0.488719
5512.000000;0.488682
5511.000000;0.488559
5510.000000;0.488417
5509.000000;0.488354
5508.000000;0.488382
5507.000000;0.488413
5506.000000;0.488385
5505.000000;0.488361
5504.000000;0.488415
5503.000000;0.488481
5502.000000;0.488423
5501.000000;0.488206
5500.000000;0.488008
5499.000000;0.488033
5498.000000;0.488205
5497.000000;0.488284
5496.000000;0.488232
5495.000000;0.488277
5494.000000;0.488577
5493.000000;0.488955
5492.000000;0.489121
5491.000000;0.489071
5490.000000;0.489024
5489.000000;0.489072
5488.000000;0.489112
5487.000000;0.489093
5486.000000;0.489125
5485.000000;0.489322
5484.000000;0.489590
5483.000000;0.489744
5482.000000;0.489827
5481.000000;0.490001
5480.000000;0.490218
5479.000000;0.490292
5478.000000;0.490229
5477.000000;0.490318
5476.000000;0.490756
5475.000000;0.491297
5474.000000;0.491581
5473.000000;0.491690
5472.000000;0.491974
5471.000000;0.492486
5470.000000;0.492949
5469.000000;0.493183
5468.000000;0.493352
5467.000000;0.493689
5466.000000;0.494118
5465.000000;0.494449
5464.000000;0.494718
5463.000000;0.495074
5462.000000;0.495555
5461.000000;0.496058
5460.000000;0.496460
5459.000000;0.496755
5458.000000;0.497053
5457.000000;0.497484
5456.000000;0.498122
5455.000000;0.498867
5454.000000;0.499465
5453.000000;0.499869
5452.000000;0.500349
5451.000000;0.501086
5450.000000;0.501871
5449.000000;0.502376
5448.000000;0.502717
5447.000000;0.503383
5446.000000;0.504447
5445.000000;0.505426
5444.000000;0.506021
5443.000000;0.506487
5442.000000;0.507219
5441.000000;0.508253
5440.000000;0.509258
5439.000000;0.510033
5438.000000;0.510771
5437.000000;0.511715
5436.000000;0.512925
5435.000000;0.514298
5434.000000;0.515589
5433.000000;0.516622
5432.000000;0.517504
5431.000000;0.518470
5430.000000;0.519622
5429.000000;0.520814
5428.000000;0.521833
5427.000000;0.522700
5426.000000;0.523630
5425.000000;0.524744
5424.000000;0.525981
5423.000000;0.527205
5422.000000;0.528372
5421.000000;0.529692
5420.000000;0.531410
5419.000000;0.533401
5418.000000;0.535322
5417.000000;0.537125
5416.000000;0.539175
5415.000000;0.541704
5414.000000;0.544344
5413.000000;0.546552
5412.000000;0.548374
5411.000000;0.550302
5410.000000;0.552481
5409.000000;0.554550
5408.000000;0.556278
5407.000000;0.557909
5406.000000;0.559761
5405.000000;0.561776
5404.000000;0.563776
5403.000000;0.565931
5402.000000;0.568429
5401.000000;0.571171
5400.000000;0.574105
5399.000000;0.577293
5398.000000;0.580671
5397.000000;0.584009
5396.000000;0.587212
5395.000000;0.590505
5394.000000;0.593978
5393.000000;0.597369
5392.000000;0.600557
5391.000000;0.603841
5390.000000;0.607468
5389.000000;0.611273
5388.000000;0.615024
5387.000000;0.618865
5386.000000;0.623047
5385.000000;0.627362
5384.000000;0.631525
5383.000000;0.635862
5382.000000;0.640754
5381.000000;0.645905
5380.000000;0.650833
5379.000000;0.655667
5378.000000;0.660942
5377.000000;0.666672
5376.000000;0.672306
5375.000000;0.677692
5374.000000;0.683282
5373.000000;0.689275
5372.000000;0.695326
5371.000000;0.701226
5370.000000;0.707275
5369.000000;0.713753
5368.000000;0.720483
5367.000000;0.727313
5366.000000;0.734478
5365.000000;0.742101
5364.000000;0.749927
5363.000000;0.757817
5362.000000;0.765947
5361.000000;0.774445
5360.000000;0.783201
5359.000000;0.792153
5358.000000;0.801408
5357.000000;0.810921
5356.000000;0.820486
5355.000000;0.830225
5354.000000;0.840547
5353.000000;0.851381
5352.000000;0.862206
5351.000000;0.873105
5350.000000;0.884717
5349.000000;0.896973
5348.000000;0.908957
5347.000000;0.920330
5346.000000;0.932121
5345.000000;0.945399
5344.000000;0.959698
5343.000000;0.973753
5342.000000;0.987320
5341.000000;1.001061
5340.000000;1.015277
5339.000000;1.029833
5338.000000;1.044741
5337.000000;1.060036
5336.000000;1.075336
5335.000000;1.090412
5334.000000;1.105938
5333.000000;1.122668
5332.000000;1.140168
5331.000000;1.157403
5330.000000;1.174272
5329.000000;1.191568
5328.000000;1.209652
5327.000000;1.228010
5326.000000;1.246240
5325.000000;1.264536
5324.000000;1.282957
5323.000000;1.301231
5322.000000;1.319463
5321.000000;1.338094
5320.000000;1.357109
5319.000000;1.376047
5318.000000;1.394761
5317.000000;1.413417
5316.000000;1.431759
5315.000000;1.449271
5314.000000;1.466151
5313.000000;1.483153
5312.000000;1.500468
5311.000000;1.517673
5310.000000;1.534552
5309.000000;1.550991
5308.000000;1.566317
5307.000000;1.579905
5306.000000;1.592332
5305.000000;1.604698
5304.000000;1.617004
5303.000000;1.628382
5302.000000;1.638656
5301.000000;1.648442
5300.000000;1.657906
5299.000000;1.666646
5298.000000;1.674730
5297.000000;1.682772
5296.000000;1.690853
5295.000000;1.698343
5294.000000;1.704919
5293.000000;1.710783
5292.000000;1.715977
5291.000000;1.720322
5290.000000;1.723820
5289.000000;1.726544
5288.000000;1.728544
5287.000000;1.730352
5286.000000;1.732945
5285.000000;1.736509
5284.000000;1.739866
5283.000000;1.741883
5282.000000;1.742809
5281.000000;1.743408
5280.000000;1.743637
5279.000000;1.743103
5278.000000;1.742104
5277.000000;1.741318
5276.000000;1.741051
5275.000000;1.741425
5274.000000;1.742766
5273.000000;1.745069
5272.000000;1.747491
5271.000000;1.749117
5270.000000;1.749777
5269.000000;1.749703
5268.000000;1.749232
5267.000000;1.749133
5266.000000;1.750119
5265.000000;1.751621
5264.000000;1.752141
5263.000000;1.751496
5262.000000;1.751602
5261.000000;1.753966
5260.000000;1.757418
5259.000000;1.759457
5258.000000;1.759063
5257.000000;1.757123
5256.000000;1.754995
5255.000000;1.753718
5254.000000;1.753901
5253.000000;1.755216
5252.000000;1.756369
5251.000000;1.756489
5250.000000;1.756055
5249.000000;1.755834
5248.000000;1.755828
5247.000000;1.755890
5246.000000;1.756494
5245.000000;1.757882
5244.000000;1.759041
5243.000000;1.758562
5242.000000;1.756403
5241.000000;1.753901
5240.000000;1.752264
5239.000000;1.751937
5238.000000;1.753012
5237.000000;1.755211
5236.000000;1.757652
5235.000000;1.759463
5234.000000;1.760530
5233.000000;1.761100
5232.000000;1.761106
5231.000000;1.760525
5230.000000;1.760053
5229.000000;1.760662
5228.000000;1.762543
5227.000000;1.764881
5226.000000;1.766504
5225.000000;1.766576
5224.000000;1.765073
5223.000000;1.762916
5222.000000;1.761320
5221.000000;1.760856
5220.000000;1.761281
5219.000000;1.762160
5218.000000;1.763270
5217.000000;1.764301
5216.000000;1.764880
5215.000000;1.765227
5214.000000;1.766027
5213.000000;1.767248
5212.000000;1.767633
5211.000000;1.765899
5210.000000;1.762372
5209.000000;1.758982
5208.000000;1.757647
5207.000000;1.758799
5206.000000;1.761306
5205.000000;1.763676
5204.000000;1.765255
5203.000000;1.766132
5202.000000;1.766240
5201.000000;1.765417
5200.000000;1.764399
5199.000000;1.764679
5198.000000;1.766634
5197.000000;1.768634
5196.000000;1.769173
5195.000000;1.769096
5194.000000;1.770146
5193.000000;1.772227
5192.000000;1.773807
5191.000000;1.774479
5190.000000;1.775263
5189.000000;1.776394
5188.000000;1.776720
5187.000000;1.775758
5186.000000;1.774556
5185.000000;1.773851
5184.000000;1.773017
5183.000000;1.771605
5182.000000;1.770528
5181.000000;1.770836
5180.000000;1.772404
5179.000000;1.774464
5178.000000;1.776485
5177.000000;1.777934
5176.000000;1.778136
5175.000000;1.777141
5174.000000;1.775898
5173.000000;1.774969
5172.000000;1.773964
5171.000000;1.772729
5170.000000;1.772056
5169.000000;1.772623
5168.000000;1.774079
5167.000000;1.775833
5166.000000;1.777902
5165.000000;1.780257
5164.000000;1.782128
5163.000000;1.782764
5162.000000;1.782335
5161.000000;1.781440
5160.000000;1.780405
5159.000000;1.779638
5158.000000;1.779856
5157.000000;1.781116
5156.000000;1.782131
5155.000000;1.781366
5154.000000;1.778750
5153.000000;1.775849
5152.000000;1.774635
5151.000000;1.776243
5150.000000;1.780157
5149.000000;1.784114
5148.000000;1.785545
5147.000000;1.783859
5146.000000;1.780910
5145.000000;1.778963
5144.000000;1.778661
5143.000000;1.779037
5142.000000;1.778900
5141.000000;1.778005
5140.000000;1.777261
5139.000000;1.777920
5138.000000;1.780217
5137.000000;1.782883
5136.000000;1.784458
5135.000000;1.784971
5134.000000;1.785597
5133.000000;1.786843
5132.000000;1.788094
5131.000000;1.788900
5130.000000;1.789468
5129.000000;1.789625
5128.000000;1.788526
5127.000000;1.785963
5126.000000;1.782974
5125.000000;1.780649
5124.000000;1.779188
5123.000000;1.778510
5122.000000;1.778860
5121.000000;1.780239
5120.000000;1.781949
5119.000000;1.783363
5118.000000;1.784667
5117.000000;1.786263
5116.000000;1.787811
5115.000000;1.788333
5114.000000;1.787175
5113.000000;1.784736
5112.000000;1.782392
5111.000000;1.781616
5110.000000;1.782678
5109.000000;1.784282
5108.000000;1.785033
5107.000000;1.785181
5106.000000;1.786036
5105.000000;1.787766
5104.000000;1.788819
5103.000000;1.787757
5102.000000;1.784780
5101.000000;1.781215
5100.000000;1.778453
5099.000000;1.777612
5098.000000;1.779123
5097.000000;1.782116
5096.000000;1.784930
5095.000000;1.786713
5094.000000;1.788059
5093.000000;1.789765
5092.000000;1.791563
5091.000000;1.792513
5090.000000;1.792077
5089.000000;1.790429
5088.000000;1.788267
5087.000000;1.786549
5086.000000;1.785864
5085.000000;1.785898
5084.000000;1.785984
5083.000000;1.786159
5082.000000;1.787008
5081.000000;1.788548
5080.000000;1.790013
5079.000000;1.790791
5078.000000;1.790887
5077.000000;1.790298
5076.000000;1.788869
5075.000000;1.787189
5074.000000;1.786683
5073.000000;1.788146
5072.000000;1.790661
5071.000000;1.792413
5070.000000;1.792356
5069.000000;1.790893
5068.000000;1.789355
5067.000000;1.789007
5066.000000;1.790035
5065.000000;1.791239
5064.000000;1.791163
5063.000000;1.789652
5062.000000;1.787846
5061.000000;1.786673
5060.000000;1.786086
5059.000000;1.785752
5058.000000;1.785662
5057.000000;1.785759
5056.000000;1.785612
5055.000000;1.784943
5054.000000;1.784031
5053.000000;1.783317
5052.000000;1.782930
5051.000000;1.782616
5050.000000;1.781929
5049.000000;1.780736
5048.000000;1.779696
5047.000000;1.779939
5046.000000;1.781862
5045.000000;1.784361
5044.000000;1.785796
5043.000000;1.785572
5042.000000;1.784344
5041.000000;1.783090
5040.000000;1.782582
5039.000000;1.783323
5038.000000;1.785127
5037.000000;1.786939
5036.000000;1.787787
5035.000000;1.787676
5034.000000;1.786891
5033.000000;1.785136
5032.000000;1.782452
5031.000000;1.780320
5030.000000;1.780395
5029.000000;1.782343
5028.000000;1.784101
5027.000000;1.784266
5026.000000;1.783111
5025.000000;1.781307
5024.000000;1.779089
5023.000000;1.776857
5022.000000;1.775228
5021.000000;1.774145
5020.000000;1.772991
5019.000000;1.771801
5018.000000;1.771352
5017.000000;1.771817
5016.000000;1.772354
5015.000000;1.772389
5014.000000;1.772395
5013.000000;1.772908
5012.000000;1.773581
5011.000000;1.773619
5010.000000;1.772563
5009.000000;1.770478
5008.000000;1.768045
5007.000000;1.766491
5006.000000;1.766603
5005.000000;1.767680
5004.000000;1.768279
5003.000000;1.768039
5002.000000;1.767818
5001.000000;1.767834
5000.000000;1.767218
4999.000000;1.765501
4998.000000;1.763604
4997.000000;1.762563
4996.000000;1.762336
4995.000000;1.762284
4994.000000;1.761938
4993.000000;1.760852
4992.000000;1.758757
4991.000000;1.756354
4990.000000;1.754873
4989.000000;1.754404
4988.000000;1.753586
4987.000000;1.751467
4986.000000;1.748824
4985.000000;1.747030
4984.000000;1.746482
4983.000000;1.746718
4982.000000;1.747165
4981.000000;1.747063
4980.000000;1.745477
4979.000000;1.742303
4978.000000;1.738733
4977.000000;1.735948
4976.000000;1.733929
4975.000000;1.732186
4974.000000;1.730975
4973.000000;1.730800
4972.000000;1.731044
4971.000000;1.730200
4970.000000;1.727655
4969.000000;1.724564
4968.000000;1.722658
4967.000000;1.722585
4966.000000;1.723483
4965.000000;1.723832
4964.000000;1.722594
4963.000000;1.719736
4962.000000;1.715897
4961.000000;1.711826
4960.000000;1.708228
4959.000000;1.705786
4958.000000;1.704861
4957.000000;1.705126
4956.000000;1.705812
4955.000000;1.706293
4954.000000;1.706133
4953.000000;1.704808
4952.000000;1.702046
4951.000000;1.698524
4950.000000;1.695506
4949.000000;1.693546
4948.000000;1.692042
4947.000000;1.690265
4946.000000;1.688332
4945.000000;1.686806
4944.000000;1.685739
4943.000000;1.684510
4942.000000;1.682455
4941.000000;1.679391
4940.000000;1.675702
4939.000000;1.672142
4938.000000;1.669415
4937.000000;1.667633
4936.000000;1.666256
4935.000000;1.664627
4934.000000;1.662427
4933.000000;1.659755
4932.000000;1.657020
4931.000000;1.654627
4930.000000;1.652588
4929.000000;1.650536
4928.000000;1.648275
4927.000000;1.646083
4926.000000;1.644189
4925.000000;1.642249
4924.000000;1.639823
4923.000000;1.637138
4922.000000;1.634745
4921.000000;1.632499
4920.000000;1.629628
4919.000000;1.625994
4918.000000;1.622621
4917.000000;1.620567
4916.000000;1.619644
4915.000000;1.618584
4914.000000;1.616299
4913.000000;1.612835
4912.000000;1.609233
4911.000000;1.606599
4910.000000;1.605160
4909.000000;1.604058
4908.000000;1.602200
4907.000000;1.599298
4906.000000;1.595959
4905.000000;1.592753
4904.000000;1.589463
4903.000000;1.585369
4902.000000;1.580154
4901.000000;1.574523
4900.000000;1.569910
4899.000000;1.567360
4898.000000;1.566543
4897.000000;1.565993
4896.000000;1.564541
4895.000000;1.562329
4894.000000;1.560179
4893.000000;1.558311
4892.000000;1.556166
4891.000000;1.553299
4890.000000;1.549881
4889.000000;1.546290
4888.000000;1.542707
4887.000000;1.539218
4886.000000;1.535921
4885.000000;1.532749
4884.000000;1.529476
4883.000000;1.526048
4882.000000;1.522813
4881.000000;1.520304
4880.000000;1.518789
4879.000000;1.517852
4878.000000;1.516365
4877.000000;1.513213
4876.000000;1.508399
4875.000000;1.503273
4874.000000;1.499375
4873.000000;1.497159
4872.000000;1.495960
4871.000000;1.494839
4870.000000;1.493132
4869.000000;1.490488
4868.000000;1.486998
4867.000000;1.483312
4866.000000;1.480140
4865.000000;1.477540
4864.000000;1.474950
4863.000000;1.471888
4862.000000;1.468339
4861.000000;1.464523
4860.000000;1.460667
4859.000000;1.457019
4858.000000;1.453706
4857.000000;1.450522
4856.000000;1.447130
4855.000000;1.443558
4854.000000;1.440216
4853.000000;1.437421
4852.000000;1.435108
4851.000000;1.433003
4850.000000;1.430823
4849.000000;1.428353
4848.000000;1.425594
4847.000000;1.422798
4846.000000;1.420111
4845.000000;1.417287
4844.000000;1.414072
4843.000000;1.410737
4842.000000;1.407807
4841.000000;1.405268
4840.000000;1.402528
4839.000000;1.399261
4838.000000;1.395850
4837.000000;1.392782
4836.000000;1.390010
4835.000000;1.387158
4834.000000;1.384088
4833.000000;1.380978
4832.000000;1.378003
4831.000000;1.375192
4830.000000;1.372489
4829.000000;1.369757
4828.000000;1.366779
4827.000000;1.363444
4826.000000;1.359940
4825.000000;1.356654
4824.000000;1.353914
4823.000000;1.351807
4822.000000;1.350122
4821.000000;1.348378
4820.000000;1.346030
4819.000000;1.342821
4818.000000;1.338988
4817.000000;1.335118
4816.000000;1.331767
4815.000000;1.329148
4814.000000;1.327036
4813.000000;1.324897
4812.000000;1.322201
4811.000000;1.318771
4810.000000;1.314866
4809.000000;1.310964
4808.000000;1.307401
4807.000000;1.304201
4806.000000;1.301222
4805.000000;1.298389
4804.000000;1.295741
4803.000000;1.293241
4802.000000;1.290693
4801.000000;1.287953
4800.000000;1.285169
4799.000000;1.282598
4798.000000;1.280222
4797.000000;1.277714
4796.000000;1.274836
4795.000000;1.271674
4794.000000;1.268455
4793.000000;1.265320
4792.000000;1.262381
4791.000000;1.259782
4790.000000;1.257564
4789.000000;1.255540
4788.000000;1.253424
4787.000000;1.251012
4786.000000;1.248219
4785.000000;1.245119
4784.000000;1.241985
4783.000000;1.239156
4782.000000;1.236718
4781.000000;1.234427
4780.000000;1.231998
4779.000000;1.229365
4778.000000;1.226612
4777.000000;1.223809
4776.000000;1.221019
4775.000000;1.218297
4774.000000;1.215605
4773.000000;1.212864
4772.000000;1.210178
4771.000000;1.207819
4770.000000;1.205854
4769.000000;1.203981
4768.000000;1.201840
4767.000000;1.199363
4766.000000;1.196688
4765.000000;1.193908
4764.000000;1.191074
4763.000000;1.188301
4762.000000;1.185694
4761.000000;1.183253
4760.000000;1.180940
4759.000000;1.178706
4758.000000;1.176399
4757.000000;1.173812
4756.000000;1.170972
4755.000000;1.168214
4754.000000;1.165828
4753.000000;1.163777
4752.000000;1.161828
4751.000000;1.159803
4750.000000;1.157569
4749.000000;1.155026
4748.000000;1.152301
4747.000000;1.149780
4746.000000;1.147736
4745.000000;1.146019
4744.000000;1.144289
4743.000000;1.142427
4742.000000;1.140524
4741.000000;1.138616
4740.000000;1.136599
4739.000000;1.134359
4738.000000;1.131840
4737.000000;1.129095
4736.000000;1.126397
4735.000000;1.124130
4734.000000;1.122379
4733.000000;1.120751
4732.000000;1.118807
4731.000000;1.116551
4730.000000;1.114320
4729.000000;1.112298
4728.000000;1.110364
4727.000000;1.108331
4726.000000;1.106144
4725.000000;1.103856
4724.000000;1.101570
4723.000000;1.099389
4722.000000;1.097330
4721.000000;1.095339
4720.000000;1.093436
4719.000000;1.091722
4718.000000;1.090156
4717.000000;1.088525
4716.000000;1.086752
4715.000000;1.085048
4714.000000;1.083581
4713.000000;1.082182
4712.000000;1.080580
4711.000000;1.078776
4710.000000;1.076941
4709.000000;1.075110
4708.000000;1.073229
4707.000000;1.071386
4706.000000;1.069709
4705.000000;1.068117
4704.000000;1.066449
4703.000000;1.064764
4702.000000;1.063245
4701.000000;1.061809
4700.000000;1.060104
4699.000000;1.057946
4698.000000;1.055540
4697.000000;1.053226
4696.000000;1.051201
4695.000000;1.049512
4694.000000;1.048175
4693.000000;1.047158
4692.000000;1.046313
4691.000000;1.045386
4690.000000;1.044116
4689.000000;1.042430
4688.000000;1.040578
4687.000000;1.038958
4686.000000;1.037700
4685.000000;1.036535
4684.000000;1.035189
4683.000000;1.033765
4682.000000;1.032558
4681.000000;1.031613
4680.000000;1.030668
4679.000000;1.029489
4678.000000;1.028059
4677.000000;1.026483
4676.000000;1.024880
4675.000000;1.023369
4674.000000;1.021996
4673.000000;1.020695
4672.000000;1.019414
4671.000000;1.018235
4670.000000;1.017243
4669.000000;1.016321
4668.000000;1.015252
4667.000000;1.013967
4666.000000;1.012578
4665.000000;1.011206
4664.000000;1.009917
4663.000000;1.008774
4662.000000;1.007774
4661.000000;1.006776
4660.000000;1.005645
4659.000000;1.004448
4658.000000;1.003390
4657.000000;1.002570
4656.000000;1.001939
4655.000000;1.001425
4654.000000;1.000957
4653.000000;1.000390
4652.000000;0.999591
4651.000000;0.998599
4650.000000;0.997597
4649.000000;0.996725
4648.000000;0.996008
4647.000000;0.995404
4646.000000;0.994802
4645.000000;0.994030
4644.000000;0.993002
4643.000000;0.991855
4642.000000;0.990818
4641.000000;0.989974
4640.000000;0.989240
4639.000000;0.988524
4638.000000;0.987785
4637.000000;0.987000
4636.000000;0.986184
4635.000000;0.985415
4634.000000;0.984731
4633.000000;0.984056
4632.000000;0.983337
4631.000000;0.982646
4630.000000;0.982054
4629.000000;0.981485
4628.000000;0.980857
4627.000000;0.980253
4626.000000;0.979778
4625.000000;0.979338
4624.000000;0.978769
4623.000000;0.978136
4622.000000;0.977665
4621.000000;0.977385
4620.000000;0.977056
4619.000000;0.976496
4618.000000;0.975789
4617.000000;0.975116
4616.000000;0.974546
4615.000000;0.974024
4614.000000;0.973478
4613.000000;0.972885
4612.000000;0.972301
4611.000000;0.971843
4610.000000;0.971559
4609.000000;0.971332
4608.000000;0.971012
4607.000000;0.970596
4606.000000;0.970197
4605.000000;0.969852
4604.000000;0.969497
4603.000000;0.969104
4602.000000;0.968742
4601.000000;0.968491
4600.000000;0.968384
4599.000000;0.968393
4598.000000;0.968423
4597.000000;0.968331
4596.000000;0.968065
4595.000000;0.967728
4594.000000;0.967462
4593.000000;0.967324
4592.000000;0.967329
4591.000000;0.967503
4590.000000;0.967766
4589.000000;0.967872
4588.000000;0.967642
4587.000000;0.967206
4586.000000;0.966875
4585.000000;0.966809
4584.000000;0.966926
4583.000000;0.967080
4582.000000;0.967193
4581.000000;0.967253
4580.000000;0.967313
4579.000000;0.967472
4578.000000;0.967733
4577.000000;0.967952
4576.000000;0.968028
4575.000000;0.968065
4574.000000;0.968206
4573.000000;0.968409
4572.000000;0.968565
4571.000000;0.968748
4570.000000;0.969166
4569.000000;0.969856
4568.000000;0.970641
4567.000000;0.971362
4566.000000;0.971979
4565.000000;0.972464
4564.000000;0.972777
4563.000000;0.972978
4562.000000;0.973219
4561.000000;0.973581
4560.000000;0.974056
4559.000000;0.974693
4558.000000;0.975578
4557.000000;0.976641
4556.000000;0.977593
4555.000000;0.978172
4554.000000;0.978383
4553.000000;0.978485
4552.000000;0.978799
4551.000000;0.979510
4550.000000;0.980561
4549.000000;0.981709
4548.000000;0.982743
4547.000000;0.983639
4546.000000;0.984470
4545.000000;0.985245
4544.000000;0.985939
4543.000000;0.986603
4542.000000;0.987347
4541.000000;0.988217
4540.000000;0.989211
4539.000000;0.990354
4538.000000;0.991643
4537.000000;0.992941
4536.000000;0.994041
4535.000000;0.994852
4534.000000;0.995463
4533.000000;0.996072
4532.000000;0.996872
4531.000000;0.997945
4530.000000;0.999136
4529.000000;1.000138
4528.000000;1.000810
4527.000000;1.001363
4526.000000;1.002117
4525.000000;1.003159
4524.000000;1.004334
4523.000000;1.005485
4522.000000;1.006544
4521.000000;1.007443
4520.000000;1.008116
4519.000000;1.008619
4518.000000;1.009119
4517.000000;1.009747
4516.000000;1.010520
4515.000000;1.011378
4514.000000;1.012225
4513.000000;1.013001
4512.000000;1.013777
4511.000000;1.014691
4510.000000;1.015730
4509.000000;1.016667
4508.000000;1.017341
4507.000000;1.017899
4506.000000;1.018651
4505.000000;1.019730
4504.000000;1.021013
4503.000000;1.022262
4502.000000;1.023266
4501.000000;1.023964
4500.000000;1.024552
4499.000000;1.025388
4498.000000;1.026619
4497.000000;1.028002
4496.000000;1.029207
4495.000000;1.030200
4494.000000;1.031184
4493.000000;1.032280
4492.000000;1.033467
4491.000000;1.034761
4490.000000;1.036247
4489.000000;1.037942
4488.000000;1.039759
4487.000000;1.041577
4486.000000;1.043219
4485.000000;1.044481
4484.000000;1.045321
4483.000000;1.045998
4482.000000;1.046850
4481.000000;1.047990
4480.000000;1.049340
4479.000000;1.050851
4478.000000;1.052534
4477.000000;1.054320
4476.000000;1.056051
4475.000000;1.057640
4474.000000;1.059106
4473.000000;1.060506
4472.000000;1.061909
4471.000000;1.063399
4470.000000;1.064994
4469.000000;1.066640
4468.000000;1.068334
4467.000000;1.070163
4466.000000;1.072127
4465.000000;1.074069
4464.000000;1.075886
4463.000000;1.077674
4462.000000;1.079542
4461.000000;1.081434
4460.000000;1.083278
4459.000000;1.085144
4458.000000;1.087112
4457.000000;1.089140
4456.000000;1.091199
4455.000000;1.093406
4454.000000;1.095813
4453.000000;1.098248
4452.000000;1.100512
4451.000000;1.102602
4450.000000;1.104572
4449.000000;1.106376
4448.000000;1.108047
4447.000000;1.109820
4446.000000;1.111827
4445.000000;1.113852
4444.000000;1.115659
4443.000000;1.117399
4442.000000;1.119423
4441.000000;1.121823
4440.000000;1.124425
4439.000000;1.127094
4438.000000;1.129761
4437.000000;1.132310
4436.000000;1.134726
4435.000000;1.137237
4434.000000;1.140014
4433.000000;1.142847
4432.000000;1.145419
4431.000000;1.147754
4430.000000;1.150087
4429.000000;1.152410
4428.000000;1.154503
4427.000000;1.156363
4426.000000;1.158250
4425.000000;1.160374
4424.000000;1.162801
4423.000000;1.165572
4422.000000;1.168633
4421.000000;1.171716
4420.000000;1.174611
4419.000000;1.177450
4418.000000;1.180439
4417.000000;1.183428
4416.000000;1.186113
4415.000000;1.188536
4414.000000;1.191011
4413.000000;1.193621
4412.000000;1.196192
4411.000000;1.198715
4410.000000;1.201400
4409.000000;1.204309
4408.000000;1.207260
4407.000000;1.210108
4406.000000;1.212834
4405.000000;1.215411
4404.000000;1.217907
4403.000000;1.220646
4402.000000;1.223931
4401.000000;1.227644
4400.000000;1.231417
4399.000000;1.235130
4398.000000;1.238877
4397.000000;1.242555
4396.000000;1.245938
4395.000000;1.249120
4394.000000;1.252439
4393.000000;1.255919
4392.000000;1.259197
4391.000000;1.262057
4390.000000;1.264658
4389.000000;1.267205
4388.000000;1.269792
4387.000000;1.272574
4386.000000;1.275706
4385.000000;1.279044
4384.000000;1.282267
4383.000000;1.285361
4382.000000;1.288618
4381.000000;1.292154
4380.000000;1.295774
4379.000000;1.299340
4378.000000;1.302884
4377.000000;1.306360
4376.000000;1.309694
4375.000000;1.313087
4374.000000;1.316825
4373.000000;1.320730
4372.000000;1.324297
4371.000000;1.327500
4370.000000;1.331004
4369.000000;1.335355
4368.000000;1.340338
4367.000000;1.345295
4366.000000;1.349744
4365.000000;1.353501
4364.000000;1.356604
4363.000000;1.359421
4362.000000;1.362569
4361.000000;1.366419
4360.000000;1.370766
4359.000000;1.375122
4358.000000;1.379197
4357.000000;1.383012
4356.000000;1.386712
4355.000000;1.390387
4354.000000;1.394015
4353.000000;1.397638
4352.000000;1.401592
4351.000000;1.406355
4350.000000;1.411924
4349.000000;1.417485
4348.000000;1.422019
4347.000000;1.425235
4346.000000;1.427705
4345.000000;1.430272
4344.000000;1.433615
4343.000000;1.438121
4342.000000;1.443657
4341.000000;1.449453
4340.000000;1.454625
4339.000000;1.458930
4338.000000;1.462812
4337.000000;1.466834
4336.000000;1.471273
4335.000000;1.476059
4334.000000;1.480819
4333.000000;1.485200
4332.000000;1.489410
4331.000000;1.494121
4330.000000;1.499497
4329.000000;1.504754
4328.000000;1.509181
4327.000000;1.513211
4326.000000;1.517771
4325.000000;1.522870
4324.000000;1.527684
4323.000000;1.531918
4322.000000;1.536239
4321.000000;1.541288
4320.000000;1.546947
4319.000000;1.552665
4318.000000;1.557933
4317.000000;1.562428
4316.000000;1.566215
4315.000000;1.569858
4314.000000;1.573937
4313.000000;1.578460
4312.000000;1.583089
4311.000000;1.587741
4310.000000;1.592550
4309.000000;1.597480
4308.000000;1.602470
4307.000000;1.607773
4306.000000;1.613637
4305.000000;1.619860
4304.000000;1.626121
4303.000000;1.632391
4302.000000;1.638460
4301.000000;1.643566
4300.000000;1.647336
4299.000000;1.650784
4298.000000;1.655459
4297.000000;1.661781
4296.000000;1.668863
4295.000000;1.675615
4294.000000;1.681291
4293.000000;1.685343
4292.000000;1.687914
4291.000000;1.690336
4290.000000;1.694034
4289.000000;1.699049
4288.000000;1.704506
4287.000000;1.710259
4286.000000;1.716999
4285.000000;1.724801
4284.000000;1.732574
4283.000000;1.739015
4282.000000;1.743378
4281.000000;1.745725
4280.000000;1.747464
4279.000000;1.751101
4278.000000;1.758135
4277.000000;1.767211
4276.000000;1.775344
4275.000000;1.781041
4274.000000;1.785143
4273.000000;1.788803
4272.000000;1.792430
4271.000000;1.796731
4270.000000;1.802942
4269.000000;1.811274
4268.000000;1.820191
4267.000000;1.827814
4266.000000;1.833350
4265.000000;1.837170
4264.000000;1.840544
4263.000000;1.845237
4262.000000;1.852079
4261.000000;1.859665
4260.000000;1.865588
4259.000000;1.869320
4258.000000;1.872728
4257.000000;1.877519
4256.000000;1.883505
4255.000000;1.889613
4254.000000;1.895309
4253.000000;1.900680
4252.000000;1.906109
4251.000000;1.912108
4250.000000;1.918573
4249.000000;1.924315
4248.000000;1.928485
4247.000000;1.932344
4246.000000;1.938063
4245.000000;1.945758
4244.000000;1.953236
4243.000000;1.958949
4242.000000;1.963797
4241.000000;1.969403
4240.000000;1.976059
4239.000000;1.983102
4238.000000;1.990012
4237.000000;1.996574
4236.000000;2.002686
4235.000000;2.008354
4234.000000;2.013752
4233.000000;2.018912
4232.000000;2.023758
4231.000000;2.028676
4230.000000;2.034179
4229.000000;2.040092
4228.000000;2.045925
4227.000000;2.051826
4226.000000;2.058184
4225.000000;2.064372
4224.000000;2.069006
4223.000000;2.071604
4222.000000;2.073082
4221.000000;2.074594
4220.000000;2.076870
4219.000000;2.080473
4218.000000;2.085630
4217.000000;2.091888
4216.000000;2.098610
4215.000000;2.105709
4214.000000;2.113435
4213.000000;2.121881
4212.000000;2.131059
4211.000000;2.140540
4210.000000;2.148685
4209.000000;2.153951
4208.000000;2.157475
4207.000000;2.162146
4206.000000;2.168665
4205.000000;2.175417
4204.000000;2.183162
4203.000000;2.195920
4202.000000;2.214350
4201.000000;2.231277
4200.000000;2.238434
4199.000000;2.236637
4198.000000;2.233102
4197.000000;2.231126
4196.000000;2.228909
4195.000000;2.226296
4194.000000;2.226855
4193.000000;2.233349
4192.000000;2.245071
4191.000000;2.259468
4190.000000;2.273300
4189.000000;2.282628
4188.000000;2.285810
4187.000000;2.286383
4186.000000;2.289081
4185.000000;2.294149
4184.000000;2.299111
4183.000000;2.304641
4182.000000;2.313773
4181.000000;2.325634
4180.000000;2.335137
4179.000000;2.339883
4178.000000;2.342558
4177.000000;2.345564
4176.000000;2.347927
4175.000000;2.348883
4174.000000;2.350979
4173.000000;2.357708
4172.000000;2.369654
4171.000000;2.382963
4170.000000;2.390700
4169.000000;2.388573
4168.000000;2.381412
4167.000000;2.380443
4166.000000;2.391973
4165.000000;2.410601
4164.000000;2.425326
4163.000000;2.431889
4162.000000;2.434168
4161.000000;2.435132
4160.000000;2.434814
4159.000000;2.435742
4158.000000;2.441221
4157.000000;2.448713
4156.000000;2.452752
4155.000000;2.454613
4154.000000;2.461978
4153.000000;2.477499
4152.000000;2.492933
4151.000000;2.497401
4150.000000;2.489925
4149.000000;2.478680
4148.000000;2.472432
4147.000000;2.477553
4146.000000;2.495813
4145.000000;2.519868
4144.000000;2.535195
4143.000000;2.533047
4142.000000;2.519279
4141.000000;2.507058
4140.000000;2.506554
4139.000000;2.520812
4138.000000;2.543271
4137.000000;2.559116
4136.000000;2.558107
4135.000000;2.546060
4134.000000;2.535004
4133.000000;2.529069
4132.000000;2.527601
4131.000000;2.533908
4130.000000;2.551022
4129.000000;2.570917
4128.000000;2.578073
4127.000000;2.569119
4126.000000;2.559149
4125.000000;2.562297
4124.000000;2.577268
4123.000000;2.592948
4122.000000;2.600805
4121.000000;2.599847
4120.000000;2.594431
4119.000000;2.592396
4118.000000;2.602031
4117.000000;2.626197
4116.000000;2.659156
4115.000000;2.688325
4114.000000;2.699726
4113.000000;2.687703
4112.000000;2.662685
4111.000000;2.643295
4110.000000;2.639479
4109.000000;2.647856
4108.000000;2.661969
4107.000000;2.680168
4106.000000;2.701480
4105.000000;2.720257
4104.000000;2.729235
4103.000000;2.727563
4102.000000;2.720621
4101.000000;2.712909
4100.000000;2.706649
4099.000000;2.704908
4098.000000;2.709324
4097.000000;2.715646
4096.000000;2.721611
4095.000000;2.734846
4094.000000;2.762219
4093.000000;2.795470
4092.000000;2.813453
4091.000000;2.807209
4090.000000;2.791753
4089.000000;2.782529
4088.000000;2.781472
4087.000000;2.786560
4086.000000;2.798834
4085.000000;2.813688
4084.000000;2.815311
4083.000000;2.795271
4082.000000;2.769032
4081.000000;2.758186
4080.000000;2.767695
4079.000000;2.783732
4078.000000;2.792025
4077.000000;2.795830
4076.000000;2.804087
4075.000000;2.815230
4074.000000;2.821359
4073.000000;2.815468
4072.000000;2.797564
4071.000000;2.776916
4070.000000;2.761058
4069.000000;2.752007
4068.000000;2.751979
4067.000000;2.765304
4066.000000;2.793300
4065.000000;2.826104
4064.000000;2.845514
4063.000000;2.841672
4062.000000;2.821252
4061.000000;2.798289
4060.000000;2.786405
4059.000000;2.794818
4058.000000;2.821066
4057.000000;2.848992
4056.000000;2.864987
4055.000000;2.875080
4054.000000;2.890570
4053.000000;2.904500
4052.000000;2.898862
4051.000000;2.877345
4050.000000;2.865646
4049.000000;2.876712
4048.000000;2.900417
4047.000000;2.920296
4046.000000;2.928727
4045.000000;2.924487
4044.000000;2.909785
4043.000000;2.896679
4042.000000;2.899063
4041.000000;2.916487
4040.000000;2.932956
4039.000000;2.933820
4038.000000;2.922233
4037.000000;2.911367
4036.000000;2.908792
4035.000000;2.913787
4034.000000;2.921848
4033.000000;2.929517
4032.000000;2.939355
4031.000000;2.956839
4030.000000;2.973959
4029.000000;2.966176
4028.000000;2.922932
4027.000000;2.871915
4026.000000;2.849482
4025.000000;2.862666
4024.000000;2.890006
4023.000000;2.910930
4022.000000;2.928448
4021.000000;2.948759
4020.000000;2.963889
4019.000000;2.972643
4018.000000;2.992783
4017.000000;3.034701
4016.000000;3.079553
4015.000000;3.095800
4014.000000;3.083292
4013.000000;3.071604
4012.000000;3.074635
4011.000000;3.077158
4010.000000;3.063739
4009.000000;3.044002
4008.000000;3.038961
4007.000000;3.056951
4006.000000;3.083435
4005.000000;3.091182
4004.000000;3.069827
4003.000000;3.041168
4002.000000;3.027655
4001.000000;3.026500
4000.000000;3.026843
3999.000000;3.036172
3998.000000;3.071241
3997.000000;3.130514
3996.000000;3.191843
3995.000000;3.236073
3994.000000;3.261665
3993.000000;3.262845
3992.000000;3.226171
3991.000000;3.163906
3990.000000;3.110177
3989.000000;3.088855
3988.000000;3.100752
3987.000000;3.128864
3986.000000;3.145605
3985.000000;3.129312
3984.000000;3.091553
3983.000000;3.067636
3982.000000;3.082543
3981.000000;3.136668
3980.000000;3.207609
3979.000000;3.265666
3978.000000;3.287153
3977.000000;3.272227
3976.000000;3.253207
3975.000000;3.249136
3974.000000;3.245884
3973.000000;3.218368
3972.000000;3.170926
3971.000000;3.140517
3970.000000;3.155307
3969.000000;3.206866
3968.000000;3.251089
3967.000000;3.254796
3966.000000;3.226630
3965.000000;3.183593
3964.000000;3.137512
3963.000000;3.100010
3962.000000;3.079359
3961.000000;3.072066
3960.000000;3.071667
3959.000000;3.086465
3958.000000;3.129309
3957.000000;3.191833
3956.000000;3.236572
3955.000000;3.229273
3954.000000;3.201855
3953.000000;3.203784
3952.000000;3.251515
3951.000000;3.346572
3950.000000;3.476810
3949.000000;3.578741
3948.000000;3.564701
3947.000000;3.478910
3946.000000;3.411550
3945.000000;3.382974
3944.000000;3.372567
3943.000000;3.354585
3942.000000;3.329554
3941.000000;3.313485
3940.000000;3.299016
3939.000000;3.271316
3938.000000;3.226256
3937.000000;3.188739
3936.000000;3.205078
3935.000000;3.257554
3934.000000;3.269927
3933.000000;3.270496
3932.000000;3.317606
3931.000000;3.414022
3930.000000;3.532580
3929.000000;3.620275
3928.000000;3.610671
3927.000000;3.546763
3926.000000;3.490958
3925.000000;3.439757
3924.000000;3.411866
3923.000000;3.447311
3922.000000;3.575831
3921.000000;3.775427
3920.000000;3.887408
3919.000000;3.822265
3918.000000;3.724092
3917.000000;3.641462
3916.000000;3.584387
3915.000000;3.558095
3914.000000;3.519535
3913.000000;3.439061
3912.000000;3.387056
3911.000000;3.449386
3910.000000;3.671757
3909.000000;3.911604
3908.000000;3.842471
3907.000000;3.653534
3906.000000;3.559167
3905.000000;3.561532
3904.000000;3.631115
3903.000000;3.756973
3902.000000;3.931136
3901.000000;4.114764
3900.000000;4.148319
3899.000000;4.053556
3898.000000;4.057473
3897.000000;4.323013
3896.000000;4.232106
3895.000000;3.934245
3894.000000;4.018055
3893.000000;4.464895
3892.000000;4.586255
3891.000000;4.054835
3890.000000;3.975028
3889.000000;3.977091
3888.000000;4.070022
3887.000000;4.174517
3886.000000;4.791978
3885.000000;4.667901
3884.000000;4.632899
3883.000000;4.528274
3882.000000;4.037467
3881.000000;3.835394
3880.000000;3.748375
3879.000000;3.767841
3878.000000;3.885331
3877.000000;4.041769
3876.000000;4.162277
3875.000000;4.070897
3874.000000;3.843786
3873.000000;3.772152
3872.000000;3.837951
3871.000000;4.029372
3870.000000;4.370457
3869.000000;4.259496
3868.000000;4.031037
3867.000000;3.987536
3866.000000;4.082223
3865.000000;4.265270
3864.000000;4.352949
3863.000000;4.266425
3862.000000;4.152593
3861.000000;4.173194
3860.000000;4.342212
3859.000000;4.240226
3858.000000;3.879270
3857.000000;3.718070
3856.000000;3.738344
3855.000000;3.937496
3854.000000;4.094433
3853.000000;3.996034
3852.000000;3.976429
3851.000000;3.986059
3850.000000;3.962595
3849.000000;4.086660
3848.000000;4.408873
3847.000000;4.398392
3846.000000;4.110097
3845.000000;4.072607
3844.000000;4.420829
3843.000000;4.321134
3842.000000;4.020942
3841.000000;4.076509
3840.000000;4.425779
3839.000000;4.409407
3838.000000;4.008196
3837.000000;3.996437
3836.000000;4.078932
3835.000000;4.130442
3834.000000;3.990164
3833.000000;3.799992
3832.000000;3.651567
3831.000000;3.593847
3830.000000;3.636012
3829.000000;3.729888
3828.000000;3.769677
3827.000000;3.763777
3826.000000;3.773165
3825.000000;3.806562
3824.000000;3.964326
3823.000000;4.365175
3822.000000;4.685791
3821.000000;4.433766
3820.000000;4.199650
3819.000000;3.987476
3818.000000;3.825951
3817.000000;3.804687
3816.000000;4.103779
3815.000000;3.773564
3814.000000;3.639163
3813.000000;3.816681
3812.000000;4.359563
3811.000000;4.590111
3810.000000;4.285820
3809.000000;4.206554
3808.000000;4.090157
3807.000000;4.138898
3806.000000;4.337943
3805.000000;4.279010
3804.000000;4.032598
3803.000000;3.826136
3802.000000;3.646428
3801.000000;3.526478
3800.000000;3.475060
3799.000000;3.470573
3798.000000;3.490614
3797.000000;3.534323
3796.000000;3.602713
3795.000000;3.685916
3794.000000;3.771612
3793.000000;3.855005
3792.000000;3.916148
3791.000000;3.878781
3790.000000;3.733644
3789.000000;3.652121
3788.000000;3.697690
3787.000000;3.835361
3786.000000;3.911590
3785.000000;3.862094
3784.000000;3.902264
3783.000000;4.063582
3782.000000;4.035812
3781.000000;3.991356
3780.000000;4.077484
3779.000000;4.043589
3778.000000;3.900061
3777.000000;3.821503
3776.000000;3.852495
3775.000000;4.099215
3774.000000;4.117292
3773.000000;3.882118
3772.000000;3.750292
3771.000000;3.668007
3770.000000;3.639257
3769.000000;3.675460
3768.000000;3.764686
3767.000000;3.868990
3766.000000;3.926983
3765.000000;3.882620
3764.000000;3.821647
3763.000000;3.867812
3762.000000;4.056773
3761.000000;4.519640
3760.000000;4.972477
3759.000000;4.478153
3758.000000;4.483130
3757.000000;4.281327
3756.000000;4.168307
3755.000000;4.095404
3754.000000;3.939058
3753.000000;3.769416
3752.000000;3.674395
3751.000000;3.658547
3750.000000;3.733623
3749.000000;3.947810
3748.000000;4.277672
3747.000000;4.261115
3746.000000;4.169661
3745.000000;4.171600
3744.000000;4.177286
3743.000000;4.097401
3742.000000;4.016100
3741.000000;3.955793
3740.000000;3.890140
3739.000000;3.859867
3738.000000;3.901229
3737.000000;3.997635
3736.000000;4.110252
3735.000000;4.223468
3734.000000;4.354990
3733.000000;4.447691
3732.000000;4.242413
3731.000000;3.986464
3730.000000;3.934707
3729.000000;4.131573
3728.000000;4.637794
3727.000000;4.439553
3726.000000;4.166164
3725.000000;4.192675
3724.000000;4.282693
3723.000000;4.069422
3722.000000;3.860697
3721.000000;3.799305
3720.000000;3.846620
3719.000000;4.022285
3718.000000;4.264922
3717.000000;4.226702
3716.000000;4.544278
3715.000000;4.481331
3714.000000;4.284648
3713.000000;4.359491
3712.000000;4.372190
3711.000000;4.307472
3710.000000;4.288565
3709.000000;4.428835
3708.000000;4.586628
3707.000000;4.143724
3706.000000;4.010927
3705.000000;4.142462
3704.000000;4.255070
3703.000000;3.997962
3702.000000;3.863630
3701.000000;3.829330
3700.000000;3.889274
3699.000000;3.885232
3698.000000;3.718948
3697.000000;3.642215
3696.000000;3.762762
3695.000000;4.034216
3694.000000;4.165749
3693.000000;4.243078
3692.000000;4.076433
3691.000000;3.905622
3690.000000;3.820313
3689.000000;3.790775
3688.000000;3.798187
3687.000000;3.745782
3686.000000;3.668853
3685.000000;3.643170
3684.000000;3.688912
3683.000000;3.874604
3682.000000;4.368350
3681.000000;4.692028
3680.000000;4.405835
3679.000000;4.194795
3678.000000;4.145349
3677.000000;4.234252
3676.000000;4.305269
3675.000000;4.314815
3674.000000;4.347679
3673.000000;4.330534
3672.000000;4.160649
3671.000000;4.031010
3670.000000;4.132084
3669.000000;4.231528
3668.000000;4.081917
3667.000000;3.937020
3666.000000;3.847446
3665.000000;3.874178
3664.000000;4.035384
3663.000000;4.198422
3662.000000;4.215629
3661.000000;3.994632
3660.000000;3.831960
3659.000000;3.836340
3658.000000;3.773870
3657.000000;3.565045
3656.000000;3.452370
3655.000000;3.466166
3654.000000;3.599187
3653.000000;3.835525
3652.000000;4.117558
3651.000000;4.299017
3650.000000;4.386853
3649.000000;4.313026
3648.000000;4.194512
3647.000000;4.189748
3646.000000;4.461644
3645.000000;4.627443
3644.000000;4.084897
3643.000000;3.908501
3642.000000;4.024353
3641.000000;4.131504
3640.000000;4.720717
3639.000000;3.909071
3638.000000;3.505621
3637.000000;3.386366
3636.000000;3.393273
3635.000000;3.500734
3634.000000;3.684244
3633.000000;3.889139
3632.000000;4.036182
3631.000000;4.161529
3630.000000;4.299280
3629.000000;4.289851
3628.000000;4.209840
3627.000000;4.172175
3626.000000;4.124443
3625.000000;4.225055
3624.000000;4.290626
3623.000000;3.838334
3622.000000;3.729951
3621.000000;3.759118
3620.000000;3.864359
3619.000000;4.054134
3618.000000;4.440467
3617.000000;4.967172
3616.000000;5.266392
3615.000000;4.759871
3614.000000;4.380121
3613.000000;4.213462
3612.000000;4.080346
3611.000000;4.000736
3610.000000;3.950350
3609.000000;3.925293
3608.000000;4.000487
3607.000000;4.438412
3606.000000;4.530623
3605.000000;4.578775
3604.000000;4.166585
3603.000000;3.774774
3602.000000;3.656478
3601.000000;3.621038
3600.000000;3.571844
3599.000000;3.510678
3598.000000;3.491837
3597.000000;3.508094
3596.000000;3.544100
3595.000000;3.633634
3594.000000;3.854701
3593.000000;4.174861
3592.000000;4.297793
3591.000000;4.428191
3590.000000;4.517247
3589.000000;4.123971
3588.000000;3.872375
3587.000000;3.785727
3586.000000;3.799988
3585.000000;3.897701
3584.000000;4.043485
3583.000000;4.051501
3582.000000;3.960073
3581.000000;3.856697
3580.000000;3.720414
3579.000000;3.520419
3578.000000;3.353140
3577.000000;3.265691
3576.000000;3.243751
3575.000000;3.272325
3574.000000;3.339547
3573.000000;3.418012
3572.000000;3.491941
3571.000000;3.607508
3570.000000;3.808856
3569.000000;3.998826
3568.000000;4.030988
3567.000000;3.985405
3566.000000;3.996903
3565.000000;4.057632
3564.000000;4.059057
3563.000000;4.015253
3562.000000;3.925120
3561.000000;3.855345
3560.000000;3.873974
3559.000000;4.051905
3558.000000;4.088214
3557.000000;3.750573
3556.000000;3.526507
3555.000000;3.447456
3554.000000;3.492108
3553.000000;3.629601
3552.000000;3.781401
3551.000000;3.853522
3550.000000;3.818940
3549.000000;3.703470
3548.000000;3.619921
3547.000000;3.552917
3546.000000;3.439546
3545.000000;3.340960
3544.000000;3.316201
3543.000000;3.365510
3542.000000;3.476843
3541.000000;3.760257
3540.000000;4.207224
3539.000000;3.939497
3538.000000;3.770787
3537.000000;3.766267
3536.000000;3.845917
3535.000000;4.004697
3534.000000;4.030002
3533.000000;3.871527
3532.000000;3.762228
3531.000000;3.696854
3530.000000;3.664831
3529.000000;3.680921
3528.000000;3.740856
3527.000000;3.776043
3526.000000;3.700656
3525.000000;3.511407
3524.000000;3.357173
3523.000000;3.329508
3522.000000;3.455595
3521.000000;3.778681
3520.000000;4.057974
3519.000000;3.815785
3518.000000;3.782031
3517.000000;3.771421
3516.000000;3.652766
3515.000000;3.525901
3514.000000;3.441234
3513.000000;3.384404
3512.000000;3.365066
3511.000000;3.393026
3510.000000;3.487992
3509.000000;3.638013
3508.000000;3.988932
3507.000000;3.735913
3506.000000;3.419082
3505.000000;3.318685
3504.000000;3.339269
3503.000000;3.492417
3502.000000;3.956586
3501.000000;4.109281
3500.000000;3.708568
3499.000000;3.566866
3498.000000;3.572037
3497.000000;3.761390
3496.000000;4.301936
3495.000000;4.109535
3494.000000;3.963489
3493.000000;3.914082
3492.000000;3.778136
3491.000000;3.665230
3490.000000;3.634501
3489.000000;3.617457
3488.000000;3.598856
3487.000000;3.663521
3486.000000;4.005236
3485.000000;3.920485
3484.000000;3.623481
3483.000000;3.625905
3482.000000;3.687994
3481.000000;3.664111
3480.000000;3.550784
3479.000000;3.526374
3478.000000;3.680798
3477.000000;3.973491
3476.000000;3.668728
3475.000000;3.491328
3474.000000;3.460207
3473.000000;3.465625
3472.000000;3.497682
3471.000000;3.552484
3470.000000;3.585203
3469.000000;3.545058
3468.000000;3.475348
3467.000000;3.435353
3466.000000;3.442886
3465.000000;3.502973
3464.000000;3.772173
3463.000000;4.214050
3462.000000;3.684074
3461.000000;3.510712
3460.000000;3.465790
3459.000000;3.521767
3458.000000;3.669759
3457.000000;4.002944
3456.000000;3.726765
3455.000000;3.447346
3454.000000;3.442802
3453.000000;3.581680
3452.000000;3.821693
3451.000000;4.072552
3450.000000;4.253868
3449.000000;4.168737
3448.000000;4.028191
3447.000000;3.995599
3446.000000;4.031323
3445.000000;4.060871
3444.000000;4.030752
3443.000000;4.029971
3442.000000;4.533962
3441.000000;3.946674
3440.000000;3.622831
3439.000000;3.544686
3438.000000;3.570362
3437.000000;3.575788
3436.000000;3.546883
3435.000000;3.593224
3434.000000;3.693498
3433.000000;3.736361
3432.000000;3.816978
3431.000000;4.106342
3430.000000;3.919322
3429.000000;3.572575
3428.000000;3.442328
3427.000000;3.415256
3426.000000;3.439797
3425.000000;3.492791
3424.000000;3.641537
3423.000000;3.876681
3422.000000;3.757074
3421.000000;3.731063
3420.000000;3.923060
3419.000000;3.930661
3418.000000;3.944556
3417.000000;3.820689
3416.000000;3.686049
3415.000000;3.694847
3414.000000;3.788738
3413.000000;3.803220
3412.000000;3.695007
3411.000000;3.574184
3410.000000;3.481565
3409.000000;3.440703
3408.000000;3.434352
3407.000000;3.472117
3406.000000;3.620325
3405.000000;3.761925
3404.000000;3.669029
3403.000000;3.563014
3402.000000;3.527058
3401.000000;3.590109
3400.000000;3.766262
3399.000000;3.818100
3398.000000;3.751185
3397.000000;3.607012
3396.000000;3.497668
3395.000000;3.524861
3394.000000;3.624288
3393.000000;3.538411
3392.000000;3.420246
3391.000000;3.422156
3390.000000;3.507645
3389.000000;3.575415
3388.000000;3.640932
3387.000000;3.900781
3386.000000;4.282351
3385.000000;3.562353
3384.000000;3.430136
3383.000000;3.497035
3382.000000;3.633258
3381.000000;3.523910
3380.000000;3.483223
3379.000000;3.718019
3378.000000;4.145270
3377.000000;3.827737
3376.000000;3.689611
3375.000000;3.717375
3374.000000;3.813255
3373.000000;3.973276
3372.000000;4.139228
3371.000000;4.470294
3370.000000;4.262829
3369.000000;3.817116
3368.000000;3.657917
3367.000000;3.680473
3366.000000;3.800037
3365.000000;3.938186
3364.000000;4.121134
3363.000000;4.162038
3362.000000;3.944712
3361.000000;3.932371
3360.000000;4.065061
3359.000000;3.912468
3358.000000;3.930625
3357.000000;3.861496
3356.000000;3.652482
3355.000000;3.614829
3354.000000;3.606925
3353.000000;3.578864
3352.000000;3.540800
3351.000000;3.497644
3350.000000;3.457036
3349.000000;3.421025
3348.000000;3.420784
3347.000000;3.507489
3346.000000;3.705984
3345.000000;3.742128
3344.000000;3.631895
3343.000000;3.636337
3342.000000;3.767748
3341.000000;4.035011
3340.000000;4.235377
3339.000000;4.138215
3338.000000;3.817038
3337.000000;3.578238
3336.000000;3.499496
3335.000000;3.586866
3334.000000;3.808492
3333.000000;3.671694
3332.000000;3.537174
3331.000000;3.611539
3330.000000;4.013388
3329.000000;4.061725
3328.000000;3.549195
3327.000000;3.387276
3326.000000;3.319062
3325.000000;3.371527
3324.000000;3.589781
3323.000000;3.751560
3322.000000;3.595740
3321.000000;3.568374
3320.000000;3.663039
3319.000000;3.647183
3318.000000;3.520933
3317.000000;3.508938
3316.000000;3.630481
3315.000000;3.808316
3314.000000;3.854472
3313.000000;3.751202
3312.000000;3.747264
3311.000000;3.783966
3310.000000;3.605060
3309.000000;3.496158
3308.000000;3.524178
3307.000000;3.666406
3306.000000;3.857775
3305.000000;3.923511
3304.000000;3.834827
3303.000000;3.784722
3302.000000;3.845560
3301.000000;4.034344
3300.000000;4.066221
3299.000000;3.748825
3298.000000;3.511390
3297.000000;3.367046
3296.000000;3.328694
3295.000000;3.408917
3294.000000;3.650458
3293.000000;4.094683
3292.000000;4.193824
3291.000000;3.951476
3290.000000;3.778917
3289.000000;3.772308
3288.000000;4.119970
3287.000000;4.091930
3286.000000;3.792276
3285.000000;3.716799
3284.000000;3.824266
3283.000000;4.025462
3282.000000;3.635671
3281.000000;3.494305
3280.000000;3.593181
3279.000000;4.002755
3278.000000;4.095354
3277.000000;3.832791
3276.000000;3.858403
3275.000000;3.916547
3274.000000;3.901224
3273.000000;3.883055
3272.000000;4.085182
3271.000000;4.154295
3270.000000;3.823481
3269.000000;3.633591
3268.000000;3.513139
3267.000000;3.460793
3266.000000;3.470137
3265.000000;3.528670
3264.000000;3.597024
3263.000000;3.640830
3262.000000;3.683867
3261.000000;3.815712
3260.000000;3.822144
3259.000000;3.701860
3258.000000;3.739612
3257.000000;3.936833
3256.000000;3.724978
3255.000000;3.559285
3254.000000;3.649380
3253.000000;4.245548
3252.000000;3.872923
3251.000000;3.715192
3250.000000;3.948835
3249.000000;4.540435
3248.000000;3.850685
3247.000000;3.544458
3246.000000;3.359788
3245.000000;3.306214
3244.000000;3.377041
3243.000000;3.572011
3242.000000;3.799587
3241.000000;4.102756
3240.000000;4.544328
3239.000000;4.281012
3238.000000;4.279491
3237.000000;3.960988
3236.000000;3.697131
3235.000000;3.579339
3234.000000;3.508190
3233.000000;3.462569
3232.000000;3.447068
3231.000000;3.505728
3230.000000;3.665511
3229.000000;3.924450
3228.000000;4.010890
3227.000000;3.881954
3226.000000;3.879298
3225.000000;3.942878
3224.000000;3.944906
3223.000000;3.917122
3222.000000;3.854208
3221.000000;3.763668
3220.000000;3.655183
3219.000000;3.626190
3218.000000;3.722002
3217.000000;3.805137
3216.000000;3.742762
3215.000000;3.641873
3214.000000;3.627983
3213.000000;3.729281
3212.000000;3.952777
3211.000000;4.102245
3210.000000;3.788569
3209.000000;3.612450
3208.000000;3.651777
3207.000000;4.035710
3206.000000;4.257102
3205.000000;3.799638
3204.000000;3.600927
3203.000000;3.503784
3202.000000;3.482562
3201.000000;3.504958
3200.000000;3.532735
3199.000000;3.585478
3198.000000;3.665198
3197.000000;3.694405
3196.000000;3.695583
3195.000000;3.780760
3194.000000;3.871452
3193.000000;4.030566
3192.000000;4.206047
3191.000000;3.762333
3190.000000;3.581045
3189.000000;3.590622
3188.000000;3.727791
3187.000000;4.015656
3186.000000;3.968529
3185.000000;3.704871
3184.000000;3.587553
3183.000000;3.542663
3182.000000;3.581148
3181.000000;3.741918
3180.000000;3.897922
3179.000000;3.753469
3178.000000;3.630809
3177.000000;3.584002
3176.000000;3.604080
3175.000000;3.730827
3174.000000;4.118066
3173.000000;4.319168
3172.000000;4.062961
3171.000000;4.150383
3170.000000;4.075603
3169.000000;3.856109
3168.000000;3.788624
3167.000000;3.818237
3166.000000;3.758551
3165.000000;3.658210
3164.000000;3.541408
3163.000000;3.478655
3162.000000;3.584190
3161.000000;3.878761
3160.000000;3.853130
3159.000000;3.629969
3158.000000;3.551651
3157.000000;3.534334
3156.000000;3.530634
3155.000000;3.494637
3154.000000;3.428719
3153.000000;3.322472
3152.000000;3.212969
3151.000000;3.145245
3150.000000;3.139748
3149.000000;3.216391
3148.000000;3.398216
3147.000000;3.558817
3146.000000;3.449936
3145.000000;3.394990
3144.000000;3.455183
3143.000000;3.626376
3142.000000;3.887597
3141.000000;4.098259
3140.000000;3.887673
3139.000000;3.668614
3138.000000;3.766611
3137.000000;4.157385
3136.000000;3.944587
3135.000000;3.757773
3134.000000;3.765779
3133.000000;3.686863
3132.000000;3.570493
3131.000000;3.508041
3130.000000;3.524805
3129.000000;3.568758
3128.000000;3.635653
3127.000000;3.795282
3126.000000;4.166239
3125.000000;4.245333
3124.000000;3.915182
3123.000000;3.699983
3122.000000;3.577534
3121.000000;3.491542
3120.000000;3.430035
3119.000000;3.427791
3118.000000;3.520518
3117.000000;3.751172
3116.000000;4.144136
3115.000000;4.163355
3114.000000;3.997324
3113.000000;4.105406
3112.000000;3.840530
3111.000000;3.535416
3110.000000;3.491293
3109.000000;3.761425
3108.000000;4.144086
3107.000000;3.749880
3106.000000;3.648665
3105.000000;3.794028
3104.000000;4.268094
3103.000000;3.759738
3102.000000;3.468120
3101.000000;3.420882
3100.000000;3.481457
3099.000000;3.790371
3098.000000;3.808689
3097.000000;3.511454
3096.000000;3.445572
3095.000000;3.516389
3094.000000;3.627029
3093.000000;3.720515
3092.000000;3.790899
3091.000000;3.758059
3090.000000;3.577867
3089.000000;3.474063
3088.000000;3.523289
3087.000000;3.654295
3086.000000;3.520824
3085.000000;3.337983
3084.000000;3.292779
3083.000000;3.360889
3082.000000;3.533619
3081.000000;3.807521
3080.000000;3.953032
3079.000000;4.428457
3078.000000;4.346973
3077.000000;3.747257
3076.000000;3.536524
3075.000000;3.445582
3074.000000;3.454009
3073.000000;3.499631
3072.000000;3.557307
3071.000000;3.659878
3070.000000;3.827077
3069.000000;4.020242
3068.000000;3.805556
3067.000000;3.618775
3066.000000;3.642857
3065.000000;3.809875
3064.000000;3.912901
3063.000000;4.066568
3062.000000;3.834326
3061.000000;3.580596
3060.000000;3.566106
3059.000000;3.685336
3058.000000;3.622280
3057.000000;3.454957
3056.000000;3.414795
3055.000000;3.493687
3054.000000;3.716208
3053.000000;4.313182
3052.000000;4.033687
3051.000000;3.746013
3050.000000;3.789540
3049.000000;4.413552
3048.000000;3.980733
3047.000000;3.620804
3046.000000;3.541689
3045.000000;3.532218
3044.000000;3.642983
3043.000000;3.961287
3042.000000;3.913721
3041.000000;3.678296
3040.000000;3.615379
3039.000000;3.682144
3038.000000;3.933188
3037.000000;3.981763
3036.000000;3.633606
3035.000000;3.556693
3034.000000;3.658677
3033.000000;3.924473
3032.000000;4.296733
3031.000000;4.682682
3030.000000;4.096497
3029.000000;3.739647
3028.000000;3.598573
3027.000000;3.542615
3026.000000;3.544174
3025.000000;3.610496
3024.000000;3.688842
3023.000000;3.696064
3022.000000;3.688125
3021.000000;3.653130
3020.000000;3.718090
3019.000000;3.994401
3018.000000;3.826521
3017.000000;3.760278
3016.000000;3.921720
3015.000000;3.884340
3014.000000;3.780239
3013.000000;3.769300
3012.000000;3.715321
3011.000000;3.658408
3010.000000;3.748680
3009.000000;4.057611
3008.000000;4.090859
3007.000000;3.902597
3006.000000;4.009927
3005.000000;3.884258
3004.000000;3.593334
3003.000000;3.518110
3002.000000;3.595058
3001.000000;3.945828
3000.000000;4.019953
2999.000000;3.751543
2998.000000;3.741576
2997.000000;4.168054
2996.000000;3.919271
2995.000000;3.556503
2994.000000;3.514128
2993.000000;3.467392
2992.000000;3.363415
2991.000000;3.319693
2990.000000;3.355727
2989.000000;3.380257
2988.000000;3.343808
2987.000000;3.317026
2986.000000;3.330183
2985.000000;3.364664
2984.000000;3.411223
2983.000000;3.487959
2982.000000;3.589717
2981.000000;3.543966
2980.000000;3.398694
2979.000000;3.351163
2978.000000;3.394097
2977.000000;3.470114
2976.000000;3.524439
2975.000000;3.579167
2974.000000;3.608851
2973.000000;3.504214
2972.000000;3.372965
2971.000000;3.345361
2970.000000;3.457459
2969.000000;3.819373
2968.000000;4.268095
2967.000000;4.075683
2966.000000;4.021491
2965.000000;3.902023
2964.000000;3.839495
2963.000000;3.959217
2962.000000;4.376559
2961.000000;4.353934
2960.000000;3.897531
2959.000000;3.803132
2958.000000;3.792576
2957.000000;3.674346
2956.000000;3.625744
2955.000000;3.604298
2954.000000;3.524077
2953.000000;3.517735
2952.000000;3.641212
2951.000000;3.971754
2950.000000;4.449076
2949.000000;4.074284
2948.000000;3.827462
2947.000000;3.700561
2946.000000;3.710157
2945.000000;3.825144
2944.000000;4.312775
2943.000000;4.355758
2942.000000;3.817794
2941.000000;3.687970
2940.000000;3.793703
2939.000000;3.933097
2938.000000;3.705053
2937.000000;3.560752
2936.000000;3.532280
2935.000000;3.555817
2934.000000;3.608310
2933.000000;3.693722
2932.000000;3.767664
2931.000000;3.813005
2930.000000;3.880602
2929.000000;3.709679
2928.000000;3.576950
2927.000000;3.569092
2926.000000;3.657708
2925.000000;3.885711
2924.000000;3.989584
2923.000000;3.780434
2922.000000;3.813225
2921.000000;3.950947
2920.000000;3.774722
2919.000000;3.596248
2918.000000;3.555212
2917.000000;3.589819
2916.000000;3.616122
2915.000000;3.548025
2914.000000;3.513509
2913.000000;3.569741
2912.000000;3.658594
2911.000000;3.652378
2910.000000;3.633298
2909.000000;3.730524
2908.000000;4.471661
2907.000000;3.707085
2906.000000;3.505644
2905.000000;3.513008
2904.000000;3.589238
2903.000000;3.710420
2902.000000;3.880504
2901.000000;3.734676
2900.000000;3.564266
2899.000000;3.505439
2898.000000;3.521314
2897.000000;3.604769
2896.000000;3.990942
2895.000000;4.063872
2894.000000;3.632629
2893.000000;3.633817
2892.000000;3.630529
2891.000000;3.530819
2890.000000;3.432743
2889.000000;3.427846
2888.000000;3.518627
2887.000000;3.807200
2886.000000;4.240799
2885.000000;3.796065
2884.000000;3.669320
2883.000000;3.796420
2882.000000;4.732467
2881.000000;3.898131
2880.000000;3.650081
2879.000000;3.614958
2878.000000;3.723155
2877.000000;3.865698
2876.000000;3.662347
2875.000000;3.575956
2874.000000;3.643905
2873.000000;3.722606
2872.000000;3.705800
2871.000000;3.655600
2870.000000;3.532128
2869.000000;3.431065
2868.000000;3.440823
2867.000000;3.615902
2866.000000;3.910585
2865.000000;3.840665
2864.000000;3.741925
2863.000000;3.849065
2862.000000;3.909883
2861.000000;3.821522
2860.000000;3.753993
2859.000000;3.749470
2858.000000;3.797609
2857.000000;3.946626
2856.000000;4.040021
2855.000000;3.855986
2854.000000;3.891215
2853.000000;4.084416
2852.000000;3.741192
2851.000000;3.563275
2850.000000;3.444721
2849.000000;3.385796
2848.000000;3.416303
2847.000000;3.496114
2846.000000;3.576322
2845.000000;3.724076
2844.000000;3.872993
2843.000000;3.869981
2842.000000;3.951070
2841.000000;4.128370
2840.000000;4.245041
2839.000000;3.853683
2838.000000;3.674040
2837.000000;3.756367
2836.000000;4.111765
2835.000000;4.319875
2834.000000;4.185385
2833.000000;4.652802
2832.000000;3.943600
2831.000000;3.584563
2830.000000;3.495278
2829.000000;3.577964
2828.000000;3.863014
2827.000000;3.874701
2826.000000;3.633055
2825.000000;3.526499
2824.000000;3.508941
2823.000000;3.491932
2822.000000;3.468700
2821.000000;3.525364
2820.000000;3.737649
2819.000000;4.041979
2818.000000;3.827357
2817.000000;3.629009
2816.000000;3.577250
2815.000000;3.712095
2814.000000;3.865677
2813.000000;3.712647
2812.000000;3.641786
2811.000000;3.677329
2810.000000;3.754920
2809.000000;3.942433
2808.000000;3.857612
2807.000000;3.608460
2806.000000;3.483777
2805.000000;3.414012
2804.000000;3.390979
2803.000000;3.453664
2802.000000;3.646505
2801.000000;3.938787
2800.000000;3.918317
2799.000000;3.848706
2798.000000;4.025286
2797.000000;4.236808
2796.000000;3.717419
2795.000000;3.572086
2794.000000;3.683460
2793.000000;4.061154
2792.000000;3.806439
2791.000000;3.818252
2790.000000;3.936252
2789.000000;3.664184
2788.000000;3.506456
2787.000000;3.434122
2786.000000;3.391955
2785.000000;3.329372
2784.000000;3.293377
2783.000000;3.363672
2782.000000;3.680872
2781.000000;4.212808
2780.000000;4.406659
2779.000000;4.046157
2778.000000;3.663418
2777.000000;3.521580
2776.000000;3.480267
2775.000000;3.529688
2774.000000;3.746042
2773.000000;4.180256
2772.000000;4.506894
2771.000000;4.241267
2770.000000;3.929882
2769.000000;3.676315
2768.000000;3.516190
2767.000000;3.505658
2766.000000;3.659364
2765.000000;3.753455
2764.000000;3.681080
2763.000000;3.714090
2762.000000;3.883771
2761.000000;4.236898
2760.000000;4.616146
2759.000000;4.501937
2758.000000;4.032246
2757.000000;3.795715
2756.000000;3.818069
2755.000000;3.877363
2754.000000;3.765322
2753.000000;3.672569
2752.000000;3.697291
2751.000000;3.822885
2750.000000;4.509407
2749.000000;4.189838
2748.000000;3.907961
2747.000000;3.825166
2746.000000;3.695390
2745.000000;3.651143
2744.000000;3.846268
2743.000000;5.054793
2742.000000;3.907284
2741.000000;3.911364
2740.000000;3.724712
2739.000000;3.473841
2738.000000;3.340455
2737.000000;3.313030
2736.000000;3.364752
2735.000000;3.449283
2734.000000;3.526930
2733.000000;3.633138
2732.000000;3.793719
2731.000000;3.812248
2730.000000;3.821526
2729.000000;4.047325
2728.000000;4.259653
2727.000000;4.252781
2726.000000;3.930817
2725.000000;3.652040
2724.000000;3.536012
2723.000000;3.506365
2722.000000;3.476079
2721.000000;3.502778
2720.000000;3.679394
2719.000000;4.429742
2718.000000;4.103398
2717.000000;3.989219
2716.000000;4.397727
2715.000000;4.214363
2714.000000;3.835602
2713.000000;3.697201
2712.000000;3.600052
2711.000000;3.547610
2710.000000;3.567037
2709.000000;3.636185
2708.000000;3.671333
2707.000000;3.676272
2706.000000;3.596788
2705.000000;3.521472
2704.000000;3.534419
2703.000000;3.908535
2702.000000;3.949444
2701.000000;3.500588
2700.000000;3.383237
2699.000000;3.406373
2698.000000;3.545055
2697.000000;3.730905
2696.000000;3.823518
2695.000000;3.738426
2694.000000;3.606581
2693.000000;3.476144
2692.000000;3.410051
2691.000000;3.425489
2690.000000;3.525721
2689.000000;3.771336
2688.000000;4.383567
2687.000000;3.809906
2686.000000;3.625811
2685.000000;3.577068
2684.000000;3.589413
2683.000000;3.591579
2682.000000;3.596938
2681.000000;3.678250
2680.000000;3.877232
2679.000000;4.004038
2678.000000;3.882565
2677.000000;3.891775
2676.000000;3.825045
2675.000000;3.568730
2674.000000;3.480035
2673.000000;3.577159
2672.000000;3.856637
2671.000000;4.095911
2670.000000;3.886502
2669.000000;3.750037
2668.000000;3.790820
2667.000000;3.984927
2666.000000;4.155958
2665.000000;4.072075
2664.000000;3.755038
2663.000000;3.544518
2662.000000;3.495643
2661.000000;3.667945
2660.000000;4.055499
2659.000000;3.642831
2658.000000;3.553093
2657.000000;3.623239
2656.000000;3.744272
2655.000000;3.742963
2654.000000;3.649914
2653.000000;3.599350
2652.000000;3.663906
2651.000000;3.872423
2650.000000;4.548432
2649.000000;4.598558
2648.000000;4.080349
2647.000000;3.955912
2646.000000;3.815614
2645.000000;3.790253
2644.000000;3.935447
2643.000000;4.746029
2642.000000;4.289511
2641.000000;4.094026
2640.000000;4.063374
2639.000000;3.966575
2638.000000;3.849411
2637.000000;3.739123
2636.000000;3.700472
2635.000000;3.823186
2634.000000;4.126223
2633.000000;3.865054
2632.000000;3.829527
2631.000000;4.022253
2630.000000;3.932061
2629.000000;3.715434
2628.000000;3.657066
2627.000000;3.725331
2626.000000;3.951009
2625.000000;3.972107
2624.000000;3.834779
2623.000000;3.871148
2622.000000;3.972214
2621.000000;3.977636
2620.000000;3.878591
2619.000000;3.809733
2618.000000;3.774575
2617.000000;3.710984
2616.000000;3.681907
2615.000000;3.760646
2614.000000;4.088409
2613.000000;4.203013
2612.000000;3.722860
2611.000000;3.571062
2610.000000;3.633925
2609.000000;3.913240
2608.000000;4.554239
2607.000000;4.469871
2606.000000;4.149982
2605.000000;4.078148
2604.000000;4.206073
2603.000000;4.639467
2602.000000;4.350489
2601.000000;4.363403
2600.000000;4.494195
2599.000000;3.911795
2598.000000;3.750854
2597.000000;3.766453
2596.000000;3.889805
2595.000000;3.824331
2594.000000;3.618670
2593.000000;3.535947
2592.000000;3.562819
2591.000000;3.625874
2590.000000;3.642197
2589.000000;3.611159
2588.000000;3.647047
2587.000000;3.761611
2586.000000;3.783301
2585.000000;3.861840
2584.000000;4.183395
2583.000000;4.475283
2582.000000;4.339831
2581.000000;3.797866
2580.000000;3.583300
2579.000000;3.556960
2578.000000;3.677301
2577.000000;3.832609
2576.000000;3.795301
2575.000000;3.613289
2574.000000;3.479845
2573.000000;3.450901
2572.000000;3.525708
2571.000000;3.737970
2570.000000;3.849404
2569.000000;3.618105
2568.000000;3.488721
2567.000000;3.524367
2566.000000;3.749773
2565.000000;3.854576
2564.000000;3.800179
2563.000000;3.871475
2562.000000;3.909440
2561.000000;3.815188
2560.000000;3.723210
2559.000000;3.641003
2558.000000;3.527805
2557.000000;3.439847
2556.000000;3.430875
2555.000000;3.498127
2554.000000;3.601477
2553.000000;3.732105
2552.000000;3.850631
2551.000000;3.705979
2550.000000;3.557558
2549.000000;3.498234
2548.000000;3.511844
2547.000000;3.631530
2546.000000;4.059902
2545.000000;4.242356
2544.000000;3.833052
2543.000000;3.985949
2542.000000;4.021789
2541.000000;3.803317
2540.000000;3.774964
2539.000000;3.904823
2538.000000;3.937483
2537.000000;4.156166
2536.000000;4.052987
2535.000000;3.785444
2534.000000;3.764202
2533.000000;3.823467
2532.000000;3.829109
2531.000000;3.791031
2530.000000;3.757716
2529.000000;3.800040
2528.000000;3.970713
2527.000000;4.320962
2526.000000;3.876161
2525.000000;3.642319
2524.000000;3.622314
2523.000000;3.888465
2522.000000;4.171618
2521.000000;3.685821
2520.000000;3.574502
2519.000000;3.520216
2518.000000;3.479199
2517.000000;3.451140
2516.000000;3.465652
2515.000000;3.487022
2514.000000;3.485123
2513.000000;3.457134
2512.000000;3.421975
2511.000000;3.433944
2510.000000;3.479029
2509.000000;3.472858
2508.000000;3.481132
2507.000000;3.530805
2506.000000;3.534394
2505.000000;3.530615
2504.000000;3.625488
2503.000000;3.895110
2502.000000;4.082743
2501.000000;3.920584
2500.000000;3.922414
2499.000000;4.133978
2498.000000;4.488930
2497.000000;4.267647
2496.000000;4.595820
2495.000000;4.416437
2494.000000;3.989706
2493.000000;3.829331
2492.000000;3.691407
2491.000000;3.600687
2490.000000;3.584570
2489.000000;3.702842
2488.000000;3.955952
2487.000000;3.862917
2486.000000;3.703401
2485.000000;3.693457
2484.000000;3.752449
2483.000000;3.818300
2482.000000;3.737234
2481.000000;3.678216
2480.000000;3.716996
2479.000000;3.708597
2478.000000;3.678761
2477.000000;3.762695
2476.000000;3.908999
2475.000000;3.886635
2474.000000;3.716481
2473.000000;3.502761
2472.000000;3.407604
2471.000000;3.483962
2470.000000;3.723196
2469.000000;3.875042
2468.000000;3.851798
2467.000000;3.807302
2466.000000;3.908132
2465.000000;4.372120
2464.000000;4.054701
2463.000000;3.718296
2462.000000;3.677906
2461.000000;3.885167
2460.000000;4.270040
2459.000000;4.114380
2458.000000;4.056054
2457.000000;4.700512
2456.000000;4.315572
2455.000000;3.872729
2454.000000;3.706506
2453.000000;3.654422
2452.000000;3.805689
2451.000000;3.747558
2450.000000;3.520511
2449.000000;3.468437
2448.000000;3.612667
2447.000000;4.033933
2446.000000;4.070867
2445.000000;3.942090
2444.000000;4.116961
2443.000000;4.507961
2442.000000;4.429208
2441.000000;3.835440
2440.000000;3.564417
2439.000000;3.451534
2438.000000;3.455723
2437.000000;3.609210
2436.000000;3.772064
2435.000000;3.616363
2434.000000;3.493102
2433.000000;3.451449
2432.000000;3.438505
2431.000000;3.486823
2430.000000;3.671445
2429.000000;3.855263
2428.000000;3.714798
2427.000000;3.612491
2426.000000;3.621807
2425.000000;3.708951
2424.000000;3.860013
2423.000000;4.166867
2422.000000;4.055470
2421.000000;3.835264
2420.000000;3.721453
2419.000000;3.656926
2418.000000;3.764366
2417.000000;3.937413
2416.000000;3.943701
2415.000000;4.058071
2414.000000;3.875096
2413.000000;3.739265
2412.000000;3.765403
2411.000000;3.958442
2410.000000;4.134187
2409.000000;4.074085
2408.000000;4.154852
2407.000000;4.151776
2406.000000;3.968765
2405.000000;3.831698
2404.000000;3.810145
2403.000000;4.220949
2402.000000;4.213282
2401.000000;3.725354
2400.000000;3.546042
2399.000000;3.550305
2398.000000;3.747396
2397.000000;4.299941
2396.000000;4.048224
2395.000000;3.859003
2394.000000;3.723142
2393.000000;3.607774
2392.000000;3.632873
2391.000000;3.798689
2390.000000;3.795628
2389.000000;3.679467
2388.000000;3.848756
2387.000000;4.142707
2386.000000;3.718535
2385.000000;3.622917
2384.000000;3.761362
2383.000000;4.212829
2382.000000;4.186207
2381.000000;3.943286
2380.000000;3.971463
2379.000000;4.012587
2378.000000;4.011451
2377.000000;3.747611
2376.000000;3.487055
2375.000000;3.345141
2374.000000;3.346098
2373.000000;3.527483
2372.000000;3.890744
2371.000000;3.870784
2370.000000;3.982519
2369.000000;4.395320
2368.000000;3.734350
2367.000000;3.530066
2366.000000;3.450724
2365.000000;3.420133
2364.000000;3.415699
2363.000000;3.461793
2362.000000;3.569654
2361.000000;3.681476
2360.000000;3.768953
2359.000000;3.891322
2358.000000;3.984009
2357.000000;3.912531
2356.000000;3.759770
2355.000000;3.619513
2354.000000;3.495699
2353.000000;3.423957
2352.000000;3.446919
2351.000000;3.512551
2350.000000;3.546149
2349.000000;3.625923
2348.000000;3.705176
2347.000000;3.586867
2346.000000;3.413582
2345.000000;3.305025
2344.000000;3.280109
2343.000000;3.363340
2342.000000;3.580921
2341.000000;3.968188
2340.000000;4.542621
2339.000000;3.784659
2338.000000;3.525478
2337.000000;3.413731
2336.000000;3.395613
2335.000000;3.385967
2334.000000;3.359885
2333.000000;3.361433
2332.000000;3.420895
2331.000000;3.491870
2330.000000;3.573814
2329.000000;3.653640
2328.000000;3.651744
2327.000000;3.643099
2326.000000;4.126643
2325.000000;4.118347
2324.000000;3.727557
2323.000000;3.741636
2322.000000;3.683373
2321.000000;3.602537
2320.000000;3.583650
2319.000000;3.605218
2318.000000;3.575476
2317.000000;3.534550
2316.000000;3.476695
2315.000000;3.433374
2314.000000;3.483162
2313.000000;3.596060
2312.000000;3.622961
2311.000000;3.645217
2310.000000;3.772259
2309.000000;3.962556
2308.000000;4.107799
2307.000000;4.160841
2306.000000;4.149276
2305.000000;4.009182
2304.000000;3.778123
2303.000000;3.573703
2302.000000;3.454267
2301.000000;3.435247
2300.000000;3.500302
2299.000000;3.631733
2298.000000;3.749449
2297.000000;3.804400
2296.000000;3.940616
2295.000000;3.900588
2294.000000;3.863737
2293.000000;4.021890
2292.000000;4.225949
2291.000000;3.992443
2290.000000;3.698987
2289.000000;3.552358
2288.000000;3.512085
2287.000000;3.571109
2286.000000;3.740604
2285.000000;3.833232
2284.000000;3.780448
2283.000000;3.734576
2282.000000;3.866753
2281.000000;4.392879
2280.000000;3.877692
2279.000000;3.697136
2278.000000;3.695830
2277.000000;3.607772
2276.000000;3.467588
2275.000000;3.390277
2274.000000;3.364461
2273.000000;3.394115
2272.000000;3.493907
2271.000000;3.644722
2270.000000;3.672442
2269.000000;3.582760
2268.000000;3.570642
2267.000000;3.701621
2266.000000;4.012437
2265.000000;4.262147
2264.000000;4.121729
2263.000000;3.941162
2262.000000;3.848880
2261.000000;3.777197
2260.000000;3.688448
2259.000000;3.631474
2258.000000;3.636592
2257.000000;3.675268
2256.000000;3.644793
2255.000000;3.631260
2254.000000;3.737899
2253.000000;3.811438
2252.000000;3.775713
2251.000000;3.937048
2250.000000;4.365810
2249.000000;4.023750
2248.000000;3.851841
2247.000000;3.787000
2246.000000;3.684161
2245.000000;3.714984
2244.000000;3.938545
2243.000000;4.632082
2242.000000;4.366941
2241.000000;4.122820
2240.000000;4.055242
2239.000000;3.983232
2238.000000;3.966780
2237.000000;3.916361
2236.000000;3.938419
2235.000000;3.995691
2234.000000;3.919950
2233.000000;3.779036
2232.000000;3.722310
2231.000000;3.786230
2230.000000;3.940283
2229.000000;3.983373
2228.000000;3.730613
2227.000000;3.557649
2226.000000;3.530075
2225.000000;3.575232
2224.000000;3.605018
2223.000000;3.570502
2222.000000;3.489469
2221.000000;3.433529
2220.000000;3.448239
2219.000000;3.541575
2218.000000;3.730032
2217.000000;3.827856
2216.000000;3.725242
2215.000000;3.740080
2214.000000;3.988722
2213.000000;4.317067
2212.000000;4.271736
2211.000000;4.401282
2210.000000;4.578299
2209.000000;4.001466
2208.000000;3.868865
2207.000000;3.998409
2206.000000;4.466376
2205.000000;3.781144
2204.000000;3.477854
2203.000000;3.353287
2202.000000;3.352997
2201.000000;3.435093
2200.000000;3.565636
2199.000000;3.841139
2198.000000;4.341466
2197.000000;3.912539
2196.000000;3.672160
2195.000000;3.591580
2194.000000;3.610536
2193.000000;3.768096
2192.000000;3.855498
2191.000000;3.691776
2190.000000;3.539749
2189.000000;3.423372
2188.000000;3.368872
2187.000000;3.397049
2186.000000;3.495660
2185.000000;3.630500
2184.000000;3.865826
2183.000000;4.521973
2182.000000;3.882442
2181.000000;3.744393
2180.000000;3.767990
2179.000000;3.797767
2178.000000;3.886980
2177.000000;3.896191
2176.000000;3.807823
2175.000000;3.928036
2174.000000;4.008375
2173.000000;3.689655
2172.000000;3.583308
2171.000000;3.516458
2170.000000;3.440211
2169.000000;3.393142
2168.000000;3.430154
2167.000000;3.594550
2166.000000;4.020540
2165.000000;3.984437
2164.000000;3.785857
2163.000000;4.054293
2162.000000;3.901544
2161.000000;3.588464
2160.000000;3.411469
2159.000000;3.306550
2158.000000;3.276919
2157.000000;3.316542
2156.000000;3.417247
2155.000000;3.588050
2154.000000;3.864652
2153.000000;4.285469
2152.000000;4.371810
2151.000000;4.102286
2150.000000;3.832431
2149.000000;3.648984
2148.000000;3.527481
2147.000000;3.460709
2146.000000;3.456475
2145.000000;3.639254
2144.000000;4.122392
2143.000000;3.755448
2142.000000;3.551866
2141.000000;3.599848
2140.000000;3.735829
2139.000000;3.784101
2138.000000;3.676458
2137.000000;3.620739
2136.000000;3.670848
2135.000000;3.817402
2134.000000;4.049411
2133.000000;4.203032
2132.000000;4.077388
2131.000000;4.062687
2130.000000;4.449587
2129.000000;4.462708
2128.000000;3.947831
2127.000000;3.804192
2126.000000;3.853319
2125.000000;3.751498
2124.000000;3.568470
2123.000000;3.477859
2122.000000;3.461504
2121.000000;3.493917
2120.000000;3.608484
2119.000000;3.844106
2118.000000;4.186435
2117.000000;4.360490
2116.000000;4.252956
2115.000000;4.026026
2114.000000;3.716818
2113.000000;3.583816
2112.000000;3.605147
2111.000000;3.913329
2110.000000;4.047803
2109.000000;3.716943
2108.000000;3.601355
2107.000000;3.603049
2106.000000;3.701729
2105.000000;3.819690
2104.000000;3.986734
2103.000000;4.012332
2102.000000;3.821025
2101.000000;3.809381
2100.000000;4.166816
2099.000000;4.105940
2098.000000;3.698669
2097.000000;3.519999
2096.000000;3.429564
2095.000000;3.392683
2094.000000;3.342395
2093.000000;3.264999
2092.000000;3.240611
2091.000000;3.316114
2090.000000;3.505043
2089.000000;3.650950
2088.000000;3.535826
2087.000000;3.427989
2086.000000;3.427732
2085.000000;3.505225
2084.000000;3.542276
2083.000000;3.493085
2082.000000;3.455119
2081.000000;3.516032
2080.000000;3.654047
2079.000000;3.571617
2078.000000;3.495567
2077.000000;3.588019
2076.000000;3.823891
2075.000000;4.146879
2074.000000;4.218983
2073.000000;3.913528
2072.000000;3.745372
2071.000000;3.798122
2070.000000;4.027560
2069.000000;3.939099
2068.000000;3.977267
2067.000000;4.158722
2066.000000;4.112166
2065.000000;4.001294
2064.000000;3.769592
2063.000000;3.659540
2062.000000;3.706978
2061.000000;3.940572
2060.000000;4.408321
2059.000000;4.354385
2058.000000;3.926348
2057.000000;3.862544
2056.000000;3.921788
2055.000000;3.768536
2054.000000;3.679448
2053.000000;4.181634
2052.000000;4.046108
2051.000000;3.604497
2050.000000;3.492698
2049.000000;3.532403
2048.000000;3.721974
2047.000000;3.862123
2046.000000;3.769022
2045.000000;3.643294
2044.000000;3.573763
2043.000000;3.585785
2042.000000;3.653632
2041.000000;3.687160
2040.000000;3.640431
2039.000000;3.617446
2038.000000;3.617883
2037.000000;3.600302
2036.000000;3.555736
2035.000000;3.518971
2034.000000;3.536814
2033.000000;3.565350
2032.000000;3.539024
2031.000000;3.487790
2030.000000;3.478767
2029.000000;3.511517
2028.000000;3.544768
2027.000000;3.572405
2026.000000;3.678159
2025.000000;4.011050
2024.000000;4.322981
2023.000000;4.190004
2022.000000;3.896066
2021.000000;3.567623
2020.000000;3.367351
2019.000000;3.300167
2018.000000;3.356708
2017.000000;3.534397
2016.000000;3.927357
2015.000000;4.188588
2014.000000;3.685340
2013.000000;3.621736
2012.000000;3.723068
2011.000000;3.913019
2010.000000;3.847346
2009.000000;3.773015
2008.000000;4.011644
2007.000000;4.445401
2006.000000;3.904428
2005.000000;3.700575
2004.000000;3.730170
2003.000000;3.887182
2002.000000;3.805838
2001.000000;3.703167
2000.000000;3.974123
1999.000000;4.217599
1998.000000;3.814816
1997.000000;3.703232
1996.000000;3.773901
1995.000000;3.960296
1994.000000;4.212259
1993.000000;4.325465
1992.000000;4.486358
1991.000000;4.414480
1990.000000;3.957689
1989.000000;3.802455
1988.000000;3.812812
1987.000000;3.805558
1986.000000;3.682631
1985.000000;3.697919
1984.000000;3.752831
1983.000000;3.584565
1982.000000;3.524185
1981.000000;3.609350
1980.000000;3.742066
1979.000000;3.823473
1978.000000;3.728587
1977.000000;3.547036
1976.000000;3.431246
1975.000000;3.372510
1974.000000;3.370933
1973.000000;3.443956
1972.000000;3.610358
1971.000000;3.974063
1970.000000;4.261277
1969.000000;3.854760
1968.000000;3.598973
1967.000000;3.490512
1966.000000;3.509408
1965.000000;3.611675
1964.000000;3.672508
1963.000000;3.633411
1962.000000;3.609558
1961.000000;3.678298
1960.000000;3.803211
1959.000000;3.806249
1958.000000;3.709923
1957.000000;3.643105
1956.000000;3.595090
1955.000000;3.538386
1954.000000;3.552330
1953.000000;3.665161
1952.000000;3.591871
1951.000000;3.393720
1950.000000;3.302571
1949.000000;3.297444
1948.000000;3.353215
1947.000000;3.418356
1946.000000;3.435147
1945.000000;3.390871
1944.000000;3.352776
1943.000000;3.372060
1942.000000;3.461727
1941.000000;3.638502
1940.000000;3.759524
1939.000000;3.564190
1938.000000;3.443247
1937.000000;3.466224
1936.000000;3.641051
1935.000000;4.073012
1934.000000;4.235457
1933.000000;3.666662
1932.000000;3.507786
1931.000000;3.497095
1930.000000;3.530234
1929.000000;3.499766
1928.000000;3.511410
1927.000000;3.569666
1926.000000;3.574500
1925.000000;3.511362
1924.000000;3.501869
1923.000000;3.581856
1922.000000;3.686128
1921.000000;3.721792
1920.000000;3.608778
1919.000000;3.519775
1918.000000;3.581039
1917.000000;3.800663
1916.000000;3.768372
1915.000000;3.705208
1914.000000;3.856835
1913.000000;4.263296
1912.000000;4.785290
1911.000000;4.182680
1910.000000;4.033458
1909.000000;4.051018
1908.000000;3.853263
1907.000000;3.676838
1906.000000;3.694350
1905.000000;3.746232
1904.000000;3.683676
1903.000000;3.725798
1902.000000;3.884510
1901.000000;3.973851
1900.000000;3.977426
1899.000000;4.051871
1898.000000;4.071026
1897.000000;4.051965
1896.000000;4.066620
1895.000000;3.888757
1894.000000;3.691574
1893.000000;3.646246
1892.000000;3.724462
1891.000000;4.176483
1890.000000;4.231830
1889.000000;3.879931
1888.000000;3.860953
1887.000000;3.957218
1886.000000;4.034658
1885.000000;4.030189
1884.000000;3.854034
1883.000000;3.648441
1882.000000;3.560863
1881.000000;3.587634
1880.000000;3.698020
1879.000000;3.868954
1878.000000;4.000468
1877.000000;3.912755
1876.000000;3.674035
1875.000000;3.435297
1874.000000;3.313310
1873.000000;3.314531
1872.000000;3.413606
1871.000000;3.561961
1870.000000;3.678353
1869.000000;3.689249
1868.000000;3.630197
1867.000000;3.548888
1866.000000;3.469526
1865.000000;3.436817
1864.000000;3.486233
1863.000000;3.649751
1862.000000;3.825746
1861.000000;3.752796
1860.000000;3.499196
1859.000000;3.310819
1858.000000;3.251800
1857.000000;3.305180
1856.000000;3.432934
1855.000000;3.525703
1854.000000;3.500025
1853.000000;3.463522
1852.000000;3.463325
1851.000000;3.532133
1850.000000;3.695141
1849.000000;3.853527
1848.000000;3.868155
1847.000000;3.846910
1846.000000;3.801149
1845.000000;3.673377
1844.000000;3.514724
1843.000000;3.438953
1842.000000;3.461450
1841.000000;3.495239
1840.000000;3.508626
1839.000000;3.503177
1838.000000;3.504004
1837.000000;3.578005
1836.000000;3.926586
1835.000000;4.103382
1834.000000;3.875692
1833.000000;4.097069
1832.000000;4.006473
1831.000000;3.643992
1830.000000;3.477792
1829.000000;3.427088
1828.000000;3.449871
1827.000000;3.479525
1826.000000;3.503890
1825.000000;3.609295
1824.000000;3.848986
1823.000000;3.741824
1822.000000;3.541009
1821.000000;3.554463
1820.000000;3.723102
1819.000000;3.984055
1818.000000;4.090017
1817.000000;3.906110
1816.000000;3.756887
1815.000000;3.822406
1814.000000;3.872708
1813.000000;3.792029
1812.000000;3.834369
1811.000000;3.819227
1810.000000;3.722849
1809.000000;3.721533
1808.000000;3.766698
1807.000000;3.739695
1806.000000;3.696675
1805.000000;3.796771
1804.000000;4.264657
1803.000000;4.529870
1802.000000;4.208150
1801.000000;4.008458
1800.000000;3.775475
1799.000000;3.673471
1798.000000;3.708602
1797.000000;3.803316
1796.000000;3.882910
1795.000000;3.996294
1794.000000;4.082262
1793.000000;4.397098
1792.000000;4.618615
1791.000000;4.160523
1790.000000;4.144285
1789.000000;4.376816
1788.000000;4.130681
1787.000000;3.715447
1786.000000;3.546968
1785.000000;3.472240
1784.000000;3.482231
1783.000000;3.578893
1782.000000;3.803063
1781.000000;4.076458
1780.000000;4.151241
1779.000000;4.525131
1778.000000;4.091309
1777.000000;3.844166
1776.000000;3.818717
1775.000000;3.827279
1774.000000;3.661492
1773.000000;3.562565
1772.000000;3.622604
1771.000000;3.797261
1770.000000;4.037248
1769.000000;4.454874
1768.000000;4.180001
1767.000000;3.938484
1766.000000;4.307982
1765.000000;4.077481
1764.000000;3.731195
1763.000000;3.713026
1762.000000;3.779285
1761.000000;3.944187
1760.000000;3.907485
1759.000000;3.814260
1758.000000;3.902267
1757.000000;4.078133
1756.000000;4.685731
1755.000000;4.458153
1754.000000;4.278011
1753.000000;4.543344
1752.000000;4.195802
1751.000000;4.008586
1750.000000;3.969265
1749.000000;3.857803
1748.000000;3.786577
1747.000000;3.881214
1746.000000;3.902028
1745.000000;3.665165
1744.000000;3.594884
1743.000000;3.649073
1742.000000;3.742928
1741.000000;3.695516
1740.000000;3.557098
1739.000000;3.473398
1738.000000;3.497870
1737.000000;3.653695
1736.000000;3.994851
1735.000000;4.573549
1734.000000;4.463814
1733.000000;3.896598
1732.000000;3.692184
1731.000000;3.784630
1730.000000;4.228325
1729.000000;3.964344
1728.000000;3.713862
1727.000000;3.667271
1726.000000;3.661289
1725.000000;3.748505
1724.000000;3.984779
1723.000000;4.006462
1722.000000;3.999190
1721.000000;4.416036
1720.000000;4.274997
1719.000000;3.866489
1718.000000;3.791928
1717.000000;4.002542
1716.000000;4.009813
1715.000000;3.861263
1714.000000;3.839770
1713.000000;3.746748
1712.000000;3.685186
1711.000000;3.747682
1710.000000;4.258696
1709.000000;4.284512
1708.000000;3.909032
1707.000000;3.952636
1706.000000;3.996132
1705.000000;4.104764
1704.000000;4.209579
1703.000000;4.323235
1702.000000;4.180772
1701.000000;3.963046
1700.000000;3.842453
1699.000000;3.828002
1698.000000;3.741858
1697.000000;3.514979
1696.000000;3.346383
1695.000000;3.293015
1694.000000;3.324134
1693.000000;3.446711
1692.000000;3.755386
1691.000000;4.520298
1690.000000;3.826598
1689.000000;3.674092
1688.000000;3.621364
1687.000000;3.647010
1686.000000;3.725556
1685.000000;3.702144
1684.000000;3.591453
1683.000000;3.532190
1682.000000;3.437460
1681.000000;3.367671
1680.000000;3.403437
1679.000000;3.600180
1678.000000;4.039685
1677.000000;4.165167
1676.000000;3.945739
1675.000000;3.878592
1674.000000;3.941856
1673.000000;4.121976
1672.000000;4.326849
1671.000000;4.844987
1670.000000;4.402204
1669.000000;3.969812
1668.000000;3.774735
1667.000000;3.720463
1666.000000;3.887609
1665.000000;4.116411
1664.000000;3.564674
1663.000000;3.381135
1662.000000;3.360208
1661.000000;3.505802
1660.000000;3.700610
1659.000000;3.729556
1658.000000;3.825501
1657.000000;4.008645
1656.000000;3.909167
1655.000000;3.739556
1654.000000;3.770674
1653.000000;3.679487
1652.000000;3.205840
1651.000000;3.110740
1650.000000;3.321927
1649.000000;3.565398
1648.000000;3.647510
1647.000000;3.547938
1646.000000;3.438122
1645.000000;3.463255
1644.000000;3.706244
1643.000000;4.004569
1642.000000;4.247745
1641.000000;4.126172
1640.000000;4.072269
1639.000000;4.361068
1638.000000;4.823834
1637.000000;3.885970
1636.000000;3.572567
1635.000000;3.408630
1634.000000;3.338990
1633.000000;3.312126
1632.000000;3.356927
1631.000000;3.490235
1630.000000;3.805644
1629.000000;4.102205
1628.000000;3.942182
1627.000000;3.981402
1626.000000;4.600392
1625.000000;4.319730
1624.000000;3.857807
1623.000000;3.694147
1622.000000;3.598991
1621.000000;3.549270
1620.000000;3.510151
1619.000000;3.465060
1618.000000;3.424686
1617.000000;3.607578
1616.000000;3.908873
1615.000000;3.498776
1614.000000;3.619243
1613.000000;4.013530
1612.000000;4.011581
1611.000000;3.844668
1610.000000;3.855256
1609.000000;3.950346
1608.000000;4.087121
1607.000000;3.998261
1606.000000;3.750737
1605.000000;3.608288
1604.000000;3.580659
1603.000000;3.644293
1602.000000;3.848154
1601.000000;3.916334
1600.000000;3.740908
1599.000000;3.781361
1598.000000;3.960694
1597.000000;3.842099
1596.000000;3.737409
1595.000000;3.715818
1594.000000;3.599316
1593.000000;3.454870
1592.000000;3.368842
1591.000000;3.392759
1590.000000;3.587366
1589.000000;3.744396
1588.000000;3.464709
1587.000000;3.353766
1586.000000;3.386511
1585.000000;3.533274
1584.000000;3.824739
1583.000000;3.893343
1582.000000;3.638304
1581.000000;3.597209
1580.000000;3.658464
1579.000000;3.695186
1578.000000;3.624583
1577.000000;3.559260
1576.000000;3.648463
1575.000000;3.716775
1574.000000;3.572644
1573.000000;3.517420
1572.000000;3.536251
1571.000000;3.570701
1570.000000;3.598719
1569.000000;3.677182
1568.000000;4.106623
1567.000000;4.098823
1566.000000;3.835115
1565.000000;3.756554
1564.000000;3.682887
1563.000000;3.596236
1562.000000;3.465585
1561.000000;3.346750
1560.000000;3.314047
1559.000000;3.308029
1558.000000;3.324496
1557.000000;3.402059
1556.000000;3.658171
1555.000000;4.017495
1554.000000;3.872790
1553.000000;3.862708
1552.000000;3.865793
1551.000000;3.866494
1550.000000;3.880694
1549.000000;3.953917
1548.000000;4.065558
1547.000000;4.475833
1546.000000;4.066812
1545.000000;3.653596
1544.000000;3.506444
1543.000000;3.462122
1542.000000;3.505182
1541.000000;3.611511
1540.000000;3.755337
1539.000000;3.844840
1538.000000;4.075741
1537.000000;3.988230
1536.000000;3.913804
1535.000000;3.836403
1534.000000;3.765298
1533.000000;3.813813
1532.000000;4.022742
1531.000000;3.705422
1530.000000;3.540234
1529.000000;3.550822
1528.000000;3.644311
1527.000000;3.764297
1526.000000;3.990039
1525.000000;4.472803
1524.000000;4.620929
1523.000000;4.260326
1522.000000;4.215372
1521.000000;4.262774
1520.000000;4.051362
1519.000000;3.908600
1518.000000;3.848927
1517.000000;3.777882
1516.000000;3.798981
1515.000000;3.945163
1514.000000;3.970123
1513.000000;3.937820
1512.000000;3.762964
1511.000000;3.567329
1510.000000;3.477618
1509.000000;3.458093
1508.000000;3.481625
1507.000000;3.562439
1506.000000;3.792922
1505.000000;4.006709
1504.000000;3.646043
1503.000000;3.593417
1502.000000;3.637588
1501.000000;3.642097
1500.000000;3.620730
1499.000000;3.690534
1498.000000;3.847929
1497.000000;3.751966
1496.000000;3.554169
1495.000000;3.561947
1494.000000;3.778802
1493.000000;3.826114
1492.000000;3.662989
1491.000000;3.670915
1490.000000;3.852751
1489.000000;4.242289
1488.000000;4.684647
1487.000000;4.579341
1486.000000;4.086923
1485.000000;3.712633
1484.000000;3.524788
1483.000000;3.452919
1482.000000;3.466615
1481.000000;3.604908
1480.000000;4.035037
1479.000000;4.052442
1478.000000;3.925828
1477.000000;3.926083
1476.000000;3.791495
1475.000000;3.684532
1474.000000;3.657285
1473.000000;3.635989
1472.000000;3.548153
1471.000000;3.483182
1470.000000;3.510531
1469.000000;3.739608
1468.000000;4.245762
1467.000000;4.069137
1466.000000;3.927817
1465.000000;3.787115
1464.000000;3.590553
1463.000000;3.537656
1462.000000;3.591189
1461.000000;3.725695
1460.000000;3.841171
1459.000000;3.868818
1458.000000;3.861228
1457.000000;3.825260
1456.000000;3.923149
1455.000000;3.900826
1454.000000;3.791283
1453.000000;3.758478
1452.000000;3.695781
1451.000000;3.736169
1450.000000;3.976783
1449.000000;4.086617
1448.000000;3.869780
1447.000000;3.752716
1446.000000;3.739206
1445.000000;3.859368
1444.000000;4.244563
1443.000000;4.812185
1442.000000;4.515135
1441.000000;4.000218
1440.000000;3.593085
1439.000000;3.483841
1438.000000;3.550277
1437.000000;3.683361
1436.000000;3.708739
1435.000000;3.686327
1434.000000;3.694730
1433.000000;3.680559
1432.000000;3.611392
1431.000000;3.543370
1430.000000;3.526631
1429.000000;3.552383
1428.000000;3.584067
1427.000000;3.575791
1426.000000;3.527593
1425.000000;3.506348
1424.000000;3.581962
1423.000000;3.762088
1422.000000;3.695672
1421.000000;3.562232
1420.000000;3.577280
1419.000000;3.674407
1418.000000;3.770413
1417.000000;3.816060
1416.000000;3.900914
1415.000000;4.052671
1414.000000;4.123150
1413.000000;3.801747
1412.000000;3.510498
1411.000000;3.396437
1410.000000;3.414750
1409.000000;3.543291
1408.000000;3.660628
1407.000000;3.653976
1406.000000;3.731392
1405.000000;4.000352
1404.000000;4.288850
1403.000000;4.081952
1402.000000;3.940823
1401.000000;3.986872
1400.000000;4.306799
1399.000000;4.725161
1398.000000;4.372577
1397.000000;4.533411
1396.000000;3.973772
1395.000000;3.712635
1394.000000;3.646520
1393.000000;3.623375
1392.000000;3.427365
1391.000000;3.339759
1390.000000;3.423725
1389.000000;3.600598
1388.000000;3.712363
1387.000000;3.749312
1386.000000;3.786840
1385.000000;3.910322
1384.000000;4.334207
1383.000000;3.936754
1382.000000;3.617255
1381.000000;3.585540
1380.000000;3.658764
1379.000000;3.625732
1378.000000;3.601374
1377.000000;3.677017
1376.000000;3.677969
1375.000000;3.648314
1374.000000;3.681462
1373.000000;3.806351
1372.000000;4.011939
1371.000000;4.166358
1370.000000;4.301247
1369.000000;4.376151
1368.000000;4.207221
1367.000000;4.130577
1366.000000;4.353770
1365.000000;4.419182
1364.000000;4.129828
1363.000000;3.869433
1362.000000;3.626701
1361.000000;3.552008
1360.000000;3.709661
1359.000000;3.977808
1358.000000;3.665221
1357.000000;3.450716
1356.000000;3.438680
1355.000000;3.462781
1354.000000;3.406787
1353.000000;3.406791
1352.000000;3.663045
1351.000000;4.071097
1350.000000;3.645851
1349.000000;3.508806
1348.000000;3.555398
1347.000000;3.643247
1346.000000;3.721513
1345.000000;3.930524
1344.000000;4.053537
1343.000000;3.717053
1342.000000;3.504470
1341.000000;3.385804
1340.000000;3.397241
1339.000000;3.527741
1338.000000;3.872143
1337.000000;4.350321
1336.000000;3.801756
1335.000000;3.661072
1334.000000;3.743140
1333.000000;3.835344
1332.000000;3.711712
1331.000000;3.602541
1330.000000;3.532607
1329.000000;3.525106
1328.000000;3.507344
1327.000000;3.376358
1326.000000;3.256191
1325.000000;3.231249
1324.000000;3.270549
1323.000000;3.324143
1322.000000;3.433529
1321.000000;3.660564
1320.000000;3.977968
1319.000000;4.247882
1318.000000;4.461687
1317.000000;4.398663
1316.000000;4.196742
1315.000000;3.711747
1314.000000;3.426067
1313.000000;3.340163
1312.000000;3.425320
1311.000000;3.675386
1310.000000;4.074795
1309.000000;3.952344
1308.000000;3.691621
1307.000000;3.649924
1306.000000;3.646763
1305.000000;3.633331
1304.000000;3.612274
1303.000000;3.893688
1302.000000;4.051760
1301.000000;3.578002
1300.000000;3.431667
1299.000000;3.453766
1298.000000;3.532784
1297.000000;3.576969
1296.000000;3.534469
1295.000000;3.463266
1294.000000;3.424264
1293.000000;3.454429
1292.000000;3.583131
1291.000000;3.724439
1290.000000;3.760684
1289.000000;3.848233
1288.000000;4.133340
1287.000000;4.374027
1286.000000;3.813644
1285.000000;3.587257
1284.000000;3.458380
1283.000000;3.491912
1282.000000;3.747570
1281.000000;3.726486
1280.000000;3.486612
1279.000000;3.774643
1278.000000;3.913427
1277.000000;3.371862
1276.000000;3.164740
1275.000000;3.100192
1274.000000;3.151092
1273.000000;3.292087
1272.000000;3.438418
1271.000000;3.504805
1270.000000;3.607756
1269.000000;3.689386
1268.000000;3.568751
1267.000000;3.467192
1266.000000;3.463418
1265.000000;3.585478
1264.000000;3.707071
1263.000000;3.568576
1262.000000;3.537233
1261.000000;3.634614
1260.000000;3.797514
1259.000000;3.938099
1258.000000;3.936482
1257.000000;3.852344
1256.000000;3.775219
1255.000000;3.575706
1254.000000;3.337380
1253.000000;3.211370
1252.000000;3.194217
1251.000000;3.284388
1250.000000;3.440626
1249.000000;3.892540
1248.000000;3.910976
1247.000000;3.408158
1246.000000;3.200705
1245.000000;3.117849
1244.000000;3.141571
1243.000000;3.262769
1242.000000;3.433955
1241.000000;3.511820
1240.000000;3.499644
1239.000000;3.419720
1238.000000;3.406054
1237.000000;3.527645
1236.000000;3.579381
1235.000000;3.378471
1234.000000;3.266661
1233.000000;3.247088
1232.000000;3.291311
1231.000000;3.382987
1230.000000;3.504990
1229.000000;3.670711
1228.000000;3.930034
1227.000000;3.878938
1226.000000;3.577624
1225.000000;3.363367
1224.000000;3.158152
1223.000000;3.006211
1222.000000;2.954710
1221.000000;2.993910
1220.000000;3.076166
1219.000000;3.161163
1218.000000;3.277312
1217.000000;3.516246
1216.000000;3.800891
1215.000000;3.627192
1214.000000;3.498607
1213.000000;3.419760
1212.000000;3.359508
1211.000000;3.334618
1210.000000;3.319688
1209.000000;3.254537
1208.000000;3.199679
1207.000000;3.267684
1206.000000;3.556237
1205.000000;3.714659
1204.000000;3.445858
1203.000000;3.446812
1202.000000;3.524522
1201.000000;3.457744
1200.000000;3.241627
