Criado como novo conjunto de dados;"e2410_daniel_v2.spp","97926.9 Secs"
cm-1;Abs
10000.000000;0.114296
9999.000000;0.114734
9998.000000;0.115174
9997.000000;0.115613
9996.000000;0.116058
9995.000000;0.116515
9994.000000;0.117042
9993.000000;0.117747
9992.000000;0.118634
9991.000000;0.119556
9990.000000;0.120343
9989.000000;0.120948
9988.000000;0.121459
9987.000000;0.121982
9986.000000;0.122564
9985.000000;0.123194
9984.000000;0.123868
9983.000000;0.124614
9982.000000;0.125459
9981.000000;0.126356
9980.000000;0.127175
9979.000000;0.127800
9978.000000;0.128255
9977.000000;0.128694
9976.000000;0.129246
9975.000000;0.129891
9974.000000;0.130514
9973.000000;0.131042
9972.000000;0.131514
9971.000000;0.132026
9970.000000;0.132631
9969.000000;0.133293
9968.000000;0.133908
9967.000000;0.134404
9966.000000;0.134842
9965.000000;0.135387
9964.000000;0.136138
9963.000000;0.137004
9962.000000;0.137818
9961.000000;0.138524
9960.000000;0.139178
9959.000000;0.139782
9958.000000;0.140251
9957.000000;0.140603
9956.000000;0.141026
9955.000000;0.141689
9954.000000;0.142556
9953.000000;0.143482
9952.000000;0.144398
9951.000000;0.145278
9950.000000;0.146014
9949.000000;0.146490
9948.000000;0.146757
9947.000000;0.147017
9946.000000;0.147418
9945.000000;0.147980
9944.000000;0.148699
9943.000000;0.149544
9942.000000;0.150349
9941.000000;0.150908
9940.000000;0.151252
9939.000000;0.151697
9938.000000;0.152497
9937.000000;0.153564
9936.000000;0.154627
9935.000000;0.155548
9934.000000;0.156364
9933.000000;0.157127
9932.000000;0.157872
9931.000000;0.158674
9930.000000;0.159548
9929.000000;0.160343
9928.000000;0.160896
9927.000000;0.161289
9926.000000;0.161779
9925.000000;0.162459
9924.000000;0.163161
9923.000000;0.163751
9922.000000;0.164360
9921.000000;0.165212
9920.000000;0.166316
9919.000000;0.167460
9918.000000;0.168450
9917.000000;0.169255
9916.000000;0.169948
9915.000000;0.170606
9914.000000;0.171274
9913.000000;0.171948
9912.000000;0.172571
9911.000000;0.173074
9910.000000;0.173443
9909.000000;0.173745
9908.000000;0.174117
9907.000000;0.174705
9906.000000;0.175559
9905.000000;0.176555
9904.000000;0.177482
9903.000000;0.178249
9902.000000;0.178958
9901.000000;0.179737
9900.000000;0.180549
9899.000000;0.181259
9898.000000;0.181828
9897.000000;0.182361
9896.000000;0.182973
9895.000000;0.183679
9894.000000;0.184427
9893.000000;0.185171
9892.000000;0.185886
9891.000000;0.186580
9890.000000;0.187295
9889.000000;0.188053
9888.000000;0.188799
9887.000000;0.189458
9886.000000;0.190065
9885.000000;0.190729
9884.000000;0.191445
9883.000000;0.192046
9882.000000;0.192451
9881.000000;0.192862
9880.000000;0.193577
9879.000000;0.194610
9878.000000;0.195645
9877.000000;0.196413
9876.000000;0.196979
9875.000000;0.197593
9874.000000;0.198361
9873.000000;0.199195
9872.000000;0.200030
9871.000000;0.200908
9870.000000;0.201846
9869.000000;0.202744
9868.000000;0.203530
9867.000000;0.204284
9866.000000;0.205148
9865.000000;0.206148
9864.000000;0.207177
9863.000000;0.208114
9862.000000;0.208883
9861.000000;0.209417
9860.000000;0.209704
9859.000000;0.209878
9858.000000;0.210199
9857.000000;0.210853
9856.000000;0.211821
9855.000000;0.212946
9854.000000;0.214066
9853.000000;0.215071
9852.000000;0.215896
9851.000000;0.216571
9850.000000;0.217238
9849.000000;0.218034
9848.000000;0.218943
9847.000000;0.219825
9846.000000;0.220575
9845.000000;0.221209
9844.000000;0.221783
9843.000000;0.222324
9842.000000;0.222868
9841.000000;0.223506
9840.000000;0.224316
9839.000000;0.225298
9838.000000;0.226403
9837.000000;0.227565
9836.000000;0.228659
9835.000000;0.229492
9834.000000;0.229962
9833.000000;0.230223
9832.000000;0.230622
9831.000000;0.231409
9830.000000;0.232544
9829.000000;0.233749
9828.000000;0.234731
9827.000000;0.235367
9826.000000;0.235777
9825.000000;0.236253
9824.000000;0.237040
9823.000000;0.238137
9822.000000;0.239346
9821.000000;0.240488
9820.000000;0.241493
9819.000000;0.242277
9818.000000;0.242694
9817.000000;0.242742
9816.000000;0.242747
9815.000000;0.243158
9814.000000;0.244120
9813.000000;0.245353
9812.000000;0.246486
9811.000000;0.247440
9810.000000;0.248423
9809.000000;0.249620
9808.000000;0.250983
9807.000000;0.252312
9806.000000;0.253453
9805.000000;0.254378
9804.000000;0.255116
9803.000000;0.255694
9802.000000;0.256192
9801.000000;0.256783
9800.000000;0.257627
9799.000000;0.258683
9798.000000;0.259720
9797.000000;0.260559
9796.000000;0.261272
9795.000000;0.262040
9794.000000;0.262879
9793.000000;0.263612
9792.000000;0.264100
9791.000000;0.264432
9790.000000;0.264819
9789.000000;0.265410
9788.000000;0.266260
9787.000000;0.267392
9786.000000;0.268789
9785.000000;0.270318
9784.000000;0.271736
9783.000000;0.272828
9782.000000;0.273530
9781.000000;0.273974
9780.000000;0.274433
9779.000000;0.275176
9778.000000;0.276256
9777.000000;0.277418
9776.000000;0.278303
9775.000000;0.278805
9774.000000;0.279180
9773.000000;0.279734
9772.000000;0.280485
9771.000000;0.281228
9770.000000;0.281897
9769.000000;0.282679
9768.000000;0.283733
9767.000000;0.284967
9766.000000;0.286189
9765.000000;0.287354
9764.000000;0.288510
9763.000000;0.289583
9762.000000;0.290434
9761.000000;0.291092
9760.000000;0.291763
9759.000000;0.292548
9758.000000;0.293351
9757.000000;0.294090
9756.000000;0.294839
9755.000000;0.295656
9754.000000;0.296463
9753.000000;0.297243
9752.000000;0.298185
9751.000000;0.299440
9750.000000;0.300825
9749.000000;0.301976
9748.000000;0.302782
9747.000000;0.303471
9746.000000;0.304277
9745.000000;0.305198
9744.000000;0.306122
9743.000000;0.307004
9742.000000;0.307866
9741.000000;0.308735
9740.000000;0.309645
9739.000000;0.310619
9738.000000;0.311592
9737.000000;0.312450
9736.000000;0.313160
9735.000000;0.313792
9734.000000;0.314410
9733.000000;0.315060
9732.000000;0.315880
9731.000000;0.317047
9730.000000;0.318521
9729.000000;0.319950
9728.000000;0.320978
9727.000000;0.321571
9726.000000;0.321967
9725.000000;0.322393
9724.000000;0.322963
9723.000000;0.323769
9722.000000;0.324882
9721.000000;0.326229
9720.000000;0.327577
9719.000000;0.328707
9718.000000;0.329562
9717.000000;0.330216
9716.000000;0.330793
9715.000000;0.331440
9714.000000;0.332287
9713.000000;0.333331
9712.000000;0.334369
9711.000000;0.335136
9710.000000;0.335558
9709.000000;0.335853
9708.000000;0.336353
9707.000000;0.337216
9706.000000;0.338349
9705.000000;0.339545
9704.000000;0.340650
9703.000000;0.341560
9702.000000;0.342208
9701.000000;0.342666
9700.000000;0.343226
9699.000000;0.344238
9698.000000;0.345766
9697.000000;0.347455
9696.000000;0.348812
9695.000000;0.349628
9694.000000;0.350120
9693.000000;0.350685
9692.000000;0.351538
9691.000000;0.352591
9690.000000;0.353633
9689.000000;0.354556
9688.000000;0.355408
9687.000000;0.356267
9686.000000;0.357179
9685.000000;0.358209
9684.000000;0.359411
9683.000000;0.360702
9682.000000;0.361857
9681.000000;0.362738
9680.000000;0.363449
9679.000000;0.364166
9678.000000;0.364921
9677.000000;0.365676
9676.000000;0.366503
9675.000000;0.367445
9674.000000;0.368274
9673.000000;0.368668
9672.000000;0.368721
9671.000000;0.369004
9670.000000;0.369980
9669.000000;0.371507
9668.000000;0.373061
9667.000000;0.374313
9666.000000;0.375303
9665.000000;0.376180
9664.000000;0.376995
9663.000000;0.377774
9662.000000;0.378601
9661.000000;0.379542
9660.000000;0.380569
9659.000000;0.381609
9658.000000;0.382631
9657.000000;0.383649
9656.000000;0.384657
9655.000000;0.385547
9654.000000;0.386134
9653.000000;0.386329
9652.000000;0.386344
9651.000000;0.386617
9650.000000;0.387442
9649.000000;0.388697
9648.000000;0.390026
9647.000000;0.391245
9646.000000;0.392485
9645.000000;0.393923
9644.000000;0.395471
9643.000000;0.396758
9642.000000;0.397418
9641.000000;0.397419
9640.000000;0.397148
9639.000000;0.397164
9638.000000;0.397784
9637.000000;0.398886
9636.000000;0.400122
9635.000000;0.401305
9634.000000;0.402533
9633.000000;0.403926
9632.000000;0.405335
9631.000000;0.406415
9630.000000;0.406986
9629.000000;0.407268
9628.000000;0.407683
9627.000000;0.408412
9626.000000;0.409219
9625.000000;0.409765
9624.000000;0.410054
9623.000000;0.410459
9622.000000;0.411326
9621.000000;0.412619
9620.000000;0.413958
9619.000000;0.414928
9618.000000;0.415373
9617.000000;0.415503
9616.000000;0.415783
9615.000000;0.416603
9614.000000;0.417936
9613.000000;0.419367
9612.000000;0.420497
9611.000000;0.421260
9610.000000;0.421803
9609.000000;0.422214
9608.000000;0.422534
9607.000000;0.422937
9606.000000;0.423705
9605.000000;0.424959
9604.000000;0.426508
9603.000000;0.428007
9602.000000;0.429198
9601.000000;0.429988
9600.000000;0.430431
9599.000000;0.430705
9598.000000;0.431072
9597.000000;0.431747
9596.000000;0.432740
9595.000000;0.433830
9594.000000;0.434738
9593.000000;0.435394
9592.000000;0.436058
9591.000000;0.437076
9590.000000;0.438475
9589.000000;0.439858
9588.000000;0.440793
9587.000000;0.441271
9586.000000;0.441669
9585.000000;0.442276
9584.000000;0.442993
9583.000000;0.443540
9582.000000;0.443834
9581.000000;0.444086
9580.000000;0.444583
9579.000000;0.445427
9578.000000;0.446474
9577.000000;0.447455
9576.000000;0.448170
9575.000000;0.448615
9574.000000;0.448947
9573.000000;0.449348
9572.000000;0.449944
9571.000000;0.450794
9570.000000;0.451850
9569.000000;0.452891
9568.000000;0.453641
9567.000000;0.454057
9566.000000;0.454438
9565.000000;0.455119
9564.000000;0.456089
9563.000000;0.457044
9562.000000;0.457805
9561.000000;0.458500
9560.000000;0.459246
9559.000000;0.459883
9558.000000;0.460222
9557.000000;0.460449
9556.000000;0.461016
9555.000000;0.462094
9554.000000;0.463327
9553.000000;0.464200
9552.000000;0.464543
9551.000000;0.464620
9550.000000;0.464870
9549.000000;0.465632
9548.000000;0.466948
9547.000000;0.468451
9546.000000;0.469567
9545.000000;0.469998
9544.000000;0.470002
9543.000000;0.470054
9542.000000;0.470337
9541.000000;0.470693
9540.000000;0.471005
9539.000000;0.471378
9538.000000;0.471924
9537.000000;0.472552
9536.000000;0.473097
9535.000000;0.473539
9534.000000;0.474012
9533.000000;0.474642
9532.000000;0.475428
9531.000000;0.476243
9530.000000;0.476947
9529.000000;0.477506
9528.000000;0.477996
9527.000000;0.478462
9526.000000;0.478824
9525.000000;0.479034
9524.000000;0.479237
9523.000000;0.479676
9522.000000;0.480426
9521.000000;0.481336
9520.000000;0.482207
9519.000000;0.482893
9518.000000;0.483262
9517.000000;0.483234
9516.000000;0.482959
9515.000000;0.482801
9514.000000;0.483061
9513.000000;0.483747
9512.000000;0.484597
9511.000000;0.485288
9510.000000;0.485614
9509.000000;0.485608
9508.000000;0.485518
9507.000000;0.485545
9506.000000;0.485602
9505.000000;0.485460
9504.000000;0.485130
9503.000000;0.484943
9502.000000;0.485215
9501.000000;0.486020
9500.000000;0.487280
9499.000000;0.488801
9498.000000;0.490142
9497.000000;0.490764
9496.000000;0.490597
9495.000000;0.490232
9494.000000;0.490305
9493.000000;0.490803
9492.000000;0.491256
9491.000000;0.491502
9490.000000;0.491891
9489.000000;0.492689
9488.000000;0.493607
9487.000000;0.494110
9486.000000;0.494032
9485.000000;0.493730
9484.000000;0.493689
9483.000000;0.494060
9482.000000;0.494528
9481.000000;0.494613
9480.000000;0.494170
9479.000000;0.493602
9478.000000;0.493459
9477.000000;0.493839
9476.000000;0.494320
9475.000000;0.494501
9474.000000;0.494464
9473.000000;0.494583
9472.000000;0.495011
9471.000000;0.495550
9470.000000;0.495969
9469.000000;0.496225
9468.000000;0.496304
9467.000000;0.496054
9466.000000;0.495370
9465.000000;0.494535
9464.000000;0.494149
9463.000000;0.494597
9462.000000;0.495646
9461.000000;0.496648
9460.000000;0.497149
9459.000000;0.497211
9458.000000;0.497174
9457.000000;0.497248
9456.000000;0.497406
9455.000000;0.497513
9454.000000;0.497400
9453.000000;0.496873
9452.000000;0.495871
9451.000000;0.494716
9450.000000;0.494050
9449.000000;0.494347
9448.000000;0.495453
9447.000000;0.496678
9446.000000;0.497356
9445.000000;0.497324
9444.000000;0.496899
9443.000000;0.496480
9442.000000;0.496230
9441.000000;0.496055
9440.000000;0.495754
9439.000000;0.495215
9438.000000;0.494581
9437.000000;0.494219
9436.000000;0.494410
9435.000000;0.495064
9434.000000;0.495814
9433.000000;0.496370
9432.000000;0.496673
9431.000000;0.496725
9430.000000;0.496487
9429.000000;0.496020
9428.000000;0.495536
9427.000000;0.495161
9426.000000;0.494812
9425.000000;0.494442
9424.000000;0.494261
9423.000000;0.494486
9422.000000;0.494937
9421.000000;0.495145
9420.000000;0.494873
9419.000000;0.494333
9418.000000;0.493860
9417.000000;0.493543
9416.000000;0.493254
9415.000000;0.492857
9414.000000;0.492289
9413.000000;0.491610
9412.000000;0.491067
9411.000000;0.490970
9410.000000;0.491393
9409.000000;0.492061
9408.000000;0.492618
9407.000000;0.492912
9406.000000;0.492936
9405.000000;0.492631
9404.000000;0.491914
9403.000000;0.490892
9402.000000;0.489907
9401.000000;0.489291
9400.000000;0.489096
9399.000000;0.489059
9398.000000;0.488814
9397.000000;0.488199
9396.000000;0.487389
9395.000000;0.486723
9394.000000;0.486442
9393.000000;0.486554
9392.000000;0.486880
9391.000000;0.487118
9390.000000;0.486977
9389.000000;0.486396
9388.000000;0.485621
9387.000000;0.484923
9386.000000;0.484292
9385.000000;0.483596
9384.000000;0.482989
9383.000000;0.482885
9382.000000;0.483402
9381.000000;0.484085
9380.000000;0.484322
9379.000000;0.483931
9378.000000;0.483171
9377.000000;0.482343
9376.000000;0.481533
9375.000000;0.480712
9374.000000;0.479899
9373.000000;0.479234
9372.000000;0.478932
9371.000000;0.479068
9370.000000;0.479343
9369.000000;0.479204
9368.000000;0.478355
9367.000000;0.477079
9366.000000;0.475936
9365.000000;0.475260
9364.000000;0.475066
9363.000000;0.475299
9362.000000;0.475909
9361.000000;0.476675
9360.000000;0.477193
9359.000000;0.477160
9358.000000;0.476601
9357.000000;0.475759
9356.000000;0.474842
9355.000000;0.473932
9354.000000;0.473042
9353.000000;0.472187
9352.000000;0.471416
9351.000000;0.470809
9350.000000;0.470420
9349.000000;0.470224
9348.000000;0.470119
9347.000000;0.469978
9346.000000;0.469719
9345.000000;0.469350
9344.000000;0.468949
9343.000000;0.468568
9342.000000;0.468160
9341.000000;0.467646
9340.000000;0.467030
9339.000000;0.466350
9338.000000;0.465549
9337.000000;0.464488
9336.000000;0.463166
9335.000000;0.461823
9334.000000;0.460772
9333.000000;0.460179
9332.000000;0.459992
9331.000000;0.459996
9330.000000;0.459916
9329.000000;0.459564
9328.000000;0.458962
9327.000000;0.458248
9326.000000;0.457477
9325.000000;0.456651
9324.000000;0.455938
9323.000000;0.455632
9322.000000;0.455781
9321.000000;0.456000
9320.000000;0.455827
9319.000000;0.455182
9318.000000;0.454361
9317.000000;0.453672
9316.000000;0.453192
9315.000000;0.452793
9314.000000;0.452285
9313.000000;0.451622
9312.000000;0.451041
9311.000000;0.450881
9310.000000;0.451133
9309.000000;0.451349
9308.000000;0.451127
9307.000000;0.450558
9306.000000;0.449966
9305.000000;0.449366
9304.000000;0.448471
9303.000000;0.447184
9302.000000;0.445790
9301.000000;0.444603
9300.000000;0.443695
9299.000000;0.443036
9298.000000;0.442644
9297.000000;0.442472
9296.000000;0.442316
9295.000000;0.442002
9294.000000;0.441591
9293.000000;0.441260
9292.000000;0.441024
9291.000000;0.440644
9290.000000;0.439835
9289.000000;0.438576
9288.000000;0.437230
9287.000000;0.436289
9286.000000;0.435890
9285.000000;0.435613
9284.000000;0.434892
9283.000000;0.433656
9282.000000;0.432452
9281.000000;0.431907
9280.000000;0.432112
9279.000000;0.432557
9278.000000;0.432599
9277.000000;0.432028
9276.000000;0.431244
9275.000000;0.430815
9274.000000;0.430801
9273.000000;0.430594
9272.000000;0.429574
9271.000000;0.427845
9270.000000;0.426116
9269.000000;0.424927
9268.000000;0.424241
9267.000000;0.423766
9266.000000;0.423394
9265.000000;0.423159
9264.000000;0.422997
9263.000000;0.422745
9262.000000;0.422290
9261.000000;0.421580
9260.000000;0.420596
9259.000000;0.419462
9258.000000;0.418513
9257.000000;0.418043
9256.000000;0.417965
9255.000000;0.417801
9254.000000;0.417125
9253.000000;0.415993
9252.000000;0.414923
9251.000000;0.414405
9250.000000;0.414375
9249.000000;0.414201
9248.000000;0.413300
9247.000000;0.411811
9246.000000;0.410569
9245.000000;0.410327
9244.000000;0.411021
9243.000000;0.411816
9242.000000;0.411833
9241.000000;0.410865
9240.000000;0.409449
9239.000000;0.408305
9238.000000;0.407703
9237.000000;0.407359
9236.000000;0.406879
9235.000000;0.406199
9234.000000;0.405503
9233.000000;0.404830
9232.000000;0.403985
9231.000000;0.402874
9230.000000;0.401709
9229.000000;0.400774
9228.000000;0.400099
9227.000000;0.399493
9226.000000;0.398817
9225.000000;0.398096
9224.000000;0.397408
9223.000000;0.396777
9222.000000;0.396185
9221.000000;0.395610
9220.000000;0.395026
9219.000000;0.394401
9218.000000;0.393718
9217.000000;0.393012
9216.000000;0.392404
9215.000000;0.392054
9214.000000;0.392020
9213.000000;0.392143
9212.000000;0.392162
9211.000000;0.391938
9210.000000;0.391515
9209.000000;0.390945
9208.000000;0.390205
9207.000000;0.389315
9206.000000;0.388437
9205.000000;0.387740
9204.000000;0.387249
9203.000000;0.386882
9202.000000;0.386582
9201.000000;0.386312
9200.000000;0.385939
9199.000000;0.385271
9198.000000;0.384254
9197.000000;0.383092
9196.000000;0.382103
9195.000000;0.381427
9194.000000;0.380895
9193.000000;0.380200
9192.000000;0.379250
9191.000000;0.378301
9190.000000;0.377686
9189.000000;0.377421
9188.000000;0.377181
9187.000000;0.376636
9186.000000;0.375748
9185.000000;0.374719
9184.000000;0.373788
9183.000000;0.373110
9182.000000;0.372671
9181.000000;0.372261
9180.000000;0.371611
9179.000000;0.370707
9178.000000;0.369878
9177.000000;0.369486
9176.000000;0.369539
9175.000000;0.369681
9174.000000;0.369499
9173.000000;0.368791
9172.000000;0.367641
9171.000000;0.366368
9170.000000;0.365385
9169.000000;0.364930
9168.000000;0.364851
9167.000000;0.364706
9166.000000;0.364135
9165.000000;0.363156
9164.000000;0.362102
9163.000000;0.361299
9162.000000;0.360811
9161.000000;0.360450
9160.000000;0.360001
9159.000000;0.359403
9158.000000;0.358721
9157.000000;0.358029
9156.000000;0.357419
9155.000000;0.357059
9154.000000;0.357063
9153.000000;0.357244
9152.000000;0.357155
9151.000000;0.356477
9150.000000;0.355331
9149.000000;0.354121
9148.000000;0.353154
9147.000000;0.352497
9146.000000;0.352060
9145.000000;0.351682
9144.000000;0.351208
9143.000000;0.350653
9142.000000;0.350264
9141.000000;0.350242
9140.000000;0.350389
9139.000000;0.350198
9138.000000;0.349380
9137.000000;0.348176
9136.000000;0.347062
9135.000000;0.346241
9134.000000;0.345517
9133.000000;0.344631
9132.000000;0.343601
9131.000000;0.342694
9130.000000;0.342136
9129.000000;0.341902
9128.000000;0.341805
9127.000000;0.341707
9126.000000;0.341598
9125.000000;0.341476
9124.000000;0.341257
9123.000000;0.340862
9122.000000;0.340291
9121.000000;0.339574
9120.000000;0.338701
9119.000000;0.337697
9118.000000;0.336710
9117.000000;0.335895
9116.000000;0.335253
9115.000000;0.334703
9114.000000;0.334290
9113.000000;0.334151
9112.000000;0.334222
9111.000000;0.334149
9110.000000;0.333609
9109.000000;0.332657
9108.000000;0.331636
9107.000000;0.330806
9106.000000;0.330203
9105.000000;0.329804
9104.000000;0.329641
9103.000000;0.329660
9102.000000;0.329588
9101.000000;0.329131
9100.000000;0.328308
9099.000000;0.327476
9098.000000;0.326930
9097.000000;0.326571
9096.000000;0.326072
9095.000000;0.325336
9094.000000;0.324648
9093.000000;0.324322
9092.000000;0.324307
9091.000000;0.324232
9090.000000;0.323783
9089.000000;0.322933
9088.000000;0.321872
9087.000000;0.320861
9086.000000;0.320175
9085.000000;0.320029
9084.000000;0.320399
9083.000000;0.320932
9082.000000;0.321120
9081.000000;0.320631
9080.000000;0.319505
9079.000000;0.318062
9078.000000;0.316650
9077.000000;0.315486
9076.000000;0.314675
9075.000000;0.314282
9074.000000;0.314302
9073.000000;0.314530
9072.000000;0.314597
9071.000000;0.314242
9070.000000;0.313567
9069.000000;0.312933
9068.000000;0.312579
9067.000000;0.312415
9066.000000;0.312171
9065.000000;0.311688
9064.000000;0.311023
9063.000000;0.310364
9062.000000;0.309891
9061.000000;0.309671
9060.000000;0.309581
9059.000000;0.309363
9058.000000;0.308815
9057.000000;0.307970
9056.000000;0.307028
9055.000000;0.306164
9054.000000;0.305443
9053.000000;0.304899
9052.000000;0.304585
9051.000000;0.304489
9050.000000;0.304475
9049.000000;0.304385
9048.000000;0.304191
9047.000000;0.303972
9046.000000;0.303744
9045.000000;0.303382
9044.000000;0.302760
9043.000000;0.301938
9042.000000;0.301137
9041.000000;0.300504
9040.000000;0.299951
9039.000000;0.299289
9038.000000;0.298503
9037.000000;0.297827
9036.000000;0.297506
9035.000000;0.297534
9034.000000;0.297653
9033.000000;0.297597
9032.000000;0.297284
9031.000000;0.296794
9030.000000;0.296245
9029.000000;0.295724
9028.000000;0.295265
9027.000000;0.294828
9026.000000;0.294331
9025.000000;0.293761
9024.000000;0.293219
9023.000000;0.292802
9022.000000;0.292452
9021.000000;0.292008
9020.000000;0.291429
9019.000000;0.290881
9018.000000;0.290574
9017.000000;0.290530
9016.000000;0.290554
9015.000000;0.290398
9014.000000;0.289918
9013.000000;0.289131
9012.000000;0.288216
9011.000000;0.287467
9010.000000;0.287185
9009.000000;0.287481
9008.000000;0.288105
9007.000000;0.288496
9006.000000;0.288150
9005.000000;0.287072
9004.000000;0.285800
9003.000000;0.284860
9002.000000;0.284253
9001.000000;0.283603
9000.000000;0.282787
8999.000000;0.282131
8998.000000;0.281888
8997.000000;0.281794
8996.000000;0.281399
8995.000000;0.280694
8994.000000;0.280107
8993.000000;0.279906
8992.000000;0.279939
8991.000000;0.279970
8990.000000;0.279948
8989.000000;0.279836
8988.000000;0.279448
8987.000000;0.278723
8986.000000;0.277953
8985.000000;0.277501
8984.000000;0.277365
8983.000000;0.277245
8982.000000;0.276963
8981.000000;0.276598
8980.000000;0.276233
8979.000000;0.275818
8978.000000;0.275333
8977.000000;0.274878
8976.000000;0.274511
8975.000000;0.274131
8974.000000;0.273652
8973.000000;0.273190
8972.000000;0.272965
8971.000000;0.273052
8970.000000;0.273283
8969.000000;0.273395
8968.000000;0.273227
8967.000000;0.272812
8966.000000;0.272301
8965.000000;0.271801
8964.000000;0.271284
8963.000000;0.270695
8962.000000;0.270103
8961.000000;0.269647
8960.000000;0.269332
8959.000000;0.269000
8958.000000;0.268542
8957.000000;0.268050
8956.000000;0.267679
8955.000000;0.267453
8954.000000;0.267285
8953.000000;0.267130
8952.000000;0.266989
8951.000000;0.266805
8950.000000;0.266470
8949.000000;0.265969
8948.000000;0.265453
8947.000000;0.265114
8946.000000;0.265016
8945.000000;0.265050
8944.000000;0.265000
8943.000000;0.264662
8942.000000;0.263994
8941.000000;0.263186
8940.000000;0.262560
8939.000000;0.262318
8938.000000;0.262372
8937.000000;0.262422
8936.000000;0.262210
8935.000000;0.261728
8934.000000;0.261177
8933.000000;0.260767
8932.000000;0.260539
8931.000000;0.260377
8930.000000;0.260159
8929.000000;0.259881
8928.000000;0.259637
8927.000000;0.259499
8926.000000;0.259426
8925.000000;0.259274
8924.000000;0.258898
8923.000000;0.258261
8922.000000;0.257472
8921.000000;0.256691
8920.000000;0.256019
8919.000000;0.255488
8918.000000;0.255134
8917.000000;0.254999
8916.000000;0.255022
8915.000000;0.255032
8914.000000;0.254930
8913.000000;0.254821
8912.000000;0.254866
8911.000000;0.255039
8910.000000;0.255132
8909.000000;0.254987
8908.000000;0.254607
8907.000000;0.254076
8906.000000;0.253485
8905.000000;0.252975
8904.000000;0.252693
8903.000000;0.252624
8902.000000;0.252580
8901.000000;0.252404
8900.000000;0.252114
8899.000000;0.251761
8898.000000;0.251282
8897.000000;0.250619
8896.000000;0.249901
8895.000000;0.249348
8894.000000;0.249038
8893.000000;0.248890
8892.000000;0.248812
8891.000000;0.248710
8890.000000;0.248421
8889.000000;0.247852
8888.000000;0.247224
8887.000000;0.246928
8886.000000;0.247039
8885.000000;0.247160
8884.000000;0.246883
8883.000000;0.246274
8882.000000;0.245747
8881.000000;0.245542
8880.000000;0.245510
8879.000000;0.245358
8878.000000;0.244922
8877.000000;0.244207
8876.000000;0.243314
8875.000000;0.242445
8874.000000;0.241855
8873.000000;0.241681
8872.000000;0.241811
8871.000000;0.241996
8870.000000;0.242102
8869.000000;0.242222
8868.000000;0.242470
8867.000000;0.242709
8866.000000;0.242588
8865.000000;0.241934
8864.000000;0.241058
8863.000000;0.240502
8862.000000;0.240489
8861.000000;0.240729
8860.000000;0.240802
8859.000000;0.240583
8858.000000;0.240216
8857.000000;0.239820
8856.000000;0.239430
8855.000000;0.239122
8854.000000;0.239010
8853.000000;0.239070
8852.000000;0.239117
8851.000000;0.238989
8850.000000;0.238668
8849.000000;0.238213
8848.000000;0.237697
8847.000000;0.237237
8846.000000;0.236954
8845.000000;0.236833
8844.000000;0.236679
8843.000000;0.236295
8842.000000;0.235678
8841.000000;0.235017
8840.000000;0.234550
8839.000000;0.234415
8838.000000;0.234569
8837.000000;0.234787
8836.000000;0.234794
8835.000000;0.234477
8834.000000;0.233962
8833.000000;0.233478
8832.000000;0.233168
8831.000000;0.233016
8830.000000;0.232898
8829.000000;0.232696
8828.000000;0.232407
8827.000000;0.232157
8826.000000;0.232065
8825.000000;0.232084
8824.000000;0.232063
8823.000000;0.231964
8822.000000;0.231923
8821.000000;0.232040
8820.000000;0.232195
8819.000000;0.232142
8818.000000;0.231764
8817.000000;0.231202
8816.000000;0.230785
8815.000000;0.230832
8814.000000;0.231395
8813.000000;0.232089
8812.000000;0.232263
8811.000000;0.231546
8810.000000;0.230231
8809.000000;0.229023
8808.000000;0.228396
8807.000000;0.228274
8806.000000;0.228318
8805.000000;0.228334
8804.000000;0.228319
8803.000000;0.228268
8802.000000;0.228111
8801.000000;0.227828
8800.000000;0.227474
8799.000000;0.227065
8798.000000;0.226539
8797.000000;0.225916
8796.000000;0.225386
8795.000000;0.225151
8794.000000;0.225205
8793.000000;0.225351
8792.000000;0.225408
8791.000000;0.225336
8790.000000;0.225171
8789.000000;0.224929
8788.000000;0.224615
8787.000000;0.224270
8786.000000;0.223980
8785.000000;0.223826
8784.000000;0.223830
8783.000000;0.223899
8782.000000;0.223844
8781.000000;0.223532
8780.000000;0.223037
8779.000000;0.222584
8778.000000;0.222306
8777.000000;0.222140
8776.000000;0.221960
8775.000000;0.221762
8774.000000;0.221640
8773.000000;0.221644
8772.000000;0.221736
8771.000000;0.221846
8770.000000;0.221888
8769.000000;0.221768
8768.000000;0.221431
8767.000000;0.220904
8766.000000;0.220271
8765.000000;0.219633
8764.000000;0.219137
8763.000000;0.218936
8762.000000;0.219046
8761.000000;0.219282
8760.000000;0.219434
8759.000000;0.219457
8758.000000;0.219414
8757.000000;0.219285
8756.000000;0.218996
8755.000000;0.218602
8754.000000;0.218286
8753.000000;0.218137
8752.000000;0.218042
8751.000000;0.217865
8750.000000;0.217616
8749.000000;0.217378
8748.000000;0.217143
8747.000000;0.216832
8746.000000;0.216439
8745.000000;0.216093
8744.000000;0.215956
8743.000000;0.216088
8742.000000;0.216388
8741.000000;0.216652
8740.000000;0.216694
8739.000000;0.216450
8738.000000;0.215987
8737.000000;0.215442
8736.000000;0.214966
8735.000000;0.214637
8734.000000;0.214387
8733.000000;0.214074
8732.000000;0.213661
8731.000000;0.213302
8730.000000;0.213157
8729.000000;0.213208
8728.000000;0.213307
8727.000000;0.213354
8726.000000;0.213310
8725.000000;0.213130
8724.000000;0.212821
8723.000000;0.212551
8722.000000;0.212507
8721.000000;0.212629
8720.000000;0.212627
8719.000000;0.212340
8718.000000;0.211934
8717.000000;0.211709
8716.000000;0.211800
8715.000000;0.212091
8714.000000;0.212288
8713.000000;0.212063
8712.000000;0.211297
8711.000000;0.210278
8710.000000;0.209532
8709.000000;0.209357
8708.000000;0.209592
8707.000000;0.209897
8706.000000;0.210098
8705.000000;0.210176
8704.000000;0.210064
8703.000000;0.209717
8702.000000;0.209306
8701.000000;0.209144
8700.000000;0.209342
8699.000000;0.209664
8698.000000;0.209751
8697.000000;0.209438
8696.000000;0.208858
8695.000000;0.208273
8694.000000;0.207850
8693.000000;0.207544
8692.000000;0.207224
8691.000000;0.206906
8690.000000;0.206801
8689.000000;0.207067
8688.000000;0.207566
8687.000000;0.207921
8686.000000;0.207820
8685.000000;0.207245
8684.000000;0.206475
8683.000000;0.205896
8682.000000;0.205747
8681.000000;0.205936
8680.000000;0.206127
8679.000000;0.206071
8678.000000;0.205833
8677.000000;0.205670
8676.000000;0.205721
8675.000000;0.205890
8674.000000;0.205964
8673.000000;0.205772
8672.000000;0.205283
8671.000000;0.204636
8670.000000;0.204094
8669.000000;0.203864
8668.000000;0.203953
8667.000000;0.204189
8666.000000;0.204375
8665.000000;0.204392
8664.000000;0.204242
8663.000000;0.204043
8662.000000;0.203940
8661.000000;0.203944
8660.000000;0.203906
8659.000000;0.203696
8658.000000;0.203369
8657.000000;0.203086
8656.000000;0.202934
8655.000000;0.202902
8654.000000;0.202955
8653.000000;0.203031
8652.000000;0.203002
8651.000000;0.202750
8650.000000;0.202305
8649.000000;0.201829
8648.000000;0.201470
8647.000000;0.201274
8646.000000;0.201211
8645.000000;0.201193
8644.000000;0.201105
8643.000000;0.200914
8642.000000;0.200721
8641.000000;0.200645
8640.000000;0.200673
8639.000000;0.200703
8638.000000;0.200686
8637.000000;0.200623
8636.000000;0.200479
8635.000000;0.200241
8634.000000;0.200047
8633.000000;0.200089
8632.000000;0.200354
8631.000000;0.200608
8630.000000;0.200655
8629.000000;0.200504
8628.000000;0.200247
8627.000000;0.199899
8626.000000;0.199445
8625.000000;0.198932
8624.000000;0.198446
8623.000000;0.198065
8622.000000;0.197875
8621.000000;0.197944
8620.000000;0.198208
8619.000000;0.198459
8618.000000;0.198536
8617.000000;0.198474
8616.000000;0.198413
8615.000000;0.198407
8614.000000;0.198399
8613.000000;0.198308
8612.000000;0.198085
8611.000000;0.197709
8610.000000;0.197211
8609.000000;0.196692
8608.000000;0.196283
8607.000000;0.196072
8606.000000;0.196071
8605.000000;0.196198
8604.000000;0.196283
8603.000000;0.196175
8602.000000;0.195905
8601.000000;0.195670
8600.000000;0.195600
8599.000000;0.195609
8598.000000;0.195525
8597.000000;0.195312
8596.000000;0.195085
8595.000000;0.194958
8594.000000;0.194958
8593.000000;0.195039
8592.000000;0.195107
8591.000000;0.195057
8590.000000;0.194862
8589.000000;0.194645
8588.000000;0.194561
8587.000000;0.194612
8586.000000;0.194633
8585.000000;0.194483
8584.000000;0.194179
8583.000000;0.193839
8582.000000;0.193557
8581.000000;0.193364
8580.000000;0.193284
8579.000000;0.193361
8578.000000;0.193615
8577.000000;0.193964
8576.000000;0.194195
8575.000000;0.194081
8574.000000;0.193588
8573.000000;0.192949
8572.000000;0.192478
8571.000000;0.192295
8570.000000;0.192282
8569.000000;0.192279
8568.000000;0.192274
8567.000000;0.192352
8566.000000;0.192530
8565.000000;0.192694
8564.000000;0.192693
8563.000000;0.192478
8562.000000;0.192160
8561.000000;0.191928
8560.000000;0.191880
8559.000000;0.191917
8558.000000;0.191833
8557.000000;0.191516
8556.000000;0.191057
8555.000000;0.190660
8554.000000;0.190478
8553.000000;0.190550
8552.000000;0.190809
8551.000000;0.191080
8550.000000;0.191136
8549.000000;0.190843
8548.000000;0.190287
8547.000000;0.189709
8546.000000;0.189298
8545.000000;0.189066
8544.000000;0.188932
8543.000000;0.188850
8542.000000;0.188822
8541.000000;0.188826
8540.000000;0.188812
8539.000000;0.188749
8538.000000;0.188665
8537.000000;0.188606
8536.000000;0.188581
8535.000000;0.188534
8534.000000;0.188383
8533.000000;0.188119
8532.000000;0.187869
8531.000000;0.187827
8530.000000;0.188062
8529.000000;0.188419
8528.000000;0.188635
8527.000000;0.188577
8526.000000;0.188313
8525.000000;0.187996
8524.000000;0.187720
8523.000000;0.187517
8522.000000;0.187395
8521.000000;0.187317
8520.000000;0.187187
8519.000000;0.186935
8518.000000;0.186616
8517.000000;0.186366
8516.000000;0.186254
8515.000000;0.186204
8514.000000;0.186077
8513.000000;0.185811
8512.000000;0.185463
8511.000000;0.185133
8510.000000;0.184869
8509.000000;0.184656
8508.000000;0.184476
8507.000000;0.184340
8506.000000;0.184265
8505.000000;0.184227
8504.000000;0.184184
8503.000000;0.184127
8502.000000;0.184074
8501.000000;0.184022
8500.000000;0.183952
8499.000000;0.183893
8498.000000;0.183911
8497.000000;0.184007
8496.000000;0.184077
8495.000000;0.184018
8494.000000;0.183857
8493.000000;0.183725
8492.000000;0.183720
8491.000000;0.183826
8490.000000;0.183933
8489.000000;0.183912
8488.000000;0.183701
8487.000000;0.183379
8486.000000;0.183124
8485.000000;0.183030
8484.000000;0.183004
8483.000000;0.182884
8482.000000;0.182643
8481.000000;0.182377
8480.000000;0.182150
8479.000000;0.181950
8478.000000;0.181800
8477.000000;0.181779
8476.000000;0.181847
8475.000000;0.181798
8474.000000;0.181473
8473.000000;0.180976
8472.000000;0.180577
8471.000000;0.180440
8470.000000;0.180528
8469.000000;0.180720
8468.000000;0.180934
8467.000000;0.181110
8466.000000;0.181189
8465.000000;0.181137
8464.000000;0.180962
8463.000000;0.180709
8462.000000;0.180462
8461.000000;0.180343
8460.000000;0.180426
8459.000000;0.180628
8458.000000;0.180756
8457.000000;0.180687
8456.000000;0.180469
8455.000000;0.180235
8454.000000;0.180066
8453.000000;0.179963
8452.000000;0.179916
8451.000000;0.179927
8450.000000;0.179978
8449.000000;0.180002
8448.000000;0.179908
8447.000000;0.179629
8446.000000;0.179161
8445.000000;0.178579
8444.000000;0.178023
8443.000000;0.177663
8442.000000;0.177610
8441.000000;0.177810
8440.000000;0.178026
8439.000000;0.177997
8438.000000;0.177676
8437.000000;0.177283
8436.000000;0.177069
8435.000000;0.177075
8434.000000;0.177163
8433.000000;0.177239
8432.000000;0.177312
8431.000000;0.177370
8430.000000;0.177308
8429.000000;0.177072
8428.000000;0.176760
8427.000000;0.176518
8426.000000;0.176384
8425.000000;0.176313
8424.000000;0.176289
8423.000000;0.176316
8422.000000;0.176333
8421.000000;0.176242
8420.000000;0.176016
8419.000000;0.175732
8418.000000;0.175490
8417.000000;0.175357
8416.000000;0.175352
8415.000000;0.175417
8414.000000;0.175426
8413.000000;0.175314
8412.000000;0.175178
8411.000000;0.175157
8410.000000;0.175220
8409.000000;0.175179
8408.000000;0.174963
8407.000000;0.174743
8406.000000;0.174717
8405.000000;0.174846
8404.000000;0.174895
8403.000000;0.174687
8402.000000;0.174247
8401.000000;0.173718
8400.000000;0.173245
8399.000000;0.172912
8398.000000;0.172726
8397.000000;0.172635
8396.000000;0.172583
8395.000000;0.172568
8394.000000;0.172616
8393.000000;0.172694
8392.000000;0.172688
8391.000000;0.172484
8390.000000;0.172075
8389.000000;0.171611
8388.000000;0.171328
8387.000000;0.171349
8386.000000;0.171534
8385.000000;0.171577
8384.000000;0.171318
8383.000000;0.170914
8382.000000;0.170644
8381.000000;0.170585
8380.000000;0.170573
8379.000000;0.170450
8378.000000;0.170244
8377.000000;0.170086
8376.000000;0.170028
8375.000000;0.170011
8374.000000;0.169965
8373.000000;0.169895
8372.000000;0.169863
8371.000000;0.169914
8370.000000;0.170001
8369.000000;0.169994
8368.000000;0.169788
8367.000000;0.169412
8366.000000;0.169001
8365.000000;0.168657
8364.000000;0.168386
8363.000000;0.168157
8362.000000;0.167972
8361.000000;0.167864
8360.000000;0.167851
8359.000000;0.167909
8358.000000;0.167976
8357.000000;0.167970
8356.000000;0.167861
8355.000000;0.167707
8354.000000;0.167594
8353.000000;0.167513
8352.000000;0.167372
8351.000000;0.167132
8350.000000;0.166893
8349.000000;0.166788
8348.000000;0.166838
8347.000000;0.166961
8346.000000;0.167075
8345.000000;0.167130
8344.000000;0.167064
8343.000000;0.166816
8342.000000;0.166411
8341.000000;0.165957
8340.000000;0.165533
8339.000000;0.165133
8338.000000;0.164740
8337.000000;0.164420
8336.000000;0.164281
8335.000000;0.164348
8334.000000;0.164522
8333.000000;0.164661
8332.000000;0.164662
8331.000000;0.164476
8330.000000;0.164104
8329.000000;0.163631
8328.000000;0.163239
8327.000000;0.163105
8326.000000;0.163253
8325.000000;0.163537
8324.000000;0.163799
8323.000000;0.163991
8322.000000;0.164116
8321.000000;0.164098
8320.000000;0.163825
8319.000000;0.163315
8318.000000;0.162764
8317.000000;0.162359
8316.000000;0.162106
8315.000000;0.161870
8314.000000;0.161557
8313.000000;0.161212
8312.000000;0.160961
8311.000000;0.160908
8310.000000;0.161074
8309.000000;0.161361
8308.000000;0.161582
8307.000000;0.161592
8306.000000;0.161418
8305.000000;0.161200
8304.000000;0.161003
8303.000000;0.160744
8302.000000;0.160343
8301.000000;0.159887
8300.000000;0.159574
8299.000000;0.159514
8298.000000;0.159646
8297.000000;0.159811
8296.000000;0.159860
8295.000000;0.159711
8294.000000;0.159386
8293.000000;0.159004
8292.000000;0.158699
8291.000000;0.158499
8290.000000;0.158345
8289.000000;0.158219
8288.000000;0.158182
8287.000000;0.158255
8286.000000;0.158324
8285.000000;0.158244
8284.000000;0.157980
8283.000000;0.157616
8282.000000;0.157249
8281.000000;0.156959
8280.000000;0.156838
8279.000000;0.156928
8278.000000;0.157111
8277.000000;0.157152
8276.000000;0.156928
8275.000000;0.156569
8274.000000;0.156315
8273.000000;0.156268
8272.000000;0.156314
8271.000000;0.156266
8270.000000;0.156029
8269.000000;0.155634
8268.000000;0.155181
8267.000000;0.154765
8266.000000;0.154449
8265.000000;0.154240
8264.000000;0.154084
8263.000000;0.153908
8262.000000;0.153704
8261.000000;0.153560
8260.000000;0.153583
8259.000000;0.153759
8258.000000;0.153930
8257.000000;0.153955
8256.000000;0.153861
8255.000000;0.153793
8254.000000;0.153815
8253.000000;0.153845
8252.000000;0.153768
8251.000000;0.153558
8250.000000;0.153261
8249.000000;0.152931
8248.000000;0.152610
8247.000000;0.152333
8246.000000;0.152092
8245.000000;0.151840
8244.000000;0.151560
8243.000000;0.151317
8242.000000;0.151175
8241.000000;0.151105
8240.000000;0.151006
8239.000000;0.150816
8238.000000;0.150570
8237.000000;0.150348
8236.000000;0.150191
8235.000000;0.150056
8234.000000;0.149863
8233.000000;0.149590
8232.000000;0.149333
8231.000000;0.149203
8230.000000;0.149182
8229.000000;0.149119
8228.000000;0.148898
8227.000000;0.148562
8226.000000;0.148213
8225.000000;0.147875
8224.000000;0.147532
8223.000000;0.147243
8222.000000;0.147131
8221.000000;0.147227
8220.000000;0.147408
8219.000000;0.147491
8218.000000;0.147363
8217.000000;0.147038
8216.000000;0.146641
8215.000000;0.146343
8214.000000;0.146234
8213.000000;0.146231
8212.000000;0.146158
8211.000000;0.145923
8210.000000;0.145575
8209.000000;0.145216
8208.000000;0.144899
8207.000000;0.144643
8206.000000;0.144449
8205.000000;0.144274
8204.000000;0.144053
8203.000000;0.143789
8202.000000;0.143590
8201.000000;0.143551
8200.000000;0.143610
8199.000000;0.143593
8198.000000;0.143392
8197.000000;0.143067
8196.000000;0.142775
8195.000000;0.142633
8194.000000;0.142650
8193.000000;0.142741
8192.000000;0.142771
8191.000000;0.142626
8190.000000;0.142307
8189.000000;0.141951
8188.000000;0.141728
8187.000000;0.141677
8186.000000;0.141661
8185.000000;0.141503
8184.000000;0.141153
8183.000000;0.140705
8182.000000;0.140278
8181.000000;0.139923
8180.000000;0.139655
8179.000000;0.139490
8178.000000;0.139404
8177.000000;0.139306
8176.000000;0.139105
8175.000000;0.138829
8174.000000;0.138611
8173.000000;0.138556
8172.000000;0.138633
8171.000000;0.138693
8170.000000;0.138578
8169.000000;0.138223
8168.000000;0.137693
8167.000000;0.137147
8166.000000;0.136713
8165.000000;0.136398
8164.000000;0.136129
8163.000000;0.135863
8162.000000;0.135645
8161.000000;0.135528
8160.000000;0.135495
8159.000000;0.135482
8158.000000;0.135464
8157.000000;0.135470
8156.000000;0.135502
8155.000000;0.135488
8154.000000;0.135340
8153.000000;0.135052
8152.000000;0.134706
8151.000000;0.134385
8150.000000;0.134111
8149.000000;0.133880
8148.000000;0.133708
8147.000000;0.133606
8146.000000;0.133532
8145.000000;0.133424
8144.000000;0.133264
8143.000000;0.133089
8142.000000;0.132921
8141.000000;0.132727
8140.000000;0.132471
8139.000000;0.132174
8138.000000;0.131887
8137.000000;0.131632
8136.000000;0.131391
8135.000000;0.131143
8134.000000;0.130925
8133.000000;0.130818
8132.000000;0.130855
8131.000000;0.130929
8130.000000;0.130839
8129.000000;0.130497
8128.000000;0.130041
8127.000000;0.129700
8126.000000;0.129545
8125.000000;0.129471
8124.000000;0.129391
8123.000000;0.129320
8122.000000;0.129239
8121.000000;0.129023
8120.000000;0.128618
8119.000000;0.128184
8118.000000;0.127923
8117.000000;0.127801
8116.000000;0.127590
8115.000000;0.127170
8114.000000;0.126656
8113.000000;0.126206
8112.000000;0.125841
8111.000000;0.125506
8110.000000;0.125234
8109.000000;0.125126
8108.000000;0.125198
8107.000000;0.125331
8106.000000;0.125372
8105.000000;0.125264
8104.000000;0.125060
8103.000000;0.124846
8102.000000;0.124651
8101.000000;0.124430
8100.000000;0.124131
8099.000000;0.123759
8098.000000;0.123375
8097.000000;0.123038
8096.000000;0.122758
8095.000000;0.122516
8094.000000;0.122284
8093.000000;0.122049
8092.000000;0.121818
8091.000000;0.121617
8090.000000;0.121477
8089.000000;0.121393
8088.000000;0.121303
8087.000000;0.121109
8086.000000;0.120755
8085.000000;0.120294
8084.000000;0.119881
8083.000000;0.119665
8082.000000;0.119651
8081.000000;0.119685
8080.000000;0.119558
8079.000000;0.119171
8078.000000;0.118598
8077.000000;0.118048
8076.000000;0.117720
8075.000000;0.117648
8074.000000;0.117667
8073.000000;0.117569
8072.000000;0.117310
8071.000000;0.117031
8070.000000;0.116894
8069.000000;0.116929
8068.000000;0.117040
8067.000000;0.117087
8066.000000;0.116945
8065.000000;0.116563
8064.000000;0.116036
8063.000000;0.115561
8062.000000;0.115262
8061.000000;0.115087
8060.000000;0.114903
8059.000000;0.114661
8058.000000;0.114410
8057.000000;0.114218
8056.000000;0.114120
8055.000000;0.114103
8054.000000;0.114066
8053.000000;0.113845
8052.000000;0.113393
8051.000000;0.112884
8050.000000;0.112562
8049.000000;0.112478
8048.000000;0.112452
8047.000000;0.112280
8046.000000;0.111913
8045.000000;0.111446
8044.000000;0.111002
8043.000000;0.110658
8042.000000;0.110404
8041.000000;0.110161
8040.000000;0.109879
8039.000000;0.109603
8038.000000;0.109391
8037.000000;0.109175
8036.000000;0.108819
8035.000000;0.108325
8034.000000;0.107893
8033.000000;0.107712
8032.000000;0.107777
8031.000000;0.107923
8030.000000;0.107997
8029.000000;0.107933
8028.000000;0.107723
8027.000000;0.107396
8026.000000;0.107015
8025.000000;0.106646
8024.000000;0.106302
8023.000000;0.105950
8022.000000;0.105558
8021.000000;0.105143
8020.000000;0.104780
8019.000000;0.104547
8018.000000;0.104439
8017.000000;0.104349
8016.000000;0.104158
8015.000000;0.103856
8014.000000;0.103527
8013.000000;0.103231
8012.000000;0.102956
8011.000000;0.102688
8010.000000;0.102462
8009.000000;0.102294
8008.000000;0.102142
8007.000000;0.101965
8006.000000;0.101781
8005.000000;0.101595
8004.000000;0.101326
8003.000000;0.100891
8002.000000;0.100358
8001.000000;0.099932
8000.000000;0.099758
7999.000000;0.099771
7998.000000;0.099765
7997.000000;0.099597
7996.000000;0.099294
7995.000000;0.098986
7994.000000;0.098779
7993.000000;0.098671
7992.000000;0.098563
7991.000000;0.098340
7990.000000;0.097949
7989.000000;0.097441
7988.000000;0.096920
7987.000000;0.096454
7986.000000;0.096051
7985.000000;0.095721
7984.000000;0.095515
7983.000000;0.095464
7982.000000;0.095485
7981.000000;0.095431
7980.000000;0.095224
7979.000000;0.094914
7978.000000;0.094583
7977.000000;0.094262
7976.000000;0.093946
7975.000000;0.093649
7974.000000;0.093360
7973.000000;0.093015
7972.000000;0.092563
7971.000000;0.092054
7970.000000;0.091616
7969.000000;0.091332
7968.000000;0.091181
7967.000000;0.091072
7966.000000;0.090906
7965.000000;0.090626
7964.000000;0.090269
7963.000000;0.089949
7962.000000;0.089744
7961.000000;0.089620
7960.000000;0.089494
7959.000000;0.089347
7958.000000;0.089215
7957.000000;0.089086
7956.000000;0.088868
7955.000000;0.088488
7954.000000;0.087979
7953.000000;0.087462
7952.000000;0.087069
7951.000000;0.086870
7950.000000;0.086826
7949.000000;0.086796
7948.000000;0.086638
7947.000000;0.086301
7946.000000;0.085835
7945.000000;0.085318
7944.000000;0.084830
7943.000000;0.084458
7942.000000;0.084251
7941.000000;0.084155
7940.000000;0.084056
7939.000000;0.083888
7938.000000;0.083671
7937.000000;0.083433
7936.000000;0.083171
7935.000000;0.082890
7934.000000;0.082627
7933.000000;0.082395
7932.000000;0.082137
7931.000000;0.081792
7930.000000;0.081362
7929.000000;0.080914
7928.000000;0.080529
7927.000000;0.080264
7926.000000;0.080128
7925.000000;0.080052
7924.000000;0.079918
7923.000000;0.079649
7922.000000;0.079278
7921.000000;0.078918
7920.000000;0.078661
7919.000000;0.078513
7918.000000;0.078411
7917.000000;0.078287
7916.000000;0.078113
7915.000000;0.077877
7914.000000;0.077552
7913.000000;0.077103
7912.000000;0.076558
7911.000000;0.076032
7910.000000;0.075642
7909.000000;0.075418
7908.000000;0.075302
7907.000000;0.075194
7906.000000;0.074987
7905.000000;0.074615
7904.000000;0.074130
7903.000000;0.073688
7902.000000;0.073395
7901.000000;0.073199
7900.000000;0.072978
7899.000000;0.072702
7898.000000;0.072414
7897.000000;0.072094
7896.000000;0.071674
7895.000000;0.071189
7894.000000;0.070791
7893.000000;0.070572
7892.000000;0.070468
7891.000000;0.070382
7890.000000;0.070290
7889.000000;0.070168
7888.000000;0.069909
7887.000000;0.069432
7886.000000;0.068829
7885.000000;0.068290
7884.000000;0.067925
7883.000000;0.067709
7882.000000;0.067592
7881.000000;0.067532
7880.000000;0.067442
7879.000000;0.067200
7878.000000;0.066774
7877.000000;0.066268
7876.000000;0.065814
7875.000000;0.065464
7874.000000;0.065210
7873.000000;0.065046
7872.000000;0.064946
7871.000000;0.064824
7870.000000;0.064592
7869.000000;0.064260
7868.000000;0.063919
7867.000000;0.063620
7866.000000;0.063332
7865.000000;0.063034
7864.000000;0.062789
7863.000000;0.062666
7862.000000;0.062611
7861.000000;0.062477
7860.000000;0.062174
7859.000000;0.061738
7858.000000;0.061255
7857.000000;0.060772
7856.000000;0.060309
7855.000000;0.059902
7854.000000;0.059578
7853.000000;0.059332
7852.000000;0.059133
7851.000000;0.058920
7850.000000;0.058600
7849.000000;0.058098
7848.000000;0.057486
7847.000000;0.056976
7846.000000;0.056736
7845.000000;0.056722
7844.000000;0.056750
7843.000000;0.056677
7842.000000;0.056470
7841.000000;0.056134
7840.000000;0.055706
7839.000000;0.055297
7838.000000;0.055025
7837.000000;0.054868
7836.000000;0.054664
7835.000000;0.054295
7834.000000;0.053834
7833.000000;0.053445
7832.000000;0.053201
7831.000000;0.053040
7830.000000;0.052868
7829.000000;0.052643
7828.000000;0.052369
7827.000000;0.052057
7826.000000;0.051716
7825.000000;0.051361
7824.000000;0.051013
7823.000000;0.050682
7822.000000;0.050362
7821.000000;0.050072
7820.000000;0.049876
7819.000000;0.049824
7818.000000;0.049850
7817.000000;0.049790
7816.000000;0.049544
7815.000000;0.049188
7814.000000;0.048874
7813.000000;0.048649
7812.000000;0.048433
7811.000000;0.048139
7810.000000;0.047763
7809.000000;0.047339
7808.000000;0.046903
7807.000000;0.046498
7806.000000;0.046165
7805.000000;0.045901
7804.000000;0.045670
7803.000000;0.045451
7802.000000;0.045228
7801.000000;0.044960
7800.000000;0.044617
7799.000000;0.044257
7798.000000;0.043996
7797.000000;0.043856
7796.000000;0.043721
7795.000000;0.043461
7794.000000;0.043081
7793.000000;0.042703
7792.000000;0.042433
7791.000000;0.042278
7790.000000;0.042164
7789.000000;0.041995
7788.000000;0.041717
7787.000000;0.041337
7786.000000;0.040902
7785.000000;0.040459
7784.000000;0.040067
7783.000000;0.039796
7782.000000;0.039662
7781.000000;0.039569
7780.000000;0.039380
7779.000000;0.039054
7778.000000;0.038683
7777.000000;0.038362
7776.000000;0.038100
7775.000000;0.037857
7774.000000;0.037614
7773.000000;0.037371
7772.000000;0.037119
7771.000000;0.036855
7770.000000;0.036597
7769.000000;0.036346
7768.000000;0.036085
7767.000000;0.035819
7766.000000;0.035566
7765.000000;0.035296
7764.000000;0.034928
7763.000000;0.034439
7762.000000;0.033940
7761.000000;0.033580
7760.000000;0.033401
7759.000000;0.033314
7758.000000;0.033215
7757.000000;0.033067
7756.000000;0.032884
7755.000000;0.032671
7754.000000;0.032410
7753.000000;0.032100
7752.000000;0.031776
7751.000000;0.031474
7750.000000;0.031175
7749.000000;0.030822
7748.000000;0.030418
7747.000000;0.030075
7746.000000;0.029917
7745.000000;0.029922
7744.000000;0.029924
7743.000000;0.029778
7742.000000;0.029485
7741.000000;0.029136
7740.000000;0.028779
7739.000000;0.028383
7738.000000;0.027918
7737.000000;0.027425
7736.000000;0.027005
7735.000000;0.026737
7734.000000;0.026600
7733.000000;0.026488
7732.000000;0.026314
7731.000000;0.026077
7730.000000;0.025819
7729.000000;0.025533
7728.000000;0.025180
7727.000000;0.024784
7726.000000;0.024437
7725.000000;0.024202
7724.000000;0.024043
7723.000000;0.023885
7722.000000;0.023699
7721.000000;0.023500
7720.000000;0.023292
7719.000000;0.023059
7718.000000;0.022797
7717.000000;0.022530
7716.000000;0.022296
7715.000000;0.022107
7714.000000;0.021931
7713.000000;0.021701
7712.000000;0.021388
7711.000000;0.021028
7710.000000;0.020684
7709.000000;0.020369
7708.000000;0.020066
7707.000000;0.019785
7706.000000;0.019559
7705.000000;0.019367
7704.000000;0.019125
7703.000000;0.018776
7702.000000;0.018367
7701.000000;0.018012
7700.000000;0.017790
7699.000000;0.017694
7698.000000;0.017633
7697.000000;0.017482
7696.000000;0.017163
7695.000000;0.016719
7694.000000;0.016282
7693.000000;0.015965
7692.000000;0.015779
7691.000000;0.015655
7690.000000;0.015504
7689.000000;0.015267
7688.000000;0.014947
7687.000000;0.014600
7686.000000;0.014279
7685.000000;0.013988
7684.000000;0.013718
7683.000000;0.013496
7682.000000;0.013346
7681.000000;0.013221
7680.000000;0.013037
7679.000000;0.012777
7678.000000;0.012507
7677.000000;0.012284
7676.000000;0.012101
7675.000000;0.011938
7674.000000;0.011780
7673.000000;0.011574
7672.000000;0.011237
7671.000000;0.010767
7670.000000;0.010293
7669.000000;0.009961
7668.000000;0.009793
7667.000000;0.009689
7666.000000;0.009534
7665.000000;0.009270
7664.000000;0.008918
7663.000000;0.008555
7662.000000;0.008249
7661.000000;0.008002
7660.000000;0.007755
7659.000000;0.007483
7658.000000;0.007223
7657.000000;0.007001
7656.000000;0.006760
7655.000000;0.006431
7654.000000;0.006041
7653.000000;0.005705
7652.000000;0.005495
7651.000000;0.005371
7650.000000;0.005236
7649.000000;0.005034
7648.000000;0.004788
7647.000000;0.004567
7646.000000;0.004419
7645.000000;0.004329
7644.000000;0.004242
7643.000000;0.004097
7642.000000;0.003854
7641.000000;0.003501
7640.000000;0.003063
7639.000000;0.002604
7638.000000;0.002198
7637.000000;0.001885
7636.000000;0.001668
7635.000000;0.001524
7634.000000;0.001396
7633.000000;0.001217
7632.000000;0.000971
7631.000000;0.000720
7630.000000;0.000531
7629.000000;0.000377
7628.000000;0.000183
7627.000000;-0.000062
7626.000000;-0.000293
7625.000000;-0.000482
7624.000000;-0.000682
7623.000000;-0.000936
7622.000000;-0.001207
7621.000000;-0.001439
7620.000000;-0.001640
7619.000000;-0.001862
7618.000000;-0.002115
7617.000000;-0.002362
7616.000000;-0.002575
7615.000000;-0.002769
7614.000000;-0.002982
7613.000000;-0.003237
7612.000000;-0.003530
7611.000000;-0.003830
7610.000000;-0.004118
7609.000000;-0.004406
7608.000000;-0.004712
7607.000000;-0.005010
7606.000000;-0.005232
7605.000000;-0.005329
7604.000000;-0.005317
7603.000000;-0.005286
7602.000000;-0.005360
7601.000000;-0.005618
7600.000000;-0.006017
7599.000000;-0.006420
7598.000000;-0.006735
7597.000000;-0.007006
7596.000000;-0.007325
7595.000000;-0.007680
7594.000000;-0.007971
7593.000000;-0.008150
7592.000000;-0.008279
7591.000000;-0.008436
7590.000000;-0.008637
7589.000000;-0.008863
7588.000000;-0.009099
7587.000000;-0.009327
7586.000000;-0.009521
7585.000000;-0.009679
7584.000000;-0.009831
7583.000000;-0.010000
7582.000000;-0.010200
7581.000000;-0.010453
7580.000000;-0.010775
7579.000000;-0.011125
7578.000000;-0.011427
7577.000000;-0.011639
7576.000000;-0.011786
7575.000000;-0.011922
7574.000000;-0.012088
7573.000000;-0.012318
7572.000000;-0.012610
7571.000000;-0.012907
7570.000000;-0.013141
7569.000000;-0.013315
7568.000000;-0.013481
7567.000000;-0.013675
7566.000000;-0.013895
7565.000000;-0.014155
7564.000000;-0.014467
7563.000000;-0.014790
7562.000000;-0.015056
7561.000000;-0.015244
7560.000000;-0.015381
7559.000000;-0.015477
7558.000000;-0.015536
7557.000000;-0.015618
7556.000000;-0.015813
7555.000000;-0.016139
7554.000000;-0.016522
7553.000000;-0.016892
7552.000000;-0.017219
7551.000000;-0.017473
7550.000000;-0.017634
7549.000000;-0.017754
7548.000000;-0.017930
7547.000000;-0.018185
7546.000000;-0.018453
7545.000000;-0.018695
7544.000000;-0.018943
7543.000000;-0.019203
7542.000000;-0.019423
7541.000000;-0.019578
7540.000000;-0.019721
7539.000000;-0.019906
7538.000000;-0.020127
7537.000000;-0.020372
7536.000000;-0.020655
7535.000000;-0.020971
7534.000000;-0.021271
7533.000000;-0.021518
7532.000000;-0.021719
7531.000000;-0.021890
7530.000000;-0.022043
7529.000000;-0.022218
7528.000000;-0.022443
7527.000000;-0.022658
7526.000000;-0.022773
7525.000000;-0.022817
7524.000000;-0.022930
7523.000000;-0.023184
7522.000000;-0.023507
7521.000000;-0.023819
7520.000000;-0.024127
7519.000000;-0.024431
7518.000000;-0.024659
7517.000000;-0.024781
7516.000000;-0.024899
7515.000000;-0.025114
7514.000000;-0.025385
7513.000000;-0.025601
7512.000000;-0.025741
7511.000000;-0.025869
7510.000000;-0.026020
7509.000000;-0.026170
7508.000000;-0.026301
7507.000000;-0.026430
7506.000000;-0.026582
7505.000000;-0.026786
7504.000000;-0.027070
7503.000000;-0.027417
7502.000000;-0.027756
7501.000000;-0.028011
7500.000000;-0.028161
7499.000000;-0.028230
7498.000000;-0.028298
7497.000000;-0.028452
7496.000000;-0.028801
7495.000000;-0.029311
7494.000000;-0.029737
7493.000000;-0.030072
7492.000000;-0.030284
7491.000000;-0.030409
7490.000000;-0.030468
7489.000000;-0.030538
7488.000000;-0.030696
7487.000000;-0.030934
7486.000000;-0.031180
7485.000000;-0.031417
7484.000000;-0.031700
7483.000000;-0.032023
7482.000000;-0.032299
7481.000000;-0.032486
7480.000000;-0.032645
7479.000000;-0.032831
7478.000000;-0.033035
7477.000000;-0.033259
7476.000000;-0.033551
7475.000000;-0.033902
7474.000000;-0.034210
7473.000000;-0.034419
7472.000000;-0.034591
7471.000000;-0.034803
7470.000000;-0.035040
7469.000000;-0.035261
7468.000000;-0.035466
7467.000000;-0.035656
7466.000000;-0.035800
7465.000000;-0.035900
7464.000000;-0.036009
7463.000000;-0.036147
7462.000000;-0.036273
7461.000000;-0.036384
7460.000000;-0.036544
7459.000000;-0.036784
7458.000000;-0.037054
7457.000000;-0.037325
7456.000000;-0.037634
7455.000000;-0.037975
7454.000000;-0.038260
7453.000000;-0.038431
7452.000000;-0.038533
7451.000000;-0.038621
7450.000000;-0.038699
7449.000000;-0.038786
7448.000000;-0.038937
7447.000000;-0.039148
7446.000000;-0.039340
7445.000000;-0.039495
7444.000000;-0.039703
7443.000000;-0.040010
7442.000000;-0.040336
7441.000000;-0.040621
7440.000000;-0.040915
7439.000000;-0.041246
7438.000000;-0.041537
7437.000000;-0.041721
7436.000000;-0.041842
7435.000000;-0.041970
7434.000000;-0.042115
7433.000000;-0.042306
7432.000000;-0.042615
7431.000000;-0.043038
7430.000000;-0.043439
7429.000000;-0.043709
7428.000000;-0.043877
7427.000000;-0.043992
7426.000000;-0.044038
7425.000000;-0.044043
7424.000000;-0.044127
7423.000000;-0.044296
7422.000000;-0.044353
7421.000000;-0.044183
7420.000000;-0.043990
7419.000000;-0.044077
7418.000000;-0.044476
7417.000000;-0.044950
7416.000000;-0.045300
7415.000000;-0.045513
7414.000000;-0.045681
7413.000000;-0.045885
7412.000000;-0.046153
7411.000000;-0.046467
7410.000000;-0.046798
7409.000000;-0.047136
7408.000000;-0.047425
7407.000000;-0.047527
7406.000000;-0.047403
7405.000000;-0.047284
7404.000000;-0.047466
7403.000000;-0.047924
7402.000000;-0.048324
7401.000000;-0.048412
7400.000000;-0.048214
7399.000000;-0.047952
7398.000000;-0.047878
7397.000000;-0.048109
7396.000000;-0.048493
7395.000000;-0.048771
7394.000000;-0.048983
7393.000000;-0.049505
7392.000000;-0.050473
7391.000000;-0.051446
7390.000000;-0.051904
7389.000000;-0.051884
7388.000000;-0.051753
7387.000000;-0.051577
7386.000000;-0.051218
7385.000000;-0.050901
7384.000000;-0.050973
7383.000000;-0.051101
7382.000000;-0.050554
7381.000000;-0.049534
7380.000000;-0.049338
7379.000000;-0.050559
7378.000000;-0.051953
7377.000000;-0.051957
7376.000000;-0.050725
7375.000000;-0.049864
7374.000000;-0.050421
7373.000000;-0.051938
7372.000000;-0.053317
7371.000000;-0.053863
7370.000000;-0.053542
7369.000000;-0.052909
7368.000000;-0.052750
7367.000000;-0.053316
7366.000000;-0.054036
7365.000000;-0.054377
7364.000000;-0.054551
7363.000000;-0.054906
7362.000000;-0.055174
7361.000000;-0.055078
7360.000000;-0.055176
7359.000000;-0.055984
7358.000000;-0.056750
7357.000000;-0.056321
7356.000000;-0.054962
7355.000000;-0.054175
7354.000000;-0.054716
7353.000000;-0.055921
7352.000000;-0.056934
7351.000000;-0.057398
7350.000000;-0.057060
7349.000000;-0.056038
7348.000000;-0.055387
7347.000000;-0.056035
7346.000000;-0.057238
7345.000000;-0.057498
7344.000000;-0.056754
7343.000000;-0.056050
7342.000000;-0.055292
7341.000000;-0.053426
7340.000000;-0.051133
7339.000000;-0.051054
7338.000000;-0.054132
7337.000000;-0.057955
7336.000000;-0.059928
7335.000000;-0.060079
7334.000000;-0.059836
7333.000000;-0.059895
7332.000000;-0.060290
7331.000000;-0.060934
7330.000000;-0.061006
7329.000000;-0.059406
7328.000000;-0.056900
7327.000000;-0.056150
7326.000000;-0.058211
7325.000000;-0.060797
7324.000000;-0.061552
7323.000000;-0.061135
7322.000000;-0.061599
7321.000000;-0.063132
7320.000000;-0.064181
7319.000000;-0.064035
7318.000000;-0.063374
7317.000000;-0.062781
7316.000000;-0.062421
7315.000000;-0.062661
7314.000000;-0.063423
7313.000000;-0.063453
7312.000000;-0.061958
7311.000000;-0.060390
7310.000000;-0.060682
7309.000000;-0.062236
7308.000000;-0.062808
7307.000000;-0.061994
7306.000000;-0.061755
7305.000000;-0.063249
7304.000000;-0.065244
7303.000000;-0.066337
7302.000000;-0.066645
7301.000000;-0.066657
7300.000000;-0.066288
7299.000000;-0.065898
7298.000000;-0.066542
7297.000000;-0.068044
7296.000000;-0.068471
7295.000000;-0.066762
7294.000000;-0.064618
7293.000000;-0.064441
7292.000000;-0.066091
7291.000000;-0.067350
7290.000000;-0.066952
7289.000000;-0.065638
7288.000000;-0.064739
7287.000000;-0.064866
7286.000000;-0.065889
7285.000000;-0.067305
7284.000000;-0.068408
7283.000000;-0.068752
7282.000000;-0.068575
7281.000000;-0.068470
7280.000000;-0.068651
7279.000000;-0.068884
7278.000000;-0.069034
7277.000000;-0.069158
7276.000000;-0.069188
7275.000000;-0.068927
7274.000000;-0.068410
7273.000000;-0.067997
7272.000000;-0.068016
7271.000000;-0.068422
7270.000000;-0.068845
7269.000000;-0.068933
7268.000000;-0.068693
7267.000000;-0.068520
7266.000000;-0.068711
7265.000000;-0.068939
7264.000000;-0.068540
7263.000000;-0.067470
7262.000000;-0.066621
7261.000000;-0.066850
7260.000000;-0.067942
7259.000000;-0.068961
7258.000000;-0.069391
7257.000000;-0.069426
7256.000000;-0.069231
7255.000000;-0.068590
7254.000000;-0.067495
7253.000000;-0.066538
7252.000000;-0.066448
7251.000000;-0.067286
7250.000000;-0.068280
7249.000000;-0.068590
7248.000000;-0.068237
7247.000000;-0.068019
7246.000000;-0.068185
7245.000000;-0.067662
7244.000000;-0.065371
7243.000000;-0.062183
7242.000000;-0.060630
7241.000000;-0.062067
7240.000000;-0.064992
7239.000000;-0.066988
7238.000000;-0.067454
7237.000000;-0.067600
7236.000000;-0.068243
7235.000000;-0.068494
7234.000000;-0.066944
7233.000000;-0.063755
7232.000000;-0.061224
7231.000000;-0.061744
7230.000000;-0.065063
7229.000000;-0.068389
7228.000000;-0.069383
7227.000000;-0.068344
7226.000000;-0.067354
7225.000000;-0.067924
7224.000000;-0.069783
7223.000000;-0.071573
7222.000000;-0.072213
7221.000000;-0.071612
7220.000000;-0.070631
7219.000000;-0.070379
7218.000000;-0.071224
7217.000000;-0.072495
7216.000000;-0.073314
7215.000000;-0.073559
7214.000000;-0.073814
7213.000000;-0.074409
7212.000000;-0.074985
7211.000000;-0.075148
7210.000000;-0.075098
7209.000000;-0.075200
7208.000000;-0.075285
7207.000000;-0.074790
7206.000000;-0.073517
7205.000000;-0.072033
7204.000000;-0.071322
7203.000000;-0.071982
7202.000000;-0.073682
7201.000000;-0.075449
7200.000000;-0.076541
7199.000000;-0.077037
7198.000000;-0.077448
7197.000000;-0.077904
7196.000000;-0.078057
7195.000000;-0.077860
7194.000000;-0.077902
7193.000000;-0.078581
7192.000000;-0.079441
7191.000000;-0.079802
7190.000000;-0.079729
7189.000000;-0.079730
7188.000000;-0.079837
7187.000000;-0.079778
7186.000000;-0.079815
7185.000000;-0.080447
7184.000000;-0.081260
7183.000000;-0.081133
7182.000000;-0.079919
7181.000000;-0.079007
7180.000000;-0.079591
7179.000000;-0.081093
7178.000000;-0.082103
7177.000000;-0.082195
7176.000000;-0.081994
7175.000000;-0.082063
7174.000000;-0.082453
7173.000000;-0.083012
7172.000000;-0.083438
7171.000000;-0.083142
7170.000000;-0.081864
7169.000000;-0.080269
7168.000000;-0.079335
7167.000000;-0.079399
7166.000000;-0.080249
7165.000000;-0.081743
7164.000000;-0.083509
7163.000000;-0.084599
7162.000000;-0.084398
7161.000000;-0.083713
7160.000000;-0.084013
7159.000000;-0.085465
7158.000000;-0.086729
7157.000000;-0.086927
7156.000000;-0.086688
7155.000000;-0.086965
7154.000000;-0.087726
7153.000000;-0.088311
7152.000000;-0.088452
7151.000000;-0.088437
7150.000000;-0.088601
7149.000000;-0.089009
7148.000000;-0.089460
7147.000000;-0.089597
7146.000000;-0.089136
7145.000000;-0.088280
7144.000000;-0.087744
7143.000000;-0.087986
7142.000000;-0.088451
7141.000000;-0.088184
7140.000000;-0.087238
7139.000000;-0.086872
7138.000000;-0.087942
7137.000000;-0.089654
7136.000000;-0.090627
7135.000000;-0.090664
7134.000000;-0.090753
7133.000000;-0.091518
7132.000000;-0.092478
7131.000000;-0.092983
7130.000000;-0.093125
7129.000000;-0.093322
7128.000000;-0.093588
7127.000000;-0.093764
7126.000000;-0.093992
7125.000000;-0.094365
7124.000000;-0.094507
7123.000000;-0.094174
7122.000000;-0.093917
7121.000000;-0.094371
7120.000000;-0.095051
7119.000000;-0.094805
7118.000000;-0.093598
7117.000000;-0.092927
7116.000000;-0.093888
7115.000000;-0.095653
7114.000000;-0.096686
7113.000000;-0.096700
7112.000000;-0.096574
7111.000000;-0.096856
7110.000000;-0.097200
7109.000000;-0.097188
7108.000000;-0.096907
7107.000000;-0.096622
7106.000000;-0.096525
7105.000000;-0.096833
7104.000000;-0.097665
7103.000000;-0.098702
7102.000000;-0.099372
7101.000000;-0.099486
7100.000000;-0.099471
7099.000000;-0.099835
7098.000000;-0.100503
7097.000000;-0.100910
7096.000000;-0.100754
7095.000000;-0.100397
7094.000000;-0.100418
7093.000000;-0.100930
7092.000000;-0.101540
7091.000000;-0.101904
7090.000000;-0.102107
7089.000000;-0.102421
7088.000000;-0.102865
7087.000000;-0.103191
7086.000000;-0.103281
7085.000000;-0.103360
7084.000000;-0.103677
7083.000000;-0.104150
7082.000000;-0.104487
7081.000000;-0.104601
7080.000000;-0.104760
7079.000000;-0.105186
7078.000000;-0.105690
7077.000000;-0.105918
7076.000000;-0.105896
7075.000000;-0.105985
7074.000000;-0.106315
7073.000000;-0.106602
7072.000000;-0.106600
7071.000000;-0.106469
7070.000000;-0.106511
7069.000000;-0.106752
7068.000000;-0.107002
7067.000000;-0.107190
7066.000000;-0.107436
7065.000000;-0.107819
7064.000000;-0.108277
7063.000000;-0.108749
7062.000000;-0.109239
7061.000000;-0.109682
7060.000000;-0.109954
7059.000000;-0.110079
7058.000000;-0.110237
7057.000000;-0.110519
7056.000000;-0.110838
7055.000000;-0.111084
7054.000000;-0.111277
7053.000000;-0.111530
7052.000000;-0.111928
7051.000000;-0.112416
7050.000000;-0.112815
7049.000000;-0.112948
7048.000000;-0.112820
7047.000000;-0.112673
7046.000000;-0.112756
7045.000000;-0.113060
7044.000000;-0.113376
7043.000000;-0.113613
7042.000000;-0.113888
7041.000000;-0.114279
7040.000000;-0.114689
7039.000000;-0.115023
7038.000000;-0.115332
7037.000000;-0.115680
7036.000000;-0.116002
7035.000000;-0.116213
7034.000000;-0.116356
7033.000000;-0.116545
7032.000000;-0.116819
7031.000000;-0.117143
7030.000000;-0.117470
7029.000000;-0.117750
7028.000000;-0.117935
7027.000000;-0.118061
7026.000000;-0.118224
7025.000000;-0.118424
7024.000000;-0.118539
7023.000000;-0.118554
7022.000000;-0.118679
7021.000000;-0.119101
7020.000000;-0.119728
7019.000000;-0.120300
7018.000000;-0.120692
7017.000000;-0.120961
7016.000000;-0.121165
7015.000000;-0.121317
7014.000000;-0.121497
7013.000000;-0.121823
7012.000000;-0.122284
7011.000000;-0.122740
7010.000000;-0.123089
7009.000000;-0.123326
7008.000000;-0.123455
7007.000000;-0.123490
7006.000000;-0.123523
7005.000000;-0.123668
7004.000000;-0.123921
7003.000000;-0.124184
7002.000000;-0.124436
7001.000000;-0.124752
7000.000000;-0.125138
6999.000000;-0.125490
6998.000000;-0.125768
6997.000000;-0.126051
6996.000000;-0.126384
6995.000000;-0.126689
6994.000000;-0.126911
6993.000000;-0.127136
6992.000000;-0.127465
6991.000000;-0.127851
6990.000000;-0.128155
6989.000000;-0.128322
6988.000000;-0.128398
6987.000000;-0.128443
6986.000000;-0.128517
6985.000000;-0.128692
6984.000000;-0.128970
6983.000000;-0.129240
6982.000000;-0.129416
6981.000000;-0.129577
6980.000000;-0.129888
6979.000000;-0.130367
6978.000000;-0.130837
6977.000000;-0.131153
6976.000000;-0.131374
6975.000000;-0.131642
6974.000000;-0.131952
6973.000000;-0.132175
6972.000000;-0.132278
6971.000000;-0.132394
6970.000000;-0.132625
6969.000000;-0.132916
6968.000000;-0.133176
6967.000000;-0.133433
6966.000000;-0.133775
6965.000000;-0.134182
6964.000000;-0.134526
6963.000000;-0.134762
6962.000000;-0.134978
6961.000000;-0.135243
6960.000000;-0.135522
6959.000000;-0.135761
6958.000000;-0.135951
6957.000000;-0.136088
6956.000000;-0.136188
6955.000000;-0.136345
6954.000000;-0.136680
6953.000000;-0.137186
6952.000000;-0.137718
6951.000000;-0.138162
6950.000000;-0.138517
6949.000000;-0.138781
6948.000000;-0.138897
6947.000000;-0.138898
6946.000000;-0.138982
6945.000000;-0.139300
6944.000000;-0.139748
6943.000000;-0.140105
6942.000000;-0.140324
6941.000000;-0.140513
6940.000000;-0.140704
6939.000000;-0.140828
6938.000000;-0.140916
6937.000000;-0.141118
6936.000000;-0.141496
6935.000000;-0.141933
6934.000000;-0.142298
6933.000000;-0.142578
6932.000000;-0.142810
6931.000000;-0.142996
6930.000000;-0.143157
6929.000000;-0.143377
6928.000000;-0.143711
6927.000000;-0.144108
6926.000000;-0.144495
6925.000000;-0.144869
6924.000000;-0.145232
6923.000000;-0.145543
6922.000000;-0.145794
6921.000000;-0.146044
6920.000000;-0.146265
6919.000000;-0.146305
6918.000000;-0.146114
6917.000000;-0.145948
6916.000000;-0.146162
6915.000000;-0.146813
6914.000000;-0.147587
6913.000000;-0.148150
6912.000000;-0.148447
6911.000000;-0.148636
6910.000000;-0.148842
6909.000000;-0.149071
6908.000000;-0.149299
6907.000000;-0.149526
6906.000000;-0.149737
6905.000000;-0.149915
6904.000000;-0.150075
6903.000000;-0.150274
6902.000000;-0.150560
6901.000000;-0.150915
6900.000000;-0.151266
6899.000000;-0.151566
6898.000000;-0.151825
6897.000000;-0.152047
6896.000000;-0.152191
6895.000000;-0.152237
6894.000000;-0.152262
6893.000000;-0.152392
6892.000000;-0.152680
6891.000000;-0.153080
6890.000000;-0.153523
6889.000000;-0.153958
6888.000000;-0.154339
6887.000000;-0.154640
6886.000000;-0.154884
6885.000000;-0.155118
6884.000000;-0.155349
6883.000000;-0.155555
6882.000000;-0.155766
6881.000000;-0.156060
6880.000000;-0.156452
6879.000000;-0.156847
6878.000000;-0.157143
6877.000000;-0.157354
6876.000000;-0.157588
6875.000000;-0.157913
6874.000000;-0.158283
6873.000000;-0.158604
6872.000000;-0.158840
6871.000000;-0.159033
6870.000000;-0.159231
6869.000000;-0.159433
6868.000000;-0.159627
6867.000000;-0.159841
6866.000000;-0.160112
6865.000000;-0.160413
6864.000000;-0.160658
6863.000000;-0.160809
6862.000000;-0.160932
6861.000000;-0.161130
6860.000000;-0.161442
6859.000000;-0.161818
6858.000000;-0.162177
6857.000000;-0.162466
6856.000000;-0.162704
6855.000000;-0.162968
6854.000000;-0.163316
6853.000000;-0.163728
6852.000000;-0.164128
6851.000000;-0.164455
6850.000000;-0.164704
6849.000000;-0.164891
6848.000000;-0.165038
6847.000000;-0.165187
6846.000000;-0.165390
6845.000000;-0.165669
6844.000000;-0.165989
6843.000000;-0.166304
6842.000000;-0.166596
6841.000000;-0.166852
6840.000000;-0.167057
6839.000000;-0.167229
6838.000000;-0.167421
6837.000000;-0.167644
6836.000000;-0.167840
6835.000000;-0.167988
6834.000000;-0.168173
6833.000000;-0.168482
6832.000000;-0.168866
6831.000000;-0.169192
6830.000000;-0.169427
6829.000000;-0.169667
6828.000000;-0.169968
6827.000000;-0.170259
6826.000000;-0.170470
6825.000000;-0.170654
6824.000000;-0.170918
6823.000000;-0.171270
6822.000000;-0.171620
6821.000000;-0.171903
6820.000000;-0.172132
6819.000000;-0.172348
6818.000000;-0.172570
6817.000000;-0.172804
6816.000000;-0.173063
6815.000000;-0.173360
6814.000000;-0.173693
6813.000000;-0.174051
6812.000000;-0.174411
6811.000000;-0.174732
6810.000000;-0.175000
6809.000000;-0.175246
6808.000000;-0.175495
6807.000000;-0.175703
6806.000000;-0.175809
6805.000000;-0.175848
6804.000000;-0.175948
6803.000000;-0.176181
6802.000000;-0.176470
6801.000000;-0.176701
6800.000000;-0.176888
6799.000000;-0.177157
6798.000000;-0.177579
6797.000000;-0.178075
6796.000000;-0.178516
6795.000000;-0.178833
6794.000000;-0.179020
6793.000000;-0.179101
6792.000000;-0.179150
6791.000000;-0.179289
6790.000000;-0.179591
6789.000000;-0.179992
6788.000000;-0.180354
6787.000000;-0.180622
6786.000000;-0.180869
6785.000000;-0.181184
6784.000000;-0.181562
6783.000000;-0.181927
6782.000000;-0.182219
6781.000000;-0.182426
6780.000000;-0.182577
6779.000000;-0.182724
6778.000000;-0.182917
6777.000000;-0.183161
6776.000000;-0.183424
6775.000000;-0.183683
6774.000000;-0.183943
6773.000000;-0.184202
6772.000000;-0.184438
6771.000000;-0.184663
6770.000000;-0.184923
6769.000000;-0.185219
6768.000000;-0.185482
6767.000000;-0.185671
6766.000000;-0.185851
6765.000000;-0.186122
6764.000000;-0.186487
6763.000000;-0.186849
6762.000000;-0.187123
6761.000000;-0.187298
6760.000000;-0.187431
6759.000000;-0.187600
6758.000000;-0.187846
6757.000000;-0.188125
6756.000000;-0.188346
6755.000000;-0.188482
6754.000000;-0.188631
6753.000000;-0.188896
6752.000000;-0.189251
6751.000000;-0.189587
6750.000000;-0.189855
6749.000000;-0.190098
6748.000000;-0.190369
6747.000000;-0.190679
6746.000000;-0.191033
6745.000000;-0.191434
6744.000000;-0.191845
6743.000000;-0.192199
6742.000000;-0.192470
6741.000000;-0.192694
6740.000000;-0.192917
6739.000000;-0.193139
6738.000000;-0.193347
6737.000000;-0.193547
6736.000000;-0.193762
6735.000000;-0.194005
6734.000000;-0.194269
6733.000000;-0.194524
6732.000000;-0.194736
6731.000000;-0.194902
6730.000000;-0.195072
6729.000000;-0.195293
6728.000000;-0.195556
6727.000000;-0.195813
6726.000000;-0.196044
6725.000000;-0.196269
6724.000000;-0.196499
6723.000000;-0.196720
6722.000000;-0.196942
6721.000000;-0.197198
6720.000000;-0.197502
6719.000000;-0.197825
6718.000000;-0.198143
6717.000000;-0.198451
6716.000000;-0.198730
6715.000000;-0.198940
6714.000000;-0.199095
6713.000000;-0.199270
6712.000000;-0.199556
6711.000000;-0.199925
6710.000000;-0.200264
6709.000000;-0.200526
6708.000000;-0.200724
6707.000000;-0.200886
6706.000000;-0.201042
6705.000000;-0.201261
6704.000000;-0.201513
6703.000000;-0.201827
6702.000000;-0.202046
6701.000000;-0.202226
6700.000000;-0.202481
6699.000000;-0.202677
6698.000000;-0.202908
6697.000000;-0.203162
6696.000000;-0.203431
6695.000000;-0.203672
6694.000000;-0.203889
6693.000000;-0.204115
6692.000000;-0.204377
6691.000000;-0.204656
6690.000000;-0.204912
6689.000000;-0.205114
6688.000000;-0.205269
6687.000000;-0.205419
6686.000000;-0.205608
6685.000000;-0.205846
6684.000000;-0.206095
6683.000000;-0.206324
6682.000000;-0.206553
6681.000000;-0.206833
6680.000000;-0.207174
6679.000000;-0.207535
6678.000000;-0.207867
6677.000000;-0.208156
6676.000000;-0.208405
6675.000000;-0.208618
6674.000000;-0.208801
6673.000000;-0.208967
6672.000000;-0.209142
6671.000000;-0.209357
6670.000000;-0.209634
6669.000000;-0.209957
6668.000000;-0.210253
6667.000000;-0.210447
6666.000000;-0.210551
6665.000000;-0.210667
6664.000000;-0.210891
6663.000000;-0.211224
6662.000000;-0.211579
6661.000000;-0.211871
6660.000000;-0.212083
6659.000000;-0.212268
6658.000000;-0.212491
6657.000000;-0.212776
6656.000000;-0.213095
6655.000000;-0.213404
6654.000000;-0.213673
6653.000000;-0.213889
6652.000000;-0.214063
6651.000000;-0.214235
6650.000000;-0.214470
6649.000000;-0.214798
6648.000000;-0.215171
6647.000000;-0.215508
6646.000000;-0.215771
6645.000000;-0.215987
6644.000000;-0.216196
6643.000000;-0.216405
6642.000000;-0.216599
6641.000000;-0.216775
6640.000000;-0.216955
6639.000000;-0.217171
6638.000000;-0.217438
6637.000000;-0.217732
6636.000000;-0.218000
6635.000000;-0.218218
6634.000000;-0.218426
6633.000000;-0.218684
6632.000000;-0.219002
6631.000000;-0.219334
6630.000000;-0.219650
6629.000000;-0.219955
6628.000000;-0.220251
6627.000000;-0.220508
6626.000000;-0.220693
6625.000000;-0.220819
6624.000000;-0.220944
6623.000000;-0.221126
6622.000000;-0.221384
6621.000000;-0.221682
6620.000000;-0.221955
6619.000000;-0.222166
6618.000000;-0.222333
6617.000000;-0.222506
6616.000000;-0.222709
6615.000000;-0.222932
6614.000000;-0.223163
6613.000000;-0.223402
6612.000000;-0.223657
6611.000000;-0.223928
6610.000000;-0.224212
6609.000000;-0.224503
6608.000000;-0.224788
6607.000000;-0.225051
6606.000000;-0.225287
6605.000000;-0.225499
6604.000000;-0.225705
6603.000000;-0.225937
6602.000000;-0.226227
6601.000000;-0.226564
6600.000000;-0.226880
6599.000000;-0.227111
6598.000000;-0.227264
6597.000000;-0.227406
6596.000000;-0.227594
6595.000000;-0.227830
6594.000000;-0.228088
6593.000000;-0.228344
6592.000000;-0.228577
6591.000000;-0.228778
6590.000000;-0.228961
6589.000000;-0.229167
6588.000000;-0.229441
6587.000000;-0.229798
6586.000000;-0.230207
6585.000000;-0.230599
6584.000000;-0.230905
6583.000000;-0.231117
6582.000000;-0.231291
6581.000000;-0.231500
6580.000000;-0.231761
6579.000000;-0.232049
6578.000000;-0.232340
6577.000000;-0.232631
6576.000000;-0.232902
6575.000000;-0.233118
6574.000000;-0.233271
6573.000000;-0.233400
6572.000000;-0.233560
6571.000000;-0.233784
6570.000000;-0.234074
6569.000000;-0.234412
6568.000000;-0.234761
6567.000000;-0.235080
6566.000000;-0.235338
6565.000000;-0.235525
6564.000000;-0.235651
6563.000000;-0.235746
6562.000000;-0.235859
6561.000000;-0.236033
6560.000000;-0.236264
6559.000000;-0.236513
6558.000000;-0.236757
6557.000000;-0.237014
6556.000000;-0.237305
6555.000000;-0.237618
6554.000000;-0.237919
6553.000000;-0.238197
6552.000000;-0.238471
6551.000000;-0.238766
6550.000000;-0.239070
6549.000000;-0.239337
6548.000000;-0.239536
6547.000000;-0.239684
6546.000000;-0.239828
6545.000000;-0.239994
6544.000000;-0.240176
6543.000000;-0.240362
6542.000000;-0.240571
6541.000000;-0.240827
6540.000000;-0.241136
6539.000000;-0.241474
6538.000000;-0.241816
6537.000000;-0.242146
6536.000000;-0.242454
6535.000000;-0.242730
6534.000000;-0.242962
6533.000000;-0.243148
6532.000000;-0.243308
6531.000000;-0.243480
6530.000000;-0.243695
6529.000000;-0.243941
6528.000000;-0.244193
6527.000000;-0.244457
6526.000000;-0.244754
6525.000000;-0.245070
6524.000000;-0.245349
6523.000000;-0.245570
6522.000000;-0.245774
6521.000000;-0.246006
6520.000000;-0.246247
6519.000000;-0.246455
6518.000000;-0.246631
6517.000000;-0.246818
6516.000000;-0.247030
6515.000000;-0.247245
6514.000000;-0.247452
6513.000000;-0.247666
6512.000000;-0.247886
6511.000000;-0.248082
6510.000000;-0.248232
6509.000000;-0.248358
6508.000000;-0.248513
6507.000000;-0.248735
6506.000000;-0.249033
6505.000000;-0.249388
6504.000000;-0.249748
6503.000000;-0.250054
6502.000000;-0.250273
6501.000000;-0.250415
6500.000000;-0.250530
6499.000000;-0.250673
6498.000000;-0.250883
6497.000000;-0.251164
6496.000000;-0.251479
6495.000000;-0.251770
6494.000000;-0.251997
6493.000000;-0.252172
6492.000000;-0.252346
6491.000000;-0.252571
6490.000000;-0.252849
6489.000000;-0.253144
6488.000000;-0.253421
6487.000000;-0.253673
6486.000000;-0.253900
6485.000000;-0.254092
6484.000000;-0.254250
6483.000000;-0.254414
6482.000000;-0.254631
6481.000000;-0.254898
6480.000000;-0.255165
6479.000000;-0.255403
6478.000000;-0.255632
6477.000000;-0.255883
6476.000000;-0.256157
6475.000000;-0.256446
6474.000000;-0.256742
6473.000000;-0.257027
6472.000000;-0.257274
6471.000000;-0.257481
6470.000000;-0.257673
6469.000000;-0.257865
6468.000000;-0.258052
6467.000000;-0.258247
6466.000000;-0.258478
6465.000000;-0.258742
6464.000000;-0.258990
6463.000000;-0.259194
6462.000000;-0.259392
6461.000000;-0.259631
6460.000000;-0.259892
6459.000000;-0.260120
6458.000000;-0.260305
6457.000000;-0.260475
6456.000000;-0.260650
6455.000000;-0.260823
6454.000000;-0.260996
6453.000000;-0.261191
6452.000000;-0.261422
6451.000000;-0.261684
6450.000000;-0.261962
6449.000000;-0.262249
6448.000000;-0.262540
6447.000000;-0.262842
6446.000000;-0.263156
6445.000000;-0.263452
6444.000000;-0.263685
6443.000000;-0.263850
6442.000000;-0.264001
6441.000000;-0.264188
6440.000000;-0.264403
6439.000000;-0.264611
6438.000000;-0.264812
6437.000000;-0.265039
6436.000000;-0.265311
6435.000000;-0.265611
6434.000000;-0.265903
6433.000000;-0.266151
6432.000000;-0.266336
6431.000000;-0.266481
6430.000000;-0.266641
6429.000000;-0.266846
6428.000000;-0.267079
6427.000000;-0.267314
6426.000000;-0.267548
6425.000000;-0.267785
6424.000000;-0.268008
6423.000000;-0.268203
6422.000000;-0.268378
6421.000000;-0.268544
6420.000000;-0.268708
6419.000000;-0.268897
6418.000000;-0.269150
6417.000000;-0.269456
6416.000000;-0.269745
6415.000000;-0.269971
6414.000000;-0.270181
6413.000000;-0.270440
6412.000000;-0.270732
6411.000000;-0.270984
6410.000000;-0.271165
6409.000000;-0.271316
6408.000000;-0.271489
6407.000000;-0.271705
6406.000000;-0.271965
6405.000000;-0.272256
6404.000000;-0.272546
6403.000000;-0.272808
6402.000000;-0.273039
6401.000000;-0.273242
6400.000000;-0.273410
6399.000000;-0.273561
6398.000000;-0.273752
6397.000000;-0.274019
6396.000000;-0.274317
6395.000000;-0.274567
6394.000000;-0.274739
6393.000000;-0.274857
6392.000000;-0.274950
6391.000000;-0.275042
6390.000000;-0.275178
6389.000000;-0.275400
6388.000000;-0.275695
6387.000000;-0.276004
6386.000000;-0.276285
6385.000000;-0.276535
6384.000000;-0.276766
6383.000000;-0.276992
6382.000000;-0.277232
6381.000000;-0.277493
6380.000000;-0.277749
6379.000000;-0.277981
6378.000000;-0.278206
6377.000000;-0.278449
6376.000000;-0.278690
6375.000000;-0.278897
6374.000000;-0.279079
6373.000000;-0.279272
6372.000000;-0.279477
6371.000000;-0.279670
6370.000000;-0.279862
6369.000000;-0.280077
6368.000000;-0.280305
6367.000000;-0.280510
6366.000000;-0.280706
6365.000000;-0.280956
6364.000000;-0.281279
6363.000000;-0.281628
6362.000000;-0.281936
6361.000000;-0.282175
6360.000000;-0.282340
6359.000000;-0.282449
6358.000000;-0.282558
6357.000000;-0.282733
6356.000000;-0.282983
6355.000000;-0.283259
6354.000000;-0.283521
6353.000000;-0.283778
6352.000000;-0.284040
6351.000000;-0.284293
6350.000000;-0.284519
6349.000000;-0.284722
6348.000000;-0.284910
6347.000000;-0.285083
6346.000000;-0.285247
6345.000000;-0.285423
6344.000000;-0.285618
6343.000000;-0.285804
6342.000000;-0.285961
6341.000000;-0.286100
6340.000000;-0.286254
6339.000000;-0.286449
6338.000000;-0.286694
6337.000000;-0.286972
6336.000000;-0.287250
6335.000000;-0.287505
6334.000000;-0.287748
6333.000000;-0.287999
6332.000000;-0.288248
6331.000000;-0.288471
6330.000000;-0.288667
6329.000000;-0.288858
6328.000000;-0.289049
6327.000000;-0.289229
6326.000000;-0.289402
6325.000000;-0.289594
6324.000000;-0.289817
6323.000000;-0.290054
6322.000000;-0.290284
6321.000000;-0.290502
6320.000000;-0.290711
6319.000000;-0.290922
6318.000000;-0.291148
6317.000000;-0.291387
6316.000000;-0.291609
6315.000000;-0.291790
6314.000000;-0.291948
6313.000000;-0.292127
6312.000000;-0.292345
6311.000000;-0.292590
6310.000000;-0.292851
6309.000000;-0.293129
6308.000000;-0.293413
6307.000000;-0.293680
6306.000000;-0.293914
6305.000000;-0.294115
6304.000000;-0.294279
6303.000000;-0.294417
6302.000000;-0.294560
6301.000000;-0.294727
6300.000000;-0.294905
6299.000000;-0.295078
6298.000000;-0.295263
6297.000000;-0.295487
6296.000000;-0.295740
6295.000000;-0.295996
6294.000000;-0.296259
6293.000000;-0.296550
6292.000000;-0.296853
6291.000000;-0.297122
6290.000000;-0.297344
6289.000000;-0.297553
6288.000000;-0.297785
6287.000000;-0.298042
6286.000000;-0.298309
6285.000000;-0.298570
6284.000000;-0.298798
6283.000000;-0.298980
6282.000000;-0.299138
6281.000000;-0.299309
6280.000000;-0.299497
6279.000000;-0.299680
6278.000000;-0.299857
6277.000000;-0.300054
6276.000000;-0.300277
6275.000000;-0.300509
6274.000000;-0.300747
6273.000000;-0.301008
6272.000000;-0.301272
6271.000000;-0.301475
6270.000000;-0.301579
6269.000000;-0.301632
6268.000000;-0.301726
6267.000000;-0.301913
6266.000000;-0.302165
6265.000000;-0.302409
6264.000000;-0.302593
6263.000000;-0.302730
6262.000000;-0.302882
6261.000000;-0.303085
6260.000000;-0.303306
6259.000000;-0.303494
6258.000000;-0.303652
6257.000000;-0.303831
6256.000000;-0.304064
6255.000000;-0.304335
6254.000000;-0.304620
6253.000000;-0.304907
6252.000000;-0.305180
6251.000000;-0.305433
6250.000000;-0.305674
6249.000000;-0.305907
6248.000000;-0.306107
6247.000000;-0.306250
6246.000000;-0.306373
6245.000000;-0.306554
6244.000000;-0.306827
6243.000000;-0.307144
6242.000000;-0.307439
6241.000000;-0.307685
6240.000000;-0.307886
6239.000000;-0.308047
6238.000000;-0.308186
6237.000000;-0.308338
6236.000000;-0.308528
6235.000000;-0.308751
6234.000000;-0.308988
6233.000000;-0.309225
6232.000000;-0.309455
6231.000000;-0.309671
6230.000000;-0.309884
6229.000000;-0.310104
6228.000000;-0.310330
6227.000000;-0.310547
6226.000000;-0.310763
6225.000000;-0.311000
6224.000000;-0.311256
6223.000000;-0.311501
6222.000000;-0.311720
6221.000000;-0.311934
6220.000000;-0.312158
6219.000000;-0.312379
6218.000000;-0.312579
6217.000000;-0.312771
6216.000000;-0.312978
6215.000000;-0.313200
6214.000000;-0.313418
6213.000000;-0.313621
6212.000000;-0.313827
6211.000000;-0.314052
6210.000000;-0.314296
6209.000000;-0.314537
6208.000000;-0.314758
6207.000000;-0.314956
6206.000000;-0.315149
6205.000000;-0.315352
6204.000000;-0.315560
6203.000000;-0.315770
6202.000000;-0.315985
6201.000000;-0.316205
6200.000000;-0.316414
6199.000000;-0.316597
6198.000000;-0.316764
6197.000000;-0.316943
6196.000000;-0.317148
6195.000000;-0.317372
6194.000000;-0.317598
6193.000000;-0.317809
6192.000000;-0.317996
6191.000000;-0.318169
6190.000000;-0.318361
6189.000000;-0.318604
6188.000000;-0.318897
6187.000000;-0.319202
6186.000000;-0.319466
6185.000000;-0.319659
6184.000000;-0.319805
6183.000000;-0.319970
6182.000000;-0.320210
6181.000000;-0.320503
6180.000000;-0.320776
6179.000000;-0.320988
6178.000000;-0.321171
6177.000000;-0.321371
6176.000000;-0.321591
6175.000000;-0.321794
6174.000000;-0.321959
6173.000000;-0.322090
6172.000000;-0.322218
6171.000000;-0.322393
6170.000000;-0.322655
6169.000000;-0.322983
6168.000000;-0.323298
6167.000000;-0.323541
6166.000000;-0.323717
6165.000000;-0.323870
6164.000000;-0.324033
6163.000000;-0.324233
6162.000000;-0.324500
6161.000000;-0.324820
6160.000000;-0.325131
6159.000000;-0.325386
6158.000000;-0.325608
6157.000000;-0.325833
6156.000000;-0.326048
6155.000000;-0.326226
6154.000000;-0.326389
6153.000000;-0.326582
6152.000000;-0.326815
6151.000000;-0.327063
6150.000000;-0.327320
6149.000000;-0.327588
6148.000000;-0.327836
6147.000000;-0.328023
6146.000000;-0.328148
6145.000000;-0.328250
6144.000000;-0.328356
6143.000000;-0.328488
6142.000000;-0.328672
6141.000000;-0.328917
6140.000000;-0.329182
6139.000000;-0.329417
6138.000000;-0.329634
6137.000000;-0.329885
6136.000000;-0.330183
6135.000000;-0.330489
6134.000000;-0.330766
6133.000000;-0.331009
6132.000000;-0.331220
6131.000000;-0.331406
6130.000000;-0.331590
6129.000000;-0.331787
6128.000000;-0.331971
6127.000000;-0.332122
6126.000000;-0.332276
6125.000000;-0.332502
6124.000000;-0.332800
6123.000000;-0.333090
6122.000000;-0.333304
6121.000000;-0.333449
6120.000000;-0.333578
6119.000000;-0.333730
6118.000000;-0.333912
6117.000000;-0.334107
6116.000000;-0.334298
6115.000000;-0.334499
6114.000000;-0.334742
6113.000000;-0.335034
6112.000000;-0.335323
6111.000000;-0.335554
6110.000000;-0.335730
6109.000000;-0.335894
6108.000000;-0.336063
6107.000000;-0.336238
6106.000000;-0.336436
6105.000000;-0.336670
6104.000000;-0.336914
6103.000000;-0.337142
6102.000000;-0.337380
6101.000000;-0.337670
6100.000000;-0.337985
6099.000000;-0.338246
6098.000000;-0.338422
6097.000000;-0.338558
6096.000000;-0.338709
6095.000000;-0.338887
6094.000000;-0.339092
6093.000000;-0.339332
6092.000000;-0.339609
6091.000000;-0.339906
6090.000000;-0.340218
6089.000000;-0.340544
6088.000000;-0.340854
6087.000000;-0.341110
6086.000000;-0.341315
6085.000000;-0.341512
6084.000000;-0.341710
6083.000000;-0.341877
6082.000000;-0.342001
6081.000000;-0.342112
6080.000000;-0.342243
6079.000000;-0.342395
6078.000000;-0.342571
6077.000000;-0.342782
6076.000000;-0.343020
6075.000000;-0.343249
6074.000000;-0.343453
6073.000000;-0.343649
6072.000000;-0.343863
6071.000000;-0.344112
6070.000000;-0.344397
6069.000000;-0.344698
6068.000000;-0.344962
6067.000000;-0.345146
6066.000000;-0.345272
6065.000000;-0.345413
6064.000000;-0.345610
6063.000000;-0.345843
6062.000000;-0.346079
6061.000000;-0.346306
6060.000000;-0.346518
6059.000000;-0.346713
6058.000000;-0.346912
6057.000000;-0.347145
6056.000000;-0.347417
6055.000000;-0.347697
6054.000000;-0.347969
6053.000000;-0.348236
6052.000000;-0.348487
6051.000000;-0.348690
6050.000000;-0.348847
6049.000000;-0.349005
6048.000000;-0.349206
6047.000000;-0.349444
6046.000000;-0.349690
6045.000000;-0.349921
6044.000000;-0.350132
6043.000000;-0.350337
6042.000000;-0.350565
6041.000000;-0.350828
6040.000000;-0.351093
6039.000000;-0.351308
6038.000000;-0.351476
6037.000000;-0.351657
6036.000000;-0.351891
6035.000000;-0.352154
6034.000000;-0.352399
6033.000000;-0.352610
6032.000000;-0.352808
6031.000000;-0.353016
6030.000000;-0.353241
6029.000000;-0.353459
6028.000000;-0.353633
6027.000000;-0.353753
6026.000000;-0.353873
6025.000000;-0.354067
6024.000000;-0.354344
6023.000000;-0.354645
6022.000000;-0.354917
6021.000000;-0.355158
6020.000000;-0.355379
6019.000000;-0.355568
6018.000000;-0.355706
6017.000000;-0.355816
6016.000000;-0.355954
6015.000000;-0.356167
6014.000000;-0.356454
6013.000000;-0.356753
6012.000000;-0.356990
6011.000000;-0.357145
6010.000000;-0.357279
6009.000000;-0.357474
6008.000000;-0.357754
6007.000000;-0.358080
6006.000000;-0.358392
6005.000000;-0.358643
6004.000000;-0.358811
6003.000000;-0.358926
6002.000000;-0.359075
6001.000000;-0.359316
6000.000000;-0.359615
5999.000000;-0.359880
5998.000000;-0.360076
5997.000000;-0.360247
5996.000000;-0.360451
5995.000000;-0.360697
5994.000000;-0.360967
5993.000000;-0.361245
5992.000000;-0.361511
5991.000000;-0.361748
5990.000000;-0.361962
5989.000000;-0.362174
5988.000000;-0.362392
5987.000000;-0.362612
5986.000000;-0.362836
5985.000000;-0.363062
5984.000000;-0.363262
5983.000000;-0.363407
5982.000000;-0.363518
5981.000000;-0.363660
5980.000000;-0.363876
5979.000000;-0.364150
5978.000000;-0.364436
5977.000000;-0.364698
5976.000000;-0.364908
5975.000000;-0.365066
5974.000000;-0.365201
5973.000000;-0.365354
5972.000000;-0.365538
5971.000000;-0.365746
5970.000000;-0.365968
5969.000000;-0.366200
5968.000000;-0.366420
5967.000000;-0.366606
5966.000000;-0.366759
5965.000000;-0.366904
5964.000000;-0.367065
5963.000000;-0.367268
5962.000000;-0.367544
5961.000000;-0.367892
5960.000000;-0.368262
5959.000000;-0.368595
5958.000000;-0.368873
5957.000000;-0.369104
5956.000000;-0.369279
5955.000000;-0.369397
5954.000000;-0.369503
5953.000000;-0.369654
5952.000000;-0.369863
5951.000000;-0.370105
5950.000000;-0.370374
5949.000000;-0.370677
5948.000000;-0.370971
5947.000000;-0.371196
5946.000000;-0.371356
5945.000000;-0.371533
5944.000000;-0.371782
5943.000000;-0.372080
5942.000000;-0.372376
5941.000000;-0.372657
5940.000000;-0.372943
5939.000000;-0.373238
5938.000000;-0.373527
5937.000000;-0.373788
5936.000000;-0.373999
5935.000000;-0.374164
5934.000000;-0.374312
5933.000000;-0.374469
5932.000000;-0.374628
5931.000000;-0.374774
5930.000000;-0.374929
5929.000000;-0.375137
5928.000000;-0.375402
5927.000000;-0.375684
5926.000000;-0.375942
5925.000000;-0.376166
5924.000000;-0.376355
5923.000000;-0.376517
5922.000000;-0.376683
5921.000000;-0.376885
5920.000000;-0.377117
5919.000000;-0.377337
5918.000000;-0.377525
5917.000000;-0.377704
5916.000000;-0.377902
5915.000000;-0.378129
5914.000000;-0.378377
5913.000000;-0.378635
5912.000000;-0.378879
5911.000000;-0.379096
5910.000000;-0.379302
5909.000000;-0.379522
5908.000000;-0.379752
5907.000000;-0.379967
5906.000000;-0.380159
5905.000000;-0.380349
5904.000000;-0.380558
5903.000000;-0.380804
5902.000000;-0.381100
5901.000000;-0.381433
5900.000000;-0.381747
5899.000000;-0.381994
5898.000000;-0.382189
5897.000000;-0.382390
5896.000000;-0.382622
5895.000000;-0.382865
5894.000000;-0.383100
5893.000000;-0.383329
5892.000000;-0.383550
5891.000000;-0.383755
5890.000000;-0.383952
5889.000000;-0.384166
5888.000000;-0.384406
5887.000000;-0.384666
5886.000000;-0.384937
5885.000000;-0.385211
5884.000000;-0.385461
5883.000000;-0.385662
5882.000000;-0.385832
5881.000000;-0.386010
5880.000000;-0.386220
5879.000000;-0.386456
5878.000000;-0.386713
5877.000000;-0.386979
5876.000000;-0.387222
5875.000000;-0.387426
5874.000000;-0.387612
5873.000000;-0.387811
5872.000000;-0.388021
5871.000000;-0.388224
5870.000000;-0.388434
5869.000000;-0.388678
5868.000000;-0.388946
5867.000000;-0.389208
5866.000000;-0.389464
5865.000000;-0.389741
5864.000000;-0.390036
5863.000000;-0.390319
5862.000000;-0.390579
5861.000000;-0.390833
5860.000000;-0.391085
5859.000000;-0.391308
5858.000000;-0.391487
5857.000000;-0.391647
5856.000000;-0.391831
5855.000000;-0.392067
5854.000000;-0.392350
5853.000000;-0.392642
5852.000000;-0.392897
5851.000000;-0.393116
5850.000000;-0.393355
5849.000000;-0.393639
5848.000000;-0.393917
5847.000000;-0.394124
5846.000000;-0.394273
5845.000000;-0.394429
5844.000000;-0.394617
5843.000000;-0.394813
5842.000000;-0.395005
5841.000000;-0.395214
5840.000000;-0.395443
5839.000000;-0.395672
5838.000000;-0.395890
5837.000000;-0.396102
5836.000000;-0.396308
5835.000000;-0.396504
5834.000000;-0.396717
5833.000000;-0.396972
5832.000000;-0.397249
5831.000000;-0.397495
5830.000000;-0.397691
5829.000000;-0.397861
5828.000000;-0.398038
5827.000000;-0.398258
5826.000000;-0.398557
5825.000000;-0.398931
5824.000000;-0.399305
5823.000000;-0.399597
5822.000000;-0.399803
5821.000000;-0.399983
5820.000000;-0.400188
5819.000000;-0.400425
5818.000000;-0.400696
5817.000000;-0.400997
5816.000000;-0.401293
5815.000000;-0.401541
5814.000000;-0.401739
5813.000000;-0.401922
5812.000000;-0.402105
5811.000000;-0.402291
5810.000000;-0.402495
5809.000000;-0.402727
5808.000000;-0.402962
5807.000000;-0.403175
5806.000000;-0.403393
5805.000000;-0.403649
5804.000000;-0.403920
5803.000000;-0.404155
5802.000000;-0.404369
5801.000000;-0.404622
5800.000000;-0.404933
5799.000000;-0.405253
5798.000000;-0.405538
5797.000000;-0.405785
5796.000000;-0.406005
5795.000000;-0.406210
5794.000000;-0.406430
5793.000000;-0.406683
5792.000000;-0.406940
5791.000000;-0.407160
5790.000000;-0.407363
5789.000000;-0.407611
5788.000000;-0.407921
5787.000000;-0.408237
5786.000000;-0.408508
5785.000000;-0.408725
5784.000000;-0.408910
5783.000000;-0.409103
5782.000000;-0.409354
5781.000000;-0.409676
5780.000000;-0.410001
5779.000000;-0.410249
5778.000000;-0.410419
5777.000000;-0.410582
5776.000000;-0.410776
5775.000000;-0.410983
5774.000000;-0.411198
5773.000000;-0.411444
5772.000000;-0.411716
5771.000000;-0.411978
5770.000000;-0.412224
5769.000000;-0.412484
5768.000000;-0.412770
5767.000000;-0.413058
5766.000000;-0.413340
5765.000000;-0.413630
5764.000000;-0.413923
5763.000000;-0.414183
5762.000000;-0.414404
5761.000000;-0.414612
5760.000000;-0.414815
5759.000000;-0.415003
5758.000000;-0.415194
5757.000000;-0.415429
5756.000000;-0.415706
5755.000000;-0.415978
5754.000000;-0.416228
5753.000000;-0.416490
5752.000000;-0.416790
5751.000000;-0.417093
5750.000000;-0.417354
5749.000000;-0.417562
5748.000000;-0.417741
5747.000000;-0.417933
5746.000000;-0.418184
5745.000000;-0.418501
5744.000000;-0.418837
5743.000000;-0.419127
5742.000000;-0.419356
5741.000000;-0.419559
5740.000000;-0.419764
5739.000000;-0.419983
5738.000000;-0.420243
5737.000000;-0.420553
5736.000000;-0.420873
5735.000000;-0.421146
5734.000000;-0.421369
5733.000000;-0.421591
5732.000000;-0.421838
5731.000000;-0.422097
5730.000000;-0.422364
5729.000000;-0.422649
5728.000000;-0.422938
5727.000000;-0.423206
5726.000000;-0.423458
5725.000000;-0.423718
5724.000000;-0.423977
5723.000000;-0.424214
5722.000000;-0.424449
5721.000000;-0.424726
5720.000000;-0.425037
5719.000000;-0.425328
5718.000000;-0.425574
5717.000000;-0.425798
5716.000000;-0.426021
5715.000000;-0.426251
5714.000000;-0.426512
5713.000000;-0.426834
5712.000000;-0.427193
5711.000000;-0.427526
5710.000000;-0.427803
5709.000000;-0.428044
5708.000000;-0.428269
5707.000000;-0.428486
5706.000000;-0.428718
5705.000000;-0.428988
5704.000000;-0.429274
5703.000000;-0.429527
5702.000000;-0.429735
5701.000000;-0.429925
5700.000000;-0.430096
5699.000000;-0.430246
5698.000000;-0.430385
5697.000000;-0.430635
5696.000000;-0.430938
5695.000000;-0.431244
5694.000000;-0.431563
5693.000000;-0.431858
5692.000000;-0.432112
5691.000000;-0.432311
5690.000000;-0.432519
5689.000000;-0.432810
5688.000000;-0.433179
5687.000000;-0.433551
5686.000000;-0.433887
5685.000000;-0.434203
5684.000000;-0.434498
5683.000000;-0.434739
5682.000000;-0.434924
5681.000000;-0.435102
5680.000000;-0.435300
5679.000000;-0.435489
5678.000000;-0.435646
5677.000000;-0.435800
5676.000000;-0.435997
5675.000000;-0.436256
5674.000000;-0.436576
5673.000000;-0.436931
5672.000000;-0.437268
5671.000000;-0.437543
5670.000000;-0.437766
5669.000000;-0.437978
5668.000000;-0.438198
5667.000000;-0.438428
5666.000000;-0.438687
5665.000000;-0.438981
5664.000000;-0.439262
5663.000000;-0.439478
5662.000000;-0.439657
5661.000000;-0.439882
5660.000000;-0.440181
5659.000000;-0.440514
5658.000000;-0.440845
5657.000000;-0.441170
5656.000000;-0.441471
5655.000000;-0.441723
5654.000000;-0.441945
5653.000000;-0.442192
5652.000000;-0.442475
5651.000000;-0.442755
5650.000000;-0.443009
5649.000000;-0.443246
5648.000000;-0.443469
5647.000000;-0.443672
5646.000000;-0.443872
5645.000000;-0.444098
5644.000000;-0.444350
5643.000000;-0.444609
5642.000000;-0.444878
5641.000000;-0.445160
5640.000000;-0.445411
5639.000000;-0.445598
5638.000000;-0.445765
5637.000000;-0.445990
5636.000000;-0.446275
5635.000000;-0.446552
5634.000000;-0.446780
5633.000000;-0.446978
5632.000000;-0.447173
5631.000000;-0.447385
5630.000000;-0.447649
5629.000000;-0.447984
5628.000000;-0.448339
5627.000000;-0.448641
5626.000000;-0.448894
5625.000000;-0.449159
5624.000000;-0.449453
5623.000000;-0.449740
5622.000000;-0.450017
5621.000000;-0.450315
5620.000000;-0.450624
5619.000000;-0.450893
5618.000000;-0.451116
5617.000000;-0.451343
5616.000000;-0.451598
5615.000000;-0.451860
5614.000000;-0.452117
5613.000000;-0.452382
5612.000000;-0.452637
5611.000000;-0.452848
5610.000000;-0.453023
5609.000000;-0.453197
5608.000000;-0.453380
5607.000000;-0.453565
5606.000000;-0.453775
5605.000000;-0.454036
5604.000000;-0.454313
5603.000000;-0.454554
5602.000000;-0.454770
5601.000000;-0.455011
5600.000000;-0.455282
5599.000000;-0.455549
5598.000000;-0.455812
5597.000000;-0.456087
5596.000000;-0.456342
5595.000000;-0.456548
5594.000000;-0.456755
5593.000000;-0.457036
5592.000000;-0.457366
5591.000000;-0.457654
5590.000000;-0.457889
5589.000000;-0.458130
5588.000000;-0.458388
5587.000000;-0.458616
5586.000000;-0.458820
5585.000000;-0.459059
5584.000000;-0.459337
5583.000000;-0.459600
5582.000000;-0.459836
5581.000000;-0.460079
5580.000000;-0.460319
5579.000000;-0.460518
5578.000000;-0.460703
5577.000000;-0.460946
5576.000000;-0.461229
5575.000000;-0.461468
5574.000000;-0.461646
5573.000000;-0.461832
5572.000000;-0.462049
5571.000000;-0.462254
5570.000000;-0.462455
5569.000000;-0.462728
5568.000000;-0.463070
5567.000000;-0.463383
5566.000000;-0.463616
5565.000000;-0.463831
5564.000000;-0.464067
5563.000000;-0.464286
5562.000000;-0.464463
5561.000000;-0.464639
5560.000000;-0.464837
5559.000000;-0.465022
5558.000000;-0.465192
5557.000000;-0.465413
5556.000000;-0.465716
5555.000000;-0.466042
5554.000000;-0.466329
5553.000000;-0.466586
5552.000000;-0.466836
5551.000000;-0.467058
5550.000000;-0.467237
5549.000000;-0.467397
5548.000000;-0.467562
5547.000000;-0.467743
5546.000000;-0.467976
5545.000000;-0.468292
5544.000000;-0.468641
5543.000000;-0.468935
5542.000000;-0.469174
5541.000000;-0.469444
5540.000000;-0.469768
5539.000000;-0.470056
5538.000000;-0.470258
5537.000000;-0.470447
5536.000000;-0.470697
5535.000000;-0.470972
5534.000000;-0.471205
5533.000000;-0.471410
5532.000000;-0.471640
5531.000000;-0.471910
5530.000000;-0.472205
5529.000000;-0.472512
5528.000000;-0.472791
5527.000000;-0.473005
5526.000000;-0.473188
5525.000000;-0.473405
5524.000000;-0.473649
5523.000000;-0.473848
5522.000000;-0.473996
5521.000000;-0.474200
5520.000000;-0.474509
5519.000000;-0.474831
5518.000000;-0.475082
5517.000000;-0.475304
5516.000000;-0.475575
5515.000000;-0.475873
5514.000000;-0.476095
5513.000000;-0.476229
5512.000000;-0.476380
5511.000000;-0.476617
5510.000000;-0.476880
5509.000000;-0.477066
5508.000000;-0.477183
5507.000000;-0.477366
5506.000000;-0.477701
5505.000000;-0.478061
5504.000000;-0.478295
5503.000000;-0.478488
5502.000000;-0.478842
5501.000000;-0.479379
5500.000000;-0.479804
5499.000000;-0.479875
5498.000000;-0.479800
5497.000000;-0.479946
5496.000000;-0.480279
5495.000000;-0.480433
5494.000000;-0.480280
5493.000000;-0.480185
5492.000000;-0.480504
5491.000000;-0.481047
5490.000000;-0.481396
5489.000000;-0.481511
5488.000000;-0.481714
5487.000000;-0.482181
5486.000000;-0.482759
5485.000000;-0.483217
5484.000000;-0.483558
5483.000000;-0.483899
5482.000000;-0.484128
5481.000000;-0.484103
5480.000000;-0.484025
5479.000000;-0.484229
5478.000000;-0.484705
5477.000000;-0.485034
5476.000000;-0.484958
5475.000000;-0.484871
5474.000000;-0.485264
5473.000000;-0.485901
5472.000000;-0.486205
5471.000000;-0.486148
5470.000000;-0.486211
5469.000000;-0.486658
5468.000000;-0.487175
5467.000000;-0.487369
5466.000000;-0.487381
5465.000000;-0.487544
5464.000000;-0.487847
5463.000000;-0.488086
5462.000000;-0.488210
5461.000000;-0.488340
5460.000000;-0.488601
5459.000000;-0.488994
5458.000000;-0.489443
5457.000000;-0.489841
5456.000000;-0.490078
5455.000000;-0.490232
5454.000000;-0.490576
5453.000000;-0.491076
5452.000000;-0.491295
5451.000000;-0.491020
5450.000000;-0.490677
5449.000000;-0.490801
5448.000000;-0.491202
5447.000000;-0.491207
5446.000000;-0.490846
5445.000000;-0.490883
5444.000000;-0.491602
5443.000000;-0.492395
5442.000000;-0.492652
5441.000000;-0.492509
5440.000000;-0.492633
5439.000000;-0.493277
5438.000000;-0.493983
5437.000000;-0.494287
5436.000000;-0.494146
5435.000000;-0.493864
5434.000000;-0.493903
5433.000000;-0.494365
5432.000000;-0.494839
5431.000000;-0.494956
5430.000000;-0.494790
5429.000000;-0.494792
5428.000000;-0.495331
5427.000000;-0.496254
5426.000000;-0.497124
5425.000000;-0.497731
5424.000000;-0.498161
5423.000000;-0.498627
5422.000000;-0.499238
5421.000000;-0.499719
5420.000000;-0.499675
5419.000000;-0.499249
5418.000000;-0.499004
5417.000000;-0.499118
5416.000000;-0.499113
5415.000000;-0.498607
5414.000000;-0.498058
5413.000000;-0.498166
5412.000000;-0.498770
5411.000000;-0.499169
5410.000000;-0.499291
5409.000000;-0.499714
5408.000000;-0.500617
5407.000000;-0.501522
5406.000000;-0.502060
5405.000000;-0.502463
5404.000000;-0.502999
5403.000000;-0.503421
5402.000000;-0.503560
5401.000000;-0.503667
5400.000000;-0.503781
5399.000000;-0.503701
5398.000000;-0.503475
5397.000000;-0.503442
5396.000000;-0.503666
5395.000000;-0.503733
5394.000000;-0.503541
5393.000000;-0.503581
5392.000000;-0.504064
5391.000000;-0.504530
5390.000000;-0.504683
5389.000000;-0.504864
5388.000000;-0.505392
5387.000000;-0.505959
5386.000000;-0.506173
5385.000000;-0.506336
5384.000000;-0.506807
5383.000000;-0.507114
5382.000000;-0.506863
5381.000000;-0.506591
5380.000000;-0.506900
5379.000000;-0.507488
5378.000000;-0.507658
5377.000000;-0.507507
5376.000000;-0.507740
5375.000000;-0.508364
5374.000000;-0.508746
5373.000000;-0.508830
5372.000000;-0.509182
5371.000000;-0.509932
5370.000000;-0.510547
5369.000000;-0.510749
5368.000000;-0.510943
5367.000000;-0.511384
5366.000000;-0.511720
5365.000000;-0.511741
5364.000000;-0.511753
5363.000000;-0.511951
5362.000000;-0.512137
5361.000000;-0.512112
5360.000000;-0.511955
5359.000000;-0.511816
5358.000000;-0.511772
5357.000000;-0.511954
5356.000000;-0.512407
5355.000000;-0.512757
5354.000000;-0.512586
5353.000000;-0.512236
5352.000000;-0.512382
5351.000000;-0.512764
5350.000000;-0.512625
5349.000000;-0.512137
5348.000000;-0.512194
5347.000000;-0.512924
5346.000000;-0.513335
5345.000000;-0.512823
5344.000000;-0.512272
5343.000000;-0.512644
5342.000000;-0.513375
5341.000000;-0.513504
5340.000000;-0.513190
5339.000000;-0.513180
5338.000000;-0.513663
5337.000000;-0.514203
5336.000000;-0.514576
5335.000000;-0.514952
5334.000000;-0.515256
5333.000000;-0.515296
5332.000000;-0.515376
5331.000000;-0.515858
5330.000000;-0.516468
5329.000000;-0.516659
5328.000000;-0.516445
5327.000000;-0.516441
5326.000000;-0.516923
5325.000000;-0.517434
5324.000000;-0.517622
5323.000000;-0.517724
5322.000000;-0.517991
5321.000000;-0.518338
5320.000000;-0.518626
5319.000000;-0.518883
5318.000000;-0.519159
5317.000000;-0.519379
5316.000000;-0.519521
5315.000000;-0.519677
5314.000000;-0.519781
5313.000000;-0.519663
5312.000000;-0.519446
5311.000000;-0.519431
5310.000000;-0.519629
5309.000000;-0.519734
5308.000000;-0.519645
5307.000000;-0.519647
5306.000000;-0.519907
5305.000000;-0.520172
5304.000000;-0.520220
5303.000000;-0.520227
5302.000000;-0.520441
5301.000000;-0.520787
5300.000000;-0.521005
5299.000000;-0.521079
5298.000000;-0.521221
5297.000000;-0.521416
5296.000000;-0.521443
5295.000000;-0.521349
5294.000000;-0.521392
5293.000000;-0.521610
5292.000000;-0.521709
5291.000000;-0.521488
5290.000000;-0.521223
5289.000000;-0.521302
5288.000000;-0.521638
5287.000000;-0.521821
5286.000000;-0.521710
5285.000000;-0.521617
5284.000000;-0.521823
5283.000000;-0.522184
5282.000000;-0.522392
5281.000000;-0.522440
5280.000000;-0.522533
5279.000000;-0.522712
5278.000000;-0.522854
5277.000000;-0.522926
5276.000000;-0.522984
5275.000000;-0.523041
5274.000000;-0.523042
5273.000000;-0.523002
5272.000000;-0.523031
5271.000000;-0.523050
5270.000000;-0.522832
5269.000000;-0.522466
5268.000000;-0.522305
5267.000000;-0.522396
5266.000000;-0.522394
5265.000000;-0.522122
5264.000000;-0.521891
5263.000000;-0.522068
5262.000000;-0.522476
5261.000000;-0.522614
5260.000000;-0.522450
5259.000000;-0.522417
5258.000000;-0.522694
5257.000000;-0.523008
5256.000000;-0.523065
5255.000000;-0.522920
5254.000000;-0.522796
5253.000000;-0.522753
5252.000000;-0.522771
5251.000000;-0.522815
5250.000000;-0.522752
5249.000000;-0.522556
5248.000000;-0.522473
5247.000000;-0.522714
5246.000000;-0.523084
5245.000000;-0.523200
5244.000000;-0.523088
5243.000000;-0.523221
5242.000000;-0.523786
5241.000000;-0.524301
5240.000000;-0.524333
5239.000000;-0.524144
5238.000000;-0.524178
5237.000000;-0.524343
5236.000000;-0.524311
5235.000000;-0.524145
5234.000000;-0.524152
5233.000000;-0.524295
5232.000000;-0.524206
5231.000000;-0.523838
5230.000000;-0.523617
5229.000000;-0.523755
5228.000000;-0.523906
5227.000000;-0.523765
5226.000000;-0.523532
5225.000000;-0.523557
5224.000000;-0.523807
5223.000000;-0.523989
5222.000000;-0.524049
5221.000000;-0.524141
5220.000000;-0.524306
5219.000000;-0.524485
5218.000000;-0.524654
5217.000000;-0.524816
5216.000000;-0.524885
5215.000000;-0.524753
5214.000000;-0.524526
5213.000000;-0.524389
5212.000000;-0.524296
5211.000000;-0.524124
5210.000000;-0.523932
5209.000000;-0.523832
5208.000000;-0.523753
5207.000000;-0.523585
5206.000000;-0.523484
5205.000000;-0.523708
5204.000000;-0.524138
5203.000000;-0.524375
5202.000000;-0.524337
5201.000000;-0.524350
5200.000000;-0.524607
5199.000000;-0.524841
5198.000000;-0.524750
5197.000000;-0.524508
5196.000000;-0.524452
5195.000000;-0.524514
5194.000000;-0.524443
5193.000000;-0.524278
5192.000000;-0.524228
5191.000000;-0.524289
5190.000000;-0.524284
5189.000000;-0.524248
5188.000000;-0.524372
5187.000000;-0.524562
5186.000000;-0.524501
5185.000000;-0.524203
5184.000000;-0.524067
5183.000000;-0.524255
5182.000000;-0.524460
5181.000000;-0.524423
5180.000000;-0.524308
5179.000000;-0.524344
5178.000000;-0.524435
5177.000000;-0.524383
5176.000000;-0.524260
5175.000000;-0.524249
5174.000000;-0.524301
5173.000000;-0.524239
5172.000000;-0.524067
5171.000000;-0.523918
5170.000000;-0.523818
5169.000000;-0.523721
5168.000000;-0.523671
5167.000000;-0.523712
5166.000000;-0.523740
5165.000000;-0.523635
5164.000000;-0.523468
5163.000000;-0.523379
5162.000000;-0.523340
5161.000000;-0.523239
5160.000000;-0.523115
5159.000000;-0.523100
5158.000000;-0.523166
5157.000000;-0.523155
5156.000000;-0.523032
5155.000000;-0.522932
5154.000000;-0.522922
5153.000000;-0.522919
5152.000000;-0.522879
5151.000000;-0.522871
5150.000000;-0.522929
5149.000000;-0.522977
5148.000000;-0.522945
5147.000000;-0.522856
5146.000000;-0.522767
5145.000000;-0.522692
5144.000000;-0.522618
5143.000000;-0.522540
5142.000000;-0.522450
5141.000000;-0.522343
5140.000000;-0.522239
5139.000000;-0.522152
5138.000000;-0.522079
5137.000000;-0.522025
5136.000000;-0.522014
5135.000000;-0.522031
5134.000000;-0.521999
5133.000000;-0.521880
5132.000000;-0.521742
5131.000000;-0.521653
5130.000000;-0.521589
5129.000000;-0.521516
5128.000000;-0.521483
5127.000000;-0.521544
5126.000000;-0.521630
5125.000000;-0.521622
5124.000000;-0.521505
5123.000000;-0.521346
5122.000000;-0.521166
5121.000000;-0.520950
5120.000000;-0.520748
5119.000000;-0.520634
5118.000000;-0.520589
5117.000000;-0.520522
5116.000000;-0.520410
5115.000000;-0.520310
5114.000000;-0.520260
5113.000000;-0.520232
5112.000000;-0.520202
5111.000000;-0.520153
5110.000000;-0.520043
5109.000000;-0.519842
5108.000000;-0.519608
5107.000000;-0.519448
5106.000000;-0.519393
5105.000000;-0.519386
5104.000000;-0.519385
5103.000000;-0.519383
5102.000000;-0.519350
5101.000000;-0.519250
5100.000000;-0.519108
5099.000000;-0.518999
5098.000000;-0.518946
5097.000000;-0.518904
5096.000000;-0.518835
5095.000000;-0.518734
5094.000000;-0.518599
5093.000000;-0.518428
5092.000000;-0.518266
5091.000000;-0.518175
5090.000000;-0.518159
5089.000000;-0.518164
5088.000000;-0.518145
5087.000000;-0.518088
5086.000000;-0.517977
5085.000000;-0.517801
5084.000000;-0.517591
5083.000000;-0.517397
5082.000000;-0.517227
5081.000000;-0.517053
5080.000000;-0.516871
5079.000000;-0.516705
5078.000000;-0.516566
5077.000000;-0.516453
5076.000000;-0.516380
5075.000000;-0.516358
5074.000000;-0.516352
5073.000000;-0.516310
5072.000000;-0.516217
5071.000000;-0.516086
5070.000000;-0.515920
5069.000000;-0.515733
5068.000000;-0.515582
5067.000000;-0.515511
5066.000000;-0.515484
5065.000000;-0.515425
5064.000000;-0.515304
5063.000000;-0.515141
5062.000000;-0.514959
5061.000000;-0.514777
5060.000000;-0.514639
5059.000000;-0.514561
5058.000000;-0.514477
5057.000000;-0.514308
5056.000000;-0.514062
5055.000000;-0.513827
5054.000000;-0.513662
5053.000000;-0.513562
5052.000000;-0.513499
5051.000000;-0.513450
5050.000000;-0.513383
5049.000000;-0.513264
5048.000000;-0.513105
5047.000000;-0.512946
5046.000000;-0.512801
5045.000000;-0.512665
5044.000000;-0.512533
5043.000000;-0.512400
5042.000000;-0.512242
5041.000000;-0.512053
5040.000000;-0.511875
5039.000000;-0.511751
5038.000000;-0.511656
5037.000000;-0.511541
5036.000000;-0.511410
5035.000000;-0.511300
5034.000000;-0.511214
5033.000000;-0.511121
5032.000000;-0.511014
5031.000000;-0.510912
5030.000000;-0.510810
5029.000000;-0.510681
5028.000000;-0.510517
5027.000000;-0.510325
5026.000000;-0.510104
5025.000000;-0.509870
5024.000000;-0.509675
5023.000000;-0.509549
5022.000000;-0.509449
5021.000000;-0.509314
5020.000000;-0.509150
5019.000000;-0.509000
5018.000000;-0.508854
5017.000000;-0.508675
5016.000000;-0.508477
5015.000000;-0.508320
5014.000000;-0.508219
5013.000000;-0.508128
5012.000000;-0.508005
5011.000000;-0.507846
5010.000000;-0.507644
5009.000000;-0.507393
5008.000000;-0.507138
5007.000000;-0.506952
5006.000000;-0.506858
5005.000000;-0.506799
5004.000000;-0.506705
5003.000000;-0.506542
5002.000000;-0.506316
5001.000000;-0.506036
5000.000000;-0.505786
4999.000000;-0.505584
4998.000000;-0.505410
4997.000000;-0.505238
4996.000000;-0.505053
4995.000000;-0.504863
4994.000000;-0.504656
4993.000000;-0.504426
4992.000000;-0.504197
4991.000000;-0.503993
4990.000000;-0.503803
4989.000000;-0.503608
4988.000000;-0.503433
4987.000000;-0.503321
4986.000000;-0.503257
4985.000000;-0.503187
4984.000000;-0.503100
4983.000000;-0.503029
4982.000000;-0.502984
4981.000000;-0.502929
4980.000000;-0.502836
4979.000000;-0.502707
4978.000000;-0.502557
4977.000000;-0.502397
4976.000000;-0.502245
4975.000000;-0.502109
4974.000000;-0.501955
4973.000000;-0.501744
4972.000000;-0.501487
4971.000000;-0.501231
4970.000000;-0.500990
4969.000000;-0.500748
4968.000000;-0.500506
4967.000000;-0.500295
4966.000000;-0.500129
4965.000000;-0.499982
4964.000000;-0.499832
4963.000000;-0.499678
4962.000000;-0.499519
4961.000000;-0.499356
4960.000000;-0.499211
4959.000000;-0.499102
4958.000000;-0.498995
4957.000000;-0.498833
4956.000000;-0.498603
4955.000000;-0.498359
4954.000000;-0.498158
4953.000000;-0.498009
4952.000000;-0.497880
4951.000000;-0.497736
4950.000000;-0.497558
4949.000000;-0.497355
4948.000000;-0.497158
4947.000000;-0.496998
4946.000000;-0.496884
4945.000000;-0.496798
4944.000000;-0.496710
4943.000000;-0.496584
4942.000000;-0.496391
4941.000000;-0.496157
4940.000000;-0.495947
4939.000000;-0.495808
4938.000000;-0.495718
4937.000000;-0.495642
4936.000000;-0.495569
4935.000000;-0.495487
4934.000000;-0.495350
4933.000000;-0.495122
4932.000000;-0.494840
4931.000000;-0.494575
4930.000000;-0.494349
4929.000000;-0.494128
4928.000000;-0.493891
4927.000000;-0.493660
4926.000000;-0.493451
4925.000000;-0.493259
4924.000000;-0.493074
4923.000000;-0.492898
4922.000000;-0.492734
4921.000000;-0.492581
4920.000000;-0.492437
4919.000000;-0.492290
4918.000000;-0.492120
4917.000000;-0.491930
4916.000000;-0.491749
4915.000000;-0.491598
4914.000000;-0.491446
4913.000000;-0.491261
4912.000000;-0.491044
4911.000000;-0.490817
4910.000000;-0.490585
4909.000000;-0.490358
4908.000000;-0.490181
4907.000000;-0.490090
4906.000000;-0.490055
4905.000000;-0.489998
4904.000000;-0.489874
4903.000000;-0.489693
4902.000000;-0.489482
4901.000000;-0.489277
4900.000000;-0.489125
4899.000000;-0.489043
4898.000000;-0.488976
4897.000000;-0.488833
4896.000000;-0.488577
4895.000000;-0.488254
4894.000000;-0.487946
4893.000000;-0.487715
4892.000000;-0.487577
4891.000000;-0.487493
4890.000000;-0.487396
4889.000000;-0.487241
4888.000000;-0.487045
4887.000000;-0.486845
4886.000000;-0.486643
4885.000000;-0.486418
4884.000000;-0.486176
4883.000000;-0.485944
4882.000000;-0.485736
4881.000000;-0.485537
4880.000000;-0.485336
4879.000000;-0.485137
4878.000000;-0.484943
4877.000000;-0.484760
4876.000000;-0.484599
4875.000000;-0.484454
4874.000000;-0.484290
4873.000000;-0.484075
4872.000000;-0.483816
4871.000000;-0.483546
4870.000000;-0.483289
4869.000000;-0.483056
4868.000000;-0.482855
4867.000000;-0.482681
4866.000000;-0.482502
4865.000000;-0.482295
4864.000000;-0.482067
4863.000000;-0.481830
4862.000000;-0.481578
4861.000000;-0.481321
4860.000000;-0.481103
4859.000000;-0.480946
4858.000000;-0.480803
4857.000000;-0.480600
4856.000000;-0.480321
4855.000000;-0.480018
4854.000000;-0.479752
4853.000000;-0.479568
4852.000000;-0.479471
4851.000000;-0.479403
4850.000000;-0.479249
4849.000000;-0.478947
4848.000000;-0.478572
4847.000000;-0.478262
4846.000000;-0.478070
4845.000000;-0.477927
4844.000000;-0.477746
4843.000000;-0.477503
4842.000000;-0.477228
4841.000000;-0.476963
4840.000000;-0.476734
4839.000000;-0.476539
4838.000000;-0.476349
4837.000000;-0.476136
4836.000000;-0.475910
4835.000000;-0.475691
4834.000000;-0.475475
4833.000000;-0.475232
4832.000000;-0.474960
4831.000000;-0.474674
4830.000000;-0.474392
4829.000000;-0.474127
4828.000000;-0.473898
4827.000000;-0.473705
4826.000000;-0.473508
4825.000000;-0.473271
4824.000000;-0.473013
4823.000000;-0.472788
4822.000000;-0.472614
4821.000000;-0.472458
4820.000000;-0.472292
4819.000000;-0.472111
4818.000000;-0.471908
4817.000000;-0.471677
4816.000000;-0.471430
4815.000000;-0.471196
4814.000000;-0.470973
4813.000000;-0.470732
4812.000000;-0.470444
4811.000000;-0.470110
4810.000000;-0.469747
4809.000000;-0.469392
4808.000000;-0.469082
4807.000000;-0.468831
4806.000000;-0.468609
4805.000000;-0.468375
4804.000000;-0.468113
4803.000000;-0.467823
4802.000000;-0.467492
4801.000000;-0.467122
4800.000000;-0.466763
4799.000000;-0.466471
4798.000000;-0.466254
4797.000000;-0.466065
4796.000000;-0.465856
4795.000000;-0.465604
4794.000000;-0.465293
4793.000000;-0.464933
4792.000000;-0.464569
4791.000000;-0.464247
4790.000000;-0.463967
4789.000000;-0.463685
4788.000000;-0.463370
4787.000000;-0.463029
4786.000000;-0.462690
4785.000000;-0.462382
4784.000000;-0.462122
4783.000000;-0.461892
4782.000000;-0.461637
4781.000000;-0.461308
4780.000000;-0.460916
4779.000000;-0.460514
4778.000000;-0.460147
4777.000000;-0.459838
4776.000000;-0.459593
4775.000000;-0.459403
4774.000000;-0.459216
4773.000000;-0.458968
4772.000000;-0.458624
4771.000000;-0.458201
4770.000000;-0.457759
4769.000000;-0.457369
4768.000000;-0.457084
4767.000000;-0.456886
4766.000000;-0.456682
4765.000000;-0.456379
4764.000000;-0.455971
4763.000000;-0.455529
4762.000000;-0.455124
4761.000000;-0.454785
4760.000000;-0.454495
4759.000000;-0.454211
4758.000000;-0.453889
4757.000000;-0.453517
4756.000000;-0.453133
4755.000000;-0.452784
4754.000000;-0.452488
4753.000000;-0.452233
4752.000000;-0.452002
4751.000000;-0.451759
4750.000000;-0.451449
4749.000000;-0.451046
4748.000000;-0.450591
4747.000000;-0.450154
4746.000000;-0.449779
4745.000000;-0.449473
4744.000000;-0.449228
4743.000000;-0.449005
4742.000000;-0.448734
4741.000000;-0.448356
4740.000000;-0.447891
4739.000000;-0.447412
4738.000000;-0.446984
4737.000000;-0.446639
4736.000000;-0.446376
4735.000000;-0.446151
4734.000000;-0.445887
4733.000000;-0.445528
4732.000000;-0.445107
4731.000000;-0.444706
4730.000000;-0.444370
4729.000000;-0.444084
4728.000000;-0.443812
4727.000000;-0.443517
4726.000000;-0.443161
4725.000000;-0.442720
4724.000000;-0.442227
4723.000000;-0.441746
4722.000000;-0.441323
4721.000000;-0.440961
4720.000000;-0.440649
4719.000000;-0.440370
4718.000000;-0.440085
4717.000000;-0.439756
4716.000000;-0.439379
4715.000000;-0.438981
4714.000000;-0.438585
4713.000000;-0.438201
4712.000000;-0.437835
4711.000000;-0.437480
4710.000000;-0.437104
4709.000000;-0.436677
4708.000000;-0.436213
4707.000000;-0.435757
4706.000000;-0.435339
4705.000000;-0.434960
4704.000000;-0.434608
4703.000000;-0.434262
4702.000000;-0.433886
4701.000000;-0.433472
4700.000000;-0.433070
4699.000000;-0.432729
4698.000000;-0.432417
4697.000000;-0.432039
4696.000000;-0.431539
4695.000000;-0.430965
4694.000000;-0.430419
4693.000000;-0.429964
4692.000000;-0.429595
4691.000000;-0.429255
4690.000000;-0.428874
4689.000000;-0.428416
4688.000000;-0.427898
4687.000000;-0.427370
4686.000000;-0.426874
4685.000000;-0.426426
4684.000000;-0.426029
4683.000000;-0.425668
4682.000000;-0.425305
4681.000000;-0.424899
4680.000000;-0.424441
4679.000000;-0.423954
4678.000000;-0.423470
4677.000000;-0.423029
4676.000000;-0.422660
4675.000000;-0.422353
4674.000000;-0.422030
4673.000000;-0.421601
4672.000000;-0.421050
4671.000000;-0.420443
4670.000000;-0.419854
4669.000000;-0.419304
4668.000000;-0.418776
4667.000000;-0.418250
4666.000000;-0.417725
4665.000000;-0.417198
4664.000000;-0.416663
4663.000000;-0.416110
4662.000000;-0.415556
4661.000000;-0.415040
4660.000000;-0.414581
4659.000000;-0.414133
4658.000000;-0.413611
4657.000000;-0.412982
4656.000000;-0.412307
4655.000000;-0.411686
4654.000000;-0.411160
4653.000000;-0.410705
4652.000000;-0.410273
4651.000000;-0.409814
4650.000000;-0.409289
4649.000000;-0.408700
4648.000000;-0.408108
4647.000000;-0.407569
4646.000000;-0.407067
4645.000000;-0.406538
4644.000000;-0.405958
4643.000000;-0.405369
4642.000000;-0.404804
4641.000000;-0.404240
4640.000000;-0.403632
4639.000000;-0.402982
4638.000000;-0.402337
4637.000000;-0.401738
4636.000000;-0.401175
4635.000000;-0.400596
4634.000000;-0.399958
4633.000000;-0.399262
4632.000000;-0.398544
4631.000000;-0.397855
4630.000000;-0.397233
4629.000000;-0.396694
4628.000000;-0.396222
4627.000000;-0.395760
4626.000000;-0.395250
4625.000000;-0.394673
4624.000000;-0.394050
4623.000000;-0.393395
4622.000000;-0.392708
4621.000000;-0.392008
4620.000000;-0.391327
4619.000000;-0.390676
4618.000000;-0.390025
4617.000000;-0.389363
4616.000000;-0.388712
4615.000000;-0.388093
4614.000000;-0.387484
4613.000000;-0.386859
4612.000000;-0.386209
4611.000000;-0.385510
4610.000000;-0.384718
4609.000000;-0.383835
4608.000000;-0.382952
4607.000000;-0.382183
4606.000000;-0.381550
4605.000000;-0.380971
4604.000000;-0.380346
4603.000000;-0.379623
4602.000000;-0.378805
4601.000000;-0.377930
4600.000000;-0.377049
4599.000000;-0.376197
4598.000000;-0.375384
4597.000000;-0.374613
4596.000000;-0.373887
4595.000000;-0.373185
4594.000000;-0.372446
4593.000000;-0.371629
4592.000000;-0.370752
4591.000000;-0.369866
4590.000000;-0.368998
4589.000000;-0.368152
4588.000000;-0.367324
4587.000000;-0.366488
4586.000000;-0.365596
4585.000000;-0.364622
4584.000000;-0.363597
4583.000000;-0.362571
4582.000000;-0.361549
4581.000000;-0.360507
4580.000000;-0.359445
4579.000000;-0.358388
4578.000000;-0.357354
4577.000000;-0.356339
4576.000000;-0.355332
4575.000000;-0.354316
4574.000000;-0.353257
4573.000000;-0.352136
4572.000000;-0.350973
4571.000000;-0.349812
4570.000000;-0.348693
4569.000000;-0.347628
4568.000000;-0.346597
4567.000000;-0.345527
4566.000000;-0.344334
4565.000000;-0.343004
4564.000000;-0.341623
4563.000000;-0.340294
4562.000000;-0.339034
4561.000000;-0.337794
4560.000000;-0.336528
4559.000000;-0.335214
4558.000000;-0.333839
4557.000000;-0.332397
4556.000000;-0.330908
4555.000000;-0.329388
4554.000000;-0.327836
4553.000000;-0.326253
4552.000000;-0.324671
4551.000000;-0.323107
4550.000000;-0.321526
4549.000000;-0.319896
4548.000000;-0.318257
4547.000000;-0.316677
4546.000000;-0.315149
4545.000000;-0.313584
4544.000000;-0.311919
4543.000000;-0.310186
4542.000000;-0.308475
4541.000000;-0.306863
4540.000000;-0.305362
4539.000000;-0.303925
4538.000000;-0.302494
4537.000000;-0.301050
4536.000000;-0.299610
4535.000000;-0.298168
4534.000000;-0.296686
4533.000000;-0.295162
4532.000000;-0.293663
4531.000000;-0.292264
4530.000000;-0.290961
4529.000000;-0.289693
4528.000000;-0.288419
4527.000000;-0.287124
4526.000000;-0.285801
4525.000000;-0.284476
4524.000000;-0.283220
4523.000000;-0.282082
4522.000000;-0.281022
4521.000000;-0.279950
4520.000000;-0.278831
4519.000000;-0.277689
4518.000000;-0.276538
4517.000000;-0.275372
4516.000000;-0.274210
4515.000000;-0.273097
4514.000000;-0.272036
4513.000000;-0.270976
4512.000000;-0.269885
4511.000000;-0.268776
4510.000000;-0.267670
4509.000000;-0.266578
4508.000000;-0.265514
4507.000000;-0.264497
4506.000000;-0.263517
4505.000000;-0.262530
4504.000000;-0.261500
4503.000000;-0.260413
4502.000000;-0.259257
4501.000000;-0.258028
4500.000000;-0.256763
4499.000000;-0.255535
4498.000000;-0.254394
4497.000000;-0.253319
4496.000000;-0.252254
4495.000000;-0.251158
4494.000000;-0.250033
4493.000000;-0.248889
4492.000000;-0.247719
4491.000000;-0.246502
4490.000000;-0.245243
4489.000000;-0.243994
4488.000000;-0.242809
4487.000000;-0.241669
4486.000000;-0.240495
4485.000000;-0.239243
4484.000000;-0.237962
4483.000000;-0.236723
4482.000000;-0.235529
4481.000000;-0.234318
4480.000000;-0.233032
4479.000000;-0.231634
4478.000000;-0.230110
4477.000000;-0.228485
4476.000000;-0.226839
4475.000000;-0.225263
4474.000000;-0.223796
4473.000000;-0.222415
4472.000000;-0.221061
4471.000000;-0.219667
4470.000000;-0.218206
4469.000000;-0.216721
4468.000000;-0.215295
4467.000000;-0.213940
4466.000000;-0.212565
4465.000000;-0.211059
4464.000000;-0.209400
4463.000000;-0.207651
4462.000000;-0.205896
4461.000000;-0.204221
4460.000000;-0.202687
4459.000000;-0.201272
4458.000000;-0.199862
4457.000000;-0.198360
4456.000000;-0.196767
4455.000000;-0.195132
4454.000000;-0.193457
4453.000000;-0.191719
4452.000000;-0.189944
4451.000000;-0.188195
4450.000000;-0.186498
4449.000000;-0.184834
4448.000000;-0.183193
4447.000000;-0.181559
4446.000000;-0.179899
4445.000000;-0.178196
4444.000000;-0.176495
4443.000000;-0.174837
4442.000000;-0.173181
4441.000000;-0.171457
4440.000000;-0.169678
4439.000000;-0.167925
4438.000000;-0.166240
4437.000000;-0.164598
4436.000000;-0.162969
4435.000000;-0.161328
4434.000000;-0.159608
4433.000000;-0.157743
4432.000000;-0.155762
4431.000000;-0.153782
4430.000000;-0.151876
4429.000000;-0.150019
4428.000000;-0.148169
4427.000000;-0.146329
4426.000000;-0.144492
4425.000000;-0.142601
4424.000000;-0.140621
4423.000000;-0.138600
4422.000000;-0.136625
4421.000000;-0.134726
4420.000000;-0.132842
4419.000000;-0.130890
4418.000000;-0.128815
4417.000000;-0.126628
4416.000000;-0.124399
4415.000000;-0.122224
4414.000000;-0.120160
4413.000000;-0.118184
4412.000000;-0.116203
4411.000000;-0.114116
4410.000000;-0.111903
4409.000000;-0.109637
4408.000000;-0.107408
4407.000000;-0.105231
4406.000000;-0.103055
4405.000000;-0.100851
4404.000000;-0.098632
4403.000000;-0.096378
4402.000000;-0.094034
4401.000000;-0.091593
4400.000000;-0.089131
4399.000000;-0.086705
4398.000000;-0.084281
4397.000000;-0.081822
4396.000000;-0.079370
4395.000000;-0.076972
4394.000000;-0.074568
4393.000000;-0.072058
4392.000000;-0.069448
4391.000000;-0.066849
4390.000000;-0.064337
4389.000000;-0.061874
4388.000000;-0.059378
4387.000000;-0.056791
4386.000000;-0.054094
4385.000000;-0.051293
4384.000000;-0.048434
4383.000000;-0.045570
4382.000000;-0.042736
4381.000000;-0.039961
4380.000000;-0.037257
4379.000000;-0.034556
4378.000000;-0.031705
4377.000000;-0.028592
4376.000000;-0.025279
4375.000000;-0.021938
4374.000000;-0.018703
4373.000000;-0.015604
4372.000000;-0.012619
4371.000000;-0.009692
4370.000000;-0.006714
4369.000000;-0.003592
4368.000000;-0.000327
4367.000000;0.003004
4366.000000;0.006342
4365.000000;0.009672
4364.000000;0.013004
4363.000000;0.016380
4362.000000;0.019882
4361.000000;0.023535
4360.000000;0.027229
4359.000000;0.030796
4358.000000;0.034187
4357.000000;0.037494
4356.000000;0.040859
4355.000000;0.044398
4354.000000;0.048192
4353.000000;0.052225
4352.000000;0.056342
4351.000000;0.060356
4350.000000;0.064218
4349.000000;0.068035
4348.000000;0.071935
4347.000000;0.075982
4346.000000;0.080185
4345.000000;0.084494
4344.000000;0.088809
4343.000000;0.093058
4342.000000;0.097266
4341.000000;0.101480
4340.000000;0.105676
4339.000000;0.109837
4338.000000;0.114076
4337.000000;0.118529
4336.000000;0.123154
4335.000000;0.127762
4334.000000;0.132273
4333.000000;0.136819
4332.000000;0.141565
4331.000000;0.146534
4330.000000;0.151638
4329.000000;0.156770
4328.000000;0.161838
4327.000000;0.166808
4326.000000;0.171778
4325.000000;0.176930
4324.000000;0.182369
4323.000000;0.188041
4322.000000;0.193802
4321.000000;0.199503
4320.000000;0.205015
4319.000000;0.210284
4318.000000;0.215401
4317.000000;0.220571
4316.000000;0.225984
4315.000000;0.231738
4314.000000;0.237797
4313.000000;0.243958
4312.000000;0.249934
4311.000000;0.255631
4310.000000;0.261315
4309.000000;0.267360
4308.000000;0.273846
4307.000000;0.280522
4306.000000;0.287157
4305.000000;0.293716
4304.000000;0.300228
4303.000000;0.306678
4302.000000;0.313140
4301.000000;0.319845
4300.000000;0.327006
4299.000000;0.334628
4298.000000;0.342523
4297.000000;0.350383
4296.000000;0.357881
4295.000000;0.364882
4294.000000;0.371674
4293.000000;0.378813
4292.000000;0.386627
4291.000000;0.394950
4290.000000;0.403423
4289.000000;0.411891
4288.000000;0.420430
4287.000000;0.429108
4286.000000;0.437909
4285.000000;0.446849
4284.000000;0.456006
4283.000000;0.465406
4282.000000;0.474934
4281.000000;0.484388
4280.000000;0.493630
4279.000000;0.502781
4278.000000;0.512268
4277.000000;0.522585
4276.000000;0.533911
4275.000000;0.545931
4274.000000;0.558082
4273.000000;0.569965
4272.000000;0.581563
4271.000000;0.593119
4270.000000;0.604875
4269.000000;0.616938
4268.000000;0.629395
4267.000000;0.642427
4266.000000;0.656142
4265.000000;0.670281
4264.000000;0.684364
4263.000000;0.698277
4262.000000;0.712548
4261.000000;0.727866
4260.000000;0.744515
4259.000000;0.762434
4258.000000;0.781490
4257.000000;0.801354
4256.000000;0.821352
4255.000000;0.841037
4254.000000;0.860847
4253.000000;0.881705
4252.000000;0.903938
4251.000000;0.927100
4250.000000;0.950891
4249.000000;0.975709
4248.000000;1.002214
4247.000000;1.030957
4246.000000;1.062733
4245.000000;1.098719
4244.000000;1.139782
4243.000000;1.185845
4242.000000;1.236205
4241.000000;1.290398
4240.000000;1.349007
4239.000000;1.414425
4238.000000;1.490668
4237.000000;1.586069
4236.000000;1.702818
4235.000000;1.871446
4234.000000;2.109185
4233.000000;2.871337
4232.000000;2.320079
4231.000000;1.911003
4230.000000;1.735904
4229.000000;1.605239
4228.000000;1.510937
4227.000000;1.433157
4226.000000;1.368414
4225.000000;1.312118
4224.000000;1.261558
4223.000000;1.214703
4222.000000;1.170940
4221.000000;1.130875
4220.000000;1.095187
4219.000000;1.063533
4218.000000;1.034687
4217.000000;1.007586
4216.000000;0.981771
4215.000000;0.956868
4214.000000;0.932462
4213.000000;0.908818
4212.000000;0.887094
4211.000000;0.868206
4210.000000;0.851686
4209.000000;0.836010
4208.000000;0.819934
4207.000000;0.803261
4206.000000;0.786543
4205.000000;0.770453
4204.000000;0.755382
4203.000000;0.741257
4202.000000;0.727637
4201.000000;0.714135
4200.000000;0.700751
4199.000000;0.687718
4198.000000;0.675216
4197.000000;0.663378
4196.000000;0.652365
4195.000000;0.642190
4194.000000;0.632565
4193.000000;0.623116
4192.000000;0.613637
4191.000000;0.603992
4190.000000;0.594012
4189.000000;0.583772
4188.000000;0.573837
4187.000000;0.564863
4186.000000;0.556940
4185.000000;0.549524
4184.000000;0.542008
4183.000000;0.534188
4182.000000;0.526194
4181.000000;0.518216
4180.000000;0.510407
4179.000000;0.502912
4178.000000;0.495880
4177.000000;0.489406
4176.000000;0.483394
4175.000000;0.477466
4174.000000;0.471160
4173.000000;0.464409
4172.000000;0.457705
4171.000000;0.451649
4170.000000;0.446364
4169.000000;0.441462
4168.000000;0.436476
4167.000000;0.431179
4166.000000;0.425562
4165.000000;0.419728
4164.000000;0.413865
4163.000000;0.408193
4162.000000;0.402872
4161.000000;0.397972
4160.000000;0.393458
4159.000000;0.389136
4158.000000;0.384727
4157.000000;0.380128
4156.000000;0.375551
4155.000000;0.371278
4154.000000;0.367331
4153.000000;0.363497
4152.000000;0.359603
4151.000000;0.355623
4150.000000;0.351579
4149.000000;0.347539
4148.000000;0.343657
4147.000000;0.340042
4146.000000;0.336582
4145.000000;0.333074
4144.000000;0.329532
4143.000000;0.326181
4142.000000;0.323121
4141.000000;0.320152
4140.000000;0.317032
4139.000000;0.313771
4138.000000;0.310573
4137.000000;0.307570
4136.000000;0.304687
4135.000000;0.301746
4134.000000;0.298670
4133.000000;0.295590
4132.000000;0.292741
4131.000000;0.290207
4130.000000;0.287788
4129.000000;0.285192
4128.000000;0.282353
4127.000000;0.279476
4126.000000;0.276799
4125.000000;0.274373
4124.000000;0.272096
4123.000000;0.269875
4122.000000;0.267719
4121.000000;0.265706
4120.000000;0.263849
4119.000000;0.261998
4118.000000;0.259938
4117.000000;0.257644
4116.000000;0.255386
4115.000000;0.253476
4114.000000;0.251938
4113.000000;0.250509
4112.000000;0.248903
4111.000000;0.247003
4110.000000;0.244830
4109.000000;0.242475
4108.000000;0.240113
4107.000000;0.237952
4106.000000;0.236115
4105.000000;0.234600
4104.000000;0.233335
4103.000000;0.232193
4102.000000;0.230981
4101.000000;0.229549
4100.000000;0.227959
4099.000000;0.226436
4098.000000;0.225115
4097.000000;0.223883
4096.000000;0.222534
4095.000000;0.221022
4094.000000;0.219495
4093.000000;0.218138
4092.000000;0.217009
4091.000000;0.216006
4090.000000;0.214944
4089.000000;0.213678
4088.000000;0.212204
4087.000000;0.210655
4086.000000;0.209208
4085.000000;0.207985
4084.000000;0.206979
4083.000000;0.206051
4082.000000;0.205016
4081.000000;0.203801
4080.000000;0.202523
4079.000000;0.201369
4078.000000;0.200386
4077.000000;0.199443
4076.000000;0.198404
4075.000000;0.197293
4074.000000;0.196265
4073.000000;0.195414
4072.000000;0.194651
4071.000000;0.193788
4070.000000;0.192747
4069.000000;0.191652
4068.000000;0.190681
4067.000000;0.189862
4066.000000;0.189084
4065.000000;0.188283
4064.000000;0.187517
4063.000000;0.186813
4062.000000;0.186059
4061.000000;0.185142
4060.000000;0.184109
4059.000000;0.183114
4058.000000;0.182239
4057.000000;0.181462
4056.000000;0.180760
4055.000000;0.180126
4054.000000;0.179480
4053.000000;0.178700
4052.000000;0.177774
4051.000000;0.176877
4050.000000;0.176203
4049.000000;0.175757
4048.000000;0.175333
4047.000000;0.174716
4046.000000;0.173897
4045.000000;0.173062
4044.000000;0.172372
4043.000000;0.171793
4042.000000;0.171186
4041.000000;0.170519
4040.000000;0.169913
4039.000000;0.169465
4038.000000;0.169121
4037.000000;0.168773
4036.000000;0.168378
4035.000000;0.167934
4034.000000;0.167409
4033.000000;0.166786
4032.000000;0.166115
4031.000000;0.165449
4030.000000;0.164775
4029.000000;0.164070
4028.000000;0.163387
4027.000000;0.162812
4026.000000;0.162381
4025.000000;0.162077
4024.000000;0.161848
4023.000000;0.161582
4022.000000;0.161151
4021.000000;0.160565
4020.000000;0.160025
4019.000000;0.159714
4018.000000;0.159579
4017.000000;0.159390
4016.000000;0.158993
4015.000000;0.158421
4014.000000;0.157812
4013.000000;0.157334
4012.000000;0.157099
4011.000000;0.157056
4010.000000;0.156962
4009.000000;0.156616
4008.000000;0.156089
4007.000000;0.155626
4006.000000;0.155324
4005.000000;0.155056
4004.000000;0.154697
4003.000000;0.154283
4002.000000;0.153908
4001.000000;0.153586
4000.000000;0.153286
3999.000000;0.153003
3998.000000;0.152723
3997.000000;0.152419
3996.000000;0.152128
3995.000000;0.151956
3994.000000;0.151936
3993.000000;0.151943
3992.000000;0.151820
3991.000000;0.151560
3990.000000;0.151280
3989.000000;0.151047
3988.000000;0.150797
3987.000000;0.150435
3986.000000;0.149972
3985.000000;0.149535
3984.000000;0.149248
3983.000000;0.149111
3982.000000;0.149021
3981.000000;0.148907
3980.000000;0.148802
3979.000000;0.148753
3978.000000;0.148693
3977.000000;0.148522
3976.000000;0.148282
3975.000000;0.148149
3974.000000;0.148209
3973.000000;0.148317
3972.000000;0.148254
3971.000000;0.147978
3970.000000;0.147646
3969.000000;0.147409
3968.000000;0.147275
3967.000000;0.147172
3966.000000;0.147059
3965.000000;0.146914
3964.000000;0.146679
3963.000000;0.146304
3962.000000;0.145864
3961.000000;0.145551
3960.000000;0.145493
3959.000000;0.145610
3958.000000;0.145691
3957.000000;0.145606
3956.000000;0.145406
3955.000000;0.145217
3954.000000;0.145112
3953.000000;0.145092
3952.000000;0.145113
3951.000000;0.145094
3950.000000;0.144955
3949.000000;0.144706
3948.000000;0.144453
3947.000000;0.144286
3946.000000;0.144172
3945.000000;0.144008
3944.000000;0.143765
3943.000000;0.143525
3942.000000;0.143359
3941.000000;0.143244
3940.000000;0.143119
3939.000000;0.142988
3938.000000;0.142921
3937.000000;0.142947
3936.000000;0.142947
3935.000000;0.142719
3934.000000;0.142204
3933.000000;0.141624
3932.000000;0.141309
3931.000000;0.141391
3930.000000;0.141672
3929.000000;0.141819
3928.000000;0.141625
3927.000000;0.141144
3926.000000;0.140606
3925.000000;0.140225
3924.000000;0.140036
3923.000000;0.139910
3922.000000;0.139747
3921.000000;0.139580
3920.000000;0.139465
3919.000000;0.139357
3918.000000;0.139180
3917.000000;0.138985
3916.000000;0.138904
3915.000000;0.138933
3914.000000;0.138905
3913.000000;0.138723
3912.000000;0.138513
3911.000000;0.138461
3910.000000;0.138554
3909.000000;0.138595
3908.000000;0.138404
3907.000000;0.137974
3906.000000;0.137460
3905.000000;0.137096
3904.000000;0.137041
3903.000000;0.137219
3902.000000;0.137390
3901.000000;0.137430
3900.000000;0.137476
3899.000000;0.137734
3898.000000;0.138217
3897.000000;0.138730
3896.000000;0.139090
3895.000000;0.139240
3894.000000;0.139221
3893.000000;0.139121
3892.000000;0.139061
3891.000000;0.139150
3890.000000;0.139399
3889.000000;0.139722
3888.000000;0.140002
3887.000000;0.140186
3886.000000;0.140359
3885.000000;0.140640
3884.000000;0.141025
3883.000000;0.141423
3882.000000;0.141775
3881.000000;0.142135
3880.000000;0.142594
3879.000000;0.143135
3878.000000;0.143639
3877.000000;0.144024
3876.000000;0.144326
3875.000000;0.144652
3874.000000;0.145013
3873.000000;0.145279
3872.000000;0.145382
3871.000000;0.145478
3870.000000;0.145785
3869.000000;0.146319
3868.000000;0.146909
3867.000000;0.147422
3866.000000;0.147859
3865.000000;0.148325
3864.000000;0.148928
3863.000000;0.149663
3862.000000;0.150444
3861.000000;0.151227
3860.000000;0.152000
3859.000000;0.152714
3858.000000;0.153269
3857.000000;0.153625
3856.000000;0.153862
3855.000000;0.154115
3854.000000;0.154489
3853.000000;0.154971
3852.000000;0.155402
3851.000000;0.155765
3850.000000;0.156234
3849.000000;0.156869
3848.000000;0.157616
3847.000000;0.158381
3846.000000;0.159080
3845.000000;0.159714
3844.000000;0.160367
3843.000000;0.161072
3842.000000;0.161737
3841.000000;0.162285
3840.000000;0.162777
3839.000000;0.163332
3838.000000;0.163969
3837.000000;0.164610
3836.000000;0.165185
3835.000000;0.165684
3834.000000;0.166149
3833.000000;0.166676
3832.000000;0.167321
3831.000000;0.168013
3830.000000;0.168641
3829.000000;0.169231
3828.000000;0.169924
3827.000000;0.170753
3826.000000;0.171556
3825.000000;0.172193
3824.000000;0.172731
3823.000000;0.173339
3822.000000;0.174074
3821.000000;0.174860
3820.000000;0.175547
3819.000000;0.176092
3818.000000;0.176629
3817.000000;0.177280
3816.000000;0.178033
3815.000000;0.178756
3814.000000;0.179341
3813.000000;0.179880
3812.000000;0.180546
3811.000000;0.181346
3810.000000;0.182092
3809.000000;0.182641
3808.000000;0.183090
3807.000000;0.183625
3806.000000;0.184252
3805.000000;0.184872
3804.000000;0.185505
3803.000000;0.186270
3802.000000;0.187214
3801.000000;0.188255
3800.000000;0.189263
3799.000000;0.190179
3798.000000;0.190914
3797.000000;0.191356
3796.000000;0.191613
3795.000000;0.191991
3794.000000;0.192695
3793.000000;0.193664
3792.000000;0.194694
3791.000000;0.195625
3790.000000;0.196387
3789.000000;0.196983
3788.000000;0.197526
3787.000000;0.198183
3786.000000;0.198996
3785.000000;0.199829
3784.000000;0.200545
3783.000000;0.201183
3782.000000;0.201879
3781.000000;0.202667
3780.000000;0.203451
3779.000000;0.204162
3778.000000;0.204835
3777.000000;0.205548
3776.000000;0.206303
3775.000000;0.207035
3774.000000;0.207741
3773.000000;0.208533
3772.000000;0.209483
3771.000000;0.210462
3770.000000;0.211243
3769.000000;0.211749
3768.000000;0.212167
3767.000000;0.212746
3766.000000;0.213540
3765.000000;0.214417
3764.000000;0.215260
3763.000000;0.216064
3762.000000;0.216862
3761.000000;0.217653
3760.000000;0.218404
3759.000000;0.219081
3758.000000;0.219681
3757.000000;0.220290
3756.000000;0.221021
3755.000000;0.221873
3754.000000;0.222708
3753.000000;0.223427
3752.000000;0.224105
3751.000000;0.224863
3750.000000;0.225677
3749.000000;0.226442
3748.000000;0.227186
3747.000000;0.228021
3746.000000;0.228982
3745.000000;0.229974
3744.000000;0.230853
3743.000000;0.231607
3742.000000;0.232462
3741.000000;0.233558
3740.000000;0.234669
3739.000000;0.235488
3738.000000;0.236040
3737.000000;0.236673
3736.000000;0.237637
3735.000000;0.238736
3734.000000;0.239571
3733.000000;0.240074
3732.000000;0.240539
3731.000000;0.241163
3730.000000;0.241849
3729.000000;0.242459
3728.000000;0.243036
3727.000000;0.243728
3726.000000;0.244597
3725.000000;0.245598
3724.000000;0.246648
3723.000000;0.247618
3722.000000;0.248362
3721.000000;0.248865
3720.000000;0.249289
3719.000000;0.249810
3718.000000;0.250481
3717.000000;0.251292
3716.000000;0.252228
3715.000000;0.253233
3714.000000;0.254192
3713.000000;0.255062
3712.000000;0.255903
3711.000000;0.256710
3710.000000;0.257341
3709.000000;0.257752
3708.000000;0.258135
3707.000000;0.258727
3706.000000;0.259588
3705.000000;0.260613
3704.000000;0.261654
3703.000000;0.262602
3702.000000;0.263447
3701.000000;0.264300
3700.000000;0.265275
3699.000000;0.266298
3698.000000;0.267136
3697.000000;0.267700
3696.000000;0.268212
3695.000000;0.268952
3694.000000;0.269943
3693.000000;0.271017
3692.000000;0.272084
3691.000000;0.273164
3690.000000;0.274190
3689.000000;0.274958
3688.000000;0.275375
3687.000000;0.275658
3686.000000;0.276145
3685.000000;0.276949
3684.000000;0.277914
3683.000000;0.278844
3682.000000;0.279705
3681.000000;0.280631
3680.000000;0.281712
3679.000000;0.282822
3678.000000;0.283798
3677.000000;0.284730
3676.000000;0.285860
3675.000000;0.287120
3674.000000;0.288112
3673.000000;0.288721
3672.000000;0.289246
3671.000000;0.289910
3670.000000;0.290649
3669.000000;0.291304
3668.000000;0.291906
3667.000000;0.292656
3666.000000;0.293555
3665.000000;0.294403
3664.000000;0.295149
3663.000000;0.295934
3662.000000;0.296841
3661.000000;0.297799
3660.000000;0.298720
3659.000000;0.299597
3658.000000;0.300477
3657.000000;0.301404
3656.000000;0.302394
3655.000000;0.303403
3654.000000;0.304369
3653.000000;0.305279
3652.000000;0.306189
3651.000000;0.307212
3650.000000;0.308442
3649.000000;0.309795
3648.000000;0.310965
3647.000000;0.311681
3646.000000;0.311986
3645.000000;0.312230
3644.000000;0.312778
3643.000000;0.313657
3642.000000;0.314591
3641.000000;0.315434
3640.000000;0.316356
3639.000000;0.317523
3638.000000;0.318781
3637.000000;0.319837
3636.000000;0.320598
3635.000000;0.321155
3634.000000;0.321585
3633.000000;0.322018
3632.000000;0.322748
3631.000000;0.323999
3630.000000;0.325602
3629.000000;0.327084
3628.000000;0.328074
3627.000000;0.328644
3626.000000;0.329251
3625.000000;0.330187
3624.000000;0.331372
3623.000000;0.332574
3622.000000;0.333590
3621.000000;0.334345
3620.000000;0.334905
3619.000000;0.335368
3618.000000;0.335818
3617.000000;0.336442
3616.000000;0.337476
3615.000000;0.338894
3614.000000;0.340357
3613.000000;0.341554
3612.000000;0.342487
3611.000000;0.343330
3610.000000;0.344152
3609.000000;0.344929
3608.000000;0.345703
3607.000000;0.346503
3606.000000;0.347222
3605.000000;0.347786
3604.000000;0.348338
3603.000000;0.349122
3602.000000;0.350194
3601.000000;0.351398
3600.000000;0.352572
3599.000000;0.353640
3598.000000;0.354566
3597.000000;0.355375
3596.000000;0.356206
3595.000000;0.357154
3594.000000;0.358084
3593.000000;0.358801
3592.000000;0.359353
3591.000000;0.359975
3590.000000;0.360784
3589.000000;0.361751
3588.000000;0.362880
3587.000000;0.364161
3586.000000;0.365408
3585.000000;0.366421
3584.000000;0.367241
3583.000000;0.368073
3582.000000;0.369026
3581.000000;0.370036
3580.000000;0.371054
3579.000000;0.372141
3578.000000;0.373321
3577.000000;0.374474
3576.000000;0.375472
3575.000000;0.376327
3574.000000;0.377116
3573.000000;0.377859
3572.000000;0.378555
3571.000000;0.379283
3570.000000;0.380162
3569.000000;0.381246
3568.000000;0.382465
3567.000000;0.383656
3566.000000;0.384667
3565.000000;0.385514
3564.000000;0.386368
3563.000000;0.387322
3562.000000;0.388323
3561.000000;0.389312
3560.000000;0.390261
3559.000000;0.391091
3558.000000;0.391729
3557.000000;0.392287
3556.000000;0.393025
3555.000000;0.394040
3554.000000;0.395127
3553.000000;0.396073
3552.000000;0.396944
3551.000000;0.397952
3550.000000;0.399147
3549.000000;0.400390
3548.000000;0.401579
3547.000000;0.402727
3546.000000;0.403836
3545.000000;0.404829
3544.000000;0.405641
3543.000000;0.406285
3542.000000;0.406846
3541.000000;0.407468
3540.000000;0.408282
3539.000000;0.409250
3538.000000;0.410168
3537.000000;0.410922
3536.000000;0.411661
3535.000000;0.412592
3534.000000;0.413745
3533.000000;0.415040
3532.000000;0.416443
3531.000000;0.417868
3530.000000;0.419058
3529.000000;0.419833
3528.000000;0.420396
3527.000000;0.421143
3526.000000;0.422189
3525.000000;0.423281
3524.000000;0.424196
3523.000000;0.424995
3522.000000;0.425839
3521.000000;0.426784
3520.000000;0.427815
3519.000000;0.428933
3518.000000;0.430111
3517.000000;0.431279
3516.000000;0.432419
3515.000000;0.433574
3514.000000;0.434748
3513.000000;0.435892
3512.000000;0.437006
3511.000000;0.438141
3510.000000;0.439254
3509.000000;0.440186
3508.000000;0.440852
3507.000000;0.441379
3506.000000;0.441992
3505.000000;0.442829
3504.000000;0.443865
3503.000000;0.444954
3502.000000;0.445941
3501.000000;0.446802
3500.000000;0.447670
3499.000000;0.448675
3498.000000;0.449797
3497.000000;0.450925
3496.000000;0.451971
3495.000000;0.452868
3494.000000;0.453551
3493.000000;0.454099
3492.000000;0.454817
3491.000000;0.455991
3490.000000;0.457541
3489.000000;0.459048
3488.000000;0.460187
3487.000000;0.461001
3486.000000;0.461730
3485.000000;0.462522
3484.000000;0.463376
3483.000000;0.464265
3482.000000;0.465199
3481.000000;0.466188
3480.000000;0.467220
3479.000000;0.468268
3478.000000;0.469297
3477.000000;0.470282
3476.000000;0.471237
3475.000000;0.472232
3474.000000;0.473375
3473.000000;0.474743
3472.000000;0.476266
3471.000000;0.477701
3470.000000;0.478809
3469.000000;0.479575
3468.000000;0.480184
3467.000000;0.480806
3466.000000;0.481535
3465.000000;0.482527
3464.000000;0.483976
3463.000000;0.485812
3462.000000;0.487569
3461.000000;0.488770
3460.000000;0.489368
3459.000000;0.489706
3458.000000;0.490109
3457.000000;0.490697
3456.000000;0.491490
3455.000000;0.492492
3454.000000;0.493634
3453.000000;0.494808
3452.000000;0.495994
3451.000000;0.497272
3450.000000;0.498668
3449.000000;0.500070
3448.000000;0.501342
3447.000000;0.502489
3446.000000;0.503658
3445.000000;0.504957
3444.000000;0.506253
3443.000000;0.507204
3442.000000;0.507600
3441.000000;0.507672
3440.000000;0.507944
3439.000000;0.508766
3438.000000;0.510082
3437.000000;0.511616
3436.000000;0.513108
3435.000000;0.514361
3434.000000;0.515283
3433.000000;0.516006
3432.000000;0.516819
3431.000000;0.517877
3430.000000;0.519092
3429.000000;0.520345
3428.000000;0.521601
3427.000000;0.522755
3426.000000;0.523627
3425.000000;0.524279
3424.000000;0.525073
3423.000000;0.526182
3422.000000;0.527260
3421.000000;0.527883
3420.000000;0.528196
3419.000000;0.528789
3418.000000;0.529989
3417.000000;0.531561
3416.000000;0.533037
3415.000000;0.534146
3414.000000;0.534926
3413.000000;0.535668
3412.000000;0.536712
3411.000000;0.538088
3410.000000;0.539376
3409.000000;0.540146
3408.000000;0.540516
3407.000000;0.541030
3406.000000;0.542020
3405.000000;0.543342
3404.000000;0.544753
3403.000000;0.546249
3402.000000;0.547881
3401.000000;0.549442
3400.000000;0.550571
3399.000000;0.551130
3398.000000;0.551396
3397.000000;0.551889
3396.000000;0.552989
3395.000000;0.554642
3394.000000;0.556402
3393.000000;0.557816
3392.000000;0.558793
3391.000000;0.559566
3390.000000;0.560375
3389.000000;0.561275
3388.000000;0.562161
3387.000000;0.562856
3386.000000;0.563274
3385.000000;0.563628
3384.000000;0.564377
3383.000000;0.565772
3382.000000;0.567505
3381.000000;0.569017
3380.000000;0.570120
3379.000000;0.571128
3378.000000;0.572363
3377.000000;0.573760
3376.000000;0.575037
3375.000000;0.576034
3374.000000;0.576774
3373.000000;0.577358
3372.000000;0.577916
3371.000000;0.578616
3370.000000;0.579576
3369.000000;0.580815
3368.000000;0.582276
3367.000000;0.583852
3366.000000;0.585353
3365.000000;0.586564
3364.000000;0.587414
3363.000000;0.588041
3362.000000;0.588619
3361.000000;0.589166
3360.000000;0.589567
3359.000000;0.589811
3358.000000;0.590156
3357.000000;0.591024
3356.000000;0.592638
3355.000000;0.594750
3354.000000;0.596773
3353.000000;0.598239
3352.000000;0.599110
3351.000000;0.599656
3350.000000;0.600147
3349.000000;0.600726
3348.000000;0.601433
3347.000000;0.602232
3346.000000;0.603075
3345.000000;0.604033
3344.000000;0.605276
3343.000000;0.606836
3342.000000;0.608486
3341.000000;0.609987
3340.000000;0.611324
3339.000000;0.612565
3338.000000;0.613600
3337.000000;0.614254
3336.000000;0.614622
3335.000000;0.615034
3334.000000;0.615672
3333.000000;0.616395
3332.000000;0.617027
3331.000000;0.617623
3330.000000;0.618368
3329.000000;0.619330
3328.000000;0.620399
3327.000000;0.621443
3326.000000;0.622451
3325.000000;0.623555
3324.000000;0.624905
3323.000000;0.626469
3322.000000;0.627954
3321.000000;0.629013
3320.000000;0.629548
3319.000000;0.629768
3318.000000;0.629983
3317.000000;0.630436
3316.000000;0.631311
3315.000000;0.632706
3314.000000;0.634495
3313.000000;0.636291
3312.000000;0.637709
3311.000000;0.638683
3310.000000;0.639479
3309.000000;0.640343
3308.000000;0.641238
3307.000000;0.641967
3306.000000;0.642514
3305.000000;0.643128
3304.000000;0.644040
3303.000000;0.645211
3302.000000;0.646437
3301.000000;0.647592
3300.000000;0.648607
3299.000000;0.649334
3298.000000;0.649683
3297.000000;0.649904
3296.000000;0.650507
3295.000000;0.651809
3294.000000;0.653648
3293.000000;0.655552
3292.000000;0.657035
3291.000000;0.657743
3290.000000;0.657636
3289.000000;0.657192
3288.000000;0.657230
3287.000000;0.658259
3286.000000;0.660012
3285.000000;0.661710
3284.000000;0.662732
3283.000000;0.663008
3282.000000;0.662950
3281.000000;0.663179
3280.000000;0.664160
3279.000000;0.665849
3278.000000;0.667695
3277.000000;0.669099
3276.000000;0.669837
3275.000000;0.670044
3274.000000;0.669962
3273.000000;0.669865
3272.000000;0.670063
3271.000000;0.670704
3270.000000;0.671586
3269.000000;0.672365
3268.000000;0.672975
3267.000000;0.673697
3266.000000;0.674812
3265.000000;0.676323
3264.000000;0.678003
3263.000000;0.679567
3262.000000;0.680770
3261.000000;0.681512
3260.000000;0.681905
3259.000000;0.682227
3258.000000;0.682784
3257.000000;0.683753
3256.000000;0.685014
3255.000000;0.686110
3254.000000;0.686581
3253.000000;0.686501
3252.000000;0.686536
3251.000000;0.687258
3250.000000;0.688508
3249.000000;0.689607
3248.000000;0.690129
3247.000000;0.690244
3246.000000;0.690399
3245.000000;0.690939
3244.000000;0.691986
3243.000000;0.693357
3242.000000;0.694537
3241.000000;0.695038
3240.000000;0.694963
3239.000000;0.694976
3238.000000;0.695533
3237.000000;0.696355
3236.000000;0.696876
3235.000000;0.697030
3234.000000;0.697311
3233.000000;0.698108
3232.000000;0.699265
3231.000000;0.700345
3230.000000;0.701111
3229.000000;0.701660
3228.000000;0.702211
3227.000000;0.702897
3226.000000;0.703741
3225.000000;0.704713
3224.000000;0.705785
3223.000000;0.706936
3222.000000;0.708070
3221.000000;0.708964
3220.000000;0.709459
3219.000000;0.709780
3218.000000;0.710490
3217.000000;0.711910
3216.000000;0.713586
3215.000000;0.714600
3214.000000;0.714558
3213.000000;0.714073
3212.000000;0.714057
3211.000000;0.714675
3210.000000;0.715267
3209.000000;0.715247
3208.000000;0.714807
3207.000000;0.714602
3206.000000;0.714987
3205.000000;0.715733
3204.000000;0.716359
3203.000000;0.716615
3202.000000;0.716699
3201.000000;0.717078
3200.000000;0.718042
3199.000000;0.719359
3198.000000;0.720465
3197.000000;0.721080
3196.000000;0.721462
3195.000000;0.721979
3194.000000;0.722627
3193.000000;0.723210
3192.000000;0.723809
3191.000000;0.724721
3190.000000;0.725925
3189.000000;0.726943
3188.000000;0.727326
3187.000000;0.727086
3186.000000;0.726515
3185.000000;0.725781
3184.000000;0.724939
3183.000000;0.724254
3182.000000;0.724191
3181.000000;0.724989
3180.000000;0.726325
3179.000000;0.727516
3178.000000;0.728116
3177.000000;0.728303
3176.000000;0.728660
3175.000000;0.729580
3174.000000;0.730880
3173.000000;0.732006
3172.000000;0.732615
3171.000000;0.732896
3170.000000;0.733291
3169.000000;0.734001
3168.000000;0.734866
3167.000000;0.735612
3166.000000;0.736027
3165.000000;0.735914
3164.000000;0.735085
3163.000000;0.733603
3162.000000;0.731965
3161.000000;0.730886
3160.000000;0.730860
3159.000000;0.731913
3158.000000;0.733682
3157.000000;0.735587
3156.000000;0.737034
3155.000000;0.737717
3154.000000;0.737831
3153.000000;0.737806
3152.000000;0.737750
3151.000000;0.737362
3150.000000;0.736562
3149.000000;0.735927
3148.000000;0.736128
3147.000000;0.737015
3146.000000;0.737686
3145.000000;0.737557
3144.000000;0.737040
3143.000000;0.736921
3142.000000;0.737361
3141.000000;0.737836
3140.000000;0.737929
3139.000000;0.737808
3138.000000;0.737904
3137.000000;0.738403
3136.000000;0.739174
3135.000000;0.739991
3134.000000;0.740699
3133.000000;0.741227
3132.000000;0.741487
3131.000000;0.741309
3130.000000;0.740580
3129.000000;0.739533
3128.000000;0.738750
3127.000000;0.738682
3126.000000;0.739166
3125.000000;0.739633
3124.000000;0.739794
3123.000000;0.739916
3122.000000;0.740336
3121.000000;0.740960
3120.000000;0.741435
3119.000000;0.741618
3118.000000;0.741667
3117.000000;0.741779
3116.000000;0.742010
3115.000000;0.742265
3114.000000;0.742261
3113.000000;0.741630
3112.000000;0.740372
3111.000000;0.739150
3110.000000;0.738829
3109.000000;0.739629
3108.000000;0.740940
3107.000000;0.742037
3106.000000;0.742701
3105.000000;0.742990
3104.000000;0.742737
3103.000000;0.741711
3102.000000;0.740201
3101.000000;0.739032
3100.000000;0.738824
3099.000000;0.739430
3098.000000;0.740216
3097.000000;0.740745
3096.000000;0.741002
3095.000000;0.741125
3094.000000;0.741199
3093.000000;0.741338
3092.000000;0.741668
3091.000000;0.742072
3090.000000;0.742139
3089.000000;0.741558
3088.000000;0.740520
3087.000000;0.739540
3086.000000;0.738949
3085.000000;0.738758
3084.000000;0.738935
3083.000000;0.739480
3082.000000;0.740158
3081.000000;0.740483
3080.000000;0.740213
3079.000000;0.739681
3078.000000;0.739380
3077.000000;0.739339
3076.000000;0.739168
3075.000000;0.738627
3074.000000;0.737871
3073.000000;0.737164
3072.000000;0.736592
3071.000000;0.736131
3070.000000;0.735788
3069.000000;0.735601
3068.000000;0.735626
3067.000000;0.735922
3066.000000;0.736400
3065.000000;0.736716
3064.000000;0.736529
3063.000000;0.735902
3062.000000;0.735204
3061.000000;0.734585
3060.000000;0.733840
3059.000000;0.732918
3058.000000;0.732193
3057.000000;0.732025
3056.000000;0.732295
3055.000000;0.732670
3054.000000;0.733105
3053.000000;0.733720
3052.000000;0.734280
3051.000000;0.734215
3050.000000;0.733284
3049.000000;0.731932
3048.000000;0.730833
3047.000000;0.730242
3046.000000;0.729924
3045.000000;0.729569
3044.000000;0.729116
3043.000000;0.728675
3042.000000;0.728294
3041.000000;0.727894
3040.000000;0.727484
3039.000000;0.727316
3038.000000;0.727657
3037.000000;0.728344
3036.000000;0.728700
3035.000000;0.728127
3034.000000;0.726774
3033.000000;0.725474
3032.000000;0.725007
3031.000000;0.725430
3030.000000;0.726090
3029.000000;0.726267
3028.000000;0.725841
3027.000000;0.725342
3026.000000;0.725279
3025.000000;0.725454
3024.000000;0.725125
3023.000000;0.723937
3022.000000;0.722467
3021.000000;0.721586
3020.000000;0.721435
3019.000000;0.721319
3018.000000;0.720613
3017.000000;0.719506
3016.000000;0.718713
3015.000000;0.718647
3014.000000;0.719012
3013.000000;0.719132
3012.000000;0.718590
3011.000000;0.717587
3010.000000;0.716755
3009.000000;0.716551
3008.000000;0.716841
3007.000000;0.717129
3006.000000;0.717181
3005.000000;0.717239
3004.000000;0.717539
3003.000000;0.717818
3002.000000;0.717549
3001.000000;0.716609
3000.000000;0.715428
2999.000000;0.714418
2998.000000;0.713533
2997.000000;0.712589
2996.000000;0.711816
2995.000000;0.711719
2994.000000;0.712340
2993.000000;0.712935
2992.000000;0.712651
2991.000000;0.711420
2990.000000;0.710023
2989.000000;0.709276
2988.000000;0.709318
2987.000000;0.709654
2986.000000;0.709729
2985.000000;0.709393
2984.000000;0.708877
2983.000000;0.708394
2982.000000;0.707831
2981.000000;0.706905
2980.000000;0.705627
2979.000000;0.704466
2978.000000;0.703901
2977.000000;0.703881
2976.000000;0.703855
2975.000000;0.703331
2974.000000;0.702338
2973.000000;0.701354
2972.000000;0.700867
2971.000000;0.700988
2970.000000;0.701392
2969.000000;0.701631
2968.000000;0.701485
2967.000000;0.700960
2966.000000;0.700018
2965.000000;0.698582
2964.000000;0.696899
2963.000000;0.695561
2962.000000;0.694931
2961.000000;0.694724
2960.000000;0.694419
2959.000000;0.693947
2958.000000;0.693657
2957.000000;0.693702
2956.000000;0.693888
2955.000000;0.694070
2954.000000;0.694260
2953.000000;0.694291
2952.000000;0.693820
2951.000000;0.692809
2950.000000;0.691671
2949.000000;0.690813
2948.000000;0.690298
2947.000000;0.689967
2946.000000;0.689570
2945.000000;0.688741
2944.000000;0.687301
2943.000000;0.685722
2942.000000;0.684840
2941.000000;0.684857
2940.000000;0.684995
2939.000000;0.684414
2938.000000;0.683154
2937.000000;0.681851
2936.000000;0.680890
2935.000000;0.680256
2934.000000;0.679948
2933.000000;0.680017
2932.000000;0.680266
2931.000000;0.680326
2930.000000;0.680067
2929.000000;0.679634
2928.000000;0.679095
2927.000000;0.678361
2926.000000;0.677477
2925.000000;0.676718
2924.000000;0.676326
2923.000000;0.676286
2922.000000;0.676395
2921.000000;0.676395
2920.000000;0.676074
2919.000000;0.675409
2918.000000;0.674620
2917.000000;0.673983
2916.000000;0.673578
2915.000000;0.673273
2914.000000;0.672880
2913.000000;0.672264
2912.000000;0.671426
2911.000000;0.670548
2910.000000;0.669804
2909.000000;0.669080
2908.000000;0.668074
2907.000000;0.666780
2906.000000;0.665624
2905.000000;0.664936
2904.000000;0.664542
2903.000000;0.664162
2902.000000;0.663938
2901.000000;0.664148
2900.000000;0.664528
2899.000000;0.664352
2898.000000;0.663284
2897.000000;0.661793
2896.000000;0.660623
2895.000000;0.660132
2894.000000;0.660235
2893.000000;0.660658
2892.000000;0.660990
2891.000000;0.660689
2890.000000;0.659388
2889.000000;0.657324
2888.000000;0.655324
2887.000000;0.654180
2886.000000;0.653940
2885.000000;0.653844
2884.000000;0.653086
2883.000000;0.651673
2882.000000;0.650396
2881.000000;0.649919
2880.000000;0.650081
2879.000000;0.650165
2878.000000;0.649673
2877.000000;0.648706
2876.000000;0.647746
2875.000000;0.647264
2874.000000;0.647413
2873.000000;0.647855
2872.000000;0.647935
2871.000000;0.647237
2870.000000;0.645985
2869.000000;0.644771
2868.000000;0.643956
2867.000000;0.643468
2866.000000;0.643066
2865.000000;0.642585
2864.000000;0.642004
2863.000000;0.641447
2862.000000;0.641101
2861.000000;0.640962
2860.000000;0.640736
2859.000000;0.640204
2858.000000;0.639602
2857.000000;0.639370
2856.000000;0.639494
2855.000000;0.639405
2854.000000;0.638631
2853.000000;0.637337
2852.000000;0.636073
2851.000000;0.635149
2850.000000;0.634439
2849.000000;0.633704
2848.000000;0.632918
2847.000000;0.632240
2846.000000;0.631764
2845.000000;0.631366
2844.000000;0.630815
2843.000000;0.630001
2842.000000;0.629037
2841.000000;0.628171
2840.000000;0.627609
2839.000000;0.627379
2838.000000;0.627265
2837.000000;0.626920
2836.000000;0.626171
2835.000000;0.625247
2834.000000;0.624548
2833.000000;0.624148
2832.000000;0.623706
2831.000000;0.622927
2830.000000;0.621920
2829.000000;0.620986
2828.000000;0.620275
2827.000000;0.619821
2826.000000;0.619695
2825.000000;0.619809
2824.000000;0.619702
2823.000000;0.618878
2822.000000;0.617422
2821.000000;0.616038
2820.000000;0.615352
2819.000000;0.615351
2818.000000;0.615549
2817.000000;0.615537
2816.000000;0.615231
2815.000000;0.614724
2814.000000;0.614059
2813.000000;0.613207
2812.000000;0.612189
2811.000000;0.611168
2810.000000;0.610384
2809.000000;0.609952
2808.000000;0.609757
2807.000000;0.609543
2806.000000;0.609089
2805.000000;0.608339
2804.000000;0.607423
2803.000000;0.606605
2802.000000;0.606111
2801.000000;0.605933
2800.000000;0.605814
2799.000000;0.605475
2798.000000;0.604813
2797.000000;0.603908
2796.000000;0.602886
2795.000000;0.601845
2794.000000;0.600868
2793.000000;0.600056
2792.000000;0.599561
2791.000000;0.599508
2790.000000;0.599777
2789.000000;0.599899
2788.000000;0.599370
2787.000000;0.598138
2786.000000;0.596677
2785.000000;0.595543
2784.000000;0.594963
2783.000000;0.594837
2782.000000;0.594941
2781.000000;0.595035
2780.000000;0.594941
2779.000000;0.594619
2778.000000;0.594099
2777.000000;0.593342
2776.000000;0.592330
2775.000000;0.591300
2774.000000;0.590673
2773.000000;0.590612
2772.000000;0.590823
2771.000000;0.590829
2770.000000;0.590306
2769.000000;0.589150
2768.000000;0.587508
2767.000000;0.585870
2766.000000;0.584804
2765.000000;0.584391
2764.000000;0.584115
2763.000000;0.583488
2762.000000;0.582597
2761.000000;0.581842
2760.000000;0.581399
2759.000000;0.581180
2758.000000;0.581101
2757.000000;0.581035
2756.000000;0.580682
2755.000000;0.579828
2754.000000;0.578674
2753.000000;0.577621
2752.000000;0.576826
2751.000000;0.576228
2750.000000;0.575848
2749.000000;0.575704
2748.000000;0.575536
2747.000000;0.575015
2746.000000;0.574221
2745.000000;0.573553
2744.000000;0.573128
2743.000000;0.572657
2742.000000;0.571962
2741.000000;0.571247
2740.000000;0.570715
2739.000000;0.570231
2738.000000;0.569610
2737.000000;0.568983
2736.000000;0.568629
2735.000000;0.568563
2734.000000;0.568504
2733.000000;0.568183
2732.000000;0.567558
2731.000000;0.566757
2730.000000;0.565933
2729.000000;0.565144
2728.000000;0.564332
2727.000000;0.563446
2726.000000;0.562584
2725.000000;0.561914
2724.000000;0.561433
2723.000000;0.560941
2722.000000;0.560294
2721.000000;0.559599
2720.000000;0.559085
2719.000000;0.558866
2718.000000;0.558843
2717.000000;0.558763
2716.000000;0.558347
2715.000000;0.557453
2714.000000;0.556189
2713.000000;0.554857
2712.000000;0.553775
2711.000000;0.553116
2710.000000;0.552829
2709.000000;0.552601
2708.000000;0.552025
2707.000000;0.551018
2706.000000;0.550041
2705.000000;0.549710
2704.000000;0.550105
2703.000000;0.550611
2702.000000;0.550503
2701.000000;0.549605
2700.000000;0.548301
2699.000000;0.547038
2698.000000;0.545968
2697.000000;0.545014
2696.000000;0.544148
2695.000000;0.543540
2694.000000;0.543368
2693.000000;0.543494
2692.000000;0.543430
2691.000000;0.542787
2690.000000;0.541751
2689.000000;0.540951
2688.000000;0.540835
2687.000000;0.541251
2686.000000;0.541635
2685.000000;0.541456
2684.000000;0.540488
2683.000000;0.538878
2682.000000;0.537110
2681.000000;0.535791
2680.000000;0.535244
2679.000000;0.535253
2678.000000;0.535256
2677.000000;0.534792
2676.000000;0.533794
2675.000000;0.532557
2674.000000;0.531489
2673.000000;0.530829
2672.000000;0.530500
2671.000000;0.530201
2670.000000;0.529680
2669.000000;0.528913
2668.000000;0.528039
2667.000000;0.527214
2666.000000;0.526540
2665.000000;0.526067
2664.000000;0.525767
2663.000000;0.525537
2662.000000;0.525275
2661.000000;0.524929
2660.000000;0.524473
2659.000000;0.523910
2658.000000;0.523337
2657.000000;0.522944
2656.000000;0.522813
2655.000000;0.522721
2654.000000;0.522261
2653.000000;0.521228
2652.000000;0.519858
2651.000000;0.518650
2650.000000;0.517961
2649.000000;0.517773
2648.000000;0.517779
2647.000000;0.517653
2646.000000;0.517236
2645.000000;0.516569
2644.000000;0.515793
2643.000000;0.515041
2642.000000;0.514375
2641.000000;0.513805
2640.000000;0.513352
2639.000000;0.513056
2638.000000;0.512936
2637.000000;0.512929
2636.000000;0.512889
2635.000000;0.512604
2634.000000;0.511858
2633.000000;0.510557
2632.000000;0.508883
2631.000000;0.507292
2630.000000;0.506245
2629.000000;0.505884
2628.000000;0.505958
2627.000000;0.506061
2626.000000;0.505915
2625.000000;0.505452
2624.000000;0.504735
2623.000000;0.503850
2622.000000;0.502867
2621.000000;0.501858
2620.000000;0.500952
2619.000000;0.500320
2618.000000;0.500037
2617.000000;0.499960
2616.000000;0.499787
2615.000000;0.499292
2614.000000;0.498488
2613.000000;0.497613
2612.000000;0.496973
2611.000000;0.496748
2610.000000;0.496812
2609.000000;0.496782
2608.000000;0.496354
2607.000000;0.495595
2606.000000;0.494789
2605.000000;0.494017
2604.000000;0.493077
2603.000000;0.491913
2602.000000;0.490886
2601.000000;0.490448
2600.000000;0.490595
2599.000000;0.490832
2598.000000;0.490665
2597.000000;0.490037
2596.000000;0.489274
2595.000000;0.488740
2594.000000;0.488515
2593.000000;0.488345
2592.000000;0.487856
2591.000000;0.486918
2590.000000;0.485793
2589.000000;0.484893
2588.000000;0.484379
2587.000000;0.484072
2586.000000;0.483693
2585.000000;0.483115
2584.000000;0.482364
2583.000000;0.481520
2582.000000;0.480695
2581.000000;0.480029
2580.000000;0.479621
2579.000000;0.479421
2578.000000;0.479231
2577.000000;0.478819
2576.000000;0.478083
2575.000000;0.477152
2574.000000;0.476306
2573.000000;0.475767
2572.000000;0.475495
2571.000000;0.475218
2570.000000;0.474691
2569.000000;0.473929
2568.000000;0.473168
2567.000000;0.472612
2566.000000;0.472237
2565.000000;0.471855
2564.000000;0.471316
2563.000000;0.470639
2562.000000;0.469957
2561.000000;0.469396
2560.000000;0.468997
2559.000000;0.468687
2558.000000;0.468290
2557.000000;0.467647
2556.000000;0.466773
2555.000000;0.465877
2554.000000;0.465164
2553.000000;0.464648
2552.000000;0.464212
2551.000000;0.463825
2550.000000;0.463592
2549.000000;0.463591
2548.000000;0.463720
2547.000000;0.463737
2546.000000;0.463428
2545.000000;0.462730
2544.000000;0.461755
2543.000000;0.460723
2542.000000;0.459831
2541.000000;0.459166
2540.000000;0.458721
2539.000000;0.458427
2538.000000;0.458139
2537.000000;0.457631
2536.000000;0.456733
2535.000000;0.455499
2534.000000;0.454185
2533.000000;0.453064
2532.000000;0.452271
2531.000000;0.451778
2530.000000;0.451449
2529.000000;0.451120
2528.000000;0.450705
2527.000000;0.450221
2526.000000;0.449688
2525.000000;0.449068
2524.000000;0.448365
2523.000000;0.447726
2522.000000;0.447315
2521.000000;0.447088
2520.000000;0.446819
2519.000000;0.446382
2518.000000;0.445875
2517.000000;0.445445
2516.000000;0.445100
2515.000000;0.444759
2514.000000;0.444362
2513.000000;0.443882
2512.000000;0.443300
2511.000000;0.442657
2510.000000;0.442075
2509.000000;0.441629
2508.000000;0.441234
2507.000000;0.440700
2506.000000;0.439894
2505.000000;0.438837
2504.000000;0.437712
2503.000000;0.436782
2502.000000;0.436223
2501.000000;0.435957
2500.000000;0.435682
2499.000000;0.435133
2498.000000;0.434336
2497.000000;0.433580
2496.000000;0.433127
2495.000000;0.432955
2494.000000;0.432801
2493.000000;0.432462
2492.000000;0.431999
2491.000000;0.431579
2490.000000;0.431140
2489.000000;0.430405
2488.000000;0.429288
2487.000000;0.428123
2486.000000;0.427331
2485.000000;0.426966
2484.000000;0.426775
2483.000000;0.426591
2482.000000;0.426430
2481.000000;0.426248
2480.000000;0.425882
2479.000000;0.425301
2478.000000;0.424652
2477.000000;0.423993
2476.000000;0.423201
2475.000000;0.422255
2474.000000;0.421399
2473.000000;0.420853
2472.000000;0.420533
2471.000000;0.420209
2470.000000;0.419804
2469.000000;0.419370
2468.000000;0.418896
2467.000000;0.418342
2466.000000;0.417801
2465.000000;0.417409
2464.000000;0.417127
2463.000000;0.416732
2462.000000;0.416059
2461.000000;0.415151
2460.000000;0.414193
2459.000000;0.413380
2458.000000;0.412810
2457.000000;0.412387
2456.000000;0.411873
2455.000000;0.411117
2454.000000;0.410235
2453.000000;0.409501
2452.000000;0.409099
2451.000000;0.409040
2450.000000;0.409211
2449.000000;0.409399
2448.000000;0.409316
2447.000000;0.408774
2446.000000;0.407838
2445.000000;0.406746
2444.000000;0.405702
2443.000000;0.404823
2442.000000;0.404212
2441.000000;0.403904
2440.000000;0.403742
2439.000000;0.403457
2438.000000;0.402925
2437.000000;0.402271
2436.000000;0.401691
2435.000000;0.401245
2434.000000;0.400852
2433.000000;0.400396
2432.000000;0.399816
2431.000000;0.399147
2430.000000;0.398505
2429.000000;0.397992
2428.000000;0.397584
2427.000000;0.397164
2426.000000;0.396657
2425.000000;0.396095
2424.000000;0.395546
2423.000000;0.395040
2422.000000;0.394561
2421.000000;0.394046
2420.000000;0.393422
2419.000000;0.392693
2418.000000;0.392008
2417.000000;0.391537
2416.000000;0.391252
2415.000000;0.390906
2414.000000;0.390294
2413.000000;0.389457
2412.000000;0.388601
2411.000000;0.387879
2410.000000;0.387317
2409.000000;0.386884
2408.000000;0.386514
2407.000000;0.386083
2406.000000;0.385486
2405.000000;0.384768
2404.000000;0.384086
2403.000000;0.383512
2402.000000;0.382951
2401.000000;0.382325
2400.000000;0.381728
2399.000000;0.381311
2398.000000;0.381044
2397.000000;0.380734
2396.000000;0.380264
2395.000000;0.379704
2394.000000;0.379144
2393.000000;0.378563
2392.000000;0.377922
2391.000000;0.377283
2390.000000;0.376730
2389.000000;0.376239
2388.000000;0.375742
2387.000000;0.375275
2386.000000;0.374924
2385.000000;0.374635
2384.000000;0.374203
2383.000000;0.373491
2382.000000;0.372598
2381.000000;0.371771
2380.000000;0.371178
2379.000000;0.370794
2378.000000;0.370449
2377.000000;0.369969
2376.000000;0.369316
2375.000000;0.368602
2374.000000;0.367965
2373.000000;0.367451
2372.000000;0.367026
2371.000000;0.366662
2370.000000;0.366342
2369.000000;0.366016
2368.000000;0.365611
2367.000000;0.365086
2366.000000;0.364432
2365.000000;0.363663
2364.000000;0.362876
2363.000000;0.362263
2362.000000;0.361954
2361.000000;0.361834
2360.000000;0.361617
2359.000000;0.361114
2358.000000;0.360380
2357.000000;0.359593
2356.000000;0.358872
2355.000000;0.358228
2354.000000;0.357597
2353.000000;0.356910
2352.000000;0.356187
2351.000000;0.355574
2350.000000;0.355229
2349.000000;0.355152
2348.000000;0.355175
2347.000000;0.355108
2346.000000;0.354824
2345.000000;0.354275
2344.000000;0.353518
2343.000000;0.352732
2342.000000;0.352072
2341.000000;0.351505
2340.000000;0.350865
2339.000000;0.350110
2338.000000;0.349392
2337.000000;0.348826
2336.000000;0.348324
2335.000000;0.347748
2334.000000;0.347122
2333.000000;0.346584
2332.000000;0.346201
2331.000000;0.345914
2330.000000;0.345646
2329.000000;0.345354
2328.000000;0.344991
2327.000000;0.344504
2326.000000;0.343891
2325.000000;0.343217
2324.000000;0.342557
2323.000000;0.341933
2322.000000;0.341320
2321.000000;0.340684
2320.000000;0.340028
2319.000000;0.339400
2318.000000;0.338863
2317.000000;0.338458
2316.000000;0.338178
2315.000000;0.337932
2314.000000;0.337553
2313.000000;0.336925
2312.000000;0.336147
2311.000000;0.335485
2310.000000;0.335086
2309.000000;0.334797
2308.000000;0.334366
2307.000000;0.333749
2306.000000;0.333110
2305.000000;0.332563
2304.000000;0.332055
2303.000000;0.331511
2302.000000;0.330931
2301.000000;0.330341
2300.000000;0.329753
2299.000000;0.329207
2298.000000;0.328741
2297.000000;0.328305
2296.000000;0.327809
2295.000000;0.327262
2294.000000;0.326751
2293.000000;0.326273
2292.000000;0.325724
2291.000000;0.325083
2290.000000;0.324464
2289.000000;0.323950
2288.000000;0.323495
2287.000000;0.323050
2286.000000;0.322650
2285.000000;0.322301
2284.000000;0.321914
2283.000000;0.321429
2282.000000;0.320908
2281.000000;0.320391
2280.000000;0.319797
2279.000000;0.319070
2278.000000;0.318340
2277.000000;0.317805
2276.000000;0.317470
2275.000000;0.317134
2274.000000;0.316612
2273.000000;0.315925
2272.000000;0.315241
2271.000000;0.314691
2270.000000;0.314251
2269.000000;0.313807
2268.000000;0.313351
2267.000000;0.313030
2266.000000;0.312909
2265.000000;0.312755
2264.000000;0.312223
2263.000000;0.311275
2262.000000;0.310247
2261.000000;0.309424
2260.000000;0.308767
2259.000000;0.308130
2258.000000;0.307554
2257.000000;0.307162
2256.000000;0.306888
2255.000000;0.306523
2254.000000;0.305971
2253.000000;0.305305
2252.000000;0.304632
2251.000000;0.304028
2250.000000;0.303578
2249.000000;0.303293
2248.000000;0.303014
2247.000000;0.302543
2246.000000;0.301904
2245.000000;0.301318
2244.000000;0.300918
2243.000000;0.300599
2242.000000;0.300190
2241.000000;0.299653
2240.000000;0.299072
2239.000000;0.298527
2238.000000;0.298080
2237.000000;0.297794
2236.000000;0.297681
2235.000000;0.297627
2234.000000;0.297424
2233.000000;0.296915
2232.000000;0.296116
2231.000000;0.295199
2230.000000;0.294329
2229.000000;0.293536
2228.000000;0.292767
2227.000000;0.292051
2226.000000;0.291515
2225.000000;0.291227
2224.000000;0.291075
2223.000000;0.290880
2222.000000;0.290537
2221.000000;0.290029
2220.000000;0.289367
2219.000000;0.288633
2218.000000;0.288027
2217.000000;0.287714
2216.000000;0.287629
2215.000000;0.287501
2214.000000;0.287109
2213.000000;0.286435
2212.000000;0.285606
2211.000000;0.284773
2210.000000;0.284075
2209.000000;0.283594
2208.000000;0.283280
2207.000000;0.282948
2206.000000;0.282440
2205.000000;0.281763
2204.000000;0.281065
2203.000000;0.280468
2202.000000;0.279968
2201.000000;0.279478
2200.000000;0.278939
2199.000000;0.278352
2198.000000;0.277730
2197.000000;0.277055
2196.000000;0.276339
2195.000000;0.275692
2194.000000;0.275260
2193.000000;0.275047
2192.000000;0.274869
2191.000000;0.274542
2190.000000;0.274087
2189.000000;0.273694
2188.000000;0.273458
2187.000000;0.273248
2186.000000;0.272843
2185.000000;0.272159
2184.000000;0.271301
2183.000000;0.270424
2182.000000;0.269622
2181.000000;0.268944
2180.000000;0.268440
2179.000000;0.268122
2178.000000;0.267904
2177.000000;0.267645
2176.000000;0.267269
2175.000000;0.266799
2174.000000;0.266256
2173.000000;0.265621
2172.000000;0.264919
2171.000000;0.264276
2170.000000;0.263792
2169.000000;0.263415
2168.000000;0.263008
2167.000000;0.262552
2166.000000;0.262160
2165.000000;0.261896
2164.000000;0.261677
2163.000000;0.261347
2162.000000;0.260803
2161.000000;0.260017
2160.000000;0.259060
2159.000000;0.258139
2158.000000;0.257503
2157.000000;0.257227
2156.000000;0.257131
2155.000000;0.256960
2154.000000;0.256614
2153.000000;0.256135
2152.000000;0.255552
2151.000000;0.254844
2150.000000;0.254047
2149.000000;0.253319
2148.000000;0.252824
2147.000000;0.252569
2146.000000;0.252374
2145.000000;0.252029
2144.000000;0.251501
2143.000000;0.250964
2142.000000;0.250600
2141.000000;0.250383
2140.000000;0.250107
2139.000000;0.249611
2138.000000;0.248930
2137.000000;0.248240
2136.000000;0.247708
2135.000000;0.247385
2134.000000;0.247149
2133.000000;0.246764
2132.000000;0.246083
2131.000000;0.245237
2130.000000;0.244506
2129.000000;0.243994
2128.000000;0.243502
2127.000000;0.242808
2126.000000;0.241965
2125.000000;0.241230
2124.000000;0.240777
2123.000000;0.240573
2122.000000;0.240488
2121.000000;0.240397
2120.000000;0.240174
2119.000000;0.239719
2118.000000;0.239033
2117.000000;0.238238
2116.000000;0.237490
2115.000000;0.236874
2114.000000;0.236389
2113.000000;0.235964
2112.000000;0.235517
2111.000000;0.235013
2110.000000;0.234493
2109.000000;0.234023
2108.000000;0.233637
2107.000000;0.233312
2106.000000;0.232995
2105.000000;0.232641
2104.000000;0.232247
2103.000000;0.231855
2102.000000;0.231499
2101.000000;0.231121
2100.000000;0.230580
2099.000000;0.229795
2098.000000;0.228854
2097.000000;0.227965
2096.000000;0.227302
2095.000000;0.226906
2094.000000;0.226688
2093.000000;0.226508
2092.000000;0.226262
2091.000000;0.225917
2090.000000;0.225473
2089.000000;0.224915
2088.000000;0.224242
2087.000000;0.223532
2086.000000;0.222903
2085.000000;0.222406
2084.000000;0.221996
2083.000000;0.221632
2082.000000;0.221313
2081.000000;0.221001
2080.000000;0.220593
2079.000000;0.220039
2078.000000;0.219415
2077.000000;0.218793
2076.000000;0.218127
2075.000000;0.217366
2074.000000;0.216624
2073.000000;0.216105
2072.000000;0.215842
2071.000000;0.215630
2070.000000;0.215260
2069.000000;0.214745
2068.000000;0.214272
2067.000000;0.213969
2066.000000;0.213779
2065.000000;0.213522
2064.000000;0.213054
2063.000000;0.212390
2062.000000;0.211678
2061.000000;0.211065
2060.000000;0.210562
2059.000000;0.210082
2058.000000;0.209567
2057.000000;0.209054
2056.000000;0.208589
2055.000000;0.208154
2054.000000;0.207707
2053.000000;0.207256
2052.000000;0.206837
2051.000000;0.206437
2050.000000;0.206009
2049.000000;0.205553
2048.000000;0.205127
2047.000000;0.204741
2046.000000;0.204321
2045.000000;0.203823
2044.000000;0.203336
2043.000000;0.202980
2042.000000;0.202732
2041.000000;0.202435
2040.000000;0.201997
2039.000000;0.201477
2038.000000;0.200951
2037.000000;0.200368
2036.000000;0.199638
2035.000000;0.198820
2034.000000;0.198102
2033.000000;0.197604
2032.000000;0.197259
2031.000000;0.196912
2030.000000;0.196478
2029.000000;0.195965
2028.000000;0.195420
2027.000000;0.194885
2026.000000;0.194398
2025.000000;0.193991
2024.000000;0.193652
2023.000000;0.193302
2022.000000;0.192815
2021.000000;0.192115
2020.000000;0.191279
2019.000000;0.190515
2018.000000;0.189986
2017.000000;0.189663
2016.000000;0.189386
2015.000000;0.189031
2014.000000;0.188596
2013.000000;0.188137
2012.000000;0.187693
2011.000000;0.187292
2010.000000;0.186967
2009.000000;0.186727
2008.000000;0.186521
2007.000000;0.186241
2006.000000;0.185786
2005.000000;0.185174
2004.000000;0.184587
2003.000000;0.184231
2002.000000;0.184092
2001.000000;0.183870
2000.000000;0.183269
1999.000000;0.182332
1998.000000;0.181414
1997.000000;0.180819
1996.000000;0.180532
1995.000000;0.180319
1994.000000;0.180003
1993.000000;0.179590
1992.000000;0.179193
1991.000000;0.178879
1990.000000;0.178604
1989.000000;0.178243
1988.000000;0.177725
1987.000000;0.177112
1986.000000;0.176538
1985.000000;0.176067
1984.000000;0.175635
1983.000000;0.175137
1982.000000;0.174531
1981.000000;0.173859
1980.000000;0.173220
1979.000000;0.172706
1978.000000;0.172333
1977.000000;0.172017
1976.000000;0.171654
1975.000000;0.171207
1974.000000;0.170700
1973.000000;0.170146
1972.000000;0.169557
1971.000000;0.168991
1970.000000;0.168521
1969.000000;0.168127
1968.000000;0.167716
1967.000000;0.167243
1966.000000;0.166750
1965.000000;0.166270
1964.000000;0.165778
1963.000000;0.165281
1962.000000;0.164851
1961.000000;0.164518
1960.000000;0.164194
1959.000000;0.163776
1958.000000;0.163283
1957.000000;0.162817
1956.000000;0.162409
1955.000000;0.161963
1954.000000;0.161377
1953.000000;0.160660
1952.000000;0.159950
1951.000000;0.159407
1950.000000;0.159086
1949.000000;0.158896
1948.000000;0.158679
1947.000000;0.158333
1946.000000;0.157860
1945.000000;0.157327
1944.000000;0.156820
1943.000000;0.156404
1942.000000;0.156073
1941.000000;0.155747
1940.000000;0.155362
1939.000000;0.154952
1938.000000;0.154574
1937.000000;0.154190
1936.000000;0.153710
1935.000000;0.153131
1934.000000;0.152561
1933.000000;0.152051
1932.000000;0.151524
1931.000000;0.150914
1930.000000;0.150283
1929.000000;0.149730
1928.000000;0.149245
1927.000000;0.148742
1926.000000;0.148206
1925.000000;0.147735
1924.000000;0.147424
1923.000000;0.147255
1922.000000;0.147098
1921.000000;0.146805
1920.000000;0.146325
1919.000000;0.145735
1918.000000;0.145161
1917.000000;0.144656
1916.000000;0.144174
1915.000000;0.143679
1914.000000;0.143218
1913.000000;0.142871
1912.000000;0.142652
1911.000000;0.142482
1910.000000;0.142241
1909.000000;0.141852
1908.000000;0.141340
1907.000000;0.140798
1906.000000;0.140282
1905.000000;0.139760
1904.000000;0.139204
1903.000000;0.138707
1902.000000;0.138382
1901.000000;0.138171
1900.000000;0.137864
1899.000000;0.137343
1898.000000;0.136731
1897.000000;0.136218
1896.000000;0.135837
1895.000000;0.135486
1894.000000;0.135098
1893.000000;0.134681
1892.000000;0.134244
1891.000000;0.133757
1890.000000;0.133197
1889.000000;0.132565
1888.000000;0.131872
1887.000000;0.131165
1886.000000;0.130556
1885.000000;0.130143
1884.000000;0.129901
1883.000000;0.129700
1882.000000;0.129415
1881.000000;0.129014
1880.000000;0.128541
1879.000000;0.128081
1878.000000;0.127720
1877.000000;0.127488
1876.000000;0.127308
1875.000000;0.127036
1874.000000;0.126569
1873.000000;0.125925
1872.000000;0.125224
1871.000000;0.124606
1870.000000;0.124139
1869.000000;0.123765
1868.000000;0.123358
1867.000000;0.122846
1866.000000;0.122290
1865.000000;0.121792
1864.000000;0.121368
1863.000000;0.120941
1862.000000;0.120455
1861.000000;0.119952
1860.000000;0.119525
1859.000000;0.119218
1858.000000;0.118983
1857.000000;0.118723
1856.000000;0.118365
1855.000000;0.117909
1854.000000;0.117410
1853.000000;0.116928
1852.000000;0.116498
1851.000000;0.116121
1850.000000;0.115766
1849.000000;0.115376
1848.000000;0.114907
1847.000000;0.114385
1846.000000;0.113903
1845.000000;0.113543
1844.000000;0.113289
1843.000000;0.113025
1842.000000;0.112635
1841.000000;0.112084
1840.000000;0.111429
1839.000000;0.110775
1838.000000;0.110210
1837.000000;0.109755
1836.000000;0.109345
1835.000000;0.108887
1834.000000;0.108353
1833.000000;0.107827
1832.000000;0.107419
1831.000000;0.107095
1830.000000;0.106648
1829.000000;0.105928
1828.000000;0.105071
1827.000000;0.104424
1826.000000;0.104197
1825.000000;0.104247
1824.000000;0.104272
1823.000000;0.104127
1822.000000;0.103876
1821.000000;0.103598
1820.000000;0.103261
1819.000000;0.102809
1818.000000;0.102258
1817.000000;0.101674
1816.000000;0.101124
1815.000000;0.100655
1814.000000;0.100269
1813.000000;0.099895
1812.000000;0.099461
1811.000000;0.098992
1810.000000;0.098578
1809.000000;0.098230
1808.000000;0.097846
1807.000000;0.097359
1806.000000;0.096837
1805.000000;0.096404
1804.000000;0.096091
1803.000000;0.095810
1802.000000;0.095447
1801.000000;0.094969
1800.000000;0.094459
1799.000000;0.094047
1798.000000;0.093766
1797.000000;0.093487
1796.000000;0.093046
1795.000000;0.092440
1794.000000;0.091827
1793.000000;0.091335
1792.000000;0.090947
1791.000000;0.090588
1790.000000;0.090230
1789.000000;0.089856
1788.000000;0.089412
1787.000000;0.088886
1786.000000;0.088376
1785.000000;0.087987
1784.000000;0.087698
1783.000000;0.087398
1782.000000;0.087026
1781.000000;0.086597
1780.000000;0.086130
1779.000000;0.085623
1778.000000;0.085111
1777.000000;0.084655
1776.000000;0.084255
1775.000000;0.083828
1774.000000;0.083310
1773.000000;0.082735
1772.000000;0.082198
1771.000000;0.081759
1770.000000;0.081394
1769.000000;0.081015
1768.000000;0.080545
1767.000000;0.079993
1766.000000;0.079467
1765.000000;0.079074
1764.000000;0.078796
1763.000000;0.078519
1762.000000;0.078161
1761.000000;0.077751
1760.000000;0.077368
1759.000000;0.077041
1758.000000;0.076725
1757.000000;0.076364
1756.000000;0.075951
1755.000000;0.075519
1754.000000;0.075099
1753.000000;0.074695
1752.000000;0.074313
1751.000000;0.073976
1750.000000;0.073692
1749.000000;0.073407
1748.000000;0.073033
1747.000000;0.072534
1746.000000;0.071966
1745.000000;0.071430
1744.000000;0.070995
1743.000000;0.070661
1742.000000;0.070395
1741.000000;0.070140
1740.000000;0.069833
1739.000000;0.069448
1738.000000;0.069007
1737.000000;0.068555
1736.000000;0.068120
1735.000000;0.067708
1734.000000;0.067295
1733.000000;0.066841
1732.000000;0.066332
1731.000000;0.065836
1730.000000;0.065426
1729.000000;0.065080
1728.000000;0.064680
1727.000000;0.064146
1726.000000;0.063532
1725.000000;0.062971
1724.000000;0.062531
1723.000000;0.062189
1722.000000;0.061901
1721.000000;0.061645
1720.000000;0.061388
1719.000000;0.061081
1718.000000;0.060687
1717.000000;0.060201
1716.000000;0.059647
1715.000000;0.059079
1714.000000;0.058584
1713.000000;0.058234
1712.000000;0.058031
1711.000000;0.057902
1710.000000;0.057733
1709.000000;0.057423
1708.000000;0.056944
1707.000000;0.056361
1706.000000;0.055810
1705.000000;0.055396
1704.000000;0.055097
1703.000000;0.054785
1702.000000;0.054361
1701.000000;0.053852
1700.000000;0.053361
1699.000000;0.052942
1698.000000;0.052563
1697.000000;0.052162
1696.000000;0.051709
1695.000000;0.051229
1694.000000;0.050764
1693.000000;0.050343
1692.000000;0.049971
1691.000000;0.049617
1690.000000;0.049247
1689.000000;0.048859
1688.000000;0.048483
1687.000000;0.048148
1686.000000;0.047845
1685.000000;0.047531
1684.000000;0.047164
1683.000000;0.046747
1682.000000;0.046320
1681.000000;0.045945
1680.000000;0.045620
1679.000000;0.045264
1678.000000;0.044823
1677.000000;0.044355
1676.000000;0.043960
1675.000000;0.043661
1674.000000;0.043372
1673.000000;0.043018
1672.000000;0.042625
1671.000000;0.042268
1670.000000;0.041963
1669.000000;0.041634
1668.000000;0.041209
1667.000000;0.040697
1666.000000;0.040171
1665.000000;0.039688
1664.000000;0.039257
1663.000000;0.038867
1662.000000;0.038492
1661.000000;0.038108
1660.000000;0.037712
1659.000000;0.037321
1658.000000;0.036926
1657.000000;0.036483
1656.000000;0.035961
1655.000000;0.035415
1654.000000;0.034970
1653.000000;0.034702
1652.000000;0.034569
1651.000000;0.034446
1650.000000;0.034227
1649.000000;0.033879
1648.000000;0.033432
1647.000000;0.032965
1646.000000;0.032554
1645.000000;0.032211
1644.000000;0.031873
1643.000000;0.031450
1642.000000;0.030905
1641.000000;0.030316
1640.000000;0.029832
1639.000000;0.029519
1638.000000;0.029293
1637.000000;0.029007
1636.000000;0.028602
1635.000000;0.028139
1634.000000;0.027703
1633.000000;0.027310
1632.000000;0.026921
1631.000000;0.026507
1630.000000;0.026086
1629.000000;0.025705
1628.000000;0.025396
1627.000000;0.025138
1626.000000;0.024847
1625.000000;0.024427
1624.000000;0.023876
1623.000000;0.023321
1622.000000;0.022923
1621.000000;0.022721
1620.000000;0.022593
1619.000000;0.022356
1618.000000;0.021917
1617.000000;0.021343
1616.000000;0.020788
1615.000000;0.020342
1614.000000;0.019980
1613.000000;0.019631
1612.000000;0.019262
1611.000000;0.018894
1610.000000;0.018553
1609.000000;0.018250
1608.000000;0.017994
1607.000000;0.017791
1606.000000;0.017602
1605.000000;0.017355
1604.000000;0.017005
1603.000000;0.016558
1602.000000;0.016055
1601.000000;0.015536
1600.000000;0.015047
1599.000000;0.014627
1598.000000;0.014266
1597.000000;0.013910
1596.000000;0.013525
1595.000000;0.013140
1594.000000;0.012796
1593.000000;0.012476
1592.000000;0.012136
1591.000000;0.011769
1590.000000;0.011411
1589.000000;0.011068
1588.000000;0.010710
1587.000000;0.010309
1586.000000;0.009865
1585.000000;0.009386
1584.000000;0.008894
1583.000000;0.008442
1582.000000;0.008079
1581.000000;0.007795
1580.000000;0.007517
1579.000000;0.007170
1578.000000;0.006733
1577.000000;0.006260
1576.000000;0.005843
1575.000000;0.005548
1574.000000;0.005347
1573.000000;0.005131
1572.000000;0.004821
1571.000000;0.004437
1570.000000;0.004054
1569.000000;0.003687
1568.000000;0.003279
1567.000000;0.002810
1566.000000;0.002341
1565.000000;0.001936
1564.000000;0.001577
1563.000000;0.001210
1562.000000;0.000816
1561.000000;0.000420
1560.000000;0.000034
1559.000000;-0.000367
1558.000000;-0.000768
1557.000000;-0.001093
1556.000000;-0.001293
1555.000000;-0.001421
1554.000000;-0.001614
1553.000000;-0.001941
1552.000000;-0.002367
1551.000000;-0.002812
1550.000000;-0.003238
1549.000000;-0.003668
1548.000000;-0.004125
1547.000000;-0.004569
1546.000000;-0.004932
1545.000000;-0.005204
1544.000000;-0.005465
1543.000000;-0.005819
1542.000000;-0.006281
1541.000000;-0.006766
1540.000000;-0.007170
1539.000000;-0.007463
1538.000000;-0.007720
1537.000000;-0.008036
1536.000000;-0.008424
1535.000000;-0.008822
1534.000000;-0.009163
1533.000000;-0.009445
1532.000000;-0.009724
1531.000000;-0.010046
1530.000000;-0.010409
1529.000000;-0.010791
1528.000000;-0.011182
1527.000000;-0.011571
1526.000000;-0.011948
1525.000000;-0.012291
1524.000000;-0.012573
1523.000000;-0.012785
1522.000000;-0.012961
1521.000000;-0.013166
1520.000000;-0.013455
1519.000000;-0.013831
1518.000000;-0.014257
1517.000000;-0.014717
1516.000000;-0.015224
1515.000000;-0.015769
1514.000000;-0.016303
1513.000000;-0.016755
1512.000000;-0.017083
1511.000000;-0.017301
1510.000000;-0.017475
1509.000000;-0.017685
1508.000000;-0.017970
1507.000000;-0.018325
1506.000000;-0.018719
1505.000000;-0.019125
1504.000000;-0.019535
1503.000000;-0.019960
1502.000000;-0.020413
1501.000000;-0.020864
1500.000000;-0.021241
1499.000000;-0.021508
1498.000000;-0.021734
1497.000000;-0.022051
1496.000000;-0.022523
1495.000000;-0.023051
1494.000000;-0.023478
1493.000000;-0.023751
1492.000000;-0.023952
1491.000000;-0.024191
1490.000000;-0.024524
1489.000000;-0.024949
1488.000000;-0.025410
1487.000000;-0.025816
1486.000000;-0.026114
1485.000000;-0.026341
1484.000000;-0.026577
1483.000000;-0.026880
1482.000000;-0.027258
1481.000000;-0.027675
1480.000000;-0.028074
1479.000000;-0.028403
1478.000000;-0.028659
1477.000000;-0.028912
1476.000000;-0.029246
1475.000000;-0.029660
1474.000000;-0.030068
1473.000000;-0.030384
1472.000000;-0.030605
1471.000000;-0.030817
1470.000000;-0.031120
1469.000000;-0.031551
1468.000000;-0.032044
1467.000000;-0.032473
1466.000000;-0.032781
1465.000000;-0.033050
1464.000000;-0.033421
1463.000000;-0.033943
1462.000000;-0.034520
1461.000000;-0.035007
1460.000000;-0.035345
1459.000000;-0.035582
1458.000000;-0.035814
1457.000000;-0.036100
1456.000000;-0.036447
1455.000000;-0.036810
1454.000000;-0.037154
1453.000000;-0.037496
1452.000000;-0.037848
1451.000000;-0.038186
1450.000000;-0.038504
1449.000000;-0.038838
1448.000000;-0.039217
1447.000000;-0.039621
1446.000000;-0.040017
1445.000000;-0.040378
1444.000000;-0.040674
1443.000000;-0.040887
1442.000000;-0.041056
1441.000000;-0.041274
1440.000000;-0.041601
1439.000000;-0.042002
1438.000000;-0.042407
1437.000000;-0.042811
1436.000000;-0.043247
1435.000000;-0.043681
1434.000000;-0.044021
1433.000000;-0.044264
1432.000000;-0.044519
1431.000000;-0.044885
1430.000000;-0.045368
1429.000000;-0.045901
1428.000000;-0.046405
1427.000000;-0.046832
1426.000000;-0.047186
1425.000000;-0.047497
1424.000000;-0.047772
1423.000000;-0.047987
1422.000000;-0.048139
1421.000000;-0.048262
1420.000000;-0.048370
1419.000000;-0.048450
1418.000000;-0.048561
1417.000000;-0.048839
1416.000000;-0.049349
1415.000000;-0.049976
1414.000000;-0.050529
1413.000000;-0.050941
1412.000000;-0.051300
1411.000000;-0.051677
1410.000000;-0.052043
1409.000000;-0.052350
1408.000000;-0.052613
1407.000000;-0.052859
1406.000000;-0.053098
1405.000000;-0.053362
1404.000000;-0.053701
1403.000000;-0.054104
1402.000000;-0.054488
1401.000000;-0.054801
1400.000000;-0.055091
1399.000000;-0.055439
1398.000000;-0.055861
1397.000000;-0.056304
1396.000000;-0.056705
1395.000000;-0.057033
1394.000000;-0.057291
1393.000000;-0.057517
1392.000000;-0.057747
1391.000000;-0.058000
1390.000000;-0.058276
1389.000000;-0.058595
1388.000000;-0.058976
1387.000000;-0.059391
1386.000000;-0.059763
1385.000000;-0.060050
1384.000000;-0.060285
1383.000000;-0.060518
1382.000000;-0.060770
1381.000000;-0.061058
1380.000000;-0.061423
1379.000000;-0.061869
1378.000000;-0.062305
1377.000000;-0.062611
1376.000000;-0.062761
1375.000000;-0.062854
1374.000000;-0.063021
1373.000000;-0.063322
1372.000000;-0.063734
1371.000000;-0.064180
1370.000000;-0.064595
1369.000000;-0.064959
1368.000000;-0.065298
1367.000000;-0.065643
1366.000000;-0.065984
1365.000000;-0.066273
1364.000000;-0.066489
1363.000000;-0.066682
1362.000000;-0.066948
1361.000000;-0.067327
1360.000000;-0.067735
1359.000000;-0.068042
1358.000000;-0.068203
1357.000000;-0.068310
1356.000000;-0.068508
1355.000000;-0.068877
1354.000000;-0.069391
1353.000000;-0.069969
1352.000000;-0.070518
1351.000000;-0.070966
1350.000000;-0.071282
1349.000000;-0.071487
1348.000000;-0.071631
1347.000000;-0.071768
1346.000000;-0.071963
1345.000000;-0.072287
1344.000000;-0.072752
1343.000000;-0.073257
1342.000000;-0.073653
1341.000000;-0.073872
1340.000000;-0.074000
1339.000000;-0.074203
1338.000000;-0.074591
1337.000000;-0.075121
1336.000000;-0.075626
1335.000000;-0.075948
1334.000000;-0.076083
1333.000000;-0.076179
1332.000000;-0.076394
1331.000000;-0.076760
1330.000000;-0.077207
1329.000000;-0.077665
1328.000000;-0.078101
1327.000000;-0.078485
1326.000000;-0.078786
1325.000000;-0.078996
1324.000000;-0.079137
1323.000000;-0.079256
1322.000000;-0.079428
1321.000000;-0.079720
1320.000000;-0.080098
1319.000000;-0.080411
1318.000000;-0.080564
1317.000000;-0.080669
1316.000000;-0.080936
1315.000000;-0.081406
1314.000000;-0.081898
1313.000000;-0.082252
1312.000000;-0.082518
1311.000000;-0.082862
1310.000000;-0.083344
1309.000000;-0.083878
1308.000000;-0.084353
1307.000000;-0.084725
1306.000000;-0.084999
1305.000000;-0.085192
1304.000000;-0.085345
1303.000000;-0.085527
1302.000000;-0.085796
1301.000000;-0.086157
1300.000000;-0.086551
1299.000000;-0.086907
1298.000000;-0.087201
1297.000000;-0.087458
1296.000000;-0.087701
1295.000000;-0.087928
1294.000000;-0.088146
1293.000000;-0.088404
1292.000000;-0.088729
1291.000000;-0.089065
1290.000000;-0.089325
1289.000000;-0.089506
1288.000000;-0.089700
1287.000000;-0.089982
1286.000000;-0.090336
1285.000000;-0.090702
1284.000000;-0.091047
1283.000000;-0.091368
1282.000000;-0.091669
1281.000000;-0.091954
1280.000000;-0.092236
1279.000000;-0.092508
1278.000000;-0.092756
1277.000000;-0.092993
1276.000000;-0.093272
1275.000000;-0.093626
1274.000000;-0.094034
1273.000000;-0.094441
1272.000000;-0.094796
1271.000000;-0.095076
1270.000000;-0.095311
1269.000000;-0.095586
1268.000000;-0.095975
1267.000000;-0.096447
1266.000000;-0.096873
1265.000000;-0.097163
1264.000000;-0.097356
1263.000000;-0.097571
1262.000000;-0.097872
1261.000000;-0.098216
1260.000000;-0.098518
1259.000000;-0.098724
1258.000000;-0.098863
1257.000000;-0.099030
1256.000000;-0.099325
1255.000000;-0.099761
1254.000000;-0.100251
1253.000000;-0.100696
1252.000000;-0.101074
1251.000000;-0.101419
1250.000000;-0.101737
1249.000000;-0.101988
1248.000000;-0.102146
1247.000000;-0.102264
1246.000000;-0.102420
1245.000000;-0.102643
1244.000000;-0.102891
1243.000000;-0.103122
1242.000000;-0.103338
1241.000000;-0.103561
1240.000000;-0.103796
1239.000000;-0.104049
1238.000000;-0.104346
1237.000000;-0.104711
1236.000000;-0.105109
1235.000000;-0.105477
1234.000000;-0.105797
1233.000000;-0.106116
1232.000000;-0.106465
1231.000000;-0.106819
1230.000000;-0.107144
1229.000000;-0.107442
1228.000000;-0.107721
1227.000000;-0.107966
1226.000000;-0.108175
1225.000000;-0.108388
1224.000000;-0.108625
1223.000000;-0.108840
1222.000000;-0.109002
1221.000000;-0.109187
1220.000000;-0.109504
1219.000000;-0.109941
1218.000000;-0.110357
1217.000000;-0.110650
1216.000000;-0.110857
1215.000000;-0.111079
1214.000000;-0.111341
1213.000000;-0.111589
1212.000000;-0.111783
1211.000000;-0.111957
1210.000000;-0.112197
1209.000000;-0.112560
1208.000000;-0.113012
1207.000000;-0.113451
1206.000000;-0.113797
1205.000000;-0.114067
1204.000000;-0.114328
1203.000000;-0.114602
1202.000000;-0.114841
1201.000000;-0.115030
1200.000000;-0.115213
