Criado como novo conjunto de dados;"e2410_daniel_v2.spp","58144.8 Secs"
cm-1;Abs
10000.000000;1.128219
9999.000000;1.128012
9998.000000;1.127806
9997.000000;1.127600
9996.000000;1.127393
9995.000000;1.127188
9994.000000;1.126980
9993.000000;1.126778
9992.000000;1.126566
9991.000000;1.126371
9990.000000;1.126143
9989.000000;1.126046
9988.000000;1.126042
9987.000000;1.125948
9986.000000;1.125745
9985.000000;1.125446
9984.000000;1.125265
9983.000000;1.125268
9982.000000;1.125128
9981.000000;1.124471
9980.000000;1.123453
9979.000000;1.122622
9978.000000;1.122228
9977.000000;1.121980
9976.000000;1.121473
9975.000000;1.120563
9974.000000;1.119307
9973.000000;1.117889
9972.000000;1.116711
9971.000000;1.116227
9970.000000;1.116444
9969.000000;1.116759
9968.000000;1.116516
9967.000000;1.115674
9966.000000;1.114791
9965.000000;1.114371
9964.000000;1.114380
9963.000000;1.114383
9962.000000;1.114049
9961.000000;1.113400
9960.000000;1.112618
9959.000000;1.111783
9958.000000;1.110904
9957.000000;1.110094
9956.000000;1.109516
9955.000000;1.109179
9954.000000;1.108963
9953.000000;1.108888
9952.000000;1.109095
9951.000000;1.109439
9950.000000;1.109371
9949.000000;1.108501
9948.000000;1.107119
9947.000000;1.105853
9946.000000;1.104860
9945.000000;1.103734
9944.000000;1.102261
9943.000000;1.100939
9942.000000;1.100486
9941.000000;1.101009
9940.000000;1.101886
9939.000000;1.102434
9938.000000;1.102493
9937.000000;1.102306
9936.000000;1.102026
9935.000000;1.101528
9934.000000;1.100707
9933.000000;1.099767
9932.000000;1.099071
9931.000000;1.098750
9930.000000;1.098544
9929.000000;1.098076
9928.000000;1.097212
9927.000000;1.096133
9926.000000;1.095137
9925.000000;1.094416
9924.000000;1.093986
9923.000000;1.093720
9922.000000;1.093458
9921.000000;1.093104
9920.000000;1.092657
9919.000000;1.092127
9918.000000;1.091489
9917.000000;1.090766
9916.000000;1.090133
9915.000000;1.089821
9914.000000;1.089838
9913.000000;1.089825
9912.000000;1.089328
9911.000000;1.088282
9910.000000;1.087142
9909.000000;1.086448
9908.000000;1.086325
9907.000000;1.086501
9906.000000;1.086703
9905.000000;1.086796
9904.000000;1.086574
9903.000000;1.085786
9902.000000;1.084547
9901.000000;1.083444
9900.000000;1.082952
9899.000000;1.082844
9898.000000;1.082463
9897.000000;1.081484
9896.000000;1.080173
9895.000000;1.078949
9894.000000;1.078017
9893.000000;1.077426
9892.000000;1.077191
9891.000000;1.077215
9890.000000;1.077286
9889.000000;1.077231
9888.000000;1.076979
9887.000000;1.076479
9886.000000;1.075746
9885.000000;1.074976
9884.000000;1.074381
9883.000000;1.073853
9882.000000;1.073079
9881.000000;1.072047
9880.000000;1.071160
9879.000000;1.070710
9878.000000;1.070494
9877.000000;1.070172
9876.000000;1.069756
9875.000000;1.069478
9874.000000;1.069339
9873.000000;1.069105
9872.000000;1.068683
9871.000000;1.068217
9870.000000;1.067790
9869.000000;1.067281
9868.000000;1.066607
9867.000000;1.065916
9866.000000;1.065409
9865.000000;1.065035
9864.000000;1.064519
9863.000000;1.063683
9862.000000;1.062681
9861.000000;1.061867
9860.000000;1.061432
9859.000000;1.061204
9858.000000;1.060847
9857.000000;1.060232
9856.000000;1.059583
9855.000000;1.059235
9854.000000;1.059286
9853.000000;1.059472
9852.000000;1.059354
9851.000000;1.058730
9850.000000;1.057922
9849.000000;1.057527
9848.000000;1.057709
9847.000000;1.057821
9846.000000;1.056996
9845.000000;1.055155
9844.000000;1.053182
9843.000000;1.052020
9842.000000;1.051804
9841.000000;1.051998
9840.000000;1.052137
9839.000000;1.052223
9838.000000;1.052460
9837.000000;1.052837
9836.000000;1.053021
9835.000000;1.052620
9834.000000;1.051582
9833.000000;1.050327
9832.000000;1.049431
9831.000000;1.049100
9830.000000;1.048996
9829.000000;1.048592
9828.000000;1.047656
9827.000000;1.046362
9826.000000;1.045085
9825.000000;1.044162
9824.000000;1.043760
9823.000000;1.043804
9822.000000;1.044000
9821.000000;1.043996
9820.000000;1.043586
9819.000000;1.042854
9818.000000;1.042153
9817.000000;1.041875
9816.000000;1.042084
9815.000000;1.042354
9814.000000;1.042117
9813.000000;1.041191
9812.000000;1.039886
9811.000000;1.038646
9810.000000;1.037791
9809.000000;1.037550
9808.000000;1.037975
9807.000000;1.038655
9806.000000;1.038812
9805.000000;1.038010
9804.000000;1.036669
9803.000000;1.035596
9802.000000;1.035093
9801.000000;1.034751
9800.000000;1.034086
9799.000000;1.033103
9798.000000;1.032158
9797.000000;1.031473
9796.000000;1.030991
9795.000000;1.030614
9794.000000;1.030368
9793.000000;1.030258
9792.000000;1.030070
9791.000000;1.029495
9790.000000;1.028490
9789.000000;1.027447
9788.000000;1.026863
9787.000000;1.026840
9786.000000;1.026984
9785.000000;1.026820
9784.000000;1.026241
9783.000000;1.025517
9782.000000;1.024919
9781.000000;1.024419
9780.000000;1.023765
9779.000000;1.022822
9778.000000;1.021812
9777.000000;1.021132
9776.000000;1.020932
9775.000000;1.020948
9774.000000;1.020853
9773.000000;1.020637
9772.000000;1.020499
9771.000000;1.020418
9770.000000;1.020119
9769.000000;1.019473
9768.000000;1.018702
9767.000000;1.018067
9766.000000;1.017540
9765.000000;1.016970
9764.000000;1.016416
9763.000000;1.016110
9762.000000;1.016102
9761.000000;1.016096
9760.000000;1.015706
9759.000000;1.014835
9758.000000;1.013761
9757.000000;1.012874
9756.000000;1.012319
9755.000000;1.011907
9754.000000;1.011416
9753.000000;1.010917
9752.000000;1.010710
9751.000000;1.010942
9750.000000;1.011369
9749.000000;1.011518
9748.000000;1.011019
9747.000000;1.009836
9746.000000;1.008325
9745.000000;1.007067
9744.000000;1.006462
9743.000000;1.006390
9742.000000;1.006358
9741.000000;1.006048
9740.000000;1.005583
9739.000000;1.005197
9738.000000;1.004843
9737.000000;1.004295
9736.000000;1.003527
9735.000000;1.002760
9734.000000;1.002144
9733.000000;1.001579
9732.000000;1.000953
9731.000000;1.000407
9730.000000;1.000210
9729.000000;1.000381
9728.000000;1.000571
9727.000000;1.000425
9726.000000;0.999990
9725.000000;0.999617
9724.000000;0.999470
9723.000000;0.999291
9722.000000;0.998741
9721.000000;0.997827
9720.000000;0.996858
9719.000000;0.996069
9718.000000;0.995463
9717.000000;0.994954
9716.000000;0.994472
9715.000000;0.993946
9714.000000;0.993341
9713.000000;0.992749
9712.000000;0.992322
9711.000000;0.992133
9710.000000;0.992173
9709.000000;0.992366
9708.000000;0.992418
9707.000000;0.991824
9706.000000;0.990367
9705.000000;0.988604
9704.000000;0.987495
9703.000000;0.987448
9702.000000;0.987945
9701.000000;0.988223
9700.000000;0.988057
9699.000000;0.987739
9698.000000;0.987553
9697.000000;0.987519
9696.000000;0.987483
9695.000000;0.987185
9694.000000;0.986366
9693.000000;0.985059
9692.000000;0.983707
9691.000000;0.982775
9690.000000;0.982280
9689.000000;0.981875
9688.000000;0.981337
9687.000000;0.980759
9686.000000;0.980306
9685.000000;0.980018
9684.000000;0.979903
9683.000000;0.980004
9682.000000;0.980221
9681.000000;0.980229
9680.000000;0.979763
9679.000000;0.978933
9678.000000;0.978156
9677.000000;0.977714
9676.000000;0.977476
9675.000000;0.977059
9674.000000;0.976247
9673.000000;0.975232
9672.000000;0.974452
9671.000000;0.974184
9670.000000;0.974239
9669.000000;0.974048
9668.000000;0.973152
9667.000000;0.971695
9666.000000;0.970349
9665.000000;0.969673
9664.000000;0.969598
9663.000000;0.969637
9662.000000;0.969536
9661.000000;0.969459
9660.000000;0.969520
9659.000000;0.969432
9658.000000;0.968853
9657.000000;0.967853
9656.000000;0.966800
9655.000000;0.965941
9654.000000;0.965326
9653.000000;0.965017
9652.000000;0.965014
9651.000000;0.965039
9650.000000;0.964748
9649.000000;0.964201
9648.000000;0.963817
9647.000000;0.963772
9646.000000;0.963749
9645.000000;0.963398
9644.000000;0.962807
9643.000000;0.962290
9642.000000;0.961906
9641.000000;0.961437
9640.000000;0.960748
9639.000000;0.959998
9638.000000;0.959466
9637.000000;0.959256
9636.000000;0.959183
9635.000000;0.958912
9634.000000;0.958262
9633.000000;0.957359
9632.000000;0.956462
9631.000000;0.955650
9630.000000;0.954832
9629.000000;0.954010
9628.000000;0.953374
9627.000000;0.953089
9626.000000;0.953125
9625.000000;0.953330
9624.000000;0.953513
9623.000000;0.953460
9622.000000;0.953066
9621.000000;0.952525
9620.000000;0.952176
9619.000000;0.952071
9618.000000;0.951859
9617.000000;0.951232
9616.000000;0.950370
9615.000000;0.949794
9614.000000;0.949823
9613.000000;0.950259
9612.000000;0.950525
9611.000000;0.950111
9610.000000;0.948986
9609.000000;0.947618
9608.000000;0.946524
9607.000000;0.945830
9606.000000;0.945363
9605.000000;0.945074
9604.000000;0.945078
9603.000000;0.945272
9602.000000;0.945262
9601.000000;0.944836
9600.000000;0.944218
9599.000000;0.943644
9598.000000;0.942960
9597.000000;0.941941
9596.000000;0.940830
9595.000000;0.940197
9594.000000;0.940297
9593.000000;0.940805
9592.000000;0.941206
9591.000000;0.941224
9590.000000;0.940889
9589.000000;0.940380
9588.000000;0.939856
9587.000000;0.939306
9586.000000;0.938544
9585.000000;0.937470
9584.000000;0.936323
9583.000000;0.935493
9582.000000;0.935085
9581.000000;0.934820
9580.000000;0.934413
9579.000000;0.933877
9578.000000;0.933349
9577.000000;0.932810
9576.000000;0.932169
9575.000000;0.931565
9574.000000;0.931338
9573.000000;0.931630
9572.000000;0.932144
9571.000000;0.932425
9570.000000;0.932332
9569.000000;0.932090
9568.000000;0.931902
9567.000000;0.931665
9566.000000;0.931121
9565.000000;0.930176
9564.000000;0.929017
9563.000000;0.927968
9562.000000;0.927272
9561.000000;0.926906
9560.000000;0.926576
9559.000000;0.926001
9558.000000;0.925281
9557.000000;0.924826
9556.000000;0.924829
9555.000000;0.924956
9554.000000;0.924716
9553.000000;0.924021
9552.000000;0.923205
9551.000000;0.922569
9550.000000;0.922139
9549.000000;0.921793
9548.000000;0.921425
9547.000000;0.920994
9546.000000;0.920597
9545.000000;0.920458
9544.000000;0.920650
9543.000000;0.920866
9542.000000;0.920645
9541.000000;0.919818
9540.000000;0.918574
9539.000000;0.917188
9538.000000;0.915944
9537.000000;0.915230
9536.000000;0.915318
9535.000000;0.915974
9534.000000;0.916595
9533.000000;0.916829
9532.000000;0.916832
9531.000000;0.916822
9530.000000;0.916717
9529.000000;0.916361
9528.000000;0.915823
9527.000000;0.915232
9526.000000;0.914533
9525.000000;0.913630
9524.000000;0.912640
9523.000000;0.911806
9522.000000;0.911245
9521.000000;0.910898
9520.000000;0.910624
9519.000000;0.910226
9518.000000;0.909563
9517.000000;0.908764
9516.000000;0.908236
9515.000000;0.908282
9514.000000;0.908761
9513.000000;0.909183
9512.000000;0.909067
9511.000000;0.908216
9510.000000;0.906839
9509.000000;0.905508
9508.000000;0.904794
9507.000000;0.904777
9506.000000;0.904985
9505.000000;0.904902
9504.000000;0.904433
9503.000000;0.903845
9502.000000;0.903420
9501.000000;0.903274
9500.000000;0.903313
9499.000000;0.903256
9498.000000;0.902868
9497.000000;0.902290
9496.000000;0.901953
9495.000000;0.902029
9494.000000;0.902167
9493.000000;0.901921
9492.000000;0.901255
9491.000000;0.900446
9490.000000;0.899682
9489.000000;0.898998
9488.000000;0.898444
9487.000000;0.898058
9486.000000;0.897727
9485.000000;0.897314
9484.000000;0.896863
9483.000000;0.896505
9482.000000;0.896220
9481.000000;0.895874
9480.000000;0.895437
9479.000000;0.894999
9478.000000;0.894639
9477.000000;0.894421
9476.000000;0.894430
9475.000000;0.894612
9474.000000;0.894658
9473.000000;0.894270
9472.000000;0.893532
9471.000000;0.892829
9470.000000;0.892407
9469.000000;0.892164
9468.000000;0.891867
9467.000000;0.891395
9466.000000;0.890761
9465.000000;0.890075
9464.000000;0.889530
9463.000000;0.889287
9462.000000;0.889296
9461.000000;0.889296
9460.000000;0.889021
9459.000000;0.888386
9458.000000;0.887499
9457.000000;0.886560
9456.000000;0.885754
9455.000000;0.885149
9454.000000;0.884682
9453.000000;0.884257
9452.000000;0.883816
9451.000000;0.883352
9450.000000;0.882918
9449.000000;0.882636
9448.000000;0.882592
9447.000000;0.882700
9446.000000;0.882785
9445.000000;0.882827
9444.000000;0.882934
9443.000000;0.883031
9442.000000;0.882803
9441.000000;0.882119
9440.000000;0.881306
9439.000000;0.880771
9438.000000;0.880495
9437.000000;0.880133
9436.000000;0.879504
9435.000000;0.878754
9434.000000;0.878080
9433.000000;0.877520
9432.000000;0.877040
9431.000000;0.876621
9430.000000;0.876253
9429.000000;0.875986
9428.000000;0.875954
9427.000000;0.876178
9426.000000;0.876379
9425.000000;0.876198
9424.000000;0.875623
9423.000000;0.874995
9422.000000;0.874534
9421.000000;0.874089
9420.000000;0.873435
9419.000000;0.872651
9418.000000;0.872043
9417.000000;0.871753
9416.000000;0.871586
9415.000000;0.871211
9414.000000;0.870496
9413.000000;0.869646
9412.000000;0.869023
9411.000000;0.868800
9410.000000;0.868786
9409.000000;0.868645
9408.000000;0.868270
9407.000000;0.867868
9406.000000;0.867639
9405.000000;0.867459
9404.000000;0.867000
9403.000000;0.866174
9402.000000;0.865369
9401.000000;0.865125
9400.000000;0.865535
9399.000000;0.866059
9398.000000;0.866025
9397.000000;0.865312
9396.000000;0.864401
9395.000000;0.863772
9394.000000;0.863434
9393.000000;0.863110
9392.000000;0.862670
9391.000000;0.862213
9390.000000;0.861823
9389.000000;0.861468
9388.000000;0.861128
9387.000000;0.860859
9386.000000;0.860673
9385.000000;0.860456
9384.000000;0.860091
9383.000000;0.859621
9382.000000;0.859261
9381.000000;0.859237
9380.000000;0.859553
9379.000000;0.859913
9378.000000;0.859924
9377.000000;0.859450
9376.000000;0.858744
9375.000000;0.858187
9374.000000;0.857949
9373.000000;0.857920
9372.000000;0.857888
9371.000000;0.857706
9370.000000;0.857347
9369.000000;0.856902
9368.000000;0.856498
9367.000000;0.856155
9366.000000;0.855724
9365.000000;0.855024
9364.000000;0.854033
9363.000000;0.852956
9362.000000;0.852110
9361.000000;0.851725
9360.000000;0.851763
9359.000000;0.851892
9358.000000;0.851756
9357.000000;0.851339
9356.000000;0.850990
9355.000000;0.851024
9354.000000;0.851370
9353.000000;0.851661
9352.000000;0.851571
9351.000000;0.851010
9350.000000;0.850125
9349.000000;0.849235
9348.000000;0.848681
9347.000000;0.848572
9346.000000;0.848694
9345.000000;0.848753
9344.000000;0.848665
9343.000000;0.848495
9342.000000;0.848233
9341.000000;0.847777
9340.000000;0.847114
9339.000000;0.846337
9338.000000;0.845487
9337.000000;0.844571
9336.000000;0.843737
9335.000000;0.843276
9334.000000;0.843324
9333.000000;0.843665
9332.000000;0.843899
9331.000000;0.843788
9330.000000;0.843397
9329.000000;0.842963
9328.000000;0.842658
9327.000000;0.842457
9326.000000;0.842216
9325.000000;0.841881
9324.000000;0.841583
9323.000000;0.841472
9322.000000;0.841477
9321.000000;0.841335
9320.000000;0.840896
9319.000000;0.840323
9318.000000;0.839928
9317.000000;0.839824
9316.000000;0.839821
9315.000000;0.839642
9314.000000;0.839199
9313.000000;0.838637
9312.000000;0.838130
9311.000000;0.837697
9310.000000;0.837202
9309.000000;0.836531
9308.000000;0.835744
9307.000000;0.835063
9306.000000;0.834705
9305.000000;0.834702
9304.000000;0.834858
9303.000000;0.834904
9302.000000;0.834717
9301.000000;0.834375
9300.000000;0.834013
9299.000000;0.833678
9298.000000;0.833341
9297.000000;0.832971
9296.000000;0.832553
9295.000000;0.832096
9294.000000;0.831695
9293.000000;0.831516
9292.000000;0.831596
9291.000000;0.831705
9290.000000;0.831547
9289.000000;0.831110
9288.000000;0.830684
9287.000000;0.830526
9286.000000;0.830600
9285.000000;0.830672
9284.000000;0.830547
9283.000000;0.830179
9282.000000;0.829671
9281.000000;0.829210
9280.000000;0.828910
9279.000000;0.828649
9278.000000;0.828152
9277.000000;0.827315
9276.000000;0.826374
9275.000000;0.825695
9274.000000;0.825439
9273.000000;0.825455
9272.000000;0.825449
9271.000000;0.825209
9270.000000;0.824753
9269.000000;0.824289
9268.000000;0.823993
9267.000000;0.823836
9266.000000;0.823647
9265.000000;0.823355
9264.000000;0.823048
9263.000000;0.822817
9262.000000;0.822635
9261.000000;0.822420
9260.000000;0.822124
9259.000000;0.821745
9258.000000;0.821342
9257.000000;0.821025
9256.000000;0.820831
9255.000000;0.820618
9254.000000;0.820222
9253.000000;0.819741
9252.000000;0.819482
9251.000000;0.819560
9250.000000;0.819699
9249.000000;0.819535
9248.000000;0.819010
9247.000000;0.818375
9246.000000;0.817905
9245.000000;0.817683
9244.000000;0.817615
9243.000000;0.817557
9242.000000;0.817475
9241.000000;0.817494
9240.000000;0.817698
9239.000000;0.817914
9238.000000;0.817834
9237.000000;0.817389
9236.000000;0.816826
9235.000000;0.816345
9234.000000;0.815854
9233.000000;0.815185
9232.000000;0.814392
9231.000000;0.813675
9230.000000;0.813140
9229.000000;0.812779
9228.000000;0.812594
9227.000000;0.812564
9226.000000;0.812554
9225.000000;0.812387
9224.000000;0.812014
9223.000000;0.811531
9222.000000;0.811074
9221.000000;0.810766
9220.000000;0.810695
9219.000000;0.810840
9218.000000;0.811052
9217.000000;0.811171
9216.000000;0.811125
9215.000000;0.810895
9214.000000;0.810488
9213.000000;0.810009
9212.000000;0.809663
9211.000000;0.809553
9210.000000;0.809552
9209.000000;0.809446
9208.000000;0.809148
9207.000000;0.808701
9206.000000;0.808164
9205.000000;0.807618
9204.000000;0.807201
9203.000000;0.807033
9202.000000;0.807101
9201.000000;0.807244
9200.000000;0.807209
9199.000000;0.806746
9198.000000;0.805802
9197.000000;0.804680
9196.000000;0.803863
9195.000000;0.803589
9194.000000;0.803693
9193.000000;0.803899
9192.000000;0.804087
9191.000000;0.804201
9190.000000;0.804095
9189.000000;0.803688
9188.000000;0.803139
9187.000000;0.802670
9186.000000;0.802306
9185.000000;0.801940
9184.000000;0.801571
9183.000000;0.801304
9182.000000;0.801141
9181.000000;0.800950
9180.000000;0.800637
9179.000000;0.800235
9178.000000;0.799858
9177.000000;0.799653
9176.000000;0.799703
9175.000000;0.799866
9174.000000;0.799799
9173.000000;0.799283
9172.000000;0.798485
9171.000000;0.797767
9170.000000;0.797319
9169.000000;0.797119
9168.000000;0.797134
9167.000000;0.797366
9166.000000;0.797711
9165.000000;0.797963
9164.000000;0.797964
9163.000000;0.797664
9162.000000;0.797074
9161.000000;0.796318
9160.000000;0.795668
9159.000000;0.795337
9158.000000;0.795246
9157.000000;0.795151
9156.000000;0.794976
9155.000000;0.794869
9154.000000;0.794923
9153.000000;0.795035
9152.000000;0.795045
9151.000000;0.794883
9150.000000;0.794535
9149.000000;0.794029
9148.000000;0.793472
9147.000000;0.792987
9146.000000;0.792573
9145.000000;0.792125
9144.000000;0.791617
9143.000000;0.791147
9142.000000;0.790800
9141.000000;0.790570
9140.000000;0.790447
9139.000000;0.790462
9138.000000;0.790625
9137.000000;0.790870
9136.000000;0.791074
9135.000000;0.791069
9134.000000;0.790694
9133.000000;0.790011
9132.000000;0.789403
9131.000000;0.789254
9130.000000;0.789473
9129.000000;0.789543
9128.000000;0.789147
9127.000000;0.788549
9126.000000;0.788222
9125.000000;0.788260
9124.000000;0.788355
9123.000000;0.788280
9122.000000;0.788149
9121.000000;0.788137
9120.000000;0.788150
9119.000000;0.787881
9118.000000;0.787152
9117.000000;0.786090
9116.000000;0.785006
9115.000000;0.784191
9114.000000;0.783829
9113.000000;0.783963
9112.000000;0.784431
9111.000000;0.784880
9110.000000;0.784980
9109.000000;0.784657
9108.000000;0.784093
9107.000000;0.783505
9106.000000;0.783004
9105.000000;0.782610
9104.000000;0.782284
9103.000000;0.781925
9102.000000;0.781474
9101.000000;0.781083
9100.000000;0.781015
9099.000000;0.781287
9098.000000;0.781544
9097.000000;0.781426
9096.000000;0.780968
9095.000000;0.780519
9094.000000;0.780340
9093.000000;0.780422
9092.000000;0.780616
9091.000000;0.780763
9090.000000;0.780719
9089.000000;0.780440
9088.000000;0.780068
9087.000000;0.779833
9086.000000;0.779831
9085.000000;0.779980
9084.000000;0.780164
9083.000000;0.780288
9082.000000;0.780223
9081.000000;0.779825
9080.000000;0.779091
9079.000000;0.778239
9078.000000;0.777573
9077.000000;0.777297
9076.000000;0.777392
9075.000000;0.777610
9074.000000;0.777640
9073.000000;0.777364
9072.000000;0.776935
9071.000000;0.776527
9070.000000;0.776100
9069.000000;0.775522
9068.000000;0.774862
9067.000000;0.774374
9066.000000;0.774208
9065.000000;0.774274
9064.000000;0.774386
9063.000000;0.774409
9062.000000;0.774248
9061.000000;0.773884
9060.000000;0.773454
9059.000000;0.773180
9058.000000;0.773129
9057.000000;0.773149
9056.000000;0.773095
9055.000000;0.773012
9054.000000;0.773019
9053.000000;0.773112
9052.000000;0.773144
9051.000000;0.772937
9050.000000;0.772390
9049.000000;0.771578
9048.000000;0.770774
9047.000000;0.770285
9046.000000;0.770189
9045.000000;0.770296
9044.000000;0.770387
9043.000000;0.770384
9042.000000;0.770259
9041.000000;0.769944
9040.000000;0.769467
9039.000000;0.769061
9038.000000;0.768962
9037.000000;0.769121
9036.000000;0.769274
9035.000000;0.769271
9034.000000;0.769207
9033.000000;0.769198
9032.000000;0.769182
9031.000000;0.769021
9030.000000;0.768679
9029.000000;0.768205
9028.000000;0.767635
9027.000000;0.767014
9026.000000;0.766485
9025.000000;0.766204
9024.000000;0.766152
9023.000000;0.766137
9022.000000;0.766057
9021.000000;0.766023
9020.000000;0.766142
9019.000000;0.766247
9018.000000;0.766039
9017.000000;0.765488
9016.000000;0.764938
9015.000000;0.764737
9014.000000;0.764876
9013.000000;0.765067
9012.000000;0.765075
9011.000000;0.764859
9010.000000;0.764465
9009.000000;0.763938
9008.000000;0.763358
9007.000000;0.762839
9006.000000;0.762468
9005.000000;0.762277
9004.000000;0.762254
9003.000000;0.762295
9002.000000;0.762200
9001.000000;0.761823
9000.000000;0.761288
8999.000000;0.760934
8998.000000;0.761000
8997.000000;0.761394
8996.000000;0.761781
8995.000000;0.761864
8994.000000;0.761551
8993.000000;0.760955
8992.000000;0.760309
8991.000000;0.759831
8990.000000;0.759589
8989.000000;0.759485
8988.000000;0.759370
8987.000000;0.759183
8986.000000;0.758950
8985.000000;0.758698
8984.000000;0.758416
8983.000000;0.758113
8982.000000;0.757840
8981.000000;0.757631
8980.000000;0.757455
8979.000000;0.757260
8978.000000;0.757064
8977.000000;0.756960
8976.000000;0.757012
8975.000000;0.757184
8974.000000;0.757370
8973.000000;0.757472
8972.000000;0.757412
8971.000000;0.757119
8970.000000;0.756574
8969.000000;0.755894
8968.000000;0.755301
8967.000000;0.754982
8966.000000;0.754965
8965.000000;0.755114
8964.000000;0.755195
8963.000000;0.755015
8962.000000;0.754584
8961.000000;0.754154
8960.000000;0.753979
8959.000000;0.754046
8958.000000;0.754108
8957.000000;0.754022
8956.000000;0.753907
8955.000000;0.753925
8954.000000;0.754021
8953.000000;0.753985
8952.000000;0.753683
8951.000000;0.753144
8950.000000;0.752506
8949.000000;0.751992
8948.000000;0.751844
8947.000000;0.752108
8946.000000;0.752520
8945.000000;0.752747
8944.000000;0.752721
8943.000000;0.752612
8942.000000;0.752478
8941.000000;0.752156
8940.000000;0.751537
8939.000000;0.750795
8938.000000;0.750221
8937.000000;0.749927
8936.000000;0.749812
8935.000000;0.749750
8934.000000;0.749705
8933.000000;0.749699
8932.000000;0.749760
8931.000000;0.749902
8930.000000;0.750112
8929.000000;0.750342
8928.000000;0.750532
8927.000000;0.750640
8926.000000;0.750602
8925.000000;0.750320
8924.000000;0.749753
8923.000000;0.749020
8922.000000;0.748387
8921.000000;0.748101
8920.000000;0.748186
8919.000000;0.748397
8918.000000;0.748408
8917.000000;0.748107
8916.000000;0.747713
8915.000000;0.747568
8914.000000;0.747793
8913.000000;0.748188
8912.000000;0.748449
8911.000000;0.748459
8910.000000;0.748325
8909.000000;0.748198
8908.000000;0.748109
8907.000000;0.747959
8906.000000;0.747607
8905.000000;0.746974
8904.000000;0.746137
8903.000000;0.745355
8902.000000;0.744954
8901.000000;0.745073
8900.000000;0.745494
8899.000000;0.745763
8898.000000;0.745543
8897.000000;0.744898
8896.000000;0.744208
8895.000000;0.743810
8894.000000;0.743728
8893.000000;0.743722
8892.000000;0.743559
8891.000000;0.743224
8890.000000;0.742902
8889.000000;0.742808
8888.000000;0.743023
8887.000000;0.743435
8886.000000;0.743810
8885.000000;0.743941
8884.000000;0.743774
8883.000000;0.743450
8882.000000;0.743207
8881.000000;0.743198
8880.000000;0.743361
8879.000000;0.743454
8878.000000;0.743245
8877.000000;0.742694
8876.000000;0.741957
8875.000000;0.741254
8874.000000;0.740735
8873.000000;0.740450
8872.000000;0.740349
8871.000000;0.740338
8870.000000;0.740370
8869.000000;0.740507
8868.000000;0.740837
8867.000000;0.741282
8866.000000;0.741566
8865.000000;0.741435
8864.000000;0.740906
8863.000000;0.740274
8862.000000;0.739852
8861.000000;0.739736
8860.000000;0.739792
8859.000000;0.739823
8858.000000;0.739747
8857.000000;0.739631
8856.000000;0.739598
8855.000000;0.739724
8854.000000;0.739993
8853.000000;0.740315
8852.000000;0.740563
8851.000000;0.740636
8850.000000;0.740513
8849.000000;0.740269
8848.000000;0.740001
8847.000000;0.739766
8846.000000;0.739576
8845.000000;0.739428
8844.000000;0.739295
8843.000000;0.739160
8842.000000;0.739073
8841.000000;0.739134
8840.000000;0.739320
8839.000000;0.739397
8838.000000;0.739124
8837.000000;0.738546
8836.000000;0.737995
8835.000000;0.737776
8834.000000;0.737936
8833.000000;0.738330
8832.000000;0.738746
8831.000000;0.738949
8830.000000;0.738753
8829.000000;0.738189
8828.000000;0.737549
8827.000000;0.737151
8826.000000;0.737081
8825.000000;0.737210
8824.000000;0.737406
8823.000000;0.737649
8822.000000;0.737963
8821.000000;0.738325
8820.000000;0.738650
8819.000000;0.738824
8818.000000;0.738778
8817.000000;0.738567
8816.000000;0.738373
8815.000000;0.738379
8814.000000;0.738624
8813.000000;0.738983
8812.000000;0.739248
8811.000000;0.739267
8810.000000;0.739050
8809.000000;0.738752
8808.000000;0.738502
8807.000000;0.738255
8806.000000;0.737889
8805.000000;0.737474
8804.000000;0.737304
8803.000000;0.737590
8802.000000;0.738185
8801.000000;0.738717
8800.000000;0.738959
8799.000000;0.738956
8798.000000;0.738849
8797.000000;0.738694
8796.000000;0.738476
8795.000000;0.738203
8794.000000;0.737950
8793.000000;0.737820
8792.000000;0.737865
8791.000000;0.738009
8790.000000;0.738072
8789.000000;0.737938
8788.000000;0.737682
8787.000000;0.737509
8786.000000;0.737556
8785.000000;0.737819
8784.000000;0.738196
8783.000000;0.738547
8782.000000;0.738721
8781.000000;0.738659
8780.000000;0.738477
8779.000000;0.738399
8778.000000;0.738523
8777.000000;0.738721
8776.000000;0.738796
8775.000000;0.738725
8774.000000;0.738706
8773.000000;0.738960
8772.000000;0.739490
8771.000000;0.740036
8770.000000;0.740303
8769.000000;0.740235
8768.000000;0.740062
8767.000000;0.740047
8766.000000;0.740222
8765.000000;0.740390
8764.000000;0.740355
8763.000000;0.740100
8762.000000;0.739764
8761.000000;0.739519
8760.000000;0.739473
8759.000000;0.739641
8758.000000;0.739949
8757.000000;0.740264
8756.000000;0.740462
8755.000000;0.740496
8754.000000;0.740432
8753.000000;0.740426
8752.000000;0.740615
8751.000000;0.740985
8750.000000;0.741351
8749.000000;0.741511
8748.000000;0.741450
8747.000000;0.741365
8746.000000;0.741470
8745.000000;0.741768
8744.000000;0.742038
8743.000000;0.742087
8742.000000;0.742000
8741.000000;0.742091
8740.000000;0.742527
8739.000000;0.743072
8738.000000;0.743300
8737.000000;0.743079
8736.000000;0.742737
8735.000000;0.742680
8734.000000;0.742947
8733.000000;0.743219
8732.000000;0.743206
8731.000000;0.742918
8730.000000;0.742573
8729.000000;0.742364
8728.000000;0.742340
8727.000000;0.742427
8726.000000;0.742507
8725.000000;0.742520
8724.000000;0.742538
8723.000000;0.742701
8722.000000;0.743037
8721.000000;0.743389
8720.000000;0.743563
8719.000000;0.743561
8718.000000;0.743601
8717.000000;0.743858
8716.000000;0.744241
8715.000000;0.744463
8714.000000;0.744363
8713.000000;0.744076
8712.000000;0.743846
8711.000000;0.743745
8710.000000;0.743661
8709.000000;0.743547
8708.000000;0.743528
8707.000000;0.743715
8706.000000;0.744006
8705.000000;0.744180
8704.000000;0.744147
8703.000000;0.744022
8702.000000;0.743968
8701.000000;0.744041
8700.000000;0.744204
8699.000000;0.744435
8698.000000;0.744758
8697.000000;0.745183
8696.000000;0.745613
8695.000000;0.745835
8694.000000;0.745667
8693.000000;0.745161
8692.000000;0.744623
8691.000000;0.744373
8690.000000;0.744461
8689.000000;0.744678
8688.000000;0.744840
8687.000000;0.744995
8686.000000;0.745303
8685.000000;0.745783
8684.000000;0.746251
8683.000000;0.746510
8682.000000;0.746509
8681.000000;0.746297
8680.000000;0.745931
8679.000000;0.745512
8678.000000;0.745235
8677.000000;0.745264
8676.000000;0.745523
8675.000000;0.745727
8674.000000;0.745660
8673.000000;0.745379
8672.000000;0.745088
8671.000000;0.744925
8670.000000;0.744898
8669.000000;0.744965
8668.000000;0.745048
8667.000000;0.745037
8666.000000;0.744887
8665.000000;0.744707
8664.000000;0.744646
8663.000000;0.744719
8662.000000;0.744813
8661.000000;0.744839
8660.000000;0.744786
8659.000000;0.744663
8658.000000;0.744493
8657.000000;0.744371
8656.000000;0.744375
8655.000000;0.744414
8654.000000;0.744292
8653.000000;0.743956
8652.000000;0.743578
8651.000000;0.743334
8650.000000;0.743251
8649.000000;0.743305
8648.000000;0.743522
8647.000000;0.743851
8646.000000;0.744038
8645.000000;0.743823
8644.000000;0.743255
8643.000000;0.742679
8642.000000;0.742402
8641.000000;0.742428
8640.000000;0.742525
8639.000000;0.742487
8638.000000;0.742306
8637.000000;0.742122
8636.000000;0.742057
8635.000000;0.742102
8634.000000;0.742171
8633.000000;0.742199
8632.000000;0.742138
8631.000000;0.741933
8630.000000;0.741592
8629.000000;0.741283
8628.000000;0.741201
8627.000000;0.741324
8626.000000;0.741412
8625.000000;0.741325
8624.000000;0.741189
8623.000000;0.741179
8622.000000;0.741257
8621.000000;0.741237
8620.000000;0.741022
8619.000000;0.740632
8618.000000;0.740083
8617.000000;0.739398
8616.000000;0.738737
8615.000000;0.738337
8614.000000;0.738301
8613.000000;0.738513
8612.000000;0.738790
8611.000000;0.739031
8610.000000;0.739216
8609.000000;0.739320
8608.000000;0.739285
8607.000000;0.739057
8606.000000;0.738671
8605.000000;0.738297
8604.000000;0.738141
8603.000000;0.738235
8602.000000;0.738374
8601.000000;0.738328
8600.000000;0.738094
8599.000000;0.737849
8598.000000;0.737692
8597.000000;0.737533
8596.000000;0.737252
8595.000000;0.736870
8594.000000;0.736524
8593.000000;0.736313
8592.000000;0.736213
8591.000000;0.736113
8590.000000;0.735940
8589.000000;0.735752
8588.000000;0.735665
8587.000000;0.735669
8586.000000;0.735568
8585.000000;0.735197
8584.000000;0.734633
8583.000000;0.734119
8582.000000;0.733806
8581.000000;0.733687
8580.000000;0.733736
8579.000000;0.733958
8578.000000;0.734269
8577.000000;0.734445
8576.000000;0.734302
8575.000000;0.733870
8574.000000;0.733357
8573.000000;0.732981
8572.000000;0.732865
8571.000000;0.732999
8570.000000;0.733223
8569.000000;0.733293
8568.000000;0.733063
8567.000000;0.732610
8566.000000;0.732147
8565.000000;0.731838
8564.000000;0.731706
8563.000000;0.731689
8562.000000;0.731719
8561.000000;0.731749
8560.000000;0.731749
8559.000000;0.731699
8558.000000;0.731569
8557.000000;0.731294
8556.000000;0.730819
8555.000000;0.730185
8554.000000;0.729571
8553.000000;0.729198
8552.000000;0.729148
8551.000000;0.729292
8550.000000;0.729426
8549.000000;0.729468
8548.000000;0.729464
8547.000000;0.729436
8546.000000;0.729319
8545.000000;0.729103
8544.000000;0.728900
8543.000000;0.728787
8542.000000;0.728651
8541.000000;0.728339
8540.000000;0.727896
8539.000000;0.727530
8538.000000;0.727348
8537.000000;0.727260
8536.000000;0.727180
8535.000000;0.727144
8534.000000;0.727155
8533.000000;0.727077
8532.000000;0.726820
8531.000000;0.726537
8530.000000;0.726449
8529.000000;0.726523
8528.000000;0.726470
8527.000000;0.726124
8526.000000;0.725661
8525.000000;0.725361
8524.000000;0.725241
8523.000000;0.725074
8522.000000;0.724743
8521.000000;0.724450
8520.000000;0.724472
8519.000000;0.724786
8518.000000;0.725052
8517.000000;0.724988
8516.000000;0.724684
8515.000000;0.724461
8514.000000;0.724475
8513.000000;0.724563
8512.000000;0.724475
8511.000000;0.724161
8510.000000;0.723782
8509.000000;0.723508
8508.000000;0.723369
8507.000000;0.723267
8506.000000;0.723076
8505.000000;0.722757
8504.000000;0.722415
8503.000000;0.722220
8502.000000;0.722225
8501.000000;0.722299
8500.000000;0.722266
8499.000000;0.722075
8498.000000;0.721796
8497.000000;0.721502
8496.000000;0.721232
8495.000000;0.721045
8494.000000;0.720975
8493.000000;0.720953
8492.000000;0.720844
8491.000000;0.720612
8490.000000;0.720352
8489.000000;0.720135
8488.000000;0.719910
8487.000000;0.719603
8486.000000;0.719234
8485.000000;0.718865
8484.000000;0.718518
8483.000000;0.718208
8482.000000;0.718010
8481.000000;0.717991
8480.000000;0.718094
8479.000000;0.718180
8478.000000;0.718173
8477.000000;0.718092
8476.000000;0.717952
8475.000000;0.717727
8474.000000;0.717430
8473.000000;0.717135
8472.000000;0.716912
8471.000000;0.716780
8470.000000;0.716731
8469.000000;0.716731
8468.000000;0.716694
8467.000000;0.716556
8466.000000;0.716370
8465.000000;0.716254
8464.000000;0.716205
8463.000000;0.716067
8462.000000;0.715739
8461.000000;0.715327
8460.000000;0.714996
8459.000000;0.714771
8458.000000;0.714567
8457.000000;0.714373
8456.000000;0.714272
8455.000000;0.714285
8454.000000;0.714304
8453.000000;0.714212
8452.000000;0.714011
8451.000000;0.713786
8450.000000;0.713604
8449.000000;0.713461
8448.000000;0.713308
8447.000000;0.713092
8446.000000;0.712804
8445.000000;0.712501
8444.000000;0.712272
8443.000000;0.712173
8442.000000;0.712187
8441.000000;0.712237
8440.000000;0.712238
8439.000000;0.712179
8438.000000;0.712166
8437.000000;0.712322
8436.000000;0.712590
8435.000000;0.712698
8434.000000;0.712405
8433.000000;0.711775
8432.000000;0.711143
8431.000000;0.710789
8430.000000;0.710722
8429.000000;0.710770
8428.000000;0.710774
8427.000000;0.710665
8426.000000;0.710432
8425.000000;0.710104
8424.000000;0.709761
8423.000000;0.709495
8422.000000;0.709336
8421.000000;0.709240
8420.000000;0.709136
8419.000000;0.708971
8418.000000;0.708739
8417.000000;0.708485
8416.000000;0.708306
8415.000000;0.708288
8414.000000;0.708424
8413.000000;0.708590
8412.000000;0.708629
8411.000000;0.708493
8410.000000;0.708288
8409.000000;0.708167
8408.000000;0.708183
8407.000000;0.708257
8406.000000;0.708265
8405.000000;0.708122
8404.000000;0.707800
8403.000000;0.707332
8402.000000;0.706815
8401.000000;0.706361
8400.000000;0.706019
8399.000000;0.705774
8398.000000;0.705612
8397.000000;0.705523
8396.000000;0.705441
8395.000000;0.705262
8394.000000;0.704987
8393.000000;0.704765
8392.000000;0.704724
8391.000000;0.704809
8390.000000;0.704861
8389.000000;0.704797
8388.000000;0.704632
8387.000000;0.704389
8386.000000;0.704097
8385.000000;0.703865
8384.000000;0.703813
8383.000000;0.703919
8382.000000;0.704004
8381.000000;0.703898
8380.000000;0.703572
8379.000000;0.703108
8378.000000;0.702642
8377.000000;0.702333
8376.000000;0.702275
8375.000000;0.702393
8374.000000;0.702482
8373.000000;0.702395
8372.000000;0.702141
8371.000000;0.701793
8370.000000;0.701400
8369.000000;0.701027
8368.000000;0.700776
8367.000000;0.700700
8366.000000;0.700716
8365.000000;0.700690
8364.000000;0.700567
8363.000000;0.700386
8362.000000;0.700194
8361.000000;0.699994
8360.000000;0.699764
8359.000000;0.699488
8358.000000;0.699189
8357.000000;0.698949
8356.000000;0.698851
8355.000000;0.698868
8354.000000;0.698853
8353.000000;0.698710
8352.000000;0.698524
8351.000000;0.698449
8350.000000;0.698484
8349.000000;0.698429
8348.000000;0.698107
8347.000000;0.697571
8346.000000;0.697063
8345.000000;0.696782
8344.000000;0.696734
8343.000000;0.696792
8342.000000;0.696854
8341.000000;0.696897
8340.000000;0.696924
8339.000000;0.696902
8338.000000;0.696792
8337.000000;0.696603
8336.000000;0.696374
8335.000000;0.696142
8334.000000;0.695941
8333.000000;0.695798
8332.000000;0.695687
8331.000000;0.695511
8330.000000;0.695198
8329.000000;0.694791
8328.000000;0.694401
8327.000000;0.694082
8326.000000;0.693822
8325.000000;0.693631
8324.000000;0.693532
8323.000000;0.693456
8322.000000;0.693256
8321.000000;0.692872
8320.000000;0.692414
8319.000000;0.692023
8318.000000;0.691731
8317.000000;0.691513
8316.000000;0.691394
8315.000000;0.691415
8314.000000;0.691504
8313.000000;0.691498
8312.000000;0.691323
8311.000000;0.691070
8310.000000;0.690857
8309.000000;0.690669
8308.000000;0.690410
8307.000000;0.690075
8306.000000;0.689795
8305.000000;0.689673
8304.000000;0.689640
8303.000000;0.689523
8302.000000;0.689244
8301.000000;0.688862
8300.000000;0.688444
8299.000000;0.687981
8298.000000;0.687507
8297.000000;0.687174
8296.000000;0.687123
8295.000000;0.687298
8294.000000;0.687500
8293.000000;0.687589
8292.000000;0.687536
8291.000000;0.687321
8290.000000;0.686911
8289.000000;0.686390
8288.000000;0.685965
8287.000000;0.685774
8286.000000;0.685758
8285.000000;0.685764
8284.000000;0.685699
8283.000000;0.685537
8282.000000;0.685270
8281.000000;0.684945
8280.000000;0.684680
8279.000000;0.684548
8278.000000;0.684484
8277.000000;0.684386
8276.000000;0.684263
8275.000000;0.684187
8274.000000;0.684146
8273.000000;0.684038
8272.000000;0.683818
8271.000000;0.683541
8270.000000;0.683287
8269.000000;0.683110
8268.000000;0.683068
8267.000000;0.683183
8266.000000;0.683348
8265.000000;0.683358
8264.000000;0.683106
8263.000000;0.682685
8262.000000;0.682263
8261.000000;0.681915
8260.000000;0.681640
8259.000000;0.681464
8258.000000;0.681421
8257.000000;0.681446
8256.000000;0.681366
8255.000000;0.681044
8254.000000;0.680509
8253.000000;0.679927
8252.000000;0.679479
8251.000000;0.679270
8250.000000;0.679288
8249.000000;0.679401
8248.000000;0.679414
8247.000000;0.679209
8246.000000;0.678846
8245.000000;0.678512
8244.000000;0.678342
8243.000000;0.678294
8242.000000;0.678201
8241.000000;0.677932
8240.000000;0.677500
8239.000000;0.677042
8238.000000;0.676721
8237.000000;0.676634
8236.000000;0.676746
8235.000000;0.676902
8234.000000;0.676914
8233.000000;0.676687
8232.000000;0.676268
8231.000000;0.675806
8230.000000;0.675446
8229.000000;0.675255
8228.000000;0.675207
8227.000000;0.675213
8226.000000;0.675184
8225.000000;0.675074
8224.000000;0.674884
8223.000000;0.674639
8222.000000;0.674386
8221.000000;0.674196
8220.000000;0.674117
8219.000000;0.674103
8218.000000;0.674020
8217.000000;0.673766
8216.000000;0.673368
8215.000000;0.672950
8214.000000;0.672606
8213.000000;0.672322
8212.000000;0.672039
8211.000000;0.671738
8210.000000;0.671463
8209.000000;0.671254
8208.000000;0.671104
8207.000000;0.670981
8206.000000;0.670857
8205.000000;0.670705
8204.000000;0.670487
8203.000000;0.670186
8202.000000;0.669844
8201.000000;0.669531
8200.000000;0.669284
8199.000000;0.669102
8198.000000;0.669000
8197.000000;0.668998
8196.000000;0.669044
8195.000000;0.669001
8194.000000;0.668742
8193.000000;0.668276
8192.000000;0.667759
8191.000000;0.667389
8190.000000;0.667282
8189.000000;0.667381
8188.000000;0.667475
8187.000000;0.667354
8186.000000;0.666996
8185.000000;0.666572
8184.000000;0.666251
8183.000000;0.666066
8182.000000;0.665976
8181.000000;0.665962
8180.000000;0.665976
8179.000000;0.665903
8178.000000;0.665692
8177.000000;0.665483
8176.000000;0.665460
8175.000000;0.665572
8174.000000;0.665541
8173.000000;0.665192
8172.000000;0.664659
8171.000000;0.664194
8170.000000;0.663909
8169.000000;0.663759
8168.000000;0.663692
8167.000000;0.663663
8166.000000;0.663582
8165.000000;0.663356
8164.000000;0.663020
8163.000000;0.662714
8162.000000;0.662519
8161.000000;0.662391
8160.000000;0.662253
8159.000000;0.662077
8158.000000;0.661868
8157.000000;0.661626
8156.000000;0.661374
8155.000000;0.661173
8154.000000;0.661054
8153.000000;0.660975
8152.000000;0.660883
8151.000000;0.660767
8150.000000;0.660629
8149.000000;0.660421
8148.000000;0.660089
8147.000000;0.659676
8146.000000;0.659304
8145.000000;0.659061
8144.000000;0.658938
8143.000000;0.658876
8142.000000;0.658821
8141.000000;0.658686
8140.000000;0.658369
8139.000000;0.657855
8138.000000;0.657288
8137.000000;0.656862
8136.000000;0.656638
8135.000000;0.656533
8134.000000;0.656449
8133.000000;0.656351
8132.000000;0.656234
8131.000000;0.656097
8130.000000;0.655974
8129.000000;0.655896
8128.000000;0.655812
8127.000000;0.655612
8126.000000;0.655289
8125.000000;0.654973
8124.000000;0.654760
8123.000000;0.654569
8122.000000;0.654265
8121.000000;0.653877
8120.000000;0.653571
8119.000000;0.653420
8118.000000;0.653333
8117.000000;0.653211
8116.000000;0.653080
8115.000000;0.653004
8114.000000;0.652945
8113.000000;0.652803
8112.000000;0.652560
8111.000000;0.652297
8110.000000;0.652078
8109.000000;0.651862
8108.000000;0.651575
8107.000000;0.651234
8106.000000;0.650948
8105.000000;0.650796
8104.000000;0.650721
8103.000000;0.650588
8102.000000;0.650328
8101.000000;0.649992
8100.000000;0.649666
8099.000000;0.649386
8098.000000;0.649154
8097.000000;0.648981
8096.000000;0.648868
8095.000000;0.648763
8094.000000;0.648593
8093.000000;0.648353
8092.000000;0.648116
8091.000000;0.647965
8090.000000;0.647913
8089.000000;0.647896
8088.000000;0.647818
8087.000000;0.647642
8086.000000;0.647435
8085.000000;0.647296
8084.000000;0.647224
8083.000000;0.647099
8082.000000;0.646832
8081.000000;0.646472
8080.000000;0.646123
8079.000000;0.645813
8078.000000;0.645517
8077.000000;0.645280
8076.000000;0.645185
8075.000000;0.645200
8074.000000;0.645164
8073.000000;0.644969
8072.000000;0.644672
8071.000000;0.644384
8070.000000;0.644110
8069.000000;0.643778
8068.000000;0.643378
8067.000000;0.643010
8066.000000;0.642781
8065.000000;0.642715
8064.000000;0.642744
8063.000000;0.642765
8062.000000;0.642701
8061.000000;0.642523
8060.000000;0.642233
8059.000000;0.641851
8058.000000;0.641429
8057.000000;0.641055
8056.000000;0.640805
8055.000000;0.640661
8054.000000;0.640535
8053.000000;0.640359
8052.000000;0.640156
8051.000000;0.639988
8050.000000;0.639891
8049.000000;0.639857
8048.000000;0.639840
8047.000000;0.639756
8046.000000;0.639514
8045.000000;0.639110
8044.000000;0.638668
8043.000000;0.638341
8042.000000;0.638176
8041.000000;0.638107
8040.000000;0.638041
8039.000000;0.637903
8038.000000;0.637613
8037.000000;0.637119
8036.000000;0.636490
8035.000000;0.635922
8034.000000;0.635580
8033.000000;0.635458
8032.000000;0.635432
8031.000000;0.635437
8030.000000;0.635499
8029.000000;0.635617
8028.000000;0.635683
8027.000000;0.635588
8026.000000;0.635341
8025.000000;0.635027
8024.000000;0.634691
8023.000000;0.634342
8022.000000;0.634017
8021.000000;0.633769
8020.000000;0.633577
8019.000000;0.633360
8018.000000;0.633107
8017.000000;0.632907
8016.000000;0.632807
8015.000000;0.632706
8014.000000;0.632467
8013.000000;0.632084
8012.000000;0.631678
8011.000000;0.631353
8010.000000;0.631110
8009.000000;0.630913
8008.000000;0.630749
8007.000000;0.630630
8006.000000;0.630548
8005.000000;0.630461
8004.000000;0.630318
8003.000000;0.630089
8002.000000;0.629803
8001.000000;0.629515
8000.000000;0.629252
7999.000000;0.628996
7998.000000;0.628745
7997.000000;0.628528
7996.000000;0.628342
7995.000000;0.628114
7994.000000;0.627791
7993.000000;0.627440
7992.000000;0.627176
7991.000000;0.627024
7990.000000;0.626899
7989.000000;0.626750
7988.000000;0.626640
7987.000000;0.626650
7986.000000;0.626744
7985.000000;0.626751
7984.000000;0.626504
7983.000000;0.625995
7982.000000;0.625403
7981.000000;0.624952
7980.000000;0.624731
7979.000000;0.624654
7978.000000;0.624593
7977.000000;0.624498
7976.000000;0.624375
7975.000000;0.624211
7974.000000;0.623976
7973.000000;0.623695
7972.000000;0.623429
7971.000000;0.623208
7970.000000;0.623017
7969.000000;0.622838
7968.000000;0.622651
7967.000000;0.622409
7966.000000;0.622101
7965.000000;0.621829
7964.000000;0.621732
7963.000000;0.621793
7962.000000;0.621798
7961.000000;0.621546
7960.000000;0.621067
7959.000000;0.620580
7958.000000;0.620258
7957.000000;0.620095
7956.000000;0.619978
7955.000000;0.619831
7954.000000;0.619659
7953.000000;0.619487
7952.000000;0.619301
7951.000000;0.619078
7950.000000;0.618834
7949.000000;0.618624
7948.000000;0.618479
7947.000000;0.618357
7946.000000;0.618174
7945.000000;0.617881
7944.000000;0.617502
7943.000000;0.617128
7942.000000;0.616873
7941.000000;0.616784
7940.000000;0.616779
7939.000000;0.616706
7938.000000;0.616487
7937.000000;0.616184
7936.000000;0.615884
7935.000000;0.615580
7934.000000;0.615228
7933.000000;0.614857
7932.000000;0.614556
7931.000000;0.614359
7930.000000;0.614221
7929.000000;0.614117
7928.000000;0.614064
7927.000000;0.614033
7926.000000;0.613929
7925.000000;0.613699
7924.000000;0.613410
7923.000000;0.613168
7922.000000;0.613010
7921.000000;0.612900
7920.000000;0.612797
7919.000000;0.612663
7918.000000;0.612446
7917.000000;0.612119
7916.000000;0.611728
7915.000000;0.611364
7914.000000;0.611075
7913.000000;0.610846
7912.000000;0.610648
7911.000000;0.610486
7910.000000;0.610397
7909.000000;0.610407
7908.000000;0.610481
7907.000000;0.610514
7906.000000;0.610388
7905.000000;0.610081
7904.000000;0.609691
7903.000000;0.609340
7902.000000;0.609047
7901.000000;0.608724
7900.000000;0.608307
7899.000000;0.607856
7898.000000;0.607515
7897.000000;0.607366
7896.000000;0.607338
7895.000000;0.607292
7894.000000;0.607164
7893.000000;0.607015
7892.000000;0.606915
7891.000000;0.606824
7890.000000;0.606637
7889.000000;0.606320
7888.000000;0.605960
7887.000000;0.605681
7886.000000;0.605546
7885.000000;0.605552
7884.000000;0.605639
7883.000000;0.605700
7882.000000;0.605622
7881.000000;0.605386
7880.000000;0.605078
7879.000000;0.604784
7878.000000;0.604495
7877.000000;0.604165
7876.000000;0.603818
7875.000000;0.603536
7874.000000;0.603346
7873.000000;0.603193
7872.000000;0.603018
7871.000000;0.602818
7870.000000;0.602606
7869.000000;0.602391
7868.000000;0.602202
7867.000000;0.602089
7866.000000;0.602048
7865.000000;0.601992
7864.000000;0.601835
7863.000000;0.601579
7862.000000;0.601292
7861.000000;0.601023
7860.000000;0.600798
7859.000000;0.600647
7858.000000;0.600567
7857.000000;0.600477
7856.000000;0.600290
7855.000000;0.600042
7854.000000;0.599852
7853.000000;0.599752
7852.000000;0.599621
7851.000000;0.599338
7850.000000;0.598939
7849.000000;0.598541
7848.000000;0.598188
7847.000000;0.597855
7846.000000;0.597570
7845.000000;0.597432
7844.000000;0.597484
7843.000000;0.597642
7842.000000;0.597762
7841.000000;0.597749
7840.000000;0.597580
7839.000000;0.597290
7838.000000;0.596942
7837.000000;0.596585
7836.000000;0.596227
7835.000000;0.595863
7834.000000;0.595529
7833.000000;0.595294
7832.000000;0.595187
7831.000000;0.595174
7830.000000;0.595199
7829.000000;0.595216
7828.000000;0.595173
7827.000000;0.595036
7826.000000;0.594829
7825.000000;0.594613
7824.000000;0.594403
7823.000000;0.594159
7822.000000;0.593863
7821.000000;0.593581
7820.000000;0.593389
7819.000000;0.593297
7818.000000;0.593242
7817.000000;0.593137
7816.000000;0.592932
7815.000000;0.592654
7814.000000;0.592408
7813.000000;0.592279
7812.000000;0.592214
7811.000000;0.592056
7810.000000;0.591737
7809.000000;0.591380
7808.000000;0.591152
7807.000000;0.591087
7806.000000;0.591084
7805.000000;0.591042
7804.000000;0.590926
7803.000000;0.590741
7802.000000;0.590519
7801.000000;0.590342
7800.000000;0.590302
7799.000000;0.590393
7798.000000;0.590482
7797.000000;0.590399
7796.000000;0.590085
7795.000000;0.589638
7794.000000;0.589238
7793.000000;0.589015
7792.000000;0.588962
7791.000000;0.588972
7790.000000;0.588944
7789.000000;0.588840
7788.000000;0.588660
7787.000000;0.588411
7786.000000;0.588118
7785.000000;0.587824
7784.000000;0.587567
7783.000000;0.587367
7782.000000;0.587261
7781.000000;0.587288
7780.000000;0.587414
7779.000000;0.587507
7778.000000;0.587434
7777.000000;0.587177
7776.000000;0.586824
7775.000000;0.586477
7774.000000;0.586189
7773.000000;0.585986
7772.000000;0.585877
7771.000000;0.585841
7770.000000;0.585825
7769.000000;0.585761
7768.000000;0.585604
7767.000000;0.585375
7766.000000;0.585171
7765.000000;0.585084
7764.000000;0.585096
7763.000000;0.585072
7762.000000;0.584897
7761.000000;0.584594
7760.000000;0.584298
7759.000000;0.584127
7758.000000;0.584089
7757.000000;0.584106
7756.000000;0.584082
7755.000000;0.583972
7754.000000;0.583797
7753.000000;0.583610
7752.000000;0.583450
7751.000000;0.583332
7750.000000;0.583263
7749.000000;0.583225
7748.000000;0.583166
7747.000000;0.583051
7746.000000;0.582925
7745.000000;0.582855
7744.000000;0.582812
7743.000000;0.582696
7742.000000;0.582494
7741.000000;0.582339
7740.000000;0.582341
7739.000000;0.582426
7738.000000;0.582410
7737.000000;0.582205
7736.000000;0.581864
7735.000000;0.581471
7734.000000;0.581061
7733.000000;0.580668
7732.000000;0.580368
7731.000000;0.580237
7730.000000;0.580284
7729.000000;0.580418
7728.000000;0.580506
7727.000000;0.580477
7726.000000;0.580380
7725.000000;0.580306
7724.000000;0.580248
7723.000000;0.580100
7722.000000;0.579822
7721.000000;0.579545
7720.000000;0.579431
7719.000000;0.579483
7718.000000;0.579554
7717.000000;0.579524
7716.000000;0.579406
7715.000000;0.579274
7714.000000;0.579173
7713.000000;0.579116
7712.000000;0.579114
7711.000000;0.579144
7710.000000;0.579138
7709.000000;0.579034
7708.000000;0.578847
7707.000000;0.578677
7706.000000;0.578611
7705.000000;0.578620
7704.000000;0.578581
7703.000000;0.578428
7702.000000;0.578236
7701.000000;0.578119
7700.000000;0.578073
7699.000000;0.577997
7698.000000;0.577861
7697.000000;0.577738
7696.000000;0.577670
7695.000000;0.577596
7694.000000;0.577471
7693.000000;0.577352
7692.000000;0.577291
7691.000000;0.577230
7690.000000;0.577097
7689.000000;0.576936
7688.000000;0.576840
7687.000000;0.576809
7686.000000;0.576768
7685.000000;0.576694
7684.000000;0.576631
7683.000000;0.576575
7682.000000;0.576459
7681.000000;0.576251
7680.000000;0.575996
7679.000000;0.575754
7678.000000;0.575558
7677.000000;0.575434
7676.000000;0.575398
7675.000000;0.575408
7674.000000;0.575394
7673.000000;0.575345
7672.000000;0.575308
7671.000000;0.575299
7670.000000;0.575294
7669.000000;0.575303
7668.000000;0.575392
7667.000000;0.575575
7666.000000;0.575751
7665.000000;0.575783
7664.000000;0.575628
7663.000000;0.575359
7662.000000;0.575092
7661.000000;0.574915
7660.000000;0.574857
7659.000000;0.574895
7658.000000;0.574997
7657.000000;0.575126
7656.000000;0.575216
7655.000000;0.575182
7654.000000;0.575009
7653.000000;0.574809
7652.000000;0.574730
7651.000000;0.574797
7650.000000;0.574890
7649.000000;0.574885
7648.000000;0.574770
7647.000000;0.574625
7646.000000;0.574520
7645.000000;0.574469
7644.000000;0.574434
7643.000000;0.574369
7642.000000;0.574283
7641.000000;0.574249
7640.000000;0.574315
7639.000000;0.574416
7638.000000;0.574421
7637.000000;0.574285
7636.000000;0.574117
7635.000000;0.574045
7634.000000;0.574076
7633.000000;0.574120
7632.000000;0.574144
7631.000000;0.574215
7630.000000;0.574387
7629.000000;0.574586
7628.000000;0.574659
7627.000000;0.574538
7626.000000;0.574324
7625.000000;0.574168
7624.000000;0.574116
7623.000000;0.574094
7622.000000;0.574035
7621.000000;0.573960
7620.000000;0.573937
7619.000000;0.574014
7618.000000;0.574195
7617.000000;0.574449
7616.000000;0.574692
7615.000000;0.574833
7614.000000;0.574835
7613.000000;0.574730
7612.000000;0.574557
7611.000000;0.574343
7610.000000;0.574160
7609.000000;0.574127
7608.000000;0.574281
7607.000000;0.574510
7606.000000;0.574669
7605.000000;0.574734
7604.000000;0.574788
7603.000000;0.574884
7602.000000;0.574994
7601.000000;0.575067
7600.000000;0.575073
7599.000000;0.575022
7598.000000;0.574983
7597.000000;0.575066
7596.000000;0.575310
7595.000000;0.575595
7594.000000;0.575729
7593.000000;0.575637
7592.000000;0.575418
7591.000000;0.575215
7590.000000;0.575104
7589.000000;0.575089
7588.000000;0.575135
7587.000000;0.575176
7586.000000;0.575166
7585.000000;0.575144
7584.000000;0.575220
7583.000000;0.575447
7582.000000;0.575750
7581.000000;0.576001
7580.000000;0.576149
7579.000000;0.576250
7578.000000;0.576370
7577.000000;0.576499
7576.000000;0.576580
7575.000000;0.576603
7574.000000;0.576660
7573.000000;0.576835
7572.000000;0.577087
7571.000000;0.577259
7570.000000;0.577255
7569.000000;0.577135
7568.000000;0.577035
7567.000000;0.577031
7566.000000;0.577121
7565.000000;0.577270
7564.000000;0.577427
7563.000000;0.577526
7562.000000;0.577561
7561.000000;0.577624
7560.000000;0.577799
7559.000000;0.578049
7558.000000;0.578273
7557.000000;0.578435
7556.000000;0.578581
7555.000000;0.578715
7554.000000;0.578780
7553.000000;0.578774
7552.000000;0.578778
7551.000000;0.578860
7550.000000;0.579002
7549.000000;0.579158
7548.000000;0.579320
7547.000000;0.579483
7546.000000;0.579606
7545.000000;0.579676
7544.000000;0.579761
7543.000000;0.579938
7542.000000;0.580187
7541.000000;0.580417
7540.000000;0.580582
7539.000000;0.580712
7538.000000;0.580841
7537.000000;0.580959
7536.000000;0.581062
7535.000000;0.581211
7534.000000;0.581467
7533.000000;0.581787
7532.000000;0.582022
7531.000000;0.582067
7530.000000;0.581996
7529.000000;0.582007
7528.000000;0.582230
7527.000000;0.582607
7526.000000;0.582975
7525.000000;0.583225
7524.000000;0.583350
7523.000000;0.583392
7522.000000;0.583400
7521.000000;0.583413
7520.000000;0.583455
7519.000000;0.583527
7518.000000;0.583640
7517.000000;0.583832
7516.000000;0.584117
7515.000000;0.584434
7514.000000;0.584694
7513.000000;0.584880
7512.000000;0.585057
7511.000000;0.585272
7510.000000;0.585501
7509.000000;0.585711
7508.000000;0.585925
7507.000000;0.586194
7506.000000;0.586528
7505.000000;0.586880
7504.000000;0.587180
7503.000000;0.587371
7502.000000;0.587432
7501.000000;0.587396
7500.000000;0.587351
7499.000000;0.587382
7498.000000;0.587519
7497.000000;0.587736
7496.000000;0.588001
7495.000000;0.588295
7494.000000;0.588594
7493.000000;0.588859
7492.000000;0.589069
7491.000000;0.589236
7490.000000;0.589503
7489.000000;0.589693
7488.000000;0.589876
7487.000000;0.590081
7486.000000;0.590359
7485.000000;0.590720
7484.000000;0.591077
7483.000000;0.591327
7482.000000;0.591453
7481.000000;0.591523
7480.000000;0.591597
7479.000000;0.591685
7478.000000;0.591796
7477.000000;0.591949
7476.000000;0.592135
7475.000000;0.592320
7474.000000;0.592498
7473.000000;0.592704
7472.000000;0.592936
7471.000000;0.593122
7470.000000;0.593215
7469.000000;0.593280
7468.000000;0.593442
7467.000000;0.593742
7466.000000;0.594091
7465.000000;0.594360
7464.000000;0.594501
7463.000000;0.594582
7462.000000;0.594724
7461.000000;0.594991
7460.000000;0.595346
7459.000000;0.595691
7458.000000;0.595970
7457.000000;0.596195
7456.000000;0.596395
7455.000000;0.596567
7454.000000;0.596706
7453.000000;0.596829
7452.000000;0.596953
7451.000000;0.597077
7450.000000;0.597218
7449.000000;0.597430
7448.000000;0.597728
7447.000000;0.598039
7446.000000;0.598273
7445.000000;0.598449
7444.000000;0.598686
7443.000000;0.599044
7442.000000;0.599434
7441.000000;0.599732
7440.000000;0.599946
7439.000000;0.600205
7438.000000;0.600574
7437.000000;0.600946
7436.000000;0.601171
7435.000000;0.601245
7434.000000;0.601317
7433.000000;0.601495
7432.000000;0.601720
7431.000000;0.601864
7430.000000;0.601900
7429.000000;0.601930
7428.000000;0.602056
7427.000000;0.602271
7426.000000;0.602482
7425.000000;0.602613
7424.000000;0.602686
7423.000000;0.602815
7422.000000;0.603136
7421.000000;0.603686
7420.000000;0.604372
7419.000000;0.605042
7418.000000;0.605595
7417.000000;0.606004
7416.000000;0.606283
7415.000000;0.606467
7414.000000;0.606605
7413.000000;0.606737
7412.000000;0.606863
7411.000000;0.606943
7410.000000;0.606940
7409.000000;0.606896
7408.000000;0.606958
7407.000000;0.607281
7406.000000;0.607849
7405.000000;0.608449
7404.000000;0.608873
7403.000000;0.609137
7402.000000;0.609413
7401.000000;0.609784
7400.000000;0.610149
7399.000000;0.610388
7398.000000;0.610495
7397.000000;0.610552
7396.000000;0.610669
7395.000000;0.610927
7394.000000;0.611320
7393.000000;0.611785
7392.000000;0.612297
7391.000000;0.612866
7390.000000;0.613440
7389.000000;0.613868
7388.000000;0.614096
7387.000000;0.614323
7386.000000;0.614782
7385.000000;0.615449
7384.000000;0.616199
7383.000000;0.617105
7382.000000;0.618248
7381.000000;0.619284
7380.000000;0.619670
7379.000000;0.619536
7378.000000;0.619838
7377.000000;0.621210
7376.000000;0.623035
7375.000000;0.624070
7374.000000;0.623826
7373.000000;0.622938
7372.000000;0.622296
7371.000000;0.622253
7370.000000;0.622648
7369.000000;0.623118
7368.000000;0.623294
7367.000000;0.623044
7366.000000;0.622593
7365.000000;0.622272
7364.000000;0.622239
7363.000000;0.622515
7362.000000;0.623077
7361.000000;0.623718
7360.000000;0.624038
7359.000000;0.624029
7358.000000;0.624410
7357.000000;0.625755
7356.000000;0.627519
7355.000000;0.628560
7354.000000;0.628543
7353.000000;0.628199
7352.000000;0.628265
7351.000000;0.628825
7350.000000;0.629679
7349.000000;0.630733
7348.000000;0.631796
7347.000000;0.632652
7346.000000;0.633423
7345.000000;0.634424
7344.000000;0.635688
7343.000000;0.637294
7342.000000;0.639887
7341.000000;0.643842
7340.000000;0.647901
7339.000000;0.649813
7338.000000;0.648883
7337.000000;0.646806
7336.000000;0.645420
7335.000000;0.644642
7334.000000;0.643308
7333.000000;0.641129
7332.000000;0.638899
7331.000000;0.637435
7330.000000;0.637110
7329.000000;0.637846
7328.000000;0.638961
7327.000000;0.639643
7326.000000;0.640121
7325.000000;0.641590
7324.000000;0.644338
7323.000000;0.646855
7322.000000;0.647640
7321.000000;0.647107
7320.000000;0.646714
7319.000000;0.646728
7318.000000;0.646092
7317.000000;0.644269
7316.000000;0.642029
7315.000000;0.640346
7314.000000;0.639567
7313.000000;0.639694
7312.000000;0.640550
7311.000000;0.641624
7310.000000;0.642674
7309.000000;0.644338
7308.000000;0.647216
7307.000000;0.650487
7306.000000;0.652484
7305.000000;0.652788
7304.000000;0.652741
7303.000000;0.653510
7302.000000;0.654741
7301.000000;0.655516
7300.000000;0.655632
7299.000000;0.655383
7298.000000;0.654949
7297.000000;0.654747
7296.000000;0.655528
7295.000000;0.657347
7294.000000;0.659126
7293.000000;0.659968
7292.000000;0.660418
7291.000000;0.661553
7290.000000;0.663290
7289.000000;0.664522
7288.000000;0.664662
7287.000000;0.664199
7286.000000;0.663776
7285.000000;0.663408
7284.000000;0.662841
7283.000000;0.662121
7282.000000;0.661559
7281.000000;0.661392
7280.000000;0.661669
7279.000000;0.662293
7278.000000;0.663041
7277.000000;0.663760
7276.000000;0.664580
7275.000000;0.665720
7274.000000;0.667161
7273.000000;0.668626
7272.000000;0.669862
7271.000000;0.670902
7270.000000;0.672048
7269.000000;0.673552
7268.000000;0.675350
7267.000000;0.677109
7266.000000;0.678622
7265.000000;0.680129
7264.000000;0.682031
7263.000000;0.684260
7262.000000;0.686232
7261.000000;0.687556
7260.000000;0.688512
7259.000000;0.689621
7258.000000;0.691029
7257.000000;0.692597
7256.000000;0.694400
7255.000000;0.696703
7254.000000;0.699395
7253.000000;0.701865
7252.000000;0.703609
7251.000000;0.704774
7250.000000;0.705964
7249.000000;0.707624
7248.000000;0.709776
7247.000000;0.712327
7246.000000;0.715592
7245.000000;0.720160
7244.000000;0.725910
7243.000000;0.731516
7242.000000;0.735472
7241.000000;0.737658
7240.000000;0.739460
7239.000000;0.742073
7238.000000;0.745215
7237.000000;0.747975
7236.000000;0.750393
7235.000000;0.753532
7234.000000;0.757956
7233.000000;0.762675
7232.000000;0.765951
7231.000000;0.767111
7230.000000;0.767350
7229.000000;0.768645
7228.000000;0.771880
7227.000000;0.776152
7226.000000;0.779918
7225.000000;0.782451
7224.000000;0.784043
7223.000000;0.785296
7222.000000;0.786582
7221.000000;0.788046
7220.000000;0.789786
7219.000000;0.791880
7218.000000;0.794385
7217.000000;0.797334
7216.000000;0.800582
7215.000000;0.803783
7214.000000;0.806704
7213.000000;0.809505
7212.000000;0.812486
7211.000000;0.815568
7210.000000;0.818362
7209.000000;0.820874
7208.000000;0.823798
7207.000000;0.827846
7206.000000;0.832994
7205.000000;0.838521
7204.000000;0.843602
7203.000000;0.847867
7202.000000;0.851566
7201.000000;0.855292
7200.000000;0.859431
7199.000000;0.863839
7198.000000;0.868103
7197.000000;0.872079
7196.000000;0.875903
7195.000000;0.879531
7194.000000;0.882696
7193.000000;0.885499
7192.000000;0.888606
7191.000000;0.892519
7190.000000;0.896993
7189.000000;0.901515
7188.000000;0.906057
7187.000000;0.910933
7186.000000;0.916218
7185.000000;0.921835
7184.000000;0.928049
7183.000000;0.935184
7182.000000;0.942798
7181.000000;0.949837
7180.000000;0.955829
7179.000000;0.961398
7178.000000;0.967304
7177.000000;0.973430
7176.000000;0.979074
7175.000000;0.983873
7174.000000;0.988018
7173.000000;0.991829
7172.000000;0.995579
7171.000000;0.999656
7170.000000;1.004403
7169.000000;1.009805
7168.000000;1.015603
7167.000000;1.021606
7166.000000;1.027774
7165.000000;1.034151
7164.000000;1.040953
7163.000000;1.048443
7162.000000;1.056370
7161.000000;1.063774
7160.000000;1.069774
7159.000000;1.074496
7158.000000;1.078891
7157.000000;1.083568
7156.000000;1.088263
7155.000000;1.092614
7154.000000;1.096870
7153.000000;1.101450
7152.000000;1.106109
7151.000000;1.110176
7150.000000;1.113542
7149.000000;1.117019
7148.000000;1.121609
7147.000000;1.127575
7146.000000;1.134336
7145.000000;1.141132
7144.000000;1.147594
7143.000000;1.153876
7142.000000;1.160506
7141.000000;1.167871
7140.000000;1.175633
7139.000000;1.182931
7138.000000;1.189377
7137.000000;1.195519
7136.000000;1.201893
7135.000000;1.208018
7134.000000;1.212991
7133.000000;1.216894
7132.000000;1.220756
7131.000000;1.225105
7130.000000;1.229389
7129.000000;1.233056
7128.000000;1.236477
7127.000000;1.240323
7126.000000;1.244647
7125.000000;1.249158
7124.000000;1.253860
7123.000000;1.258901
7122.000000;1.264197
7121.000000;1.269707
7120.000000;1.275805
7119.000000;1.282787
7118.000000;1.290162
7117.000000;1.296958
7116.000000;1.302656
7115.000000;1.307475
7114.000000;1.311816
7113.000000;1.315869
7112.000000;1.319756
7111.000000;1.323634
7110.000000;1.327517
7109.000000;1.331275
7108.000000;1.334922
7107.000000;1.338662
7106.000000;1.342587
7105.000000;1.346559
7104.000000;1.350482
7103.000000;1.354505
7102.000000;1.358838
7101.000000;1.363505
7100.000000;1.368296
7099.000000;1.372871
7098.000000;1.377034
7097.000000;1.380857
7096.000000;1.384451
7095.000000;1.387809
7094.000000;1.391070
7093.000000;1.394684
7092.000000;1.398982
7091.000000;1.403646
7090.000000;1.407940
7089.000000;1.411443
7088.000000;1.414255
7087.000000;1.416588
7086.000000;1.418655
7085.000000;1.420813
7084.000000;1.423281
7083.000000;1.425744
7082.000000;1.427801
7081.000000;1.429781
7080.000000;1.432422
7079.000000;1.435732
7078.000000;1.438905
7077.000000;1.441472
7076.000000;1.443819
7075.000000;1.446416
7074.000000;1.449316
7073.000000;1.452569
7072.000000;1.456403
7071.000000;1.460629
7070.000000;1.464446
7069.000000;1.467310
7068.000000;1.469553
7067.000000;1.471763
7066.000000;1.474036
7065.000000;1.476139
7064.000000;1.477946
7063.000000;1.479417
7062.000000;1.480531
7061.000000;1.481484
7060.000000;1.482587
7059.000000;1.483829
7058.000000;1.485015
7057.000000;1.486363
7056.000000;1.488294
7055.000000;1.490545
7054.000000;1.492307
7053.000000;1.493472
7052.000000;1.494973
7051.000000;1.497524
7050.000000;1.500684
7049.000000;1.503652
7048.000000;1.506326
7047.000000;1.508973
7046.000000;1.511379
7045.000000;1.513089
7044.000000;1.514145
7043.000000;1.515012
7042.000000;1.515954
7041.000000;1.516941
7040.000000;1.517951
7039.000000;1.518935
7038.000000;1.519629
7037.000000;1.519762
7036.000000;1.519420
7035.000000;1.519064
7034.000000;1.519262
7033.000000;1.520338
7032.000000;1.522021
7031.000000;1.523506
7030.000000;1.524216
7029.000000;1.524381
7028.000000;1.524518
7027.000000;1.524620
7026.000000;1.524559
7025.000000;1.525043
7024.000000;1.527188
7023.000000;1.530925
7022.000000;1.534664
7021.000000;1.536888
7020.000000;1.537488
7019.000000;1.537259
7018.000000;1.536854
7017.000000;1.536668
7016.000000;1.537006
7015.000000;1.537810
7014.000000;1.538649
7013.000000;1.539331
7012.000000;1.540094
7011.000000;1.540940
7010.000000;1.541373
7009.000000;1.541175
7008.000000;1.540959
7007.000000;1.541549
7006.000000;1.543174
7005.000000;1.545451
7004.000000;1.547695
7003.000000;1.549102
7002.000000;1.549269
7001.000000;1.548837
7000.000000;1.549054
6999.000000;1.550413
6998.000000;1.552149
6997.000000;1.553288
6996.000000;1.553644
6995.000000;1.553512
6994.000000;1.553007
6993.000000;1.552186
6992.000000;1.551300
6991.000000;1.550544
6990.000000;1.549947
6989.000000;1.549721
6988.000000;1.550198
6987.000000;1.551203
6986.000000;1.551949
6985.000000;1.551904
6984.000000;1.551385
6983.000000;1.551049
6982.000000;1.551208
6981.000000;1.551833
6980.000000;1.552764
6979.000000;1.553696
6978.000000;1.554364
6977.000000;1.554881
6976.000000;1.555435
6975.000000;1.555666
6974.000000;1.554973
6973.000000;1.553506
6972.000000;1.552104
6971.000000;1.551183
6970.000000;1.550450
6969.000000;1.549787
6968.000000;1.549528
6967.000000;1.549580
6966.000000;1.549187
6965.000000;1.548040
6964.000000;1.546856
6963.000000;1.546345
6962.000000;1.546338
6961.000000;1.546436
6960.000000;1.546796
6959.000000;1.547653
6958.000000;1.548603
6957.000000;1.549015
6956.000000;1.548786
6955.000000;1.548243
6954.000000;1.547632
6953.000000;1.547136
6952.000000;1.546963
6951.000000;1.547066
6950.000000;1.547106
6949.000000;1.546952
6948.000000;1.546763
6947.000000;1.546408
6946.000000;1.545437
6945.000000;1.543921
6944.000000;1.542679
6943.000000;1.542216
6942.000000;1.542057
6941.000000;1.541604
6940.000000;1.541066
6939.000000;1.540993
6938.000000;1.541354
6937.000000;1.541651
6936.000000;1.541542
6935.000000;1.540882
6934.000000;1.539581
6933.000000;1.537955
6932.000000;1.536783
6931.000000;1.536474
6930.000000;1.536504
6929.000000;1.536099
6928.000000;1.535197
6927.000000;1.534285
6926.000000;1.533620
6925.000000;1.533094
6924.000000;1.532624
6923.000000;1.532212
6922.000000;1.531739
6921.000000;1.531100
6920.000000;1.530427
6919.000000;1.529883
6918.000000;1.529408
6917.000000;1.528931
6916.000000;1.528623
6915.000000;1.528641
6914.000000;1.528862
6913.000000;1.529094
6912.000000;1.529315
6911.000000;1.529461
6910.000000;1.529217
6909.000000;1.528284
6908.000000;1.526673
6907.000000;1.524622
6906.000000;1.522458
6905.000000;1.520584
6904.000000;1.519285
6903.000000;1.518383
6902.000000;1.517414
6901.000000;1.516278
6900.000000;1.515421
6899.000000;1.515184
6898.000000;1.515316
6897.000000;1.515395
6896.000000;1.515373
6895.000000;1.515374
6894.000000;1.515235
6893.000000;1.514604
6892.000000;1.513364
6891.000000;1.511781
6890.000000;1.510361
6889.000000;1.509573
6888.000000;1.509472
6887.000000;1.509538
6886.000000;1.509142
6885.000000;1.508219
6884.000000;1.507166
6883.000000;1.506115
6882.000000;1.504723
6881.000000;1.502787
6880.000000;1.500708
6879.000000;1.499206
6878.000000;1.498800
6877.000000;1.499501
6876.000000;1.500655
6875.000000;1.501152
6874.000000;1.500332
6873.000000;1.498760
6872.000000;1.497609
6871.000000;1.497289
6870.000000;1.497119
6869.000000;1.496392
6868.000000;1.495177
6867.000000;1.493929
6866.000000;1.492851
6865.000000;1.491914
6864.000000;1.491047
6863.000000;1.490081
6862.000000;1.488845
6861.000000;1.487454
6860.000000;1.486195
6859.000000;1.485112
6858.000000;1.484098
6857.000000;1.483377
6856.000000;1.483282
6855.000000;1.483462
6854.000000;1.482919
6853.000000;1.481151
6852.000000;1.478798
6851.000000;1.476939
6850.000000;1.476126
6849.000000;1.476226
6848.000000;1.476664
6847.000000;1.476618
6846.000000;1.475517
6845.000000;1.473618
6844.000000;1.471736
6843.000000;1.470221
6842.000000;1.468638
6841.000000;1.466595
6840.000000;1.464425
6839.000000;1.462777
6838.000000;1.461884
6837.000000;1.461392
6836.000000;1.460623
6835.000000;1.458950
6834.000000;1.456302
6833.000000;1.453409
6832.000000;1.451191
6831.000000;1.449852
6830.000000;1.448900
6829.000000;1.447986
6828.000000;1.447154
6827.000000;1.446251
6826.000000;1.444756
6825.000000;1.442487
6824.000000;1.439952
6823.000000;1.437691
6822.000000;1.435705
6821.000000;1.433767
6820.000000;1.431865
6819.000000;1.430058
6818.000000;1.428285
6817.000000;1.426564
6816.000000;1.425052
6815.000000;1.423699
6814.000000;1.422164
6813.000000;1.420270
6812.000000;1.418207
6811.000000;1.416176
6810.000000;1.414171
6809.000000;1.412221
6808.000000;1.410452
6807.000000;1.408741
6806.000000;1.406722
6805.000000;1.404285
6804.000000;1.401720
6803.000000;1.399229
6802.000000;1.396735
6801.000000;1.394304
6800.000000;1.392282
6799.000000;1.390787
6798.000000;1.389424
6797.000000;1.387749
6796.000000;1.385717
6795.000000;1.383530
6794.000000;1.381367
6793.000000;1.379360
6792.000000;1.377458
6791.000000;1.375185
6790.000000;1.372015
6789.000000;1.368164
6788.000000;1.364555
6787.000000;1.361777
6786.000000;1.359497
6785.000000;1.357084
6784.000000;1.354385
6783.000000;1.351609
6782.000000;1.348858
6781.000000;1.346152
6780.000000;1.343615
6779.000000;1.341326
6778.000000;1.339172
6777.000000;1.337070
6776.000000;1.335072
6775.000000;1.333103
6774.000000;1.330916
6773.000000;1.328482
6772.000000;1.326041
6771.000000;1.323573
6770.000000;1.320649
6769.000000;1.317108
6768.000000;1.313521
6767.000000;1.310592
6766.000000;1.308373
6765.000000;1.306378
6764.000000;1.304249
6763.000000;1.301984
6762.000000;1.299671
6761.000000;1.297295
6760.000000;1.294754
6759.000000;1.291919
6758.000000;1.288818
6757.000000;1.285851
6756.000000;1.283540
6755.000000;1.281900
6754.000000;1.280307
6753.000000;1.278190
6752.000000;1.275607
6751.000000;1.272945
6750.000000;1.270353
6749.000000;1.267774
6748.000000;1.265242
6747.000000;1.262812
6746.000000;1.260365
6745.000000;1.257791
6744.000000;1.255209
6743.000000;1.252739
6742.000000;1.250206
6741.000000;1.247358
6740.000000;1.244264
6739.000000;1.241230
6738.000000;1.238395
6737.000000;1.235654
6736.000000;1.232926
6735.000000;1.230240
6734.000000;1.227592
6733.000000;1.224900
6732.000000;1.222126
6731.000000;1.219303
6730.000000;1.216467
6729.000000;1.213711
6728.000000;1.211212
6727.000000;1.209060
6726.000000;1.207055
6725.000000;1.204827
6724.000000;1.202176
6723.000000;1.199282
6722.000000;1.196551
6721.000000;1.194261
6720.000000;1.192273
6719.000000;1.190100
6718.000000;1.187355
6717.000000;1.184156
6716.000000;1.180979
6715.000000;1.178118
6714.000000;1.175485
6713.000000;1.172932
6712.000000;1.170531
6711.000000;1.168389
6710.000000;1.166347
6709.000000;1.164111
6708.000000;1.161598
6707.000000;1.159019
6706.000000;1.156564
6705.000000;1.154124
6704.000000;1.151482
6703.000000;1.148619
6702.000000;1.145850
6701.000000;1.143540
6700.000000;1.141667
6699.000000;1.139734
6698.000000;1.137349
6697.000000;1.134361
6696.000000;1.131209
6695.000000;1.128091
6694.000000;1.124992
6693.000000;1.122081
6692.000000;1.119446
6691.000000;1.116955
6690.000000;1.114369
6689.000000;1.111740
6688.000000;1.109341
6687.000000;1.107228
6686.000000;1.105141
6685.000000;1.102914
6684.000000;1.100702
6683.000000;1.098678
6682.000000;1.096749
6681.000000;1.094722
6680.000000;1.092551
6679.000000;1.090246
6678.000000;1.087713
6677.000000;1.084854
6676.000000;1.081776
6675.000000;1.078758
6674.000000;1.076059
6673.000000;1.073763
6672.000000;1.071720
6671.000000;1.069626
6670.000000;1.067289
6669.000000;1.064822
6668.000000;1.062460
6667.000000;1.060194
6666.000000;1.057781
6665.000000;1.055129
6664.000000;1.052445
6663.000000;1.049945
6662.000000;1.047596
6661.000000;1.045272
6660.000000;1.042954
6659.000000;1.040675
6658.000000;1.038378
6657.000000;1.035968
6656.000000;1.033430
6655.000000;1.030852
6654.000000;1.028377
6653.000000;1.026138
6652.000000;1.024101
6651.000000;1.022007
6650.000000;1.019634
6649.000000;1.017114
6648.000000;1.014794
6647.000000;1.012754
6646.000000;1.010695
6645.000000;1.008380
6644.000000;1.005949
6643.000000;1.003691
6642.000000;1.001670
6641.000000;0.999719
6640.000000;0.997660
6639.000000;0.995406
6638.000000;0.992968
6637.000000;0.990471
6636.000000;0.988054
6635.000000;0.985696
6634.000000;0.983256
6633.000000;0.980743
6632.000000;0.978371
6631.000000;0.976266
6630.000000;0.974282
6629.000000;0.972218
6628.000000;0.970061
6627.000000;0.967889
6626.000000;0.965699
6625.000000;0.963479
6624.000000;0.961329
6623.000000;0.959343
6622.000000;0.957433
6621.000000;0.955421
6620.000000;0.953261
6619.000000;0.951064
6618.000000;0.948956
6617.000000;0.946974
6616.000000;0.945071
6615.000000;0.943138
6614.000000;0.941087
6613.000000;0.938937
6612.000000;0.936763
6611.000000;0.934552
6610.000000;0.932245
6609.000000;0.929928
6608.000000;0.927818
6607.000000;0.925958
6606.000000;0.924112
6605.000000;0.922063
6604.000000;0.919870
6603.000000;0.917703
6602.000000;0.915574
6601.000000;0.913407
6600.000000;0.911240
6599.000000;0.909182
6598.000000;0.907224
6597.000000;0.905269
6596.000000;0.903303
6595.000000;0.901387
6594.000000;0.899483
6593.000000;0.897468
6592.000000;0.895319
6591.000000;0.893179
6590.000000;0.891195
6589.000000;0.889370
6588.000000;0.887585
6587.000000;0.885705
6586.000000;0.883671
6585.000000;0.881554
6584.000000;0.879518
6583.000000;0.877671
6582.000000;0.875965
6581.000000;0.874250
6580.000000;0.872416
6579.000000;0.870431
6578.000000;0.868300
6577.000000;0.866062
6576.000000;0.863823
6575.000000;0.861716
6574.000000;0.859802
6573.000000;0.858055
6572.000000;0.856428
6571.000000;0.854873
6570.000000;0.853297
6569.000000;0.851552
6568.000000;0.849536
6567.000000;0.847324
6566.000000;0.845155
6565.000000;0.843232
6564.000000;0.841524
6563.000000;0.839812
6562.000000;0.837956
6561.000000;0.836069
6560.000000;0.834343
6559.000000;0.832783
6558.000000;0.831190
6557.000000;0.829420
6556.000000;0.827534
6555.000000;0.825674
6554.000000;0.823880
6553.000000;0.822098
6552.000000;0.820299
6551.000000;0.818532
6550.000000;0.816860
6549.000000;0.815276
6548.000000;0.813677
6547.000000;0.811950
6546.000000;0.810101
6545.000000;0.808267
6544.000000;0.806548
6543.000000;0.804870
6542.000000;0.803088
6541.000000;0.801190
6540.000000;0.799301
6539.000000;0.797499
6538.000000;0.795751
6537.000000;0.794037
6536.000000;0.792410
6535.000000;0.790891
6534.000000;0.789386
6533.000000;0.787791
6532.000000;0.786102
6531.000000;0.784382
6530.000000;0.782666
6529.000000;0.780952
6528.000000;0.779230
6527.000000;0.777494
6526.000000;0.775746
6525.000000;0.774023
6524.000000;0.772378
6523.000000;0.770816
6522.000000;0.769284
6521.000000;0.767748
6520.000000;0.766218
6519.000000;0.764709
6518.000000;0.763222
6517.000000;0.761764
6516.000000;0.760338
6515.000000;0.758893
6514.000000;0.757344
6513.000000;0.755659
6512.000000;0.753893
6511.000000;0.752127
6510.000000;0.750425
6509.000000;0.748838
6508.000000;0.747373
6507.000000;0.745952
6506.000000;0.744458
6505.000000;0.742846
6504.000000;0.741156
6503.000000;0.739448
6502.000000;0.737781
6501.000000;0.736244
6500.000000;0.734888
6499.000000;0.733628
6498.000000;0.732302
6497.000000;0.730844
6496.000000;0.729327
6495.000000;0.727834
6494.000000;0.726379
6493.000000;0.724951
6492.000000;0.723559
6491.000000;0.722186
6490.000000;0.720807
6489.000000;0.719442
6488.000000;0.718119
6487.000000;0.716751
6486.000000;0.715194
6485.000000;0.713460
6484.000000;0.711766
6483.000000;0.710308
6482.000000;0.709052
6481.000000;0.707816
6480.000000;0.706485
6479.000000;0.705069
6478.000000;0.703618
6477.000000;0.702164
6476.000000;0.700724
6475.000000;0.699311
6474.000000;0.697937
6473.000000;0.696614
6472.000000;0.695334
6471.000000;0.694048
6470.000000;0.692713
6469.000000;0.691354
6468.000000;0.690045
6467.000000;0.688803
6466.000000;0.687570
6465.000000;0.686289
6464.000000;0.684943
6463.000000;0.683533
6462.000000;0.682091
6461.000000;0.680699
6460.000000;0.679416
6459.000000;0.678175
6458.000000;0.676859
6457.000000;0.675469
6456.000000;0.674127
6455.000000;0.672889
6454.000000;0.671671
6453.000000;0.670393
6452.000000;0.669077
6451.000000;0.667753
6450.000000;0.666388
6449.000000;0.664984
6448.000000;0.663650
6447.000000;0.662479
6446.000000;0.661414
6445.000000;0.660310
6444.000000;0.659111
6443.000000;0.657874
6442.000000;0.656675
6441.000000;0.655541
6440.000000;0.654444
6439.000000;0.653307
6438.000000;0.652060
6437.000000;0.650728
6436.000000;0.649437
6435.000000;0.648274
6434.000000;0.647192
6433.000000;0.646070
6432.000000;0.644842
6431.000000;0.643520
6430.000000;0.642150
6429.000000;0.640802
6428.000000;0.639547
6427.000000;0.638403
6426.000000;0.637308
6425.000000;0.636200
6424.000000;0.635071
6423.000000;0.633935
6422.000000;0.632778
6421.000000;0.631589
6420.000000;0.630400
6419.000000;0.629236
6418.000000;0.628077
6417.000000;0.626893
6416.000000;0.625694
6415.000000;0.624512
6414.000000;0.623352
6413.000000;0.622202
6412.000000;0.621054
6411.000000;0.619901
6410.000000;0.618741
6409.000000;0.617604
6408.000000;0.616542
6407.000000;0.615562
6406.000000;0.614588
6405.000000;0.613542
6404.000000;0.612422
6403.000000;0.611282
6402.000000;0.610164
6401.000000;0.609067
6400.000000;0.607968
6399.000000;0.606842
6398.000000;0.605687
6397.000000;0.604540
6396.000000;0.603439
6395.000000;0.602368
6394.000000;0.601284
6393.000000;0.600187
6392.000000;0.599138
6391.000000;0.598176
6390.000000;0.597282
6389.000000;0.596409
6388.000000;0.595511
6387.000000;0.594524
6386.000000;0.593407
6385.000000;0.592209
6384.000000;0.591055
6383.000000;0.590027
6382.000000;0.589101
6381.000000;0.588204
6380.000000;0.587283
6379.000000;0.586311
6378.000000;0.585290
6377.000000;0.584267
6376.000000;0.583282
6375.000000;0.582298
6374.000000;0.581228
6373.000000;0.580074
6372.000000;0.578951
6371.000000;0.577949
6370.000000;0.577041
6369.000000;0.576169
6368.000000;0.575334
6367.000000;0.574545
6366.000000;0.573742
6365.000000;0.572848
6364.000000;0.571871
6363.000000;0.570883
6362.000000;0.569927
6361.000000;0.569002
6360.000000;0.568096
6359.000000;0.567196
6358.000000;0.566284
6357.000000;0.565370
6356.000000;0.564484
6355.000000;0.563621
6354.000000;0.562716
6353.000000;0.561731
6352.000000;0.560732
6351.000000;0.559824
6350.000000;0.559038
6349.000000;0.558316
6348.000000;0.557569
6347.000000;0.556724
6346.000000;0.555748
6345.000000;0.554681
6344.000000;0.553633
6343.000000;0.552701
6342.000000;0.551879
6341.000000;0.551083
6340.000000;0.550255
6339.000000;0.549402
6338.000000;0.548559
6337.000000;0.547743
6336.000000;0.546945
6335.000000;0.546146
6334.000000;0.545333
6333.000000;0.544508
6332.000000;0.543663
6331.000000;0.542758
6330.000000;0.541766
6329.000000;0.540741
6328.000000;0.539790
6327.000000;0.538966
6326.000000;0.538213
6325.000000;0.537447
6324.000000;0.536651
6323.000000;0.535853
6322.000000;0.535054
6321.000000;0.534229
6320.000000;0.533372
6319.000000;0.532506
6318.000000;0.531656
6317.000000;0.530846
6316.000000;0.530101
6315.000000;0.529420
6314.000000;0.528754
6313.000000;0.528035
6312.000000;0.527235
6311.000000;0.526394
6310.000000;0.525582
6309.000000;0.524846
6308.000000;0.524164
6307.000000;0.523464
6306.000000;0.522691
6305.000000;0.521859
6304.000000;0.521028
6303.000000;0.520242
6302.000000;0.519519
6301.000000;0.518865
6300.000000;0.518251
6299.000000;0.517597
6298.000000;0.516837
6297.000000;0.516008
6296.000000;0.515218
6295.000000;0.514511
6294.000000;0.513823
6293.000000;0.513083
6292.000000;0.512291
6291.000000;0.511480
6290.000000;0.510657
6289.000000;0.509829
6288.000000;0.509041
6287.000000;0.508336
6286.000000;0.507690
6285.000000;0.507031
6284.000000;0.506299
6283.000000;0.505492
6282.000000;0.504665
6281.000000;0.503903
6280.000000;0.503256
6279.000000;0.502702
6278.000000;0.502173
6277.000000;0.501624
6276.000000;0.501037
6275.000000;0.500382
6274.000000;0.499639
6273.000000;0.498844
6272.000000;0.498070
6271.000000;0.497343
6270.000000;0.496635
6269.000000;0.495947
6268.000000;0.495314
6267.000000;0.494722
6266.000000;0.494084
6265.000000;0.493352
6264.000000;0.492583
6263.000000;0.491853
6262.000000;0.491174
6261.000000;0.490518
6260.000000;0.489869
6259.000000;0.489209
6258.000000;0.488490
6257.000000;0.487697
6256.000000;0.486892
6255.000000;0.486144
6254.000000;0.485457
6253.000000;0.484804
6252.000000;0.484195
6251.000000;0.483650
6250.000000;0.483132
6249.000000;0.482570
6248.000000;0.481936
6247.000000;0.481270
6246.000000;0.480627
6245.000000;0.480050
6244.000000;0.479562
6243.000000;0.479135
6242.000000;0.478689
6241.000000;0.478147
6240.000000;0.477494
6239.000000;0.476771
6238.000000;0.476016
6237.000000;0.475263
6236.000000;0.474554
6235.000000;0.473913
6234.000000;0.473321
6233.000000;0.472741
6232.000000;0.472157
6231.000000;0.471575
6230.000000;0.470977
6229.000000;0.470334
6228.000000;0.469643
6227.000000;0.468940
6226.000000;0.468274
6225.000000;0.467668
6224.000000;0.467103
6223.000000;0.466527
6222.000000;0.465911
6221.000000;0.465288
6220.000000;0.464721
6219.000000;0.464213
6218.000000;0.463707
6217.000000;0.463176
6216.000000;0.462658
6215.000000;0.462172
6214.000000;0.461656
6213.000000;0.461047
6212.000000;0.460381
6211.000000;0.459765
6210.000000;0.459257
6209.000000;0.458837
6208.000000;0.458467
6207.000000;0.458111
6206.000000;0.457703
6205.000000;0.457174
6204.000000;0.456524
6203.000000;0.455844
6202.000000;0.455216
6201.000000;0.454631
6200.000000;0.454020
6199.000000;0.453351
6198.000000;0.452670
6197.000000;0.452043
6196.000000;0.451483
6195.000000;0.450938
6194.000000;0.450358
6193.000000;0.449756
6192.000000;0.449196
6191.000000;0.448708
6190.000000;0.448251
6189.000000;0.447761
6188.000000;0.447209
6187.000000;0.446608
6186.000000;0.445987
6185.000000;0.445385
6184.000000;0.444842
6183.000000;0.444378
6182.000000;0.443967
6181.000000;0.443553
6180.000000;0.443092
6179.000000;0.442579
6178.000000;0.442048
6177.000000;0.441548
6176.000000;0.441113
6175.000000;0.440724
6174.000000;0.440316
6173.000000;0.439837
6172.000000;0.439278
6171.000000;0.438672
6170.000000;0.438067
6169.000000;0.437512
6168.000000;0.437025
6167.000000;0.436565
6166.000000;0.436067
6165.000000;0.435516
6164.000000;0.434969
6163.000000;0.434483
6162.000000;0.434038
6161.000000;0.433556
6160.000000;0.433002
6159.000000;0.432432
6158.000000;0.431931
6157.000000;0.431528
6156.000000;0.431168
6155.000000;0.430774
6154.000000;0.430317
6153.000000;0.429813
6152.000000;0.429276
6151.000000;0.428704
6150.000000;0.428122
6149.000000;0.427591
6148.000000;0.427147
6147.000000;0.426749
6146.000000;0.426313
6145.000000;0.425806
6144.000000;0.425266
6143.000000;0.424738
6142.000000;0.424235
6141.000000;0.423759
6140.000000;0.423318
6139.000000;0.422907
6138.000000;0.422513
6137.000000;0.422128
6136.000000;0.421760
6135.000000;0.421401
6134.000000;0.421027
6133.000000;0.420624
6132.000000;0.420202
6131.000000;0.419775
6130.000000;0.419359
6129.000000;0.418965
6128.000000;0.418582
6127.000000;0.418168
6126.000000;0.417697
6125.000000;0.417206
6124.000000;0.416759
6123.000000;0.416360
6122.000000;0.415963
6121.000000;0.415538
6120.000000;0.415115
6119.000000;0.414719
6118.000000;0.414338
6117.000000;0.413946
6116.000000;0.413528
6115.000000;0.413072
6114.000000;0.412558
6113.000000;0.411988
6112.000000;0.411392
6111.000000;0.410806
6110.000000;0.410255
6109.000000;0.409768
6108.000000;0.409363
6107.000000;0.409016
6106.000000;0.408681
6105.000000;0.408357
6104.000000;0.408071
6103.000000;0.407811
6102.000000;0.407510
6101.000000;0.407112
6100.000000;0.406626
6099.000000;0.406092
6098.000000;0.405546
6097.000000;0.405037
6096.000000;0.404610
6095.000000;0.404258
6094.000000;0.403913
6093.000000;0.403528
6092.000000;0.403126
6091.000000;0.402744
6090.000000;0.402386
6089.000000;0.402043
6088.000000;0.401725
6087.000000;0.401422
6086.000000;0.401074
6085.000000;0.400633
6084.000000;0.400135
6083.000000;0.399676
6082.000000;0.399310
6081.000000;0.399017
6080.000000;0.398742
6079.000000;0.398445
6078.000000;0.398121
6077.000000;0.397782
6076.000000;0.397432
6075.000000;0.397046
6074.000000;0.396603
6073.000000;0.396142
6072.000000;0.395735
6071.000000;0.395392
6070.000000;0.395042
6069.000000;0.394626
6068.000000;0.394177
6067.000000;0.393764
6066.000000;0.393403
6065.000000;0.393053
6064.000000;0.392691
6063.000000;0.392326
6062.000000;0.391971
6061.000000;0.391639
6060.000000;0.391354
6059.000000;0.391130
6058.000000;0.390927
6057.000000;0.390682
6056.000000;0.390370
6055.000000;0.390028
6054.000000;0.389692
6053.000000;0.389350
6052.000000;0.388954
6051.000000;0.388477
6050.000000;0.387955
6049.000000;0.387479
6048.000000;0.387125
6047.000000;0.386904
6046.000000;0.386758
6045.000000;0.386614
6044.000000;0.386421
6043.000000;0.386154
6042.000000;0.385802
6041.000000;0.385381
6040.000000;0.384935
6039.000000;0.384508
6038.000000;0.384117
6037.000000;0.383756
6036.000000;0.383410
6035.000000;0.383068
6034.000000;0.382737
6033.000000;0.382437
6032.000000;0.382171
6031.000000;0.381905
6030.000000;0.381607
6029.000000;0.381289
6028.000000;0.380995
6027.000000;0.380731
6026.000000;0.380466
6025.000000;0.380188
6024.000000;0.379919
6023.000000;0.379672
6022.000000;0.379424
6021.000000;0.379151
6020.000000;0.378861
6019.000000;0.378577
6018.000000;0.378312
6017.000000;0.378080
6016.000000;0.377882
6015.000000;0.377685
6014.000000;0.377433
6013.000000;0.377114
6012.000000;0.376777
6011.000000;0.376475
6010.000000;0.376207
6009.000000;0.375939
6008.000000;0.375644
6007.000000;0.375312
6006.000000;0.374951
6005.000000;0.374601
6004.000000;0.374316
6003.000000;0.374110
6002.000000;0.373920
6001.000000;0.373666
6000.000000;0.373329
5999.000000;0.372965
5998.000000;0.372659
5997.000000;0.372460
5996.000000;0.372352
5995.000000;0.372260
5994.000000;0.372115
5993.000000;0.371906
5992.000000;0.371665
5991.000000;0.371416
5990.000000;0.371153
5989.000000;0.370876
5988.000000;0.370598
5987.000000;0.370321
5986.000000;0.370033
5985.000000;0.369749
5984.000000;0.369512
5983.000000;0.369339
5982.000000;0.369196
5981.000000;0.369038
5980.000000;0.368843
5979.000000;0.368598
5978.000000;0.368293
5977.000000;0.367962
5976.000000;0.367672
5975.000000;0.367447
5974.000000;0.367241
5973.000000;0.366998
5972.000000;0.366721
5971.000000;0.366451
5970.000000;0.366210
5969.000000;0.365995
5968.000000;0.365801
5967.000000;0.365621
5966.000000;0.365441
5965.000000;0.365259
5964.000000;0.365083
5963.000000;0.364897
5962.000000;0.364671
5961.000000;0.364416
5960.000000;0.364205
5959.000000;0.364087
5958.000000;0.364018
5957.000000;0.363905
5956.000000;0.363711
5955.000000;0.363478
5954.000000;0.363271
5953.000000;0.363131
5952.000000;0.363064
5951.000000;0.363038
5950.000000;0.362992
5949.000000;0.362883
5948.000000;0.362719
5947.000000;0.362542
5946.000000;0.362370
5945.000000;0.362193
5944.000000;0.361997
5943.000000;0.361786
5942.000000;0.361583
5941.000000;0.361419
5940.000000;0.361308
5939.000000;0.361223
5938.000000;0.361111
5937.000000;0.360950
5936.000000;0.360764
5935.000000;0.360585
5934.000000;0.360418
5933.000000;0.360257
5932.000000;0.360112
5931.000000;0.359986
5930.000000;0.359854
5929.000000;0.359682
5928.000000;0.359472
5927.000000;0.359265
5926.000000;0.359116
5925.000000;0.359057
5924.000000;0.359068
5923.000000;0.359085
5922.000000;0.359045
5921.000000;0.358950
5920.000000;0.358855
5919.000000;0.358783
5918.000000;0.358699
5917.000000;0.358567
5916.000000;0.358401
5915.000000;0.358234
5914.000000;0.358060
5913.000000;0.357862
5912.000000;0.357671
5911.000000;0.357541
5910.000000;0.357473
5909.000000;0.357409
5908.000000;0.357296
5907.000000;0.357149
5906.000000;0.357025
5905.000000;0.356958
5904.000000;0.356923
5903.000000;0.356862
5902.000000;0.356738
5901.000000;0.356563
5900.000000;0.356372
5899.000000;0.356185
5898.000000;0.356015
5897.000000;0.355888
5896.000000;0.355814
5895.000000;0.355753
5894.000000;0.355646
5893.000000;0.355498
5892.000000;0.355383
5891.000000;0.355357
5890.000000;0.355398
5889.000000;0.355452
5888.000000;0.355498
5887.000000;0.355539
5886.000000;0.355568
5885.000000;0.355570
5884.000000;0.355543
5883.000000;0.355488
5882.000000;0.355389
5881.000000;0.355247
5880.000000;0.355092
5879.000000;0.354956
5878.000000;0.354841
5877.000000;0.354745
5876.000000;0.354681
5875.000000;0.354660
5874.000000;0.354660
5873.000000;0.354647
5872.000000;0.354623
5871.000000;0.354615
5870.000000;0.354639
5869.000000;0.354691
5868.000000;0.354762
5867.000000;0.354838
5866.000000;0.354891
5865.000000;0.354892
5864.000000;0.354835
5863.000000;0.354746
5862.000000;0.354657
5861.000000;0.354587
5860.000000;0.354530
5859.000000;0.354469
5858.000000;0.354411
5857.000000;0.354403
5856.000000;0.354489
5855.000000;0.354649
5854.000000;0.354808
5853.000000;0.354906
5852.000000;0.354936
5851.000000;0.354913
5850.000000;0.354848
5849.000000;0.354762
5848.000000;0.354697
5847.000000;0.354685
5846.000000;0.354727
5845.000000;0.354811
5844.000000;0.354924
5843.000000;0.355039
5842.000000;0.355119
5841.000000;0.355158
5840.000000;0.355184
5839.000000;0.355213
5838.000000;0.355225
5837.000000;0.355215
5836.000000;0.355233
5835.000000;0.355329
5834.000000;0.355496
5833.000000;0.355696
5832.000000;0.355916
5831.000000;0.356149
5830.000000;0.356345
5829.000000;0.356437
5828.000000;0.356413
5827.000000;0.356346
5826.000000;0.356332
5825.000000;0.356422
5824.000000;0.356606
5823.000000;0.356839
5822.000000;0.357067
5821.000000;0.357254
5820.000000;0.357383
5819.000000;0.357463
5818.000000;0.357522
5817.000000;0.357605
5816.000000;0.357742
5815.000000;0.357916
5814.000000;0.358080
5813.000000;0.358217
5812.000000;0.358364
5811.000000;0.358568
5810.000000;0.358830
5809.000000;0.359115
5808.000000;0.359387
5807.000000;0.359621
5806.000000;0.359810
5805.000000;0.359969
5804.000000;0.360127
5803.000000;0.360292
5802.000000;0.360435
5801.000000;0.360525
5800.000000;0.360571
5799.000000;0.360615
5798.000000;0.360702
5797.000000;0.360864
5796.000000;0.361107
5795.000000;0.361403
5794.000000;0.361703
5793.000000;0.361966
5792.000000;0.362172
5791.000000;0.362333
5790.000000;0.362489
5789.000000;0.362702
5788.000000;0.363011
5787.000000;0.363373
5786.000000;0.363703
5785.000000;0.363957
5784.000000;0.364173
5783.000000;0.364396
5782.000000;0.364631
5781.000000;0.364862
5780.000000;0.365105
5779.000000;0.365388
5778.000000;0.365716
5777.000000;0.366072
5776.000000;0.366430
5775.000000;0.366751
5774.000000;0.366995
5773.000000;0.367164
5772.000000;0.367331
5771.000000;0.367581
5770.000000;0.367936
5769.000000;0.368356
5768.000000;0.368777
5767.000000;0.369150
5766.000000;0.369452
5765.000000;0.369691
5764.000000;0.369910
5763.000000;0.370156
5762.000000;0.370461
5761.000000;0.370829
5760.000000;0.371245
5759.000000;0.371675
5758.000000;0.372088
5757.000000;0.372473
5756.000000;0.372841
5755.000000;0.373201
5754.000000;0.373558
5753.000000;0.373913
5752.000000;0.374263
5751.000000;0.374588
5750.000000;0.374888
5749.000000;0.375214
5748.000000;0.375622
5747.000000;0.376102
5746.000000;0.376572
5745.000000;0.376979
5744.000000;0.377353
5743.000000;0.377762
5742.000000;0.378240
5741.000000;0.378778
5740.000000;0.379348
5739.000000;0.379908
5738.000000;0.380411
5737.000000;0.380834
5736.000000;0.381215
5735.000000;0.381620
5734.000000;0.382095
5733.000000;0.382622
5732.000000;0.383134
5731.000000;0.383561
5730.000000;0.383906
5729.000000;0.384251
5728.000000;0.384683
5727.000000;0.385213
5726.000000;0.385796
5725.000000;0.386394
5724.000000;0.386990
5723.000000;0.387545
5722.000000;0.388018
5721.000000;0.388421
5720.000000;0.388818
5719.000000;0.389255
5718.000000;0.389736
5717.000000;0.390268
5716.000000;0.390869
5715.000000;0.391518
5714.000000;0.392158
5713.000000;0.392769
5712.000000;0.393375
5711.000000;0.393977
5710.000000;0.394521
5709.000000;0.394992
5708.000000;0.395461
5707.000000;0.396006
5706.000000;0.396626
5705.000000;0.397273
5704.000000;0.397924
5703.000000;0.398582
5702.000000;0.399218
5701.000000;0.399793
5700.000000;0.400300
5699.000000;0.400783
5698.000000;0.401292
5697.000000;0.401871
5696.000000;0.402525
5695.000000;0.403228
5694.000000;0.403916
5693.000000;0.404626
5692.000000;0.405315
5691.000000;0.405948
5690.000000;0.406514
5689.000000;0.407010
5688.000000;0.407534
5687.000000;0.408152
5686.000000;0.408813
5685.000000;0.409412
5684.000000;0.409919
5683.000000;0.410409
5682.000000;0.410966
5681.000000;0.411605
5680.000000;0.412277
5679.000000;0.412932
5678.000000;0.413561
5677.000000;0.414201
5676.000000;0.414890
5675.000000;0.415615
5674.000000;0.416324
5673.000000;0.416980
5672.000000;0.417577
5671.000000;0.418123
5670.000000;0.418638
5669.000000;0.419177
5668.000000;0.419790
5667.000000;0.420472
5666.000000;0.421166
5665.000000;0.421835
5664.000000;0.422473
5663.000000;0.423060
5662.000000;0.423561
5661.000000;0.423992
5660.000000;0.424421
5659.000000;0.424902
5658.000000;0.425431
5657.000000;0.425987
5656.000000;0.426567
5655.000000;0.427157
5654.000000;0.427730
5653.000000;0.428290
5652.000000;0.428864
5651.000000;0.429459
5650.000000;0.430047
5649.000000;0.430631
5648.000000;0.431239
5647.000000;0.431849
5646.000000;0.432384
5645.000000;0.432817
5644.000000;0.433215
5643.000000;0.433667
5642.000000;0.434203
5641.000000;0.434807
5640.000000;0.435442
5639.000000;0.436043
5638.000000;0.436544
5637.000000;0.436962
5636.000000;0.437386
5635.000000;0.437871
5634.000000;0.438380
5633.000000;0.438863
5632.000000;0.439308
5631.000000;0.439692
5630.000000;0.439969
5629.000000;0.440164
5628.000000;0.440406
5627.000000;0.440800
5626.000000;0.441311
5625.000000;0.441838
5624.000000;0.442322
5623.000000;0.442743
5622.000000;0.443073
5621.000000;0.443323
5620.000000;0.443572
5619.000000;0.443880
5618.000000;0.444206
5617.000000;0.444482
5616.000000;0.444717
5615.000000;0.444970
5614.000000;0.445251
5613.000000;0.445533
5612.000000;0.445816
5611.000000;0.446124
5610.000000;0.446446
5609.000000;0.446747
5608.000000;0.447011
5607.000000;0.447248
5606.000000;0.447472
5605.000000;0.447723
5604.000000;0.448055
5603.000000;0.448465
5602.000000;0.448863
5601.000000;0.449160
5600.000000;0.449347
5599.000000;0.449463
5598.000000;0.449540
5597.000000;0.449607
5596.000000;0.449708
5595.000000;0.449841
5594.000000;0.449943
5593.000000;0.449979
5592.000000;0.450004
5591.000000;0.450090
5590.000000;0.450220
5589.000000;0.450320
5588.000000;0.450353
5587.000000;0.450335
5586.000000;0.450290
5585.000000;0.450250
5584.000000;0.450251
5583.000000;0.450287
5582.000000;0.450299
5581.000000;0.450255
5580.000000;0.450199
5579.000000;0.450182
5578.000000;0.450188
5577.000000;0.450199
5576.000000;0.450265
5575.000000;0.450421
5574.000000;0.450607
5573.000000;0.450729
5572.000000;0.450764
5571.000000;0.450747
5570.000000;0.450676
5569.000000;0.450544
5568.000000;0.450407
5567.000000;0.450326
5566.000000;0.450270
5565.000000;0.450163
5564.000000;0.450011
5563.000000;0.449904
5562.000000;0.449883
5561.000000;0.449905
5560.000000;0.449909
5559.000000;0.449856
5558.000000;0.449721
5557.000000;0.449530
5556.000000;0.449404
5555.000000;0.449458
5554.000000;0.449649
5553.000000;0.449828
5552.000000;0.449935
5551.000000;0.450056
5550.000000;0.450257
5549.000000;0.450452
5548.000000;0.450509
5547.000000;0.450375
5546.000000;0.450083
5545.000000;0.449690
5544.000000;0.449264
5543.000000;0.448861
5542.000000;0.448494
5541.000000;0.448160
5540.000000;0.447933
5539.000000;0.447934
5538.000000;0.448159
5537.000000;0.448421
5536.000000;0.448531
5535.000000;0.448475
5534.000000;0.448374
5533.000000;0.448321
5532.000000;0.448300
5531.000000;0.448232
5530.000000;0.448031
5529.000000;0.447658
5528.000000;0.447163
5527.000000;0.446672
5526.000000;0.446333
5525.000000;0.446278
5524.000000;0.446561
5523.000000;0.447067
5522.000000;0.447519
5521.000000;0.447682
5520.000000;0.447611
5519.000000;0.447600
5518.000000;0.447832
5517.000000;0.448172
5516.000000;0.448333
5515.000000;0.448163
5514.000000;0.447729
5513.000000;0.447197
5512.000000;0.446763
5511.000000;0.446638
5510.000000;0.446957
5509.000000;0.447635
5508.000000;0.448401
5507.000000;0.449012
5506.000000;0.449416
5505.000000;0.449689
5504.000000;0.449821
5503.000000;0.449654
5502.000000;0.449100
5501.000000;0.448333
5500.000000;0.447656
5499.000000;0.447176
5498.000000;0.446750
5497.000000;0.446442
5496.000000;0.446811
5495.000000;0.448382
5494.000000;0.450918
5493.000000;0.453468
5492.000000;0.455285
5491.000000;0.456456
5490.000000;0.457491
5489.000000;0.458506
5488.000000;0.459056
5487.000000;0.458635
5486.000000;0.457142
5485.000000;0.454934
5484.000000;0.452604
5483.000000;0.450673
5482.000000;0.449307
5481.000000;0.448248
5480.000000;0.447276
5479.000000;0.446852
5478.000000;0.447956
5477.000000;0.451039
5476.000000;0.455207
5475.000000;0.458677
5474.000000;0.460237
5473.000000;0.460164
5472.000000;0.459597
5471.000000;0.459266
5470.000000;0.459069
5469.000000;0.458601
5468.000000;0.457815
5467.000000;0.457118
5466.000000;0.456950
5465.000000;0.457577
5464.000000;0.459118
5463.000000;0.461395
5462.000000;0.463778
5461.000000;0.465484
5460.000000;0.466172
5459.000000;0.466151
5458.000000;0.465922
5457.000000;0.465686
5456.000000;0.465308
5455.000000;0.464533
5454.000000;0.463300
5453.000000;0.462097
5452.000000;0.461779
5451.000000;0.462709
5450.000000;0.464405
5449.000000;0.466366
5448.000000;0.468834
5447.000000;0.472162
5446.000000;0.475827
5445.000000;0.478952
5444.000000;0.481511
5443.000000;0.484151
5442.000000;0.486904
5441.000000;0.488826
5440.000000;0.488994
5439.000000;0.487641
5438.000000;0.486165
5437.000000;0.485998
5436.000000;0.487425
5435.000000;0.489276
5434.000000;0.490029
5433.000000;0.489722
5432.000000;0.490251
5431.000000;0.493260
5430.000000;0.498219
5429.000000;0.502841
5428.000000;0.505133
5427.000000;0.504936
5426.000000;0.503660
5425.000000;0.502752
5424.000000;0.502451
5423.000000;0.501837
5422.000000;0.500021
5421.000000;0.497204
5420.000000;0.494411
5419.000000;0.492542
5418.000000;0.492196
5417.000000;0.494034
5416.000000;0.498465
5415.000000;0.504949
5414.000000;0.512145
5413.000000;0.519145
5412.000000;0.526091
5411.000000;0.533149
5410.000000;0.539465
5409.000000;0.543727
5408.000000;0.545377
5407.000000;0.544752
5406.000000;0.542486
5405.000000;0.539337
5404.000000;0.536256
5403.000000;0.534009
5402.000000;0.532792
5401.000000;0.532612
5400.000000;0.533787
5399.000000;0.536475
5398.000000;0.540285
5397.000000;0.544879
5396.000000;0.550441
5395.000000;0.557084
5394.000000;0.564098
5393.000000;0.570409
5392.000000;0.575573
5391.000000;0.579854
5390.000000;0.583558
5389.000000;0.586831
5388.000000;0.589972
5387.000000;0.593257
5386.000000;0.596450
5385.000000;0.599099
5384.000000;0.601519
5383.000000;0.604693
5382.000000;0.608903
5381.000000;0.613511
5380.000000;0.618220
5379.000000;0.623539
5378.000000;0.629915
5377.000000;0.637028
5376.000000;0.644269
5375.000000;0.651525
5374.000000;0.658940
5373.000000;0.666179
5372.000000;0.672511
5371.000000;0.677438
5370.000000;0.680974
5369.000000;0.683534
5368.000000;0.685954
5367.000000;0.689492
5366.000000;0.695184
5365.000000;0.702962
5364.000000;0.711745
5363.000000;0.720528
5362.000000;0.729027
5361.000000;0.737416
5360.000000;0.745854
5359.000000;0.754388
5358.000000;0.763205
5357.000000;0.772799
5356.000000;0.783877
5355.000000;0.796871
5354.000000;0.811296
5353.000000;0.825723
5352.000000;0.838979
5351.000000;0.851264
5350.000000;0.863490
5349.000000;0.875974
5348.000000;0.888560
5347.000000;0.901636
5346.000000;0.916052
5345.000000;0.931706
5344.000000;0.947065
5343.000000;0.961068
5342.000000;0.974836
5341.000000;0.990283
5340.000000;1.007775
5339.000000;1.025904
5338.000000;1.042966
5337.000000;1.058232
5336.000000;1.072255
5335.000000;1.086403
5334.000000;1.101815
5333.000000;1.118204
5332.000000;1.133893
5331.000000;1.147815
5330.000000;1.161218
5329.000000;1.176541
5328.000000;1.194652
5327.000000;1.214079
5326.000000;1.233049
5325.000000;1.251304
5324.000000;1.269487
5323.000000;1.287908
5322.000000;1.306521
5321.000000;1.325140
5320.000000;1.343388
5319.000000;1.361079
5318.000000;1.378752
5317.000000;1.397211
5316.000000;1.416606
5315.000000;1.436483
5314.000000;1.456549
5313.000000;1.476629
5312.000000;1.496140
5311.000000;1.514625
5310.000000;1.532553
5309.000000;1.550683
5308.000000;1.568809
5307.000000;1.586095
5306.000000;1.602396
5305.000000;1.618220
5304.000000;1.633592
5303.000000;1.648076
5302.000000;1.661749
5301.000000;1.674937
5300.000000;1.687142
5299.000000;1.697486
5298.000000;1.706210
5297.000000;1.714372
5296.000000;1.722077
5295.000000;1.728587
5294.000000;1.734268
5293.000000;1.740614
5292.000000;1.748001
5291.000000;1.754959
5290.000000;1.760137
5289.000000;1.763951
5288.000000;1.767743
5287.000000;1.772217
5286.000000;1.777035
5285.000000;1.781172
5284.000000;1.783528
5283.000000;1.783899
5282.000000;1.783375
5281.000000;1.783164
5280.000000;1.783273
5279.000000;1.783033
5278.000000;1.782532
5277.000000;1.782593
5276.000000;1.783530
5275.000000;1.784811
5274.000000;1.785823
5273.000000;1.786248
5272.000000;1.785938
5271.000000;1.785225
5270.000000;1.784893
5269.000000;1.785035
5268.000000;1.784828
5267.000000;1.784401
5266.000000;1.785921
5265.000000;1.791322
5264.000000;1.799345
5263.000000;1.806084
5262.000000;1.808718
5261.000000;1.807604
5260.000000;1.804636
5259.000000;1.801538
5258.000000;1.799768
5257.000000;1.800098
5256.000000;1.801592
5255.000000;1.802078
5254.000000;1.800362
5253.000000;1.797521
5252.000000;1.795712
5251.000000;1.796367
5250.000000;1.799433
5249.000000;1.803346
5248.000000;1.805947
5247.000000;1.806281
5246.000000;1.805487
5245.000000;1.805207
5244.000000;1.805560
5243.000000;1.805544
5242.000000;1.804773
5241.000000;1.803568
5240.000000;1.801615
5239.000000;1.798156
5238.000000;1.793629
5237.000000;1.789732
5236.000000;1.787620
5235.000000;1.787109
5234.000000;1.787646
5233.000000;1.788864
5232.000000;1.790036
5231.000000;1.790081
5230.000000;1.788743
5229.000000;1.787084
5228.000000;1.786340
5227.000000;1.786926
5226.000000;1.788821
5225.000000;1.791996
5224.000000;1.795822
5223.000000;1.798930
5222.000000;1.800354
5221.000000;1.800215
5220.000000;1.798903
5219.000000;1.796376
5218.000000;1.792827
5217.000000;1.789209
5216.000000;1.786420
5215.000000;1.784562
5214.000000;1.783412
5213.000000;1.783083
5212.000000;1.783664
5211.000000;1.784767
5210.000000;1.786076
5209.000000;1.787889
5208.000000;1.790463
5207.000000;1.793246
5206.000000;1.795384
5205.000000;1.796596
5204.000000;1.797023
5203.000000;1.796563
5202.000000;1.794896
5201.000000;1.792116
5200.000000;1.789016
5199.000000;1.786613
5198.000000;1.785442
5197.000000;1.785295
5196.000000;1.785671
5195.000000;1.786521
5194.000000;1.788157
5193.000000;1.790239
5192.000000;1.791349
5191.000000;1.790301
5190.000000;1.787756
5189.000000;1.785711
5188.000000;1.785410
5187.000000;1.786497
5186.000000;1.788038
5185.000000;1.789336
5184.000000;1.789784
5183.000000;1.789089
5182.000000;1.787874
5181.000000;1.787218
5180.000000;1.787486
5179.000000;1.788201
5178.000000;1.788944
5177.000000;1.789590
5176.000000;1.789739
5175.000000;1.788974
5174.000000;1.787880
5173.000000;1.787732
5172.000000;1.788886
5171.000000;1.790427
5170.000000;1.791633
5169.000000;1.792705
5168.000000;1.793612
5167.000000;1.793433
5166.000000;1.791541
5165.000000;1.788643
5164.000000;1.786060
5163.000000;1.784553
5162.000000;1.784345
5161.000000;1.785593
5160.000000;1.788046
5159.000000;1.790717
5158.000000;1.792595
5157.000000;1.793385
5156.000000;1.793200
5155.000000;1.792190
5154.000000;1.790921
5153.000000;1.790343
5152.000000;1.790687
5151.000000;1.790943
5150.000000;1.790140
5149.000000;1.788730
5148.000000;1.787943
5147.000000;1.788065
5146.000000;1.788165
5145.000000;1.787453
5144.000000;1.786214
5143.000000;1.785317
5142.000000;1.785317
5141.000000;1.786154
5140.000000;1.787421
5139.000000;1.788757
5138.000000;1.789969
5137.000000;1.790827
5136.000000;1.790887
5135.000000;1.789773
5134.000000;1.787661
5133.000000;1.785269
5132.000000;1.783466
5131.000000;1.783092
5130.000000;1.784809
5129.000000;1.788498
5128.000000;1.792761
5127.000000;1.795610
5126.000000;1.795969
5125.000000;1.794269
5124.000000;1.791749
5123.000000;1.789723
5122.000000;1.789201
5121.000000;1.790186
5120.000000;1.791190
5119.000000;1.790431
5118.000000;1.787853
5117.000000;1.785187
5116.000000;1.783860
5115.000000;1.783855
5114.000000;1.784784
5113.000000;1.786774
5112.000000;1.789509
5111.000000;1.791380
5110.000000;1.790839
5109.000000;1.788358
5108.000000;1.786034
5107.000000;1.785334
5106.000000;1.785975
5105.000000;1.786807
5104.000000;1.787071
5103.000000;1.786667
5102.000000;1.785747
5101.000000;1.784446
5100.000000;1.783030
5099.000000;1.782104
5098.000000;1.782396
5097.000000;1.784050
5096.000000;1.786292
5095.000000;1.788077
5094.000000;1.788906
5093.000000;1.788858
5092.000000;1.788215
5091.000000;1.787568
5090.000000;1.787924
5089.000000;1.789763
5088.000000;1.791934
5087.000000;1.792439
5086.000000;1.790712
5085.000000;1.788242
5084.000000;1.786554
5083.000000;1.785545
5082.000000;1.784438
5081.000000;1.783499
5080.000000;1.783844
5079.000000;1.785871
5078.000000;1.788747
5077.000000;1.791370
5076.000000;1.793256
5075.000000;1.794367
5074.000000;1.794551
5073.000000;1.793570
5072.000000;1.791671
5071.000000;1.789847
5070.000000;1.789233
5069.000000;1.790039
5068.000000;1.791250
5067.000000;1.791722
5066.000000;1.791427
5065.000000;1.791211
5064.000000;1.791629
5063.000000;1.792600
5062.000000;1.793927
5061.000000;1.795269
5060.000000;1.795603
5059.000000;1.793826
5058.000000;1.790346
5057.000000;1.787170
5056.000000;1.785850
5055.000000;1.785883
5054.000000;1.785610
5053.000000;1.784317
5052.000000;1.782866
5051.000000;1.782426
5050.000000;1.783179
5049.000000;1.784365
5048.000000;1.785263
5047.000000;1.785923
5046.000000;1.786853
5045.000000;1.788113
5044.000000;1.789165
5043.000000;1.789738
5042.000000;1.790284
5041.000000;1.791090
5040.000000;1.791478
5039.000000;1.790654
5038.000000;1.788949
5037.000000;1.787312
5036.000000;1.785941
5035.000000;1.784293
5034.000000;1.782269
5033.000000;1.780386
5032.000000;1.778769
5031.000000;1.777025
5030.000000;1.775252
5029.000000;1.774265
5028.000000;1.774622
5027.000000;1.776124
5026.000000;1.778231
5025.000000;1.780130
5024.000000;1.780587
5023.000000;1.778937
5022.000000;1.776269
5021.000000;1.774363
5020.000000;1.773416
5019.000000;1.772157
5018.000000;1.770380
5017.000000;1.769750
5016.000000;1.771357
5015.000000;1.773875
5014.000000;1.775162
5013.000000;1.774814
5012.000000;1.774048
5011.000000;1.773784
5010.000000;1.773816
5009.000000;1.773301
5008.000000;1.771324
5007.000000;1.767645
5006.000000;1.763527
5005.000000;1.761027
5004.000000;1.760859
5003.000000;1.761739
5002.000000;1.762351
5001.000000;1.763015
5000.000000;1.764455
4999.000000;1.765917
4998.000000;1.765836
4997.000000;1.764028
4996.000000;1.761849
4995.000000;1.760303
4994.000000;1.759228
4993.000000;1.757787
4992.000000;1.755253
4991.000000;1.751557
4990.000000;1.747726
4989.000000;1.745394
4988.000000;1.745276
4987.000000;1.746410
4986.000000;1.747310
4985.000000;1.747345
4984.000000;1.746449
4983.000000;1.744402
4982.000000;1.741469
4981.000000;1.739090
4980.000000;1.738608
4979.000000;1.739489
4978.000000;1.739862
4977.000000;1.738797
4976.000000;1.737060
4975.000000;1.735614
4974.000000;1.734457
4973.000000;1.733101
4972.000000;1.731324
4971.000000;1.729188
4970.000000;1.726889
4969.000000;1.724766
4968.000000;1.722946
4967.000000;1.721046
4966.000000;1.718803
4965.000000;1.716857
4964.000000;1.716106
4963.000000;1.716294
4962.000000;1.716061
4961.000000;1.714652
4960.000000;1.712877
4959.000000;1.711895
4958.000000;1.711585
4957.000000;1.710608
4956.000000;1.707941
4955.000000;1.703957
4954.000000;1.699967
4953.000000;1.696947
4952.000000;1.694826
4951.000000;1.692820
4950.000000;1.690419
4949.000000;1.687978
4948.000000;1.686212
4947.000000;1.685145
4946.000000;1.683761
4945.000000;1.680874
4944.000000;1.676475
4943.000000;1.672072
4942.000000;1.669469
4941.000000;1.669061
4940.000000;1.669429
4939.000000;1.668799
4938.000000;1.666682
4937.000000;1.663776
4936.000000;1.660674
4935.000000;1.657427
4934.000000;1.654258
4933.000000;1.651863
4932.000000;1.650618
4931.000000;1.649942
4930.000000;1.648743
4929.000000;1.646240
4928.000000;1.642365
4927.000000;1.637814
4926.000000;1.633772
4925.000000;1.630987
4924.000000;1.628946
4923.000000;1.626505
4922.000000;1.623423
4921.000000;1.620598
4920.000000;1.618600
4919.000000;1.616825
4918.000000;1.614541
4917.000000;1.612000
4916.000000;1.609846
4915.000000;1.607985
4914.000000;1.605801
4913.000000;1.603100
4912.000000;1.600124
4911.000000;1.596928
4910.000000;1.593432
4909.000000;1.589886
4908.000000;1.586647
4907.000000;1.583570
4906.000000;1.580135
4905.000000;1.576158
4904.000000;1.572006
4903.000000;1.568182
4902.000000;1.565122
4901.000000;1.563187
4900.000000;1.562269
4899.000000;1.561471
4898.000000;1.559634
4897.000000;1.556314
4896.000000;1.552051
4895.000000;1.547795
4894.000000;1.544312
4893.000000;1.541916
4892.000000;1.540280
4891.000000;1.538522
4890.000000;1.535853
4889.000000;1.532219
4888.000000;1.528181
4887.000000;1.524318
4886.000000;1.520930
4885.000000;1.518056
4884.000000;1.515418
4883.000000;1.512512
4882.000000;1.509113
4881.000000;1.505617
4880.000000;1.502557
4879.000000;1.499918
4878.000000;1.497241
4877.000000;1.494276
4876.000000;1.491138
4875.000000;1.487904
4874.000000;1.484519
4873.000000;1.481173
4872.000000;1.478350
4871.000000;1.476260
4870.000000;1.474424
4869.000000;1.472081
4868.000000;1.468934
4867.000000;1.465373
4866.000000;1.462006
4865.000000;1.459112
4864.000000;1.456565
4863.000000;1.454081
4862.000000;1.451421
4861.000000;1.448449
4860.000000;1.445211
4859.000000;1.441986
4858.000000;1.439082
4857.000000;1.436418
4856.000000;1.433486
4855.000000;1.429883
4854.000000;1.425739
4853.000000;1.421441
4852.000000;1.417161
4851.000000;1.412945
4850.000000;1.409032
4849.000000;1.405640
4848.000000;1.402569
4847.000000;1.399467
4846.000000;1.396435
4845.000000;1.393836
4844.000000;1.391549
4843.000000;1.388941
4842.000000;1.385707
4841.000000;1.382257
4840.000000;1.379114
4839.000000;1.376379
4838.000000;1.373940
4837.000000;1.371699
4836.000000;1.369359
4835.000000;1.366471
4834.000000;1.363012
4833.000000;1.359518
4832.000000;1.356332
4831.000000;1.353114
4830.000000;1.349466
4829.000000;1.345645
4828.000000;1.342215
4827.000000;1.339293
4826.000000;1.336569
4825.000000;1.333889
4824.000000;1.331338
4823.000000;1.328851
4822.000000;1.326148
4821.000000;1.323072
4820.000000;1.319715
4819.000000;1.316259
4818.000000;1.312882
4817.000000;1.309721
4816.000000;1.306720
4815.000000;1.303603
4814.000000;1.300193
4813.000000;1.296648
4812.000000;1.293225
4811.000000;1.290007
4810.000000;1.287027
4809.000000;1.284415
4808.000000;1.282167
4807.000000;1.279931
4806.000000;1.277310
4805.000000;1.274250
4804.000000;1.270912
4803.000000;1.267358
4802.000000;1.263665
4801.000000;1.260184
4800.000000;1.257321
4799.000000;1.255067
4798.000000;1.253008
4797.000000;1.250734
4796.000000;1.248041
4795.000000;1.244862
4794.000000;1.241332
4793.000000;1.237882
4792.000000;1.234923
4791.000000;1.232401
4790.000000;1.229880
4789.000000;1.227105
4788.000000;1.224234
4787.000000;1.221467
4786.000000;1.218703
4785.000000;1.215727
4784.000000;1.212572
4783.000000;1.209549
4782.000000;1.206899
4781.000000;1.204501
4780.000000;1.201933
4779.000000;1.198879
4778.000000;1.195481
4777.000000;1.192223
4776.000000;1.189476
4775.000000;1.187241
4774.000000;1.185298
4773.000000;1.183381
4772.000000;1.181169
4771.000000;1.178387
4770.000000;1.175141
4769.000000;1.171967
4768.000000;1.169310
4767.000000;1.167041
4766.000000;1.164654
4765.000000;1.161858
4764.000000;1.158787
4763.000000;1.155747
4762.000000;1.152987
4761.000000;1.150678
4760.000000;1.148824
4759.000000;1.147124
4758.000000;1.145120
4757.000000;1.142565
4756.000000;1.139611
4755.000000;1.136620
4754.000000;1.133892
4753.000000;1.131500
4752.000000;1.129278
4751.000000;1.126980
4750.000000;1.124539
4749.000000;1.122128
4748.000000;1.119889
4747.000000;1.117692
4746.000000;1.115269
4745.000000;1.112554
4744.000000;1.109772
4743.000000;1.107223
4742.000000;1.105067
4741.000000;1.103249
4740.000000;1.101517
4739.000000;1.099583
4738.000000;1.097383
4737.000000;1.095131
4736.000000;1.093017
4735.000000;1.090939
4734.000000;1.088676
4733.000000;1.086224
4732.000000;1.083794
4731.000000;1.081527
4730.000000;1.079404
4729.000000;1.077414
4728.000000;1.075588
4727.000000;1.073833
4726.000000;1.071931
4725.000000;1.069793
4724.000000;1.067562
4723.000000;1.065402
4722.000000;1.063289
4721.000000;1.061122
4720.000000;1.058914
4719.000000;1.056758
4718.000000;1.054670
4717.000000;1.052580
4716.000000;1.050472
4715.000000;1.048428
4714.000000;1.046518
4713.000000;1.044721
4712.000000;1.042982
4711.000000;1.041282
4710.000000;1.039602
4709.000000;1.037845
4708.000000;1.035924
4707.000000;1.033913
4706.000000;1.032045
4705.000000;1.030464
4704.000000;1.029057
4703.000000;1.027600
4702.000000;1.026009
4701.000000;1.024368
4700.000000;1.022728
4699.000000;1.021033
4698.000000;1.019238
4697.000000;1.017417
4696.000000;1.015681
4695.000000;1.014055
4694.000000;1.012458
4693.000000;1.010768
4692.000000;1.008947
4691.000000;1.007140
4690.000000;1.005608
4689.000000;1.004459
4688.000000;1.003485
4687.000000;1.002365
4686.000000;1.001025
4685.000000;0.999642
4684.000000;0.998316
4683.000000;0.996907
4682.000000;0.995270
4681.000000;0.993476
4680.000000;0.991730
4679.000000;0.990167
4678.000000;0.988804
4677.000000;0.987596
4676.000000;0.986445
4675.000000;0.985250
4674.000000;0.984020
4673.000000;0.982871
4672.000000;0.981860
4671.000000;0.980884
4670.000000;0.979795
4669.000000;0.978550
4668.000000;0.977220
4667.000000;0.975933
4666.000000;0.974809
4665.000000;0.973855
4664.000000;0.972912
4663.000000;0.971798
4662.000000;0.970513
4661.000000;0.969204
4660.000000;0.967928
4659.000000;0.966643
4658.000000;0.965409
4657.000000;0.964409
4656.000000;0.963669
4655.000000;0.962936
4654.000000;0.961967
4653.000000;0.960801
4652.000000;0.959650
4651.000000;0.958643
4650.000000;0.957797
4649.000000;0.957104
4648.000000;0.956495
4647.000000;0.955804
4646.000000;0.954919
4645.000000;0.953924
4644.000000;0.952983
4643.000000;0.952148
4642.000000;0.951344
4641.000000;0.950492
4640.000000;0.949577
4639.000000;0.948644
4638.000000;0.947790
4637.000000;0.947072
4636.000000;0.946367
4635.000000;0.945469
4634.000000;0.944391
4633.000000;0.943459
4632.000000;0.942945
4631.000000;0.942706
4630.000000;0.942321
4629.000000;0.941561
4628.000000;0.940612
4627.000000;0.939834
4626.000000;0.939415
4625.000000;0.939236
4624.000000;0.939004
4623.000000;0.938512
4622.000000;0.937794
4621.000000;0.937020
4620.000000;0.936278
4619.000000;0.935539
4618.000000;0.934819
4617.000000;0.934222
4616.000000;0.933767
4615.000000;0.933326
4614.000000;0.932794
4613.000000;0.932234
4612.000000;0.931782
4611.000000;0.931528
4610.000000;0.931496
4609.000000;0.931604
4608.000000;0.931593
4607.000000;0.931189
4606.000000;0.930454
4605.000000;0.929805
4604.000000;0.929521
4603.000000;0.929409
4602.000000;0.929096
4601.000000;0.928525
4600.000000;0.927958
4599.000000;0.927602
4598.000000;0.927459
4597.000000;0.927478
4596.000000;0.927611
4595.000000;0.927694
4594.000000;0.927501
4593.000000;0.926987
4592.000000;0.926406
4591.000000;0.926103
4590.000000;0.926240
4589.000000;0.926699
4588.000000;0.927172
4587.000000;0.927378
4586.000000;0.927277
4585.000000;0.927073
4584.000000;0.926991
4583.000000;0.927068
4582.000000;0.927179
4581.000000;0.927196
4580.000000;0.927064
4579.000000;0.926797
4578.000000;0.926507
4577.000000;0.926374
4576.000000;0.926512
4575.000000;0.926871
4574.000000;0.927310
4573.000000;0.927721
4572.000000;0.928061
4571.000000;0.928354
4570.000000;0.928698
4569.000000;0.929193
4568.000000;0.929786
4567.000000;0.930276
4566.000000;0.930525
4565.000000;0.930605
4564.000000;0.930684
4563.000000;0.930875
4562.000000;0.931237
4561.000000;0.931800
4560.000000;0.932508
4559.000000;0.933217
4558.000000;0.933870
4557.000000;0.934581
4556.000000;0.935464
4555.000000;0.936460
4554.000000;0.937411
4553.000000;0.938226
4552.000000;0.938914
4551.000000;0.939543
4550.000000;0.940224
4549.000000;0.941003
4548.000000;0.941765
4547.000000;0.942352
4546.000000;0.942851
4545.000000;0.943542
4544.000000;0.944504
4543.000000;0.945477
4542.000000;0.946247
4541.000000;0.946971
4540.000000;0.947902
4539.000000;0.949012
4538.000000;0.950090
4537.000000;0.951092
4536.000000;0.952130
4535.000000;0.953203
4534.000000;0.954197
4533.000000;0.955109
4532.000000;0.956050
4531.000000;0.957028
4530.000000;0.957922
4529.000000;0.958664
4528.000000;0.959309
4527.000000;0.959940
4526.000000;0.960661
4525.000000;0.961611
4524.000000;0.962816
4523.000000;0.964054
4522.000000;0.965032
4521.000000;0.965687
4520.000000;0.966193
4519.000000;0.966698
4518.000000;0.967218
4517.000000;0.967780
4516.000000;0.968492
4515.000000;0.969438
4514.000000;0.970569
4513.000000;0.971706
4512.000000;0.972627
4511.000000;0.973245
4510.000000;0.973762
4509.000000;0.974529
4508.000000;0.975660
4507.000000;0.976887
4506.000000;0.977923
4505.000000;0.978809
4504.000000;0.979732
4503.000000;0.980677
4502.000000;0.981485
4501.000000;0.982183
4500.000000;0.983002
4499.000000;0.984081
4498.000000;0.985362
4497.000000;0.986745
4496.000000;0.988169
4495.000000;0.989534
4494.000000;0.990736
4493.000000;0.991791
4492.000000;0.992805
4491.000000;0.993829
4490.000000;0.994874
4489.000000;0.996020
4488.000000;0.997367
4487.000000;0.998898
4486.000000;1.000505
4485.000000;1.002108
4484.000000;1.003631
4483.000000;1.004954
4482.000000;1.006057
4481.000000;1.007139
4480.000000;1.008407
4479.000000;1.009835
4478.000000;1.011277
4477.000000;1.012734
4476.000000;1.014313
4475.000000;1.015984
4474.000000;1.017632
4473.000000;1.019315
4472.000000;1.021245
4471.000000;1.023457
4470.000000;1.025690
4469.000000;1.027617
4468.000000;1.029117
4467.000000;1.030338
4466.000000;1.031639
4465.000000;1.033373
4464.000000;1.035543
4463.000000;1.037721
4462.000000;1.039503
4461.000000;1.040973
4460.000000;1.042522
4459.000000;1.044314
4458.000000;1.046217
4457.000000;1.048183
4456.000000;1.050319
4455.000000;1.052553
4454.000000;1.054555
4453.000000;1.056150
4452.000000;1.057571
4451.000000;1.059192
4450.000000;1.061210
4449.000000;1.063666
4448.000000;1.066520
4447.000000;1.069566
4446.000000;1.072451
4445.000000;1.074966
4444.000000;1.077218
4443.000000;1.079407
4442.000000;1.081548
4441.000000;1.083543
4440.000000;1.085412
4439.000000;1.087351
4438.000000;1.089586
4437.000000;1.092207
4436.000000;1.095067
4435.000000;1.097823
4434.000000;1.100186
4433.000000;1.102182
4432.000000;1.104080
4431.000000;1.106097
4430.000000;1.108293
4429.000000;1.110696
4428.000000;1.113330
4427.000000;1.116073
4426.000000;1.118686
4425.000000;1.121077
4424.000000;1.123410
4423.000000;1.125895
4422.000000;1.128578
4421.000000;1.131396
4420.000000;1.134260
4419.000000;1.137048
4418.000000;1.139659
4417.000000;1.142205
4416.000000;1.145011
4415.000000;1.148295
4414.000000;1.151884
4413.000000;1.155333
4412.000000;1.158280
4411.000000;1.160671
4410.000000;1.162764
4409.000000;1.164985
4408.000000;1.167695
4407.000000;1.170927
4406.000000;1.174343
4405.000000;1.177530
4404.000000;1.180370
4403.000000;1.183127
4402.000000;1.186173
4401.000000;1.189647
4400.000000;1.193344
4399.000000;1.196911
4398.000000;1.200139
4397.000000;1.203092
4396.000000;1.205984
4395.000000;1.208968
4394.000000;1.212026
4393.000000;1.215031
4392.000000;1.217912
4391.000000;1.220801
4390.000000;1.223979
4389.000000;1.227585
4388.000000;1.231412
4387.000000;1.235089
4386.000000;1.238462
4385.000000;1.241689
4384.000000;1.244951
4383.000000;1.248247
4382.000000;1.251517
4381.000000;1.254803
4380.000000;1.258206
4379.000000;1.261811
4378.000000;1.265692
4377.000000;1.269788
4376.000000;1.273738
4375.000000;1.277074
4374.000000;1.279774
4373.000000;1.282435
4372.000000;1.285712
4371.000000;1.289677
4370.000000;1.293883
4369.000000;1.297912
4368.000000;1.301720
4367.000000;1.305544
4366.000000;1.309616
4365.000000;1.313935
4364.000000;1.318260
4363.000000;1.322396
4362.000000;1.326433
4361.000000;1.330534
4360.000000;1.334557
4359.000000;1.338213
4358.000000;1.341600
4357.000000;1.345165
4356.000000;1.349036
4355.000000;1.352827
4354.000000;1.356336
4353.000000;1.360032
4352.000000;1.364504
4351.000000;1.369700
4350.000000;1.375016
4349.000000;1.379858
4348.000000;1.383922
4347.000000;1.387264
4346.000000;1.390500
4345.000000;1.394582
4344.000000;1.399905
4343.000000;1.405766
4342.000000;1.411075
4341.000000;1.415517
4340.000000;1.419679
4339.000000;1.424190
4338.000000;1.429097
4337.000000;1.433975
4336.000000;1.438385
4335.000000;1.442319
4334.000000;1.446377
4333.000000;1.451276
4332.000000;1.456962
4331.000000;1.462492
4330.000000;1.467089
4329.000000;1.471020
4328.000000;1.475111
4327.000000;1.479723
4326.000000;1.484586
4325.000000;1.489373
4324.000000;1.494017
4323.000000;1.498672
4322.000000;1.503633
4321.000000;1.509060
4320.000000;1.514544
4319.000000;1.519377
4318.000000;1.523552
4317.000000;1.527988
4316.000000;1.533355
4315.000000;1.539230
4314.000000;1.544868
4313.000000;1.550215
4312.000000;1.555510
4311.000000;1.560479
4310.000000;1.564861
4309.000000;1.569307
4308.000000;1.574773
4307.000000;1.581173
4306.000000;1.587479
4305.000000;1.593039
4304.000000;1.598047
4303.000000;1.602798
4302.000000;1.607281
4301.000000;1.611529
4300.000000;1.615666
4299.000000;1.619601
4298.000000;1.623275
4297.000000;1.627189
4296.000000;1.632085
4295.000000;1.638038
4294.000000;1.644265
4293.000000;1.649818
4292.000000;1.654320
4291.000000;1.658352
4290.000000;1.663368
4289.000000;1.670653
4288.000000;1.679732
4287.000000;1.688334
4286.000000;1.694638
4285.000000;1.699138
4284.000000;1.703586
4283.000000;1.708811
4282.000000;1.714551
4281.000000;1.720695
4280.000000;1.727301
4279.000000;1.733647
4278.000000;1.738665
4277.000000;1.742426
4276.000000;1.746186
4275.000000;1.750995
4274.000000;1.757093
4273.000000;1.764392
4272.000000;1.772432
4271.000000;1.780027
4270.000000;1.786187
4269.000000;1.791471
4268.000000;1.797338
4267.000000;1.804121
4266.000000;1.810639
4265.000000;1.815790
4264.000000;1.819618
4263.000000;1.822824
4262.000000;1.826220
4261.000000;1.830590
4260.000000;1.836095
4259.000000;1.841860
4258.000000;1.847130
4257.000000;1.852638
4256.000000;1.859615
4255.000000;1.867717
4254.000000;1.875300
4253.000000;1.881772
4252.000000;1.888264
4251.000000;1.895682
4250.000000;1.903529
4249.000000;1.911026
4248.000000;1.918008
4247.000000;1.924146
4246.000000;1.928570
4245.000000;1.931038
4244.000000;1.932575
4243.000000;1.934650
4242.000000;1.938432
4241.000000;1.945045
4240.000000;1.954741
4239.000000;1.965361
4238.000000;1.973253
4237.000000;1.976912
4236.000000;1.978548
4235.000000;1.981057
4234.000000;1.984978
4233.000000;1.989639
4232.000000;1.995886
4231.000000;2.005612
4230.000000;2.018564
4229.000000;2.030945
4228.000000;2.038394
4227.000000;2.040397
4226.000000;2.040794
4225.000000;2.043887
4224.000000;2.050860
4223.000000;2.059704
4222.000000;2.067495
4221.000000;2.072943
4220.000000;2.077487
4219.000000;2.084008
4218.000000;2.094175
4217.000000;2.106515
4216.000000;2.117020
4215.000000;2.122341
4214.000000;2.123226
4213.000000;2.123848
4212.000000;2.127145
4211.000000;2.133030
4210.000000;2.140615
4209.000000;2.149691
4208.000000;2.159842
4207.000000;2.169415
4206.000000;2.176295
4205.000000;2.179737
4204.000000;2.181138
4203.000000;2.182898
4202.000000;2.186605
4201.000000;2.192340
4200.000000;2.199187
4199.000000;2.206553
4198.000000;2.214406
4197.000000;2.221250
4196.000000;2.223980
4195.000000;2.222405
4194.000000;2.222006
4193.000000;2.228790
4192.000000;2.242332
4191.000000;2.255577
4190.000000;2.261646
4189.000000;2.260681
4188.000000;2.258565
4187.000000;2.260528
4186.000000;2.267957
4185.000000;2.278465
4184.000000;2.287518
4183.000000;2.292553
4182.000000;2.296050
4181.000000;2.302300
4180.000000;2.311811
4179.000000;2.321090
4178.000000;2.327343
4177.000000;2.330322
4176.000000;2.330268
4175.000000;2.328676
4174.000000;2.330222
4173.000000;2.338957
4172.000000;2.352891
4171.000000;2.365811
4170.000000;2.375369
4169.000000;2.385448
4168.000000;2.396943
4167.000000;2.403586
4166.000000;2.402924
4165.000000;2.402405
4164.000000;2.409610
4163.000000;2.423992
4162.000000;2.440574
4161.000000;2.456708
4160.000000;2.469348
4159.000000;2.472025
4158.000000;2.464164
4157.000000;2.455905
4156.000000;2.456288
4155.000000;2.463203
4154.000000;2.468380
4153.000000;2.468213
4152.000000;2.465412
4151.000000;2.464026
4150.000000;2.468277
4149.000000;2.481691
4148.000000;2.501227
4147.000000;2.515153
4146.000000;2.515232
4145.000000;2.508483
4144.000000;2.506949
4143.000000;2.512027
4142.000000;2.515355
4141.000000;2.510910
4140.000000;2.501030
4139.000000;2.492680
4138.000000;2.494154
4137.000000;2.512293
4136.000000;2.545406
4135.000000;2.578916
4134.000000;2.594362
4133.000000;2.588387
4132.000000;2.575710
4131.000000;2.568463
4130.000000;2.567614
4129.000000;2.573436
4128.000000;2.588297
4127.000000;2.609793
4126.000000;2.631905
4125.000000;2.652116
4124.000000;2.669196
4123.000000;2.676694
4122.000000;2.668409
4121.000000;2.649081
4120.000000;2.630179
4119.000000;2.618370
4118.000000;2.614822
4117.000000;2.619078
4116.000000;2.626652
4115.000000;2.630652
4114.000000;2.633521
4113.000000;2.646106
4112.000000;2.668560
4111.000000;2.681546
4110.000000;2.670444
4109.000000;2.651643
4108.000000;2.648405
4107.000000;2.658864
4106.000000;2.662938
4105.000000;2.654335
4104.000000;2.649459
4103.000000;2.661096
4102.000000;2.682284
4101.000000;2.697130
4100.000000;2.699463
4099.000000;2.696651
4098.000000;2.700506
4097.000000;2.717126
4096.000000;2.740108
4095.000000;2.753735
4094.000000;2.750294
4093.000000;2.742647
4092.000000;2.746324
4091.000000;2.759408
4090.000000;2.769341
4089.000000;2.771293
4088.000000;2.773260
4087.000000;2.782902
4086.000000;2.797161
4085.000000;2.804110
4084.000000;2.792843
4083.000000;2.764512
4082.000000;2.729766
4081.000000;2.706338
4080.000000;2.708129
4079.000000;2.728202
4078.000000;2.747577
4077.000000;2.760086
4076.000000;2.772907
4075.000000;2.788046
4074.000000;2.797773
4073.000000;2.795912
4072.000000;2.786782
4071.000000;2.780942
4070.000000;2.787041
4069.000000;2.807134
4068.000000;2.835204
4067.000000;2.858303
4066.000000;2.868227
4065.000000;2.873087
4064.000000;2.882529
4063.000000;2.890227
4062.000000;2.883739
4061.000000;2.866179
4060.000000;2.852141
4059.000000;2.850521
4058.000000;2.866795
4057.000000;2.906706
4056.000000;2.958423
4055.000000;2.981894
4054.000000;2.948352
4053.000000;2.877763
4052.000000;2.813350
4051.000000;2.781222
4050.000000;2.777835
4049.000000;2.782493
4048.000000;2.784284
4047.000000;2.793372
4046.000000;2.818582
4045.000000;2.853521
4044.000000;2.880765
4043.000000;2.886922
4042.000000;2.877134
4041.000000;2.868622
4040.000000;2.872726
4039.000000;2.886809
4038.000000;2.903018
4037.000000;2.918042
4036.000000;2.929695
4035.000000;2.930796
4034.000000;2.920963
4033.000000;2.915178
4032.000000;2.917347
4031.000000;2.912536
4030.000000;2.896156
4029.000000;2.882852
4028.000000;2.887699
4027.000000;2.910658
4026.000000;2.937243
4025.000000;2.955388
4024.000000;2.966221
4023.000000;2.974773
4022.000000;2.979591
4021.000000;2.977395
4020.000000;2.971412
4019.000000;2.969503
4018.000000;2.979625
4017.000000;3.003989
4016.000000;3.031687
4015.000000;3.042256
4014.000000;3.023471
4013.000000;2.994038
4012.000000;2.983827
4011.000000;2.995522
4010.000000;3.011362
4009.000000;3.027560
4008.000000;3.054608
4007.000000;3.083653
4006.000000;3.088429
4005.000000;3.070949
4004.000000;3.054922
4003.000000;3.039302
4002.000000;3.005831
4001.000000;2.963494
4000.000000;2.937777
3999.000000;2.931069
3998.000000;2.932490
3997.000000;2.944967
3996.000000;2.982781
3995.000000;3.049060
3994.000000;3.125530
3993.000000;3.184919
3992.000000;3.207826
3991.000000;3.189254
3990.000000;3.148930
3989.000000;3.118611
3988.000000;3.110899
3987.000000;3.113365
3986.000000;3.110513
3985.000000;3.107683
3984.000000;3.120107
3983.000000;3.143902
3982.000000;3.162967
3981.000000;3.183021
3980.000000;3.225379
3979.000000;3.279851
3978.000000;3.288794
3977.000000;3.241488
3976.000000;3.194585
3975.000000;3.165997
3974.000000;3.137333
3973.000000;3.097099
3972.000000;3.065445
3971.000000;3.077499
3970.000000;3.144333
3969.000000;3.216614
3968.000000;3.234593
3967.000000;3.223144
3966.000000;3.182031
3965.000000;3.101557
3964.000000;3.034545
3963.000000;3.010074
3962.000000;3.020896
3961.000000;3.061813
3960.000000;3.142357
3959.000000;3.260969
3958.000000;3.339621
3957.000000;3.311221
3956.000000;3.261007
3955.000000;3.217825
3954.000000;3.171577
3953.000000;3.165270
3952.000000;3.239036
3951.000000;3.347428
3950.000000;3.363734
3949.000000;3.332443
3948.000000;3.320683
3947.000000;3.309591
3946.000000;3.285463
3945.000000;3.239967
3944.000000;3.190706
3943.000000;3.157511
3942.000000;3.155494
3941.000000;3.193941
3940.000000;3.257635
3939.000000;3.307626
3938.000000;3.317164
3937.000000;3.294491
3936.000000;3.256313
3935.000000;3.228245
3934.000000;3.224615
3933.000000;3.228838
3932.000000;3.211570
3931.000000;3.162465
3930.000000;3.115979
3929.000000;3.109489
3928.000000;3.136205
3927.000000;3.146572
3926.000000;3.119904
3925.000000;3.116740
3924.000000;3.210081
3923.000000;3.437529
3922.000000;3.909162
3921.000000;4.133762
3920.000000;3.641374
3919.000000;3.467465
3918.000000;3.388325
3917.000000;3.353717
3916.000000;3.343754
3915.000000;3.332490
3914.000000;3.362952
3913.000000;3.434986
3912.000000;3.532399
3911.000000;3.654997
3910.000000;3.815331
3909.000000;4.011680
3908.000000;3.908131
3907.000000;3.682901
3906.000000;3.550107
3905.000000;3.449989
3904.000000;3.343615
3903.000000;3.249584
3902.000000;3.221723
3901.000000;3.320098
3900.000000;3.566233
3899.000000;3.848389
3898.000000;3.719519
3897.000000;3.455696
3896.000000;3.365130
3895.000000;3.436396
3894.000000;3.720978
3893.000000;3.618729
3892.000000;3.279865
3891.000000;3.141017
3890.000000;3.094485
3889.000000;3.159416
3888.000000;3.344926
3887.000000;3.535345
3886.000000;3.359340
3885.000000;3.060060
3884.000000;2.945823
3883.000000;2.986903
3882.000000;3.088964
3881.000000;3.196466
3880.000000;3.421749
3879.000000;3.861200
3878.000000;3.795029
3877.000000;3.589476
3876.000000;3.437760
3875.000000;3.324929
3874.000000;3.264387
3873.000000;3.451561
3872.000000;3.837466
3871.000000;3.622807
3870.000000;3.555947
3869.000000;3.467792
3868.000000;3.436749
3867.000000;3.500604
3866.000000;3.728021
3865.000000;4.086606
3864.000000;3.796350
3863.000000;3.822613
3862.000000;3.446807
3861.000000;3.242917
3860.000000;3.478783
3859.000000;3.589131
3858.000000;3.588365
3857.000000;3.453512
3856.000000;3.436924
3855.000000;3.503375
3854.000000;3.573206
3853.000000;3.692116
3852.000000;4.340320
3851.000000;3.906661
3850.000000;3.698128
3849.000000;3.361080
3848.000000;3.335242
3847.000000;3.668751
3846.000000;3.231101
3845.000000;3.092096
3844.000000;3.131784
3843.000000;3.213121
3842.000000;3.478437
3841.000000;3.907509
3840.000000;3.372609
3839.000000;3.008177
3838.000000;2.828842
3837.000000;2.798700
3836.000000;2.917508
3835.000000;3.048655
3834.000000;3.067660
3833.000000;3.025850
3832.000000;3.045301
3831.000000;3.155243
3830.000000;3.290523
3829.000000;3.356546
3828.000000;3.371673
3827.000000;3.355150
3826.000000;3.337585
3825.000000;3.377497
3824.000000;3.549100
3823.000000;3.885041
3822.000000;4.024719
3821.000000;3.543920
3820.000000;3.105200
3819.000000;2.958489
3818.000000;3.008824
3817.000000;3.195853
3816.000000;3.525359
3815.000000;3.256761
3814.000000;3.059947
3813.000000;3.112812
3812.000000;3.158646
3811.000000;3.227316
3810.000000;3.398965
3809.000000;3.405481
3808.000000;3.276754
3807.000000;3.242768
3806.000000;3.196054
3805.000000;3.203858
3804.000000;3.295251
3803.000000;3.416808
3802.000000;3.329874
3801.000000;3.164425
3800.000000;3.196821
3799.000000;3.305609
3798.000000;3.317071
3797.000000;3.290336
3796.000000;3.292482
3795.000000;3.287307
3794.000000;3.255081
3793.000000;3.304963
3792.000000;3.408558
3791.000000;3.481396
3790.000000;3.413193
3789.000000;3.335433
3788.000000;3.359866
3787.000000;3.454165
3786.000000;3.852971
3785.000000;4.142846
3784.000000;3.596594
3783.000000;3.539666
3782.000000;3.586888
3781.000000;3.591169
3780.000000;3.516415
3779.000000;3.428426
3778.000000;3.430366
3777.000000;3.478741
3776.000000;3.477830
3775.000000;3.419759
3774.000000;3.440883
3773.000000;3.707021
3772.000000;4.497437
3771.000000;3.999491
3770.000000;3.624011
3769.000000;3.375808
3768.000000;3.232499
3767.000000;3.234614
3766.000000;3.319080
3765.000000;3.427496
3764.000000;3.475020
3763.000000;3.481983
3762.000000;3.547625
3761.000000;3.697796
3760.000000;3.594160
3759.000000;3.415563
3758.000000;3.267899
3757.000000;3.402905
3756.000000;3.753277
3755.000000;3.670241
3754.000000;3.612640
3753.000000;3.570713
3752.000000;3.597479
3751.000000;3.632081
3750.000000;3.648682
3749.000000;3.741156
3748.000000;4.517823
3747.000000;4.144948
3746.000000;3.806289
3745.000000;4.074600
3744.000000;4.130928
3743.000000;3.848288
3742.000000;3.668484
3741.000000;3.566597
3740.000000;3.521825
3739.000000;3.536932
3738.000000;3.591783
3737.000000;3.644143
3736.000000;3.648864
3735.000000;3.592099
3734.000000;3.520046
3733.000000;3.503610
3732.000000;3.555401
3731.000000;3.745128
3730.000000;3.878192
3729.000000;3.597746
3728.000000;3.421446
3727.000000;3.401523
3726.000000;3.423129
3725.000000;3.507085
3724.000000;3.489985
3723.000000;3.609124
3722.000000;3.268217
3721.000000;3.082083
3720.000000;3.238372
3719.000000;3.425921
3718.000000;3.664203
3717.000000;3.953339
3716.000000;3.884130
3715.000000;3.628017
3714.000000;3.734923
3713.000000;4.175867
3712.000000;4.248782
3711.000000;3.883132
3710.000000;3.506680
3709.000000;3.257491
3708.000000;3.094309
3707.000000;3.008671
3706.000000;3.049954
3705.000000;3.177839
3704.000000;3.287596
3703.000000;3.334064
3702.000000;3.295785
3701.000000;3.233412
3700.000000;3.258998
3699.000000;3.485743
3698.000000;3.954492
3697.000000;3.724781
3696.000000;3.509818
3695.000000;3.514449
3694.000000;3.526134
3693.000000;3.595695
3692.000000;3.685216
3691.000000;3.687537
3690.000000;3.649447
3689.000000;3.513044
3688.000000;3.252078
3687.000000;3.058360
3686.000000;3.012045
3685.000000;3.092590
3684.000000;3.296240
3683.000000;3.583850
3682.000000;3.671793
3681.000000;3.623369
3680.000000;3.757588
3679.000000;3.788125
3678.000000;3.568572
3677.000000;3.441331
3676.000000;3.443519
3675.000000;3.553767
3674.000000;3.561114
3673.000000;3.531482
3672.000000;3.615989
3671.000000;3.729797
3670.000000;3.688624
3669.000000;3.762084
3668.000000;4.379629
3667.000000;4.083853
3666.000000;3.744234
3665.000000;3.709909
3664.000000;3.696784
3663.000000;3.821402
3662.000000;3.887044
3661.000000;3.845194
3660.000000;3.855800
3659.000000;3.753619
3658.000000;3.486917
3657.000000;3.421888
3656.000000;3.484546
3655.000000;3.620886
3654.000000;3.812296
3653.000000;3.698432
3652.000000;3.550585
3651.000000;3.466117
3650.000000;3.455901
3649.000000;3.598931
3648.000000;4.106235
3647.000000;4.055109
3646.000000;3.711184
3645.000000;3.785722
3644.000000;3.904540
3643.000000;4.007385
3642.000000;3.893544
3641.000000;3.910665
3640.000000;3.638695
3639.000000;3.506370
3638.000000;3.541577
3637.000000;3.698336
3636.000000;4.179622
3635.000000;3.782448
3634.000000;3.655636
3633.000000;3.756068
3632.000000;3.577183
3631.000000;3.334999
3630.000000;3.189740
3629.000000;3.139307
3628.000000;3.245907
3627.000000;3.534859
3626.000000;3.540776
3625.000000;3.202617
3624.000000;2.973759
3623.000000;2.948589
3622.000000;3.124157
3621.000000;3.383941
3620.000000;3.647971
3619.000000;3.889944
3618.000000;3.719869
3617.000000;3.820329
3616.000000;3.832431
3615.000000;3.423634
3614.000000;3.246201
3613.000000;3.153067
3612.000000;3.173983
3611.000000;3.231759
3610.000000;3.163011
3609.000000;3.151743
3608.000000;3.189314
3607.000000;3.307082
3606.000000;3.532600
3605.000000;3.270013
3604.000000;3.050530
3603.000000;3.051308
3602.000000;3.174731
3601.000000;3.293552
3600.000000;3.278774
3599.000000;3.234805
3598.000000;3.256006
3597.000000;3.382854
3596.000000;3.436597
3595.000000;3.368762
3594.000000;3.441832
3593.000000;3.387763
3592.000000;3.217081
3591.000000;3.207965
3590.000000;3.427055
3589.000000;3.743247
3588.000000;3.462756
3587.000000;3.272031
3586.000000;3.242535
3585.000000;3.205244
3584.000000;3.201279
3583.000000;3.487366
3582.000000;3.649283
3581.000000;3.273868
3580.000000;3.194344
3579.000000;3.271356
3578.000000;3.298763
3577.000000;3.190548
3576.000000;3.109643
3575.000000;3.156992
3574.000000;3.298548
3573.000000;3.741874
3572.000000;4.234584
3571.000000;3.519894
3570.000000;3.396243
3569.000000;3.396985
3568.000000;3.603401
3567.000000;3.713134
3566.000000;3.314864
3565.000000;3.222293
3564.000000;3.415687
3563.000000;3.321477
3562.000000;3.100076
3561.000000;3.120997
3560.000000;3.240640
3559.000000;3.363763
3558.000000;3.465230
3557.000000;3.582306
3556.000000;3.663357
3555.000000;3.491362
3554.000000;3.337383
3553.000000;3.284703
3552.000000;3.335007
3551.000000;3.462538
3550.000000;3.469939
3549.000000;3.362397
3548.000000;3.287495
3547.000000;3.266745
3546.000000;3.309787
3545.000000;3.384620
3544.000000;3.408841
3543.000000;3.376458
3542.000000;3.380899
3541.000000;3.480261
3540.000000;3.649694
3539.000000;3.731387
3538.000000;3.703406
3537.000000;3.721618
3536.000000;3.774622
3535.000000;3.842333
3534.000000;3.814538
3533.000000;3.574945
3532.000000;3.393574
3531.000000;3.356811
3530.000000;3.460104
3529.000000;3.578531
3528.000000;3.466735
3527.000000;3.376001
3526.000000;3.433123
3525.000000;3.657216
3524.000000;4.179010
3523.000000;4.126761
3522.000000;3.792104
3521.000000;3.640092
3520.000000;3.485963
3519.000000;3.386196
3518.000000;3.357509
3517.000000;3.361515
3516.000000;3.374617
3515.000000;3.413369
3514.000000;3.482536
3513.000000;3.574917
3512.000000;3.653847
3511.000000;3.816970
3510.000000;4.038368
3509.000000;3.794959
3508.000000;3.650624
3507.000000;3.832078
3506.000000;4.197792
3505.000000;3.820908
3504.000000;3.540335
3503.000000;3.438911
3502.000000;3.410738
3501.000000;3.396475
3500.000000;3.306559
3499.000000;3.199420
3498.000000;3.149114
3497.000000;3.170158
3496.000000;3.249863
3495.000000;3.372799
3494.000000;3.549991
3493.000000;3.764154
3492.000000;3.766973
3491.000000;3.625528
3490.000000;3.561921
3489.000000;3.598813
3488.000000;3.732256
3487.000000;3.722071
3486.000000;3.577928
3485.000000;3.570108
3484.000000;3.904617
3483.000000;4.267934
3482.000000;3.816837
3481.000000;3.902367
3480.000000;3.846263
3479.000000;3.476628
3478.000000;3.354642
3477.000000;3.463264
3476.000000;3.788491
3475.000000;3.643596
3474.000000;3.423503
3473.000000;3.386424
3472.000000;3.434007
3471.000000;3.515172
3470.000000;3.603807
3469.000000;3.694808
3468.000000;3.572918
3467.000000;3.406246
3466.000000;3.374191
3465.000000;3.508842
3464.000000;3.737195
3463.000000;3.665843
3462.000000;3.547937
3461.000000;3.556337
3460.000000;3.592910
3459.000000;3.606775
3458.000000;3.579597
3457.000000;3.496870
3456.000000;3.403804
3455.000000;3.366026
3454.000000;3.408456
3453.000000;3.531671
3452.000000;3.708277
3451.000000;3.930530
3450.000000;4.074243
3449.000000;3.982034
3448.000000;3.990294
3447.000000;4.081666
3446.000000;4.003268
3445.000000;3.860829
3444.000000;3.934259
3443.000000;4.065708
3442.000000;3.636779
3441.000000;3.510968
3440.000000;3.624676
3439.000000;3.750831
3438.000000;3.814842
3437.000000;3.960254
3436.000000;4.004915
3435.000000;3.977092
3434.000000;3.911865
3433.000000;3.785065
3432.000000;3.697485
3431.000000;3.707380
3430.000000;3.803169
3429.000000;4.037130
3428.000000;4.553951
3427.000000;4.361111
3426.000000;4.370760
3425.000000;4.153661
3424.000000;3.832571
3423.000000;3.869069
3422.000000;4.730563
3421.000000;3.976540
3420.000000;3.675232
3419.000000;3.761615
3418.000000;4.219498
3417.000000;4.062624
3416.000000;3.849409
3415.000000;3.832663
3414.000000;3.709386
3413.000000;3.525659
3412.000000;3.424725
3411.000000;3.442859
3410.000000;3.639422
3409.000000;3.903656
3408.000000;3.699799
3407.000000;3.534660
3406.000000;3.472358
3405.000000;3.431226
3404.000000;3.423747
3403.000000;3.511178
3402.000000;3.789089
3401.000000;3.921092
3400.000000;3.688507
3399.000000;3.552983
3398.000000;3.436881
3397.000000;3.364825
3396.000000;3.393899
3395.000000;3.499143
3394.000000;3.601513
3393.000000;3.698295
3392.000000;3.926698
3391.000000;3.947331
3390.000000;3.704035
3389.000000;3.564236
3388.000000;3.439267
3387.000000;3.345273
3386.000000;3.329630
3385.000000;3.395899
3384.000000;3.510039
3383.000000;3.596462
3382.000000;3.570417
3381.000000;3.476702
3380.000000;3.415077
3379.000000;3.404484
3378.000000;3.427140
3377.000000;3.477181
3376.000000;3.566977
3375.000000;3.697379
3374.000000;3.760464
3373.000000;3.661223
3372.000000;3.540474
3371.000000;3.519703
3370.000000;3.638150
3369.000000;3.735870
3368.000000;3.687792
3367.000000;3.585274
3366.000000;3.438247
3365.000000;3.328027
3364.000000;3.281278
3363.000000;3.300590
3362.000000;3.400524
3361.000000;3.581509
3360.000000;3.745279
3359.000000;3.752323
3358.000000;3.702604
3357.000000;3.640777
3356.000000;3.520462
3355.000000;3.400946
3354.000000;3.366301
3353.000000;3.458897
3352.000000;3.645955
3351.000000;3.725523
3350.000000;4.059363
3349.000000;4.051219
3348.000000;3.673599
3347.000000;3.701173
3346.000000;4.362899
3345.000000;4.085314
3344.000000;3.683122
3343.000000;3.665159
3342.000000;3.697528
3341.000000;3.698781
3340.000000;3.561740
3339.000000;3.521174
3338.000000;3.740750
3337.000000;3.804224
3336.000000;3.595463
3335.000000;3.584424
3334.000000;3.538049
3333.000000;3.396786
3332.000000;3.350291
3331.000000;3.468761
3330.000000;3.860408
3329.000000;4.061555
3328.000000;3.686255
3327.000000;3.552420
3326.000000;3.445346
3325.000000;3.427291
3324.000000;3.420216
3323.000000;3.352774
3322.000000;3.319289
3321.000000;3.398805
3320.000000;3.703345
3319.000000;4.064881
3318.000000;3.752417
3317.000000;3.604331
3316.000000;3.596362
3315.000000;3.624964
3314.000000;3.633674
3313.000000;3.577673
3312.000000;3.538501
3311.000000;3.567726
3310.000000;3.706944
3309.000000;4.163056
3308.000000;3.910120
3307.000000;3.661348
3306.000000;3.710515
3305.000000;3.824155
3304.000000;3.839216
3303.000000;3.849573
3302.000000;3.806106
3301.000000;3.827073
3300.000000;4.099280
3299.000000;4.467431
3298.000000;3.851675
3297.000000;3.560723
3296.000000;3.404799
3295.000000;3.305219
3294.000000;3.246827
3293.000000;3.243472
3292.000000;3.313565
3291.000000;3.418796
3290.000000;3.451092
3289.000000;3.413711
3288.000000;3.408971
3287.000000;3.501023
3286.000000;3.721391
3285.000000;4.158424
3284.000000;4.231546
3283.000000;3.767687
3282.000000;3.530384
3281.000000;3.427164
3280.000000;3.404764
3279.000000;3.403562
3278.000000;3.430479
3277.000000;3.533289
3276.000000;3.759500
3275.000000;4.205850
3274.000000;4.084752
3273.000000;3.722656
3272.000000;3.619644
3271.000000;3.625831
3270.000000;3.703402
3269.000000;4.146363
3268.000000;4.088205
3267.000000;3.648275
3266.000000;3.599023
3265.000000;3.704345
3264.000000;3.909158
3263.000000;4.936704
3262.000000;4.151737
3261.000000;3.709277
3260.000000;3.616208
3259.000000;3.693418
3258.000000;4.053280
3257.000000;4.338069
3256.000000;3.856184
3255.000000;3.647000
3254.000000;3.535185
3253.000000;3.502569
3252.000000;3.546755
3251.000000;3.654199
3250.000000;3.838311
3249.000000;4.035217
3248.000000;3.825346
3247.000000;3.667288
3246.000000;3.692261
3245.000000;3.943193
3244.000000;3.891382
3243.000000;3.649909
3242.000000;3.692626
3241.000000;4.214572
3240.000000;4.033632
3239.000000;3.692599
3238.000000;3.760911
3237.000000;3.783809
3236.000000;3.739409
3235.000000;3.682147
3234.000000;3.606046
3233.000000;3.508853
3232.000000;3.462465
3231.000000;3.517837
3230.000000;3.645525
3229.000000;3.754888
3228.000000;3.991553
3227.000000;4.013239
3226.000000;3.825965
3225.000000;3.786904
3224.000000;3.756179
3223.000000;3.797191
3222.000000;4.142473
3221.000000;4.139120
3220.000000;3.713911
3219.000000;3.875037
3218.000000;4.179693
3217.000000;3.762214
3216.000000;3.588109
3215.000000;3.605353
3214.000000;3.589499
3213.000000;3.463693
3212.000000;3.351374
3211.000000;3.304161
3210.000000;3.348449
3209.000000;3.521420
3208.000000;3.754477
3207.000000;3.792899
3206.000000;4.034355
3205.000000;4.289787
3204.000000;3.841029
3203.000000;3.736311
3202.000000;3.732949
3201.000000;3.649558
3200.000000;3.550052
3199.000000;3.546396
3198.000000;3.603795
3197.000000;3.600729
3196.000000;3.560450
3195.000000;3.622648
3194.000000;3.894216
3193.000000;4.042991
3192.000000;4.317205
3191.000000;4.281144
3190.000000;3.656772
3189.000000;3.502496
3188.000000;3.387744
3187.000000;3.395066
3186.000000;3.478411
3185.000000;4.094667
3184.000000;3.945999
3183.000000;3.459655
3182.000000;3.360742
3181.000000;3.387347
3180.000000;3.552857
3179.000000;3.748940
3178.000000;3.706722
3177.000000;3.654915
3176.000000;3.751291
3175.000000;4.054426
3174.000000;3.731640
3173.000000;3.553282
3172.000000;3.617994
3171.000000;3.868228
3170.000000;3.738394
3169.000000;3.485673
3168.000000;3.358094
3167.000000;3.317460
3166.000000;3.364156
3165.000000;3.496373
3164.000000;3.690780
3163.000000;3.819351
3162.000000;3.773279
3161.000000;3.717814
3160.000000;3.781198
3159.000000;3.927991
3158.000000;3.939570
3157.000000;3.726942
3156.000000;3.618669
3155.000000;3.632489
3154.000000;4.198138
3153.000000;3.892013
3152.000000;3.474172
3151.000000;3.373714
3150.000000;3.412576
3149.000000;3.458699
3148.000000;3.433635
3147.000000;3.500989
3146.000000;3.757944
3145.000000;4.002089
3144.000000;3.910215
3143.000000;3.699643
3142.000000;3.523789
3141.000000;3.467720
3140.000000;3.503737
3139.000000;3.623757
3138.000000;3.845905
3137.000000;3.783925
3136.000000;3.498637
3135.000000;3.399738
3134.000000;3.450551
3133.000000;3.661564
3132.000000;3.868724
3131.000000;4.261143
3130.000000;4.170770
3129.000000;3.691964
3128.000000;3.511373
3127.000000;3.478769
3126.000000;3.560495
3125.000000;3.677854
3124.000000;3.688394
3123.000000;3.588686
3122.000000;3.493426
3121.000000;3.434794
3120.000000;3.431021
3119.000000;3.553586
3118.000000;3.860116
3117.000000;3.776211
3116.000000;3.589757
3115.000000;3.552047
3114.000000;3.585583
3113.000000;3.635152
3112.000000;3.571506
3111.000000;3.488123
3110.000000;3.510723
3109.000000;3.586939
3108.000000;3.880760
3107.000000;4.230004
3106.000000;3.766556
3105.000000;3.562583
3104.000000;3.512251
3103.000000;3.578886
3102.000000;3.845272
3101.000000;4.105483
3100.000000;4.070590
3099.000000;3.813964
3098.000000;3.597087
3097.000000;3.514431
3096.000000;3.502559
3095.000000;3.499210
3094.000000;3.411737
3093.000000;3.308688
3092.000000;3.299911
3091.000000;3.401012
3090.000000;3.576796
3089.000000;3.748773
3088.000000;3.803840
3087.000000;3.766359
3086.000000;3.774450
3085.000000;3.831205
3084.000000;4.301697
3083.000000;4.402802
3082.000000;3.684912
3081.000000;3.484963
3080.000000;3.393492
3079.000000;3.375768
3078.000000;3.363800
3077.000000;3.383861
3076.000000;3.446510
3075.000000;3.519365
3074.000000;3.583802
3073.000000;3.639071
3072.000000;3.743981
3071.000000;3.891346
3070.000000;4.224762
3069.000000;4.182023
3068.000000;3.893344
3067.000000;3.920369
3066.000000;4.083476
3065.000000;3.687780
3064.000000;3.550574
3063.000000;3.623838
3062.000000;3.872510
3061.000000;4.268849
3060.000000;4.474852
3059.000000;4.196971
3058.000000;3.808350
3057.000000;3.572669
3056.000000;3.477402
3055.000000;3.389426
3054.000000;3.329279
3053.000000;3.386003
3052.000000;3.546856
3051.000000;4.172028
3050.000000;4.152259
3049.000000;3.701162
3048.000000;3.686103
3047.000000;3.710453
3046.000000;3.744606
3045.000000;3.908744
3044.000000;4.385240
3043.000000;4.081130
3042.000000;3.808658
3041.000000;3.614702
3040.000000;3.561633
3039.000000;3.680455
3038.000000;3.896936
3037.000000;3.721350
3036.000000;3.475754
3035.000000;3.384457
3034.000000;3.424057
3033.000000;3.554335
3032.000000;3.575151
3031.000000;3.384669
3030.000000;3.266252
3029.000000;3.264503
3028.000000;3.322828
3027.000000;3.392023
3026.000000;3.486792
3025.000000;3.638307
3024.000000;3.694887
3023.000000;3.633936
3022.000000;3.567907
3021.000000;3.452539
3020.000000;3.369620
3019.000000;3.364667
3018.000000;3.419091
3017.000000;3.527151
3016.000000;3.717955
3015.000000;3.819909
3014.000000;3.639381
3013.000000;3.544993
3012.000000;3.556576
3011.000000;3.703007
3010.000000;4.023283
3009.000000;3.828271
3008.000000;3.607070
3007.000000;3.439938
3006.000000;3.297754
3005.000000;3.230098
3004.000000;3.253853
3003.000000;3.345620
3002.000000;3.801895
3001.000000;4.104452
3000.000000;3.509365
2999.000000;3.468962
2998.000000;3.489830
2997.000000;3.539822
2996.000000;3.684122
2995.000000;4.273278
2994.000000;4.024299
2993.000000;3.798302
2992.000000;4.066223
2991.000000;4.375327
2990.000000;3.831137
2989.000000;3.518729
2988.000000;3.391164
2987.000000;3.375576
2986.000000;3.421288
2985.000000;3.503610
2984.000000;3.606762
2983.000000;3.571699
2982.000000;3.472604
2981.000000;3.603800
2980.000000;3.745738
2979.000000;3.398814
2978.000000;3.265836
2977.000000;3.276402
2976.000000;3.347870
2975.000000;3.416296
2974.000000;3.475695
2973.000000;3.566088
2972.000000;3.755253
2971.000000;4.039820
2970.000000;4.133680
2969.000000;4.328962
2968.000000;3.942323
2967.000000;3.640565
2966.000000;3.581860
2965.000000;3.624877
2964.000000;3.780442
2963.000000;4.218170
2962.000000;4.037690
2961.000000;3.650561
2960.000000;3.459904
2959.000000;3.405033
2958.000000;3.512191
2957.000000;3.734755
2956.000000;3.698581
2955.000000;3.523032
2954.000000;3.405493
2953.000000;3.376441
2952.000000;3.515972
2951.000000;3.933668
2950.000000;3.883761
2949.000000;3.516037
2948.000000;3.392916
2947.000000;3.355930
2946.000000;3.395808
2945.000000;3.419518
2944.000000;3.359284
2943.000000;3.303801
2942.000000;3.320565
2941.000000;3.396630
2940.000000;3.463184
2939.000000;3.506145
2938.000000;3.562023
2937.000000;3.580665
2936.000000;3.479655
2935.000000;3.347450
2934.000000;3.305505
2933.000000;3.403455
2932.000000;3.657363
2931.000000;3.968546
2930.000000;3.995838
2929.000000;4.143504
2928.000000;4.636768
2927.000000;4.024047
2926.000000;3.682943
2925.000000;3.540784
2924.000000;3.545050
2923.000000;3.685599
2922.000000;3.916428
2921.000000;4.014611
2920.000000;3.775154
2919.000000;3.560525
2918.000000;3.469843
2917.000000;3.444700
2916.000000;3.457486
2915.000000;3.453558
2914.000000;3.400352
2913.000000;3.382043
2912.000000;3.496652
2911.000000;3.788350
2910.000000;3.736560
2909.000000;3.605573
2908.000000;3.732396
2907.000000;4.047056
2906.000000;3.932864
2905.000000;3.654987
2904.000000;3.517052
2903.000000;3.438716
2902.000000;3.380436
2901.000000;3.374496
2900.000000;3.490626
2899.000000;3.764503
2898.000000;3.824769
2897.000000;3.659923
2896.000000;3.670425
2895.000000;3.772203
2894.000000;3.802231
2893.000000;3.684862
2892.000000;3.575595
2891.000000;3.535445
2890.000000;3.534848
2889.000000;3.533531
2888.000000;3.500891
2887.000000;3.465667
2886.000000;3.426870
2885.000000;3.422415
2884.000000;3.479241
2883.000000;3.664882
2882.000000;4.293619
2881.000000;3.982890
2880.000000;3.612564
2879.000000;3.477031
2878.000000;3.423258
2877.000000;3.478295
2876.000000;3.606177
2875.000000;3.664571
2874.000000;3.625293
2873.000000;3.715072
2872.000000;3.800578
2871.000000;3.609167
2870.000000;3.506276
2869.000000;3.566263
2868.000000;3.732670
2867.000000;4.084970
2866.000000;4.409236
2865.000000;3.884565
2864.000000;3.568368
2863.000000;3.572949
2862.000000;3.785177
2861.000000;3.839994
2860.000000;4.371629
2859.000000;3.895499
2858.000000;3.450875
2857.000000;3.384928
2856.000000;3.432429
2855.000000;3.552162
2854.000000;3.678773
2853.000000;3.918712
2852.000000;4.233876
2851.000000;3.853938
2850.000000;3.584570
2849.000000;3.403651
2848.000000;3.296950
2847.000000;3.304562
2846.000000;3.443734
2845.000000;3.769157
2844.000000;4.144363
2843.000000;3.941561
2842.000000;3.718289
2841.000000;3.616443
2840.000000;3.585357
2839.000000;3.573053
2838.000000;3.552659
2837.000000;3.560631
2836.000000;3.666626
2835.000000;3.843329
2834.000000;3.927400
2833.000000;3.974532
2832.000000;4.111854
2831.000000;4.293062
2830.000000;4.007219
2829.000000;3.802069
2828.000000;3.823723
2827.000000;4.039122
2826.000000;4.435425
2825.000000;4.379069
2824.000000;4.060361
2823.000000;3.744759
2822.000000;3.561855
2821.000000;3.507005
2820.000000;3.554855
2819.000000;3.700053
2818.000000;4.094801
2817.000000;4.813756
2816.000000;4.349942
2815.000000;4.594873
2814.000000;4.952493
2813.000000;4.161716
2812.000000;3.764548
2811.000000;3.612732
2810.000000;3.602766
2809.000000;3.646184
2808.000000;3.745784
2807.000000;3.737922
2806.000000;3.636668
2805.000000;3.545279
2804.000000;3.444377
2803.000000;3.395239
2802.000000;3.377800
2801.000000;3.348258
2800.000000;3.333024
2799.000000;3.370155
2798.000000;3.449262
2797.000000;3.628032
2796.000000;3.834462
2795.000000;3.596515
2794.000000;3.403240
2793.000000;3.335200
2792.000000;3.312473
2791.000000;3.329390
2790.000000;3.416716
2789.000000;3.611050
2788.000000;3.986170
2787.000000;4.413083
2786.000000;3.895563
2785.000000;3.616654
2784.000000;3.542397
2783.000000;3.554276
2782.000000;3.542843
2781.000000;3.427870
2780.000000;3.374217
2779.000000;3.392330
2778.000000;3.446356
2777.000000;3.525829
2776.000000;3.751119
2775.000000;4.511691
2774.000000;4.154741
2773.000000;3.873137
2772.000000;3.821545
2771.000000;3.716427
2770.000000;3.536565
2769.000000;3.323914
2768.000000;3.202875
2767.000000;3.188523
2766.000000;3.277763
2765.000000;3.446806
2764.000000;3.673537
2763.000000;3.823146
2762.000000;3.739389
2761.000000;3.731011
2760.000000;3.778818
2759.000000;3.699976
2758.000000;3.588818
2757.000000;3.578863
2756.000000;3.849380
2755.000000;4.087992
2754.000000;3.749609
2753.000000;3.560575
2752.000000;3.439397
2751.000000;3.360532
2750.000000;3.346122
2749.000000;3.398716
2748.000000;3.533276
2747.000000;3.785890
2746.000000;3.926579
2745.000000;3.760595
2744.000000;3.698909
2743.000000;3.716702
2742.000000;3.747185
2741.000000;3.730756
2740.000000;3.790326
2739.000000;4.155654
2738.000000;4.067914
2737.000000;3.703073
2736.000000;3.594569
2735.000000;3.656626
2734.000000;3.850093
2733.000000;3.782938
2732.000000;3.713561
2731.000000;3.936721
2730.000000;4.085907
2729.000000;3.983232
2728.000000;3.925453
2727.000000;3.938107
2726.000000;3.979149
2725.000000;3.925919
2724.000000;3.796016
2723.000000;3.910664
2722.000000;4.373374
2721.000000;4.029641
2720.000000;3.766416
2719.000000;3.648218
2718.000000;3.501369
2717.000000;3.445898
2716.000000;3.467352
2715.000000;3.714906
2714.000000;4.360046
2713.000000;3.791198
2712.000000;3.469602
2711.000000;3.326276
2710.000000;3.253099
2709.000000;3.243474
2708.000000;3.271450
2707.000000;3.366732
2706.000000;3.516235
2705.000000;3.677110
2704.000000;3.800082
2703.000000;3.945943
2702.000000;4.293973
2701.000000;4.364717
2700.000000;3.845474
2699.000000;3.604012
2698.000000;3.554452
2697.000000;3.609405
2696.000000;3.723322
2695.000000;3.954001
2694.000000;4.088035
2693.000000;3.932875
2692.000000;3.919830
2691.000000;3.974279
2690.000000;3.845077
2689.000000;3.636486
2688.000000;3.559147
2687.000000;3.645290
2686.000000;3.901940
2685.000000;3.954263
2684.000000;4.158264
2683.000000;4.484089
2682.000000;3.702166
2681.000000;3.512026
2680.000000;3.558360
2679.000000;3.692364
2678.000000;3.820341
2677.000000;3.884573
2676.000000;3.945665
2675.000000;3.833416
2674.000000;3.605422
2673.000000;3.464022
2672.000000;3.444561
2671.000000;3.455620
2670.000000;3.462951
2669.000000;3.532069
2668.000000;3.701785
2667.000000;3.791185
2666.000000;3.891411
2665.000000;4.236566
2664.000000;4.267730
2663.000000;3.994787
2662.000000;4.182141
2661.000000;4.371793
2660.000000;3.730767
2659.000000;3.548611
2658.000000;3.512557
2657.000000;3.648153
2656.000000;4.072401
2655.000000;3.701887
2654.000000;3.392258
2653.000000;3.313922
2652.000000;3.320042
2651.000000;3.391285
2650.000000;3.509935
2649.000000;3.616228
2648.000000;3.611603
2647.000000;3.517388
2646.000000;3.451380
2645.000000;3.434545
2644.000000;3.453755
2643.000000;3.516682
2642.000000;3.735977
2641.000000;4.003329
2640.000000;3.665694
2639.000000;3.392001
2638.000000;3.283788
2637.000000;3.278643
2636.000000;3.350913
2635.000000;3.502908
2634.000000;3.752506
2633.000000;3.789367
2632.000000;3.661648
2631.000000;3.646926
2630.000000;3.662953
2629.000000;3.661493
2628.000000;3.713366
2627.000000;3.781944
2626.000000;3.860913
2625.000000;4.394389
2624.000000;4.642705
2623.000000;4.086170
2622.000000;3.901286
2621.000000;3.635878
2620.000000;3.516578
2619.000000;3.510402
2618.000000;3.530553
2617.000000;3.533096
2616.000000;3.554145
2615.000000;3.673221
2614.000000;3.756372
2613.000000;3.664861
2612.000000;3.625081
2611.000000;3.635335
2610.000000;3.587443
2609.000000;3.562629
2608.000000;3.671144
2607.000000;3.853137
2606.000000;3.768755
2605.000000;3.691907
2604.000000;3.821693
2603.000000;4.033528
2602.000000;4.077976
2601.000000;3.880435
2600.000000;3.593491
2599.000000;3.411091
2598.000000;3.373451
2597.000000;3.463075
2596.000000;3.611852
2595.000000;3.675921
2594.000000;3.700210
2593.000000;3.867795
2592.000000;4.201993
2591.000000;4.236139
2590.000000;4.080612
2589.000000;3.864645
2588.000000;3.674064
2587.000000;3.618650
2586.000000;3.641606
2585.000000;3.670775
2584.000000;3.605773
2583.000000;3.504218
2582.000000;3.490594
2581.000000;3.534219
2580.000000;3.533381
2579.000000;3.530377
2578.000000;3.630677
2577.000000;3.807039
2576.000000;4.140584
2575.000000;3.961819
2574.000000;3.559972
2573.000000;3.488486
2572.000000;3.558333
2571.000000;3.603781
2570.000000;3.547214
2569.000000;3.457944
2568.000000;3.407815
2567.000000;3.398098
2566.000000;3.431576
2565.000000;3.487227
2564.000000;3.660371
2563.000000;4.232497
2562.000000;4.448126
2561.000000;4.092161
2560.000000;3.924510
2559.000000;3.554527
2558.000000;3.356328
2557.000000;3.355098
2556.000000;3.544607
2555.000000;3.760845
2554.000000;3.698185
2553.000000;3.708843
2552.000000;3.782624
2551.000000;3.912699
2550.000000;3.985174
2549.000000;3.689736
2548.000000;3.492951
2547.000000;3.416073
2546.000000;3.390617
2545.000000;3.399561
2544.000000;3.448618
2543.000000;3.530317
2542.000000;3.592775
2541.000000;3.591364
2540.000000;3.518566
2539.000000;3.460917
2538.000000;3.499567
2537.000000;3.672347
2536.000000;3.990886
2535.000000;4.109843
2534.000000;3.864721
2533.000000;3.609992
2532.000000;3.395537
2531.000000;3.285560
2530.000000;3.316104
2529.000000;3.513178
2528.000000;3.803184
2527.000000;3.861719
2526.000000;4.084926
2525.000000;4.696845
2524.000000;4.072391
2523.000000;3.779908
2522.000000;3.702204
2521.000000;3.825767
2520.000000;4.045736
2519.000000;3.944055
2518.000000;3.673216
2517.000000;3.438652
2516.000000;3.354642
2515.000000;3.422702
2514.000000;3.665430
2513.000000;4.226091
2512.000000;4.419528
2511.000000;4.163848
2510.000000;3.869826
2509.000000;3.606455
2508.000000;3.508481
2507.000000;3.484968
2506.000000;3.511074
2505.000000;3.565352
2504.000000;3.581571
2503.000000;3.569302
2502.000000;3.541263
2501.000000;3.476746
2500.000000;3.407242
2499.000000;3.338067
2498.000000;3.297335
2497.000000;3.314874
2496.000000;3.500815
2495.000000;3.935891
2494.000000;3.675710
2493.000000;3.380963
2492.000000;3.322321
2491.000000;3.362848
2490.000000;3.470097
2489.000000;3.521208
2488.000000;3.489819
2487.000000;3.503218
2486.000000;3.660801
2485.000000;4.081276
2484.000000;4.039852
2483.000000;3.830852
2482.000000;3.818935
2481.000000;3.981430
2480.000000;4.535937
2479.000000;3.895014
2478.000000;3.639987
2477.000000;3.668790
2476.000000;3.842430
2475.000000;4.139648
2474.000000;4.124106
2473.000000;3.933843
2472.000000;3.883199
2471.000000;3.947473
2470.000000;3.913366
2469.000000;3.734230
2468.000000;3.526609
2467.000000;3.363796
2466.000000;3.294981
2465.000000;3.312145
2464.000000;3.379537
2463.000000;3.459229
2462.000000;3.512857
2461.000000;3.514924
2460.000000;3.505746
2459.000000;3.566355
2458.000000;3.730910
2457.000000;4.029052
2456.000000;4.325619
2455.000000;4.027778
2454.000000;3.700159
2453.000000;3.470119
2452.000000;3.328179
2451.000000;3.271962
2450.000000;3.284446
2449.000000;3.348859
2448.000000;3.444839
2447.000000;3.592155
2446.000000;3.797465
2445.000000;3.820664
2444.000000;3.642968
2443.000000;3.493139
2442.000000;3.408652
2441.000000;3.386041
2440.000000;3.423441
2439.000000;3.531293
2438.000000;3.747312
2437.000000;4.025694
2436.000000;4.037345
2435.000000;3.993016
2434.000000;4.020681
2433.000000;4.069782
2432.000000;4.232661
2431.000000;4.256842
2430.000000;3.889220
2429.000000;3.538033
2428.000000;3.406529
2427.000000;3.465756
2426.000000;3.811686
2425.000000;4.154287
2424.000000;3.672367
2423.000000;3.503294
2422.000000;3.688836
2421.000000;4.388369
2420.000000;3.715093
2419.000000;3.615109
2418.000000;3.803025
2417.000000;3.936245
2416.000000;4.094310
2415.000000;4.148582
2414.000000;3.815799
2413.000000;3.674090
2412.000000;3.696954
2411.000000;3.773560
2410.000000;3.776626
2409.000000;3.723998
2408.000000;3.778067
2407.000000;3.901721
2406.000000;4.102667
2405.000000;4.113075
2404.000000;3.913275
2403.000000;3.815136
2402.000000;3.812564
2401.000000;3.885060
2400.000000;4.100554
2399.000000;4.761958
2398.000000;4.085112
2397.000000;3.653763
2396.000000;3.445881
2395.000000;3.377987
2394.000000;3.458048
2393.000000;3.637736
2392.000000;3.721373
2391.000000;3.679200
2390.000000;3.762745
2389.000000;4.012953
2388.000000;3.871394
2387.000000;3.633566
2386.000000;3.660297
2385.000000;4.060224
2384.000000;4.063828
2383.000000;3.611865
2382.000000;3.464191
2381.000000;3.395678
2380.000000;3.460893
2379.000000;3.579579
2378.000000;3.724527
2377.000000;3.909822
2376.000000;3.858860
2375.000000;3.837748
2374.000000;3.955110
2373.000000;4.163080
2372.000000;3.865398
2371.000000;3.597183
2370.000000;3.561580
2369.000000;3.717189
2368.000000;4.052527
2367.000000;3.962454
2366.000000;3.633635
2365.000000;3.466699
2364.000000;3.456782
2363.000000;3.523718
2362.000000;3.510071
2361.000000;3.630949
2360.000000;3.798327
2359.000000;3.502442
2358.000000;3.397687
2357.000000;3.456048
2356.000000;3.528568
2355.000000;3.565451
2354.000000;3.676657
2353.000000;3.714311
2352.000000;3.539493
2351.000000;3.417782
2350.000000;3.388748
2349.000000;3.466092
2348.000000;3.474948
2347.000000;3.336767
2346.000000;3.310550
2345.000000;3.378753
2344.000000;3.415766
2343.000000;3.402281
2342.000000;3.381415
2341.000000;3.406310
2340.000000;3.491210
2339.000000;3.616257
2338.000000;3.626856
2337.000000;3.436447
2336.000000;3.290250
2335.000000;3.275672
2334.000000;3.446032
2333.000000;3.844162
2332.000000;3.763040
2331.000000;3.397976
2330.000000;3.245756
2329.000000;3.229700
2328.000000;3.322649
2327.000000;3.526181
2326.000000;3.764761
2325.000000;3.574810
2324.000000;3.408563
2323.000000;3.460670
2322.000000;3.542309
2321.000000;3.459321
2320.000000;3.334261
2319.000000;3.281062
2318.000000;3.326866
2317.000000;3.426921
2316.000000;3.501063
2315.000000;3.552299
2314.000000;3.601271
2313.000000;3.693198
2312.000000;3.811769
2311.000000;3.711148
2310.000000;3.549232
2309.000000;3.427249
2308.000000;3.372379
2307.000000;3.420377
2306.000000;3.559835
2305.000000;4.027034
2304.000000;4.034325
2303.000000;3.490438
2302.000000;3.414433
2301.000000;3.486916
2300.000000;3.731947
2299.000000;3.992228
2298.000000;3.808142
2297.000000;3.659075
2296.000000;3.697110
2295.000000;3.855043
2294.000000;3.756306
2293.000000;3.565002
2292.000000;3.545579
2291.000000;3.744009
2290.000000;3.964663
2289.000000;3.866262
2288.000000;3.907488
2287.000000;3.825891
2286.000000;3.746835
2285.000000;3.829075
2284.000000;3.876470
2283.000000;3.927167
2282.000000;4.118606
2281.000000;4.080647
2280.000000;3.858669
2279.000000;3.696577
2278.000000;3.679869
2277.000000;3.697643
2276.000000;3.630531
2275.000000;3.582548
2274.000000;3.597062
2273.000000;3.659135
2272.000000;3.710082
2271.000000;3.558525
2270.000000;3.339599
2269.000000;3.228058
2268.000000;3.236779
2267.000000;3.350377
2266.000000;3.542684
2265.000000;3.846314
2264.000000;3.928353
2263.000000;3.696624
2262.000000;3.668260
2261.000000;3.873091
2260.000000;4.199814
2259.000000;4.084466
2258.000000;3.753763
2257.000000;3.584807
2256.000000;3.597516
2255.000000;3.733226
2254.000000;3.767992
2253.000000;3.574613
2252.000000;3.437361
2251.000000;3.452546
2250.000000;3.657556
2249.000000;3.801477
2248.000000;3.852570
2247.000000;4.136856
2246.000000;3.938686
2245.000000;3.827046
2244.000000;4.068847
2243.000000;3.918899
2242.000000;3.632602
2241.000000;3.510728
2240.000000;3.488467
2239.000000;3.586407
2238.000000;3.883237
2237.000000;4.018104
2236.000000;3.773406
2235.000000;3.752326
2234.000000;3.963426
2233.000000;4.252033
2232.000000;4.132964
2231.000000;3.933995
2230.000000;3.740875
2229.000000;3.710567
2228.000000;3.952706
2227.000000;4.196596
2226.000000;4.103364
2225.000000;4.509873
2224.000000;4.052504
2223.000000;3.760673
2222.000000;3.668311
2221.000000;3.702986
2220.000000;3.819750
2219.000000;3.939918
2218.000000;4.034404
2217.000000;4.030338
2216.000000;4.189611
2215.000000;4.170821
2214.000000;3.913489
2213.000000;3.866909
2212.000000;4.495711
2211.000000;4.106098
2210.000000;3.749772
2209.000000;3.696502
2208.000000;3.745565
2207.000000;3.784052
2206.000000;3.769573
2205.000000;3.773425
2204.000000;3.771671
2203.000000;3.701598
2202.000000;3.621423
2201.000000;3.625123
2200.000000;3.731568
2199.000000;4.029638
2198.000000;4.209494
2197.000000;3.910236
2196.000000;4.090768
2195.000000;4.367312
2194.000000;4.110029
2193.000000;3.968157
2192.000000;4.015864
2191.000000;4.058174
2190.000000;3.950231
2189.000000;3.855562
2188.000000;3.770388
2187.000000;3.705273
2186.000000;3.682249
2185.000000;3.722016
2184.000000;3.854724
2183.000000;3.848769
2182.000000;3.583727
2181.000000;3.440527
2180.000000;3.434866
2179.000000;3.546259
2178.000000;3.808946
2177.000000;4.439644
2176.000000;4.172786
2175.000000;4.129574
2174.000000;4.371212
2173.000000;4.021925
2172.000000;3.851804
2171.000000;3.864370
2170.000000;3.950166
2169.000000;3.788052
2168.000000;3.576968
2167.000000;3.495365
2166.000000;3.494216
2165.000000;3.536478
2164.000000;3.561297
2163.000000;3.592383
2162.000000;3.707520
2161.000000;3.847500
2160.000000;4.094163
2159.000000;4.052667
2158.000000;3.755669
2157.000000;3.667917
2156.000000;3.734070
2155.000000;3.916727
2154.000000;3.942390
2153.000000;3.805829
2152.000000;3.751182
2151.000000;3.676102
2150.000000;3.700655
2149.000000;3.941444
2148.000000;4.030442
2147.000000;3.918276
2146.000000;3.934675
2145.000000;3.777470
2144.000000;3.666162
2143.000000;3.699325
2142.000000;3.868052
2141.000000;4.028586
2140.000000;3.868351
2139.000000;3.689628
2138.000000;3.623140
2137.000000;3.526472
2136.000000;3.403643
2135.000000;3.342895
2134.000000;3.380066
2133.000000;3.529937
2132.000000;3.887373
2131.000000;4.246329
2130.000000;4.051558
2129.000000;4.167792
2128.000000;4.273223
2127.000000;4.182986
2126.000000;3.808767
2125.000000;3.566912
2124.000000;3.513354
2123.000000;3.602798
2122.000000;3.810713
2121.000000;4.113211
2120.000000;4.113736
2119.000000;3.813968
2118.000000;3.653786
2117.000000;3.674759
2116.000000;3.829112
2115.000000;3.936646
2114.000000;4.029785
2113.000000;4.113701
2112.000000;4.018557
2111.000000;3.942665
2110.000000;3.984572
2109.000000;4.028219
2108.000000;4.059498
2107.000000;4.151294
2106.000000;4.182161
2105.000000;3.949325
2104.000000;3.763593
2103.000000;3.728804
2102.000000;3.849083
2101.000000;4.053651
2100.000000;3.875797
2099.000000;3.749678
2098.000000;3.776224
2097.000000;3.912697
2096.000000;4.132075
2095.000000;4.103315
2094.000000;3.728790
2093.000000;3.610482
2092.000000;3.651076
2091.000000;3.686491
2090.000000;3.570933
2089.000000;3.516003
2088.000000;3.597809
2087.000000;3.761885
2086.000000;3.919587
2085.000000;3.962854
2084.000000;3.886275
2083.000000;3.838028
2082.000000;3.847149
2081.000000;3.903354
2080.000000;3.954254
2079.000000;4.008828
2078.000000;4.238174
2077.000000;4.324528
2076.000000;3.919009
2075.000000;3.776408
2074.000000;4.070841
2073.000000;3.950824
2072.000000;3.574953
2071.000000;3.519804
2070.000000;3.640252
2069.000000;3.849710
2068.000000;4.037168
2067.000000;4.061124
2066.000000;3.905986
2065.000000;3.812453
2064.000000;3.783038
2063.000000;3.795040
2062.000000;4.006744
2061.000000;3.970978
2060.000000;3.642771
2059.000000;3.683363
2058.000000;4.033932
2057.000000;3.855200
2056.000000;3.666632
2055.000000;3.734529
2054.000000;3.742861
2053.000000;3.660828
2052.000000;3.577438
2051.000000;3.596081
2050.000000;3.837457
2049.000000;4.078868
2048.000000;3.754229
2047.000000;3.646628
2046.000000;3.720580
2045.000000;4.060349
2044.000000;4.054822
2043.000000;3.614955
2042.000000;3.458565
2041.000000;3.448700
2040.000000;3.527959
2039.000000;3.576581
2038.000000;3.533630
2037.000000;3.508130
2036.000000;3.616819
2035.000000;4.004267
2034.000000;4.465882
2033.000000;4.033095
2032.000000;3.842052
2031.000000;3.740787
2030.000000;3.708552
2029.000000;3.689692
2028.000000;3.680219
2027.000000;3.728274
2026.000000;3.887540
2025.000000;4.103338
2024.000000;4.108174
2023.000000;3.962302
2022.000000;3.926958
2021.000000;4.016134
2020.000000;4.148338
2019.000000;4.330062
2018.000000;4.421035
2017.000000;4.259831
2016.000000;4.363699
2015.000000;4.355974
2014.000000;4.346714
2013.000000;4.291300
2012.000000;4.067572
2011.000000;4.030417
2010.000000;4.114448
2009.000000;4.481814
2008.000000;4.362611
2007.000000;3.967569
2006.000000;3.908835
2005.000000;3.945809
2004.000000;3.987931
2003.000000;4.199389
2002.000000;3.799105
2001.000000;3.440927
2000.000000;3.323652
1999.000000;3.319612
1998.000000;3.395353
1997.000000;3.541506
1996.000000;3.766241
1995.000000;4.238133
1994.000000;3.952448
1993.000000;3.630857
1992.000000;3.566225
1991.000000;3.644161
1990.000000;3.787556
1989.000000;3.873966
1988.000000;3.835874
1987.000000;3.785336
1986.000000;3.757567
1985.000000;3.733587
1984.000000;3.768903
1983.000000;3.944131
1982.000000;4.391954
1981.000000;4.298046
1980.000000;3.933344
1979.000000;3.859819
1978.000000;3.787119
1977.000000;3.735016
1976.000000;3.716099
1975.000000;3.674697
1974.000000;3.651846
1973.000000;3.738621
1972.000000;3.946445
1971.000000;4.031391
1970.000000;3.999545
1969.000000;4.053077
1968.000000;4.377615
1967.000000;4.437232
1966.000000;3.962533
1965.000000;3.840323
1964.000000;3.902923
1963.000000;3.858585
1962.000000;3.687968
1961.000000;3.605606
1960.000000;3.653332
1959.000000;3.746551
1958.000000;3.687076
1957.000000;3.585384
1956.000000;3.544942
1955.000000;3.559427
1954.000000;3.650834
1953.000000;3.798212
1952.000000;3.825248
1951.000000;3.839064
1950.000000;4.055277
1949.000000;4.406479
1948.000000;4.681463
1947.000000;4.131335
1946.000000;3.724492
1945.000000;3.602106
1944.000000;3.731872
1943.000000;4.168485
1942.000000;4.036641
1941.000000;3.932450
1940.000000;3.959210
1939.000000;3.904900
1938.000000;3.858726
1937.000000;3.782474
1936.000000;3.611162
1935.000000;3.498837
1934.000000;3.509722
1933.000000;3.593882
1932.000000;3.695916
1931.000000;3.832826
1930.000000;4.268845
1929.000000;4.705730
1928.000000;3.975899
1927.000000;3.812560
1926.000000;3.685316
1925.000000;3.594907
1924.000000;3.502832
1923.000000;3.471717
1922.000000;3.584580
1921.000000;3.905217
1920.000000;4.530263
1919.000000;4.586923
1918.000000;4.238448
1917.000000;4.246006
1916.000000;4.407016
1915.000000;4.213100
1914.000000;4.057981
1913.000000;4.085809
1912.000000;4.061807
1911.000000;3.921096
1910.000000;3.806409
1909.000000;3.796199
1908.000000;4.042138
1907.000000;4.405019
1906.000000;3.778364
1905.000000;3.512374
1904.000000;3.406563
1903.000000;3.409303
1902.000000;3.495970
1901.000000;3.694399
1900.000000;4.148767
1899.000000;4.182541
1898.000000;3.948363
1897.000000;4.010803
1896.000000;4.004043
1895.000000;3.980891
1894.000000;4.119750
1893.000000;4.488168
1892.000000;4.115028
1891.000000;3.752379
1890.000000;3.600156
1889.000000;3.570222
1888.000000;3.613951
1887.000000;3.650114
1886.000000;3.717204
1885.000000;3.823022
1884.000000;3.833783
1883.000000;3.801575
1882.000000;3.769348
1881.000000;3.764360
1880.000000;3.816143
1879.000000;3.936804
1878.000000;4.122106
1877.000000;4.131202
1876.000000;3.937972
1875.000000;3.907313
1874.000000;4.006415
1873.000000;4.017518
1872.000000;4.289874
1871.000000;4.336722
1870.000000;3.896107
1869.000000;3.871423
1868.000000;4.378546
1867.000000;4.438406
1866.000000;4.020482
1865.000000;3.885813
1864.000000;3.677806
1863.000000;3.625221
1862.000000;3.752312
1861.000000;3.923386
1860.000000;3.895378
1859.000000;3.812207
1858.000000;3.812188
1857.000000;3.857948
1856.000000;3.917668
1855.000000;3.836546
1854.000000;3.599010
1853.000000;3.440996
1852.000000;3.423495
1851.000000;3.508152
1850.000000;3.628786
1849.000000;3.768028
1848.000000;3.954735
1847.000000;3.979257
1846.000000;3.847360
1845.000000;3.815983
1844.000000;3.900957
1843.000000;4.258757
1842.000000;4.130753
1841.000000;3.754939
1840.000000;3.615996
1839.000000;3.561913
1838.000000;3.617533
1837.000000;3.818246
1836.000000;4.304101
1835.000000;4.113541
1834.000000;3.878372
1833.000000;3.929222
1832.000000;4.109237
1831.000000;4.243048
1830.000000;3.861310
1829.000000;3.613809
1828.000000;3.556172
1827.000000;3.676967
1826.000000;4.037944
1825.000000;4.160382
1824.000000;3.854270
1823.000000;3.755070
1822.000000;3.744682
1821.000000;3.710689
1820.000000;3.700286
1819.000000;3.736526
1818.000000;3.705411
1817.000000;3.826737
1816.000000;4.052462
1815.000000;3.783602
1814.000000;3.626048
1813.000000;3.591556
1812.000000;3.558033
1811.000000;3.592720
1810.000000;3.779116
1809.000000;4.048933
1808.000000;4.047721
1807.000000;4.016118
1806.000000;4.057950
1805.000000;4.070722
1804.000000;3.906613
1803.000000;3.771932
1802.000000;3.746387
1801.000000;3.689491
1800.000000;3.621113
1799.000000;3.607907
1798.000000;3.663067
1797.000000;3.690493
1796.000000;3.597633
1795.000000;3.533942
1794.000000;3.567344
1793.000000;3.752086
1792.000000;3.949780
1791.000000;3.749184
1790.000000;3.598407
1789.000000;3.580655
1788.000000;3.595551
1787.000000;3.614853
1786.000000;3.732164
1785.000000;3.911745
1784.000000;3.901002
1783.000000;3.814625
1782.000000;3.915491
1781.000000;4.418670
1780.000000;4.049510
1779.000000;3.704913
1778.000000;3.575153
1777.000000;3.529588
1776.000000;3.541539
1775.000000;3.524603
1774.000000;3.513530
1773.000000;3.550990
1772.000000;3.613089
1771.000000;3.672432
1770.000000;3.743698
1769.000000;3.824904
1768.000000;3.878943
1767.000000;4.041671
1766.000000;4.082321
1765.000000;3.801646
1764.000000;3.782913
1763.000000;4.167065
1762.000000;4.470051
1761.000000;4.120348
1760.000000;3.904791
1759.000000;3.679955
1758.000000;3.531835
1757.000000;3.497880
1756.000000;3.521223
1755.000000;3.550516
1754.000000;3.611766
1753.000000;3.665722
1752.000000;3.705295
1751.000000;3.852023
1750.000000;3.991354
1749.000000;3.929133
1748.000000;3.828213
1747.000000;3.785826
1746.000000;3.840977
1745.000000;3.952728
1744.000000;4.045185
1743.000000;4.083446
1742.000000;3.994982
1741.000000;3.856709
1740.000000;3.678879
1739.000000;3.495045
1738.000000;3.429594
1737.000000;3.501437
1736.000000;3.650478
1735.000000;3.884316
1734.000000;3.846106
1733.000000;3.565757
1732.000000;3.428433
1731.000000;3.458334
1730.000000;3.591377
1729.000000;3.600889
1728.000000;3.638952
1727.000000;3.696524
1726.000000;3.781997
1725.000000;3.953742
1724.000000;3.577209
1723.000000;3.385106
1722.000000;3.411222
1721.000000;3.572622
1720.000000;3.830802
1719.000000;3.874954
1718.000000;3.816658
1717.000000;3.823786
1716.000000;4.055803
1715.000000;4.507688
1714.000000;4.535956
1713.000000;4.595770
1712.000000;4.066387
1711.000000;3.906091
1710.000000;3.941322
1709.000000;3.738391
1708.000000;3.567628
1707.000000;3.520568
1706.000000;3.729052
1705.000000;4.135595
1704.000000;3.698724
1703.000000;3.512932
1702.000000;3.607905
1701.000000;3.787207
1700.000000;4.014635
1699.000000;3.978174
1698.000000;3.867954
1697.000000;3.981921
1696.000000;4.180876
1695.000000;4.115141
1694.000000;4.024285
1693.000000;4.196429
1692.000000;4.048422
1691.000000;3.750486
1690.000000;3.789880
1689.000000;4.202846
1688.000000;4.098317
1687.000000;3.723638
1686.000000;3.675876
1685.000000;3.682072
1684.000000;3.681467
1683.000000;3.662765
1682.000000;3.682463
1681.000000;3.886563
1680.000000;4.185800
1679.000000;4.078592
1678.000000;3.767576
1677.000000;3.624884
1676.000000;3.611585
1675.000000;3.676647
1674.000000;3.782204
1673.000000;4.095985
1672.000000;4.393064
1671.000000;3.953402
1670.000000;3.859344
1669.000000;4.057843
1668.000000;4.581804
1667.000000;3.957004
1666.000000;3.580798
1665.000000;3.497678
1664.000000;3.523499
1663.000000;3.559703
1662.000000;3.579625
1661.000000;3.672422
1660.000000;4.066179
1659.000000;4.246479
1658.000000;3.782522
1657.000000;3.643436
1656.000000;3.582188
1655.000000;3.638747
1654.000000;3.893235
1653.000000;4.129811
1652.000000;4.071620
1651.000000;4.520062
1650.000000;4.031447
1649.000000;3.674313
1648.000000;3.700552
1647.000000;3.701593
1646.000000;3.632245
1645.000000;3.501873
1644.000000;3.422380
1643.000000;3.548127
1642.000000;3.798258
1641.000000;3.666693
1640.000000;3.601759
1639.000000;3.733200
1638.000000;4.014416
1637.000000;4.042164
1636.000000;3.795085
1635.000000;3.778329
1634.000000;3.857197
1633.000000;3.890876
1632.000000;3.965537
1631.000000;3.836509
1630.000000;3.599618
1629.000000;3.513545
1628.000000;3.522416
1627.000000;3.618968
1626.000000;3.827859
1625.000000;3.951412
1624.000000;3.849302
1623.000000;3.751951
1622.000000;3.684779
1621.000000;3.648850
1620.000000;3.638613
1619.000000;3.670892
1618.000000;3.800352
1617.000000;4.173538
1616.000000;4.404846
1615.000000;3.825766
1614.000000;3.592375
1613.000000;3.560627
1612.000000;3.678277
1611.000000;3.875493
1610.000000;3.832455
1609.000000;3.723786
1608.000000;3.689469
1607.000000;3.584556
1606.000000;3.506556
1605.000000;3.587909
1604.000000;3.846995
1603.000000;4.512237
1602.000000;4.522096
1601.000000;3.925580
1600.000000;3.695310
1599.000000;3.559720
1598.000000;3.510727
1597.000000;3.511265
1596.000000;3.525378
1595.000000;3.561818
1594.000000;3.615804
1593.000000;3.639742
1592.000000;3.612879
1591.000000;3.651633
1590.000000;3.940025
1589.000000;4.102732
1588.000000;3.763324
1587.000000;3.653720
1586.000000;3.613503
1585.000000;3.552000
1584.000000;3.518993
1583.000000;3.531327
1582.000000;3.613329
1581.000000;3.691274
1580.000000;3.725480
1579.000000;3.719263
1578.000000;3.706067
1577.000000;3.708235
1576.000000;3.716581
1575.000000;3.740404
1574.000000;3.769831
1573.000000;4.162651
1572.000000;4.236934
1571.000000;3.718657
1570.000000;3.564419
1569.000000;3.444542
1568.000000;3.310270
1567.000000;3.217827
1566.000000;3.246151
1565.000000;3.406483
1564.000000;3.580031
1563.000000;3.612883
1562.000000;3.578967
1561.000000;3.629459
1560.000000;3.764007
1559.000000;3.872392
1558.000000;3.876240
1557.000000;3.725696
1556.000000;3.521599
1555.000000;3.423652
1554.000000;3.434341
1553.000000;3.509183
1552.000000;3.568907
1551.000000;3.530521
1550.000000;3.495365
1549.000000;3.514976
1548.000000;3.554089
1547.000000;3.692779
1546.000000;3.822102
1545.000000;3.729786
1544.000000;3.767861
1543.000000;3.889355
1542.000000;3.822551
1541.000000;3.775499
1540.000000;3.817137
1539.000000;3.823131
1538.000000;3.815445
1537.000000;3.954146
1536.000000;3.985421
1535.000000;3.825016
1534.000000;3.959477
1533.000000;4.232872
1532.000000;3.840214
1531.000000;3.617671
1530.000000;3.588848
1529.000000;3.678788
1528.000000;3.878174
1527.000000;4.203517
1526.000000;4.214065
1525.000000;3.905211
1524.000000;3.879870
1523.000000;4.077802
1522.000000;4.146885
1521.000000;4.154276
1520.000000;4.212696
1519.000000;3.815350
1518.000000;3.521892
1517.000000;3.445946
1516.000000;3.512787
1515.000000;3.716002
1514.000000;4.077484
1513.000000;3.960921
1512.000000;3.771929
1511.000000;3.777434
1510.000000;3.790052
1509.000000;3.795232
1508.000000;4.011181
1507.000000;4.578449
1506.000000;4.162433
1505.000000;3.770956
1504.000000;3.559088
1503.000000;3.609165
1502.000000;3.917534
1501.000000;4.385621
1500.000000;4.725837
1499.000000;4.633560
1498.000000;4.692663
1497.000000;4.226472
1496.000000;3.874759
1495.000000;3.712192
1494.000000;3.878562
1493.000000;3.984048
1492.000000;3.645616
1491.000000;3.499592
1490.000000;3.445708
1489.000000;3.427114
1488.000000;3.450855
1487.000000;3.498569
1486.000000;3.478486
1485.000000;3.388094
1484.000000;3.358380
1483.000000;3.422114
1482.000000;3.575339
1481.000000;3.901224
1480.000000;4.126888
1479.000000;3.828070
1478.000000;3.678337
1477.000000;3.628254
1476.000000;3.726480
1475.000000;4.041505
1474.000000;4.211226
1473.000000;4.046702
1472.000000;3.938888
1471.000000;3.787041
1470.000000;3.573915
1469.000000;3.473643
1468.000000;3.530694
1467.000000;3.677100
1466.000000;3.840790
1465.000000;3.938258
1464.000000;3.714827
1463.000000;3.484559
1462.000000;3.436427
1461.000000;3.534914
1460.000000;3.692618
1459.000000;3.881528
1458.000000;4.119528
1457.000000;4.216113
1456.000000;4.026076
1455.000000;3.714077
1454.000000;3.541068
1453.000000;3.552404
1452.000000;3.627599
1451.000000;3.641614
1450.000000;3.707093
1449.000000;3.865738
1448.000000;3.935693
1447.000000;3.911004
1446.000000;3.845747
1445.000000;3.785745
1444.000000;3.785761
1443.000000;3.747222
1442.000000;3.764604
1441.000000;3.899460
1440.000000;3.933484
1439.000000;3.807627
1438.000000;3.704005
1437.000000;3.631040
1436.000000;3.644022
1435.000000;3.701741
1434.000000;3.841070
1433.000000;4.141350
1432.000000;3.682037
1431.000000;3.460239
1430.000000;3.489421
1429.000000;3.547368
1428.000000;3.548315
1427.000000;3.479062
1426.000000;3.417186
1425.000000;3.424624
1424.000000;3.528627
1423.000000;3.736973
1422.000000;3.820634
1421.000000;3.673755
1420.000000;3.637481
1419.000000;3.696676
1418.000000;3.749095
1417.000000;3.772649
1416.000000;4.159274
1415.000000;4.418550
1414.000000;3.755329
1413.000000;3.669936
1412.000000;3.722941
1411.000000;3.810940
1410.000000;3.764020
1409.000000;3.713658
1408.000000;4.130835
1407.000000;4.034289
1406.000000;3.626722
1405.000000;3.517217
1404.000000;3.481287
1403.000000;3.535755
1402.000000;3.698130
1401.000000;3.880286
1400.000000;3.875705
1399.000000;3.701408
1398.000000;3.648357
1397.000000;3.744226
1396.000000;3.934865
1395.000000;4.354864
1394.000000;4.191376
1393.000000;3.669410
1392.000000;3.516416
1391.000000;3.624639
1390.000000;4.082979
1389.000000;4.331456
1388.000000;4.143382
1387.000000;4.413457
1386.000000;4.727386
1385.000000;4.821908
1384.000000;4.134117
1383.000000;3.720810
1382.000000;3.604831
1381.000000;3.727289
1380.000000;4.146261
1379.000000;4.135391
1378.000000;3.907251
1377.000000;3.944659
1376.000000;4.090381
1375.000000;4.010628
1374.000000;3.741085
1373.000000;3.572335
1372.000000;3.502222
1371.000000;3.491693
1370.000000;3.521299
1369.000000;3.581438
1368.000000;3.607571
1367.000000;3.589380
1366.000000;3.644551
1365.000000;3.829623
1364.000000;4.045829
1363.000000;4.042099
1362.000000;3.950921
1361.000000;3.926045
1360.000000;3.908555
1359.000000;3.743999
1358.000000;3.572333
1357.000000;3.534832
1356.000000;3.741614
1355.000000;4.329487
1354.000000;4.123119
1353.000000;3.876095
1352.000000;3.778049
1351.000000;3.676732
1350.000000;3.715887
1349.000000;3.855544
1348.000000;3.663277
1347.000000;3.399761
1346.000000;3.299924
1345.000000;3.351855
1344.000000;3.486389
1343.000000;3.519940
1342.000000;3.518755
1341.000000;3.535224
1340.000000;3.482087
1339.000000;3.461767
1338.000000;3.521454
1337.000000;3.563111
1336.000000;3.446676
1335.000000;3.258187
1334.000000;3.129223
1333.000000;3.072145
1332.000000;3.084945
1331.000000;3.183287
1330.000000;3.348638
1329.000000;3.556385
1328.000000;3.718329
1327.000000;3.618277
1326.000000;3.564875
1325.000000;3.861704
1324.000000;3.937796
1323.000000;3.516511
1322.000000;3.408251
1321.000000;3.492946
1320.000000;3.676603
1319.000000;3.915454
1318.000000;3.887367
1317.000000;3.644865
1316.000000;3.514933
1315.000000;3.515970
1314.000000;3.727986
1313.000000;4.079795
1312.000000;3.828435
1311.000000;3.833029
1310.000000;4.210417
1309.000000;3.841300
1308.000000;3.483430
1307.000000;3.413441
1306.000000;3.687906
1305.000000;4.007396
1304.000000;3.523461
1303.000000;3.380028
1302.000000;3.440647
1301.000000;3.581114
1300.000000;3.682443
1299.000000;3.752566
1298.000000;3.565513
1297.000000;3.384214
1296.000000;3.406321
1295.000000;3.650590
1294.000000;3.936871
1293.000000;3.721329
1292.000000;3.615778
1291.000000;3.594804
1290.000000;3.545695
1289.000000;3.521865
1288.000000;3.594872
1287.000000;3.721336
1286.000000;3.815458
1285.000000;4.028269
1284.000000;4.214647
1283.000000;4.043906
1282.000000;3.896697
1281.000000;3.804545
1280.000000;3.944160
1279.000000;4.327815
1278.000000;3.936889
1277.000000;3.613161
1276.000000;3.465495
1275.000000;3.429482
1274.000000;3.578291
1273.000000;3.910496
1272.000000;4.448418
1271.000000;3.911221
1270.000000;3.619232
1269.000000;3.590059
1268.000000;3.707587
1267.000000;3.928947
1266.000000;3.751450
1265.000000;3.530280
1264.000000;3.494744
1263.000000;3.592943
1262.000000;3.694254
1261.000000;3.660516
1260.000000;3.572966
1259.000000;3.492597
1258.000000;3.411884
1257.000000;3.393222
1256.000000;3.508643
1255.000000;3.692404
1254.000000;3.854617
1253.000000;3.854953
1252.000000;3.607134
1251.000000;3.466987
1250.000000;3.412217
1249.000000;3.402977
1248.000000;3.428225
1247.000000;3.386064
1246.000000;3.283223
1245.000000;3.239919
1244.000000;3.273550
1243.000000;3.334992
1242.000000;3.387862
1241.000000;3.446646
1240.000000;3.535576
1239.000000;3.621791
1238.000000;3.789685
1237.000000;4.241334
1236.000000;3.776885
1235.000000;3.514126
1234.000000;3.404833
1233.000000;3.347281
1232.000000;3.307419
1231.000000;3.303909
1230.000000;3.387252
1229.000000;3.590443
1228.000000;3.643362
1227.000000;3.504609
1226.000000;3.555057
1225.000000;3.838531
1224.000000;4.232183
1223.000000;4.199934
1222.000000;4.297555
1221.000000;4.529605
1220.000000;4.146328
1219.000000;3.946038
1218.000000;3.932253
1217.000000;3.960699
1216.000000;4.240158
1215.000000;3.967452
1214.000000;3.834737
1213.000000;3.923057
1212.000000;3.588855
1211.000000;3.343894
1210.000000;3.241960
1209.000000;3.247827
1208.000000;3.357880
1207.000000;3.515764
1206.000000;3.540699
1205.000000;3.530479
1204.000000;3.844471
1203.000000;4.089958
1202.000000;3.568615
1201.000000;3.575631
1200.000000;3.877705
