Criado como novo conjunto de dados;"e2410_daniel_v2.spp","23043.0 Secs"
cm-1;Abs
10000.000000;0.631845
9999.000000;0.631357
9998.000000;0.630896
9997.000000;0.630535
9996.000000;0.630227
9995.000000;0.629752
9994.000000;0.628997
9993.000000;0.628104
9992.000000;0.627254
9991.000000;0.626504
9990.000000;0.625891
9989.000000;0.625476
9988.000000;0.625191
9987.000000;0.624834
9986.000000;0.624321
9985.000000;0.623778
9984.000000;0.623310
9983.000000;0.622879
9982.000000;0.622456
9981.000000;0.622098
9980.000000;0.621784
9979.000000;0.621396
9978.000000;0.620927
9977.000000;0.620522
9976.000000;0.620199
9975.000000;0.619743
9974.000000;0.618982
9973.000000;0.618022
9972.000000;0.617097
9971.000000;0.616347
9970.000000;0.615790
9969.000000;0.615365
9968.000000;0.614949
9967.000000;0.614465
9966.000000;0.614024
9965.000000;0.613761
9964.000000;0.613553
9963.000000;0.613098
9962.000000;0.612332
9961.000000;0.611527
9960.000000;0.610926
9959.000000;0.610529
9958.000000;0.610263
9957.000000;0.610111
9956.000000;0.609953
9955.000000;0.609548
9954.000000;0.608825
9953.000000;0.608005
9952.000000;0.607307
9951.000000;0.606720
9950.000000;0.606197
9949.000000;0.605861
9948.000000;0.605830
9947.000000;0.605947
9946.000000;0.605875
9945.000000;0.605404
9944.000000;0.604597
9943.000000;0.603703
9942.000000;0.602984
9941.000000;0.602522
9940.000000;0.602138
9939.000000;0.601591
9938.000000;0.600869
9937.000000;0.600182
9936.000000;0.599670
9935.000000;0.599242
9934.000000;0.598728
9933.000000;0.598063
9932.000000;0.597329
9931.000000;0.596738
9930.000000;0.596520
9929.000000;0.596655
9928.000000;0.596756
9927.000000;0.596440
9926.000000;0.595799
9925.000000;0.595256
9924.000000;0.594988
9923.000000;0.594738
9922.000000;0.594246
9921.000000;0.593575
9920.000000;0.592933
9919.000000;0.592404
9918.000000;0.591957
9917.000000;0.591526
9916.000000;0.590982
9915.000000;0.590224
9914.000000;0.589364
9913.000000;0.588636
9912.000000;0.588088
9911.000000;0.587546
9910.000000;0.586942
9909.000000;0.586423
9908.000000;0.586057
9907.000000;0.585655
9906.000000;0.585030
9905.000000;0.584275
9904.000000;0.583645
9903.000000;0.583287
9902.000000;0.583164
9901.000000;0.583106
9900.000000;0.582875
9899.000000;0.582316
9898.000000;0.581557
9897.000000;0.580923
9896.000000;0.580608
9895.000000;0.580495
9894.000000;0.580330
9893.000000;0.579956
9892.000000;0.579371
9891.000000;0.578696
9890.000000;0.578096
9889.000000;0.577618
9888.000000;0.577140
9887.000000;0.576580
9886.000000;0.576089
9885.000000;0.575837
9884.000000;0.575669
9883.000000;0.575218
9882.000000;0.574375
9881.000000;0.573423
9880.000000;0.572707
9879.000000;0.572347
9878.000000;0.572268
9877.000000;0.572257
9876.000000;0.572000
9875.000000;0.571320
9874.000000;0.570421
9873.000000;0.569687
9872.000000;0.569229
9871.000000;0.568845
9870.000000;0.568397
9869.000000;0.567950
9868.000000;0.567526
9867.000000;0.566995
9866.000000;0.566340
9865.000000;0.565766
9864.000000;0.565447
9863.000000;0.565345
9862.000000;0.565324
9861.000000;0.565261
9860.000000;0.564992
9859.000000;0.564370
9858.000000;0.563466
9857.000000;0.562515
9856.000000;0.561641
9855.000000;0.560804
9854.000000;0.560051
9853.000000;0.559542
9852.000000;0.559279
9851.000000;0.559049
9850.000000;0.558712
9849.000000;0.558332
9848.000000;0.557950
9847.000000;0.557492
9846.000000;0.557010
9845.000000;0.556752
9844.000000;0.556828
9843.000000;0.556971
9842.000000;0.556812
9841.000000;0.556250
9840.000000;0.555450
9839.000000;0.554611
9838.000000;0.553846
9837.000000;0.553176
9836.000000;0.552532
9835.000000;0.551855
9834.000000;0.551224
9833.000000;0.550758
9832.000000;0.550397
9831.000000;0.549940
9830.000000;0.549343
9829.000000;0.548802
9828.000000;0.548471
9827.000000;0.548271
9826.000000;0.548010
9825.000000;0.547573
9824.000000;0.546940
9823.000000;0.546192
9822.000000;0.545535
9821.000000;0.545154
9820.000000;0.544995
9819.000000;0.544814
9818.000000;0.544477
9817.000000;0.544060
9816.000000;0.543656
9815.000000;0.543245
9814.000000;0.542803
9813.000000;0.542340
9812.000000;0.541822
9811.000000;0.541192
9810.000000;0.540526
9809.000000;0.540002
9808.000000;0.539672
9807.000000;0.539384
9806.000000;0.538945
9805.000000;0.538253
9804.000000;0.537319
9803.000000;0.536326
9802.000000;0.535602
9801.000000;0.535358
9800.000000;0.535447
9799.000000;0.535540
9798.000000;0.535477
9797.000000;0.535262
9796.000000;0.534852
9795.000000;0.534203
9794.000000;0.533489
9793.000000;0.532947
9792.000000;0.532535
9791.000000;0.532009
9790.000000;0.531350
9789.000000;0.530788
9788.000000;0.530397
9787.000000;0.529978
9786.000000;0.529441
9785.000000;0.528968
9784.000000;0.528721
9783.000000;0.528627
9782.000000;0.528540
9781.000000;0.528372
9780.000000;0.527978
9779.000000;0.527206
9778.000000;0.526153
9777.000000;0.525161
9776.000000;0.524448
9775.000000;0.523976
9774.000000;0.523696
9773.000000;0.523650
9772.000000;0.523712
9771.000000;0.523542
9770.000000;0.522973
9769.000000;0.522220
9768.000000;0.521556
9767.000000;0.520991
9766.000000;0.520422
9765.000000;0.519892
9764.000000;0.519489
9763.000000;0.519164
9762.000000;0.518800
9761.000000;0.518377
9760.000000;0.517947
9759.000000;0.517550
9758.000000;0.517236
9757.000000;0.517030
9756.000000;0.516806
9755.000000;0.516349
9754.000000;0.515619
9753.000000;0.514831
9752.000000;0.514193
9751.000000;0.513708
9750.000000;0.513284
9749.000000;0.512868
9748.000000;0.512422
9747.000000;0.511900
9746.000000;0.511342
9745.000000;0.510855
9744.000000;0.510487
9743.000000;0.510202
9742.000000;0.509973
9741.000000;0.509766
9740.000000;0.509459
9739.000000;0.508978
9738.000000;0.508472
9737.000000;0.508127
9736.000000;0.507844
9735.000000;0.507357
9734.000000;0.506690
9733.000000;0.506187
9732.000000;0.506020
9731.000000;0.505951
9730.000000;0.505659
9729.000000;0.505081
9728.000000;0.504339
9727.000000;0.503559
9726.000000;0.502886
9725.000000;0.502428
9724.000000;0.502090
9723.000000;0.501638
9722.000000;0.501018
9721.000000;0.500420
9720.000000;0.499966
9719.000000;0.499567
9718.000000;0.499155
9717.000000;0.498817
9716.000000;0.498584
9715.000000;0.498307
9714.000000;0.497880
9713.000000;0.497379
9712.000000;0.496859
9711.000000;0.496247
9710.000000;0.495556
9709.000000;0.495009
9708.000000;0.494758
9707.000000;0.494663
9706.000000;0.494497
9705.000000;0.494212
9704.000000;0.493857
9703.000000;0.493394
9702.000000;0.492760
9701.000000;0.492010
9700.000000;0.491268
9699.000000;0.490631
9698.000000;0.490189
9697.000000;0.489982
9696.000000;0.489853
9695.000000;0.489502
9694.000000;0.488817
9693.000000;0.488018
9692.000000;0.487397
9691.000000;0.487021
9690.000000;0.486784
9689.000000;0.486570
9688.000000;0.486273
9687.000000;0.485803
9686.000000;0.485201
9685.000000;0.484656
9684.000000;0.484301
9683.000000;0.484079
9682.000000;0.483883
9681.000000;0.483699
9680.000000;0.483514
9679.000000;0.483216
9678.000000;0.482699
9677.000000;0.481986
9676.000000;0.481206
9675.000000;0.480509
9674.000000;0.480017
9673.000000;0.479729
9672.000000;0.479435
9671.000000;0.478860
9670.000000;0.477976
9669.000000;0.477062
9668.000000;0.476422
9667.000000;0.476141
9666.000000;0.476113
9665.000000;0.476150
9664.000000;0.476040
9663.000000;0.475662
9662.000000;0.475119
9661.000000;0.474619
9660.000000;0.474209
9659.000000;0.473746
9658.000000;0.473149
9657.000000;0.472522
9656.000000;0.471999
9655.000000;0.471632
9654.000000;0.471445
9653.000000;0.471417
9652.000000;0.471382
9651.000000;0.471116
9650.000000;0.470598
9649.000000;0.470024
9648.000000;0.469522
9647.000000;0.469009
9646.000000;0.468398
9645.000000;0.467754
9644.000000;0.467176
9643.000000;0.466678
9642.000000;0.466270
9641.000000;0.465986
9640.000000;0.465766
9639.000000;0.465445
9638.000000;0.464950
9637.000000;0.464392
9636.000000;0.463892
9635.000000;0.463437
9634.000000;0.462978
9633.000000;0.462519
9632.000000;0.462070
9631.000000;0.461606
9630.000000;0.461145
9629.000000;0.460753
9628.000000;0.460440
9627.000000;0.460139
9626.000000;0.459819
9625.000000;0.459522
9624.000000;0.459275
9623.000000;0.459068
9622.000000;0.458905
9621.000000;0.458745
9620.000000;0.458422
9619.000000;0.457814
9618.000000;0.457067
9617.000000;0.456470
9616.000000;0.456089
9615.000000;0.455734
9614.000000;0.455289
9613.000000;0.454865
9612.000000;0.454540
9611.000000;0.454168
9610.000000;0.453568
9609.000000;0.452790
9608.000000;0.452060
9607.000000;0.451563
9606.000000;0.451311
9605.000000;0.451186
9604.000000;0.451042
9603.000000;0.450831
9602.000000;0.450600
9601.000000;0.450333
9600.000000;0.449894
9599.000000;0.449220
9598.000000;0.448490
9597.000000;0.447925
9596.000000;0.447517
9595.000000;0.447132
9594.000000;0.446774
9593.000000;0.446530
9592.000000;0.446336
9591.000000;0.446060
9590.000000;0.445780
9589.000000;0.445674
9588.000000;0.445678
9587.000000;0.445515
9586.000000;0.445089
9585.000000;0.444553
9584.000000;0.443983
9583.000000;0.443285
9582.000000;0.442504
9581.000000;0.441890
9580.000000;0.441551
9579.000000;0.441287
9578.000000;0.440897
9577.000000;0.440422
9576.000000;0.439972
9575.000000;0.439559
9574.000000;0.439203
9573.000000;0.438986
9572.000000;0.438875
9571.000000;0.438653
9570.000000;0.438174
9569.000000;0.437530
9568.000000;0.436872
9567.000000;0.436252
9566.000000;0.435714
9565.000000;0.435342
9564.000000;0.435102
9563.000000;0.434789
9562.000000;0.434286
9561.000000;0.433740
9560.000000;0.433382
9559.000000;0.433262
9558.000000;0.433238
9557.000000;0.433115
9556.000000;0.432741
9555.000000;0.432117
9554.000000;0.431452
9553.000000;0.430996
9552.000000;0.430779
9551.000000;0.430623
9550.000000;0.430396
9549.000000;0.430090
9548.000000;0.429686
9547.000000;0.429140
9546.000000;0.428552
9545.000000;0.428123
9544.000000;0.427905
9543.000000;0.427765
9542.000000;0.427608
9541.000000;0.427441
9540.000000;0.427196
9539.000000;0.426733
9538.000000;0.426070
9537.000000;0.425408
9536.000000;0.424854
9535.000000;0.424351
9534.000000;0.423892
9533.000000;0.423593
9532.000000;0.423440
9531.000000;0.423225
9530.000000;0.422821
9529.000000;0.422332
9528.000000;0.421868
9527.000000;0.421381
9526.000000;0.420828
9525.000000;0.420302
9524.000000;0.419874
9523.000000;0.419494
9522.000000;0.419141
9521.000000;0.418910
9520.000000;0.418822
9519.000000;0.418728
9518.000000;0.418508
9517.000000;0.418193
9516.000000;0.417811
9515.000000;0.417296
9514.000000;0.416662
9513.000000;0.416090
9512.000000;0.415701
9511.000000;0.415394
9510.000000;0.415010
9509.000000;0.414545
9508.000000;0.414103
9507.000000;0.413772
9506.000000;0.413610
9505.000000;0.413596
9504.000000;0.413540
9503.000000;0.413187
9502.000000;0.412510
9501.000000;0.411748
9500.000000;0.411107
9499.000000;0.410583
9498.000000;0.410139
9497.000000;0.409825
9496.000000;0.409637
9495.000000;0.409426
9494.000000;0.409102
9493.000000;0.408766
9492.000000;0.408529
9491.000000;0.408335
9490.000000;0.408076
9489.000000;0.407761
9488.000000;0.407456
9487.000000;0.407165
9486.000000;0.406870
9485.000000;0.406578
9484.000000;0.406270
9483.000000;0.405892
9482.000000;0.405442
9481.000000;0.404948
9480.000000;0.404357
9479.000000;0.403614
9478.000000;0.402873
9477.000000;0.402415
9476.000000;0.402304
9475.000000;0.402291
9474.000000;0.402137
9473.000000;0.401837
9472.000000;0.401483
9471.000000;0.401112
9470.000000;0.400789
9469.000000;0.400607
9468.000000;0.400481
9467.000000;0.400152
9466.000000;0.399529
9465.000000;0.398848
9464.000000;0.398367
9463.000000;0.398068
9462.000000;0.397788
9461.000000;0.397489
9460.000000;0.397224
9459.000000;0.396994
9458.000000;0.396771
9457.000000;0.396567
9456.000000;0.396340
9455.000000;0.395976
9454.000000;0.395453
9453.000000;0.394912
9452.000000;0.394462
9451.000000;0.394054
9450.000000;0.393640
9449.000000;0.393298
9448.000000;0.393072
9447.000000;0.392841
9446.000000;0.392507
9445.000000;0.392154
9444.000000;0.391911
9443.000000;0.391744
9442.000000;0.391546
9441.000000;0.391313
9440.000000;0.391085
9439.000000;0.390796
9438.000000;0.390342
9437.000000;0.389729
9436.000000;0.389059
9435.000000;0.388440
9434.000000;0.387979
9433.000000;0.387754
9432.000000;0.387695
9431.000000;0.387577
9430.000000;0.387252
9429.000000;0.386797
9428.000000;0.386354
9427.000000;0.385948
9426.000000;0.385543
9425.000000;0.385158
9424.000000;0.384810
9423.000000;0.384447
9422.000000;0.384055
9421.000000;0.383743
9420.000000;0.383591
9419.000000;0.383495
9418.000000;0.383258
9417.000000;0.382795
9416.000000;0.382173
9415.000000;0.381515
9414.000000;0.380952
9413.000000;0.380584
9412.000000;0.380401
9411.000000;0.380298
9410.000000;0.380211
9409.000000;0.380159
9408.000000;0.380113
9407.000000;0.379945
9406.000000;0.379576
9405.000000;0.379084
9404.000000;0.378590
9403.000000;0.378142
9402.000000;0.377754
9401.000000;0.377455
9400.000000;0.377207
9399.000000;0.376907
9398.000000;0.376539
9397.000000;0.376211
9396.000000;0.375969
9395.000000;0.375695
9394.000000;0.375299
9393.000000;0.374877
9392.000000;0.374566
9391.000000;0.374343
9390.000000;0.374090
9389.000000;0.373787
9388.000000;0.373497
9387.000000;0.373217
9386.000000;0.372854
9385.000000;0.372358
9384.000000;0.371780
9383.000000;0.371232
9382.000000;0.370828
9381.000000;0.370592
9380.000000;0.370402
9379.000000;0.370096
9378.000000;0.369670
9377.000000;0.369303
9376.000000;0.369133
9375.000000;0.369098
9374.000000;0.369048
9373.000000;0.368927
9372.000000;0.368746
9371.000000;0.368481
9370.000000;0.368092
9369.000000;0.367597
9368.000000;0.367063
9367.000000;0.366546
9366.000000;0.366099
9365.000000;0.365771
9364.000000;0.365536
9363.000000;0.365305
9362.000000;0.365053
9361.000000;0.364858
9360.000000;0.364754
9359.000000;0.364628
9358.000000;0.364356
9357.000000;0.363980
9356.000000;0.363655
9355.000000;0.363428
9354.000000;0.363166
9353.000000;0.362705
9352.000000;0.362047
9351.000000;0.361402
9350.000000;0.360992
9349.000000;0.360829
9348.000000;0.360693
9347.000000;0.360400
9346.000000;0.360027
9345.000000;0.359782
9344.000000;0.359685
9343.000000;0.359535
9342.000000;0.359198
9341.000000;0.358777
9340.000000;0.358441
9339.000000;0.358200
9338.000000;0.357958
9337.000000;0.357672
9336.000000;0.357385
9335.000000;0.357123
9334.000000;0.356858
9333.000000;0.356546
9332.000000;0.356168
9331.000000;0.355744
9330.000000;0.355334
9329.000000;0.354991
9328.000000;0.354701
9327.000000;0.354419
9326.000000;0.354127
9325.000000;0.353846
9324.000000;0.353590
9323.000000;0.353374
9322.000000;0.353203
9321.000000;0.353008
9320.000000;0.352644
9319.000000;0.352070
9318.000000;0.351484
9317.000000;0.351157
9316.000000;0.351135
9315.000000;0.351198
9314.000000;0.351118
9313.000000;0.350827
9312.000000;0.350380
9311.000000;0.349865
9310.000000;0.349388
9309.000000;0.349025
9308.000000;0.348757
9307.000000;0.348529
9306.000000;0.348343
9305.000000;0.348212
9304.000000;0.348039
9303.000000;0.347700
9302.000000;0.347243
9301.000000;0.346878
9300.000000;0.346729
9299.000000;0.346713
9298.000000;0.346670
9297.000000;0.346508
9296.000000;0.346204
9295.000000;0.345810
9294.000000;0.345463
9293.000000;0.345274
9292.000000;0.345174
9291.000000;0.344969
9290.000000;0.344581
9289.000000;0.344133
9288.000000;0.343773
9287.000000;0.343524
9286.000000;0.343324
9285.000000;0.343104
9284.000000;0.342808
9283.000000;0.342447
9282.000000;0.342127
9281.000000;0.341927
9280.000000;0.341750
9279.000000;0.341410
9278.000000;0.340889
9277.000000;0.340377
9276.000000;0.340050
9275.000000;0.339918
9274.000000;0.339876
9273.000000;0.339792
9272.000000;0.339519
9271.000000;0.338992
9270.000000;0.338346
9269.000000;0.337833
9268.000000;0.337571
9267.000000;0.337479
9266.000000;0.337440
9265.000000;0.337406
9264.000000;0.337336
9263.000000;0.337174
9262.000000;0.336919
9261.000000;0.336602
9260.000000;0.336196
9259.000000;0.335693
9258.000000;0.335232
9257.000000;0.334992
9256.000000;0.334923
9255.000000;0.334783
9254.000000;0.334475
9253.000000;0.334145
9252.000000;0.333904
9251.000000;0.333639
9250.000000;0.333225
9249.000000;0.332749
9248.000000;0.332402
9247.000000;0.332249
9246.000000;0.332209
9245.000000;0.332169
9244.000000;0.332018
9243.000000;0.331680
9242.000000;0.331212
9241.000000;0.330811
9240.000000;0.330628
9239.000000;0.330615
9238.000000;0.330607
9237.000000;0.330484
9236.000000;0.330215
9235.000000;0.329832
9234.000000;0.329409
9233.000000;0.329035
9232.000000;0.328746
9231.000000;0.328522
9230.000000;0.328348
9229.000000;0.328192
9228.000000;0.327976
9227.000000;0.327645
9226.000000;0.327275
9225.000000;0.326986
9224.000000;0.326750
9223.000000;0.326435
9222.000000;0.326035
9221.000000;0.325712
9220.000000;0.325565
9219.000000;0.325493
9218.000000;0.325361
9217.000000;0.325157
9216.000000;0.324931
9215.000000;0.324692
9214.000000;0.324444
9213.000000;0.324220
9212.000000;0.323993
9211.000000;0.323667
9210.000000;0.323215
9209.000000;0.322768
9208.000000;0.322482
9207.000000;0.322375
9206.000000;0.322351
9205.000000;0.322315
9204.000000;0.322231
9203.000000;0.322114
9202.000000;0.322008
9201.000000;0.321919
9200.000000;0.321754
9199.000000;0.321413
9198.000000;0.320947
9197.000000;0.320524
9196.000000;0.320227
9195.000000;0.319974
9194.000000;0.319667
9193.000000;0.319328
9192.000000;0.319036
9191.000000;0.318833
9190.000000;0.318724
9189.000000;0.318680
9188.000000;0.318597
9187.000000;0.318360
9186.000000;0.317979
9185.000000;0.317610
9184.000000;0.317375
9183.000000;0.317238
9182.000000;0.317087
9181.000000;0.316874
9180.000000;0.316622
9179.000000;0.316369
9178.000000;0.316137
9177.000000;0.315913
9176.000000;0.315639
9175.000000;0.315264
9174.000000;0.314817
9173.000000;0.314373
9172.000000;0.313970
9171.000000;0.313618
9170.000000;0.313368
9169.000000;0.313263
9168.000000;0.313248
9167.000000;0.313216
9166.000000;0.313151
9165.000000;0.313100
9164.000000;0.313019
9163.000000;0.312768
9162.000000;0.312316
9161.000000;0.311827
9160.000000;0.311492
9159.000000;0.311350
9158.000000;0.311309
9157.000000;0.311263
9156.000000;0.311145
9155.000000;0.310940
9154.000000;0.310694
9153.000000;0.310464
9152.000000;0.310252
9151.000000;0.310027
9150.000000;0.309794
9149.000000;0.309578
9148.000000;0.309349
9147.000000;0.309045
9146.000000;0.308673
9145.000000;0.308314
9144.000000;0.308044
9143.000000;0.307897
9142.000000;0.307865
9141.000000;0.307849
9140.000000;0.307674
9139.000000;0.307255
9138.000000;0.306741
9137.000000;0.306374
9136.000000;0.306226
9135.000000;0.306169
9134.000000;0.306061
9133.000000;0.305871
9132.000000;0.305630
9131.000000;0.305393
9130.000000;0.305218
9129.000000;0.305070
9128.000000;0.304805
9127.000000;0.304355
9126.000000;0.303892
9125.000000;0.303649
9124.000000;0.303608
9123.000000;0.303538
9122.000000;0.303310
9121.000000;0.303018
9120.000000;0.302786
9119.000000;0.302631
9118.000000;0.302531
9117.000000;0.302464
9116.000000;0.302337
9115.000000;0.302042
9114.000000;0.301636
9113.000000;0.301301
9112.000000;0.301112
9111.000000;0.300981
9110.000000;0.300852
9109.000000;0.300782
9108.000000;0.300779
9107.000000;0.300721
9106.000000;0.300517
9105.000000;0.300224
9104.000000;0.299922
9103.000000;0.299605
9102.000000;0.299271
9101.000000;0.298986
9100.000000;0.298790
9099.000000;0.298635
9098.000000;0.298494
9097.000000;0.298417
9096.000000;0.298407
9095.000000;0.298345
9094.000000;0.298135
9093.000000;0.297837
9092.000000;0.297596
9091.000000;0.297482
9090.000000;0.297448
9089.000000;0.297388
9088.000000;0.297179
9087.000000;0.296759
9086.000000;0.296220
9085.000000;0.295763
9084.000000;0.295520
9083.000000;0.295467
9082.000000;0.295500
9081.000000;0.295521
9080.000000;0.295443
9079.000000;0.295207
9078.000000;0.294867
9077.000000;0.294567
9076.000000;0.294399
9075.000000;0.294310
9074.000000;0.294186
9073.000000;0.293966
9072.000000;0.293672
9071.000000;0.293379
9070.000000;0.293177
9069.000000;0.293100
9068.000000;0.293076
9067.000000;0.292995
9066.000000;0.292818
9065.000000;0.292582
9064.000000;0.292318
9063.000000;0.292052
9062.000000;0.291840
9061.000000;0.291721
9060.000000;0.291644
9059.000000;0.291529
9058.000000;0.291372
9057.000000;0.291218
9056.000000;0.291041
9055.000000;0.290777
9054.000000;0.290440
9053.000000;0.290119
9052.000000;0.289856
9051.000000;0.289645
9050.000000;0.289520
9049.000000;0.289508
9048.000000;0.289512
9047.000000;0.289371
9046.000000;0.289048
9045.000000;0.288661
9044.000000;0.288300
9043.000000;0.287964
9042.000000;0.287659
9041.000000;0.287447
9040.000000;0.287357
9039.000000;0.287345
9038.000000;0.287380
9037.000000;0.287462
9036.000000;0.287536
9035.000000;0.287487
9034.000000;0.287258
9033.000000;0.286900
9032.000000;0.286505
9031.000000;0.286149
9030.000000;0.285879
9029.000000;0.285670
9028.000000;0.285415
9027.000000;0.285071
9026.000000;0.284766
9025.000000;0.284649
9024.000000;0.284655
9023.000000;0.284563
9022.000000;0.284289
9021.000000;0.283972
9020.000000;0.283756
9019.000000;0.283640
9018.000000;0.283560
9017.000000;0.283483
9016.000000;0.283368
9015.000000;0.283164
9014.000000;0.282902
9013.000000;0.282679
9012.000000;0.282525
9011.000000;0.282366
9010.000000;0.282153
9009.000000;0.281930
9008.000000;0.281754
9007.000000;0.281635
9006.000000;0.281569
9005.000000;0.281521
9004.000000;0.281391
9003.000000;0.281111
9002.000000;0.280780
9001.000000;0.280573
9000.000000;0.280501
8999.000000;0.280401
8998.000000;0.280172
8997.000000;0.279904
8996.000000;0.279723
8995.000000;0.279637
8994.000000;0.279586
8993.000000;0.279523
8992.000000;0.279406
8991.000000;0.279193
8990.000000;0.278910
8989.000000;0.278656
8988.000000;0.278478
8987.000000;0.278335
8986.000000;0.278193
8985.000000;0.278068
8984.000000;0.277974
8983.000000;0.277898
8982.000000;0.277843
8981.000000;0.277808
8980.000000;0.277721
8979.000000;0.277503
8978.000000;0.277197
8977.000000;0.276936
8976.000000;0.276759
8975.000000;0.276580
8974.000000;0.276348
8973.000000;0.276122
8972.000000;0.275947
8971.000000;0.275788
8970.000000;0.275613
8969.000000;0.275458
8968.000000;0.275362
8967.000000;0.275321
8966.000000;0.275317
8965.000000;0.275324
8964.000000;0.275267
8963.000000;0.275067
8962.000000;0.274747
8961.000000;0.274417
8960.000000;0.274149
8959.000000;0.273948
8958.000000;0.273830
8957.000000;0.273820
8956.000000;0.273857
8955.000000;0.273815
8954.000000;0.273655
8953.000000;0.273464
8952.000000;0.273330
8951.000000;0.273241
8950.000000;0.273142
8949.000000;0.272992
8948.000000;0.272756
8947.000000;0.272431
8946.000000;0.272087
8945.000000;0.271817
8944.000000;0.271647
8943.000000;0.271544
8942.000000;0.271496
8941.000000;0.271499
8940.000000;0.271485
8939.000000;0.271385
8938.000000;0.271229
8937.000000;0.271101
8936.000000;0.271007
8935.000000;0.270903
8934.000000;0.270814
8933.000000;0.270780
8932.000000;0.270710
8931.000000;0.270444
8930.000000;0.269994
8929.000000;0.269579
8928.000000;0.269389
8927.000000;0.269421
8926.000000;0.269548
8925.000000;0.269631
8924.000000;0.269538
8923.000000;0.269207
8922.000000;0.268756
8921.000000;0.268421
8920.000000;0.268327
8919.000000;0.268378
8918.000000;0.268403
8917.000000;0.268321
8916.000000;0.268141
8915.000000;0.267913
8914.000000;0.267689
8913.000000;0.267498
8912.000000;0.267319
8911.000000;0.267150
8910.000000;0.267059
8909.000000;0.267101
8908.000000;0.267196
8907.000000;0.267208
8906.000000;0.267116
8905.000000;0.266996
8904.000000;0.266856
8903.000000;0.266637
8902.000000;0.266359
8901.000000;0.266128
8900.000000;0.265982
8899.000000;0.265848
8898.000000;0.265664
8897.000000;0.265423
8896.000000;0.265108
8895.000000;0.264726
8894.000000;0.264415
8893.000000;0.264345
8892.000000;0.264492
8891.000000;0.264631
8890.000000;0.264616
8889.000000;0.264527
8888.000000;0.264516
8887.000000;0.264616
8886.000000;0.264745
8885.000000;0.264801
8884.000000;0.264701
8883.000000;0.264452
8882.000000;0.264195
8881.000000;0.264074
8880.000000;0.264037
8879.000000;0.263878
8878.000000;0.263528
8877.000000;0.263158
8876.000000;0.262952
8875.000000;0.262905
8874.000000;0.262899
8873.000000;0.262875
8872.000000;0.262828
8871.000000;0.262755
8870.000000;0.262679
8869.000000;0.262658
8868.000000;0.262697
8867.000000;0.262714
8866.000000;0.262632
8865.000000;0.262471
8864.000000;0.262309
8863.000000;0.262203
8862.000000;0.262178
8861.000000;0.262222
8860.000000;0.262277
8859.000000;0.262294
8858.000000;0.262286
8857.000000;0.262288
8856.000000;0.262269
8855.000000;0.262172
8854.000000;0.262028
8853.000000;0.261937
8852.000000;0.261916
8851.000000;0.261876
8850.000000;0.261763
8849.000000;0.261613
8848.000000;0.261462
8847.000000;0.261288
8846.000000;0.261087
8845.000000;0.260916
8844.000000;0.260819
8843.000000;0.260781
8842.000000;0.260776
8841.000000;0.260791
8840.000000;0.260795
8839.000000;0.260748
8838.000000;0.260664
8837.000000;0.260589
8836.000000;0.260532
8835.000000;0.260477
8834.000000;0.260453
8833.000000;0.260500
8832.000000;0.260576
8831.000000;0.260576
8830.000000;0.260461
8829.000000;0.260285
8828.000000;0.260117
8827.000000;0.260024
8826.000000;0.260088
8825.000000;0.260322
8824.000000;0.260568
8823.000000;0.260626
8822.000000;0.260503
8821.000000;0.260421
8820.000000;0.260551
8819.000000;0.260821
8818.000000;0.261033
8817.000000;0.261089
8816.000000;0.261060
8815.000000;0.261103
8814.000000;0.261315
8813.000000;0.261609
8812.000000;0.261761
8811.000000;0.261639
8810.000000;0.261351
8809.000000;0.261085
8808.000000;0.260869
8807.000000;0.260627
8806.000000;0.260410
8805.000000;0.260409
8804.000000;0.260711
8803.000000;0.261178
8802.000000;0.261594
8801.000000;0.261823
8800.000000;0.261811
8799.000000;0.261575
8798.000000;0.261241
8797.000000;0.260977
8796.000000;0.260850
8795.000000;0.260823
8794.000000;0.260880
8793.000000;0.261045
8792.000000;0.261270
8791.000000;0.261442
8790.000000;0.261522
8789.000000;0.261566
8788.000000;0.261609
8787.000000;0.261637
8786.000000;0.261705
8785.000000;0.261918
8784.000000;0.262246
8783.000000;0.262483
8782.000000;0.262457
8781.000000;0.262228
8780.000000;0.262011
8779.000000;0.261983
8778.000000;0.262169
8777.000000;0.262456
8776.000000;0.262678
8775.000000;0.262772
8774.000000;0.262845
8773.000000;0.263016
8772.000000;0.263238
8771.000000;0.263349
8770.000000;0.263308
8769.000000;0.263241
8768.000000;0.263257
8767.000000;0.263348
8766.000000;0.263476
8765.000000;0.263626
8764.000000;0.263752
8763.000000;0.263788
8762.000000;0.263767
8761.000000;0.263814
8760.000000;0.263988
8759.000000;0.264228
8758.000000;0.264478
8757.000000;0.264756
8756.000000;0.265064
8755.000000;0.265336
8754.000000;0.265506
8753.000000;0.265567
8752.000000;0.265536
8751.000000;0.265471
8750.000000;0.265488
8749.000000;0.265657
8748.000000;0.265860
8747.000000;0.265903
8746.000000;0.265792
8745.000000;0.265745
8744.000000;0.265891
8743.000000;0.266123
8742.000000;0.266311
8741.000000;0.266503
8740.000000;0.266803
8739.000000;0.267166
8738.000000;0.267446
8737.000000;0.267593
8736.000000;0.267683
8735.000000;0.267782
8734.000000;0.267880
8733.000000;0.267940
8732.000000;0.267961
8731.000000;0.267971
8730.000000;0.268001
8729.000000;0.268053
8728.000000;0.268106
8727.000000;0.268164
8726.000000;0.268277
8725.000000;0.268480
8724.000000;0.268724
8723.000000;0.268945
8722.000000;0.269136
8721.000000;0.269312
8720.000000;0.269427
8719.000000;0.269427
8718.000000;0.269362
8717.000000;0.269338
8716.000000;0.269375
8715.000000;0.269404
8714.000000;0.269411
8713.000000;0.269472
8712.000000;0.269629
8711.000000;0.269835
8710.000000;0.270027
8709.000000;0.270166
8708.000000;0.270203
8707.000000;0.270114
8706.000000;0.269973
8705.000000;0.269920
8704.000000;0.270015
8703.000000;0.270202
8702.000000;0.270411
8701.000000;0.270620
8700.000000;0.270807
8699.000000;0.270939
8698.000000;0.271022
8697.000000;0.271079
8696.000000;0.271077
8695.000000;0.270971
8694.000000;0.270808
8693.000000;0.270719
8692.000000;0.270779
8691.000000;0.270955
8690.000000;0.271176
8689.000000;0.271369
8688.000000;0.271460
8687.000000;0.271424
8686.000000;0.271362
8685.000000;0.271404
8684.000000;0.271536
8683.000000;0.271614
8682.000000;0.271550
8681.000000;0.271396
8680.000000;0.271256
8679.000000;0.271206
8678.000000;0.271315
8677.000000;0.271609
8676.000000;0.271981
8675.000000;0.272223
8674.000000;0.272192
8673.000000;0.271908
8672.000000;0.271496
8671.000000;0.271121
8670.000000;0.270946
8669.000000;0.271049
8668.000000;0.271336
8667.000000;0.271615
8666.000000;0.271755
8665.000000;0.271736
8664.000000;0.271585
8663.000000;0.271350
8662.000000;0.271128
8661.000000;0.271001
8660.000000;0.270947
8659.000000;0.270886
8658.000000;0.270815
8657.000000;0.270788
8656.000000;0.270803
8655.000000;0.270794
8654.000000;0.270744
8653.000000;0.270693
8652.000000;0.270653
8651.000000;0.270587
8650.000000;0.270490
8649.000000;0.270392
8648.000000;0.270300
8647.000000;0.270220
8646.000000;0.270194
8645.000000;0.270238
8644.000000;0.270254
8643.000000;0.270129
8642.000000;0.269884
8641.000000;0.269646
8640.000000;0.269499
8639.000000;0.269467
8638.000000;0.269574
8637.000000;0.269779
8636.000000;0.269894
8635.000000;0.269737
8634.000000;0.269370
8633.000000;0.269036
8632.000000;0.268865
8631.000000;0.268786
8630.000000;0.268707
8629.000000;0.268625
8628.000000;0.268542
8627.000000;0.268433
8626.000000;0.268333
8625.000000;0.268317
8624.000000;0.268350
8623.000000;0.268301
8622.000000;0.268149
8621.000000;0.268023
8620.000000;0.267993
8619.000000;0.267956
8618.000000;0.267790
8617.000000;0.267516
8616.000000;0.267250
8615.000000;0.267072
8614.000000;0.266999
8613.000000;0.267004
8612.000000;0.267008
8611.000000;0.266919
8610.000000;0.266737
8609.000000;0.266542
8608.000000;0.266367
8607.000000;0.266158
8606.000000;0.265878
8605.000000;0.265583
8604.000000;0.265357
8603.000000;0.265242
8602.000000;0.265228
8601.000000;0.265263
8600.000000;0.265266
8599.000000;0.265174
8598.000000;0.264999
8597.000000;0.264791
8596.000000;0.264575
8595.000000;0.264374
8594.000000;0.264238
8593.000000;0.264165
8592.000000;0.264069
8591.000000;0.263908
8590.000000;0.263790
8589.000000;0.263820
8588.000000;0.263888
8587.000000;0.263780
8586.000000;0.263461
8585.000000;0.263123
8584.000000;0.262923
8583.000000;0.262839
8582.000000;0.262780
8581.000000;0.262707
8580.000000;0.262601
8579.000000;0.262443
8578.000000;0.262276
8577.000000;0.262183
8576.000000;0.262169
8575.000000;0.262143
8574.000000;0.262030
8573.000000;0.261830
8572.000000;0.261572
8571.000000;0.261300
8570.000000;0.261085
8569.000000;0.260967
8568.000000;0.260874
8567.000000;0.260701
8566.000000;0.260455
8565.000000;0.260242
8564.000000;0.260115
8563.000000;0.260036
8562.000000;0.259964
8561.000000;0.259875
8560.000000;0.259725
8559.000000;0.259505
8558.000000;0.259322
8557.000000;0.259275
8556.000000;0.259288
8555.000000;0.259191
8554.000000;0.258947
8553.000000;0.258691
8552.000000;0.258523
8551.000000;0.258421
8550.000000;0.258330
8549.000000;0.258227
8548.000000;0.258082
8547.000000;0.257894
8546.000000;0.257744
8545.000000;0.257702
8544.000000;0.257683
8543.000000;0.257536
8542.000000;0.257266
8541.000000;0.257019
8540.000000;0.256844
8539.000000;0.256656
8538.000000;0.256428
8537.000000;0.256268
8536.000000;0.256233
8535.000000;0.256218
8534.000000;0.256095
8533.000000;0.255843
8532.000000;0.255509
8531.000000;0.255148
8530.000000;0.254858
8529.000000;0.254733
8528.000000;0.254750
8527.000000;0.254785
8526.000000;0.254775
8525.000000;0.254756
8524.000000;0.254722
8523.000000;0.254587
8522.000000;0.254326
8521.000000;0.254048
8520.000000;0.253869
8519.000000;0.253798
8518.000000;0.253772
8517.000000;0.253716
8516.000000;0.253565
8515.000000;0.253314
8514.000000;0.253074
8513.000000;0.252960
8512.000000;0.252923
8511.000000;0.252792
8510.000000;0.252510
8509.000000;0.252211
8508.000000;0.252034
8507.000000;0.251963
8506.000000;0.251897
8505.000000;0.251780
8504.000000;0.251630
8503.000000;0.251507
8502.000000;0.251474
8501.000000;0.251508
8500.000000;0.251478
8499.000000;0.251277
8498.000000;0.250958
8497.000000;0.250656
8496.000000;0.250409
8495.000000;0.250184
8494.000000;0.250015
8493.000000;0.249955
8492.000000;0.249917
8491.000000;0.249744
8490.000000;0.249452
8489.000000;0.249236
8488.000000;0.249194
8487.000000;0.249216
8486.000000;0.249165
8485.000000;0.249032
8484.000000;0.248854
8483.000000;0.248633
8482.000000;0.248397
8481.000000;0.248210
8480.000000;0.248072
8479.000000;0.247918
8478.000000;0.247763
8477.000000;0.247706
8476.000000;0.247748
8475.000000;0.247740
8474.000000;0.247578
8473.000000;0.247340
8472.000000;0.247147
8471.000000;0.247012
8470.000000;0.246885
8469.000000;0.246752
8468.000000;0.246615
8467.000000;0.246443
8466.000000;0.246222
8465.000000;0.245997
8464.000000;0.245807
8463.000000;0.245648
8462.000000;0.245534
8461.000000;0.245500
8460.000000;0.245516
8459.000000;0.245491
8458.000000;0.245385
8457.000000;0.245258
8456.000000;0.245155
8455.000000;0.245045
8454.000000;0.244891
8453.000000;0.244717
8452.000000;0.244556
8451.000000;0.244409
8450.000000;0.244274
8449.000000;0.244140
8448.000000;0.243959
8447.000000;0.243694
8446.000000;0.243423
8445.000000;0.243291
8444.000000;0.243322
8443.000000;0.243391
8442.000000;0.243378
8441.000000;0.243275
8440.000000;0.243124
8439.000000;0.242946
8438.000000;0.242768
8437.000000;0.242615
8436.000000;0.242448
8435.000000;0.242203
8434.000000;0.241896
8433.000000;0.241623
8432.000000;0.241428
8431.000000;0.241279
8430.000000;0.241169
8429.000000;0.241143
8428.000000;0.241188
8427.000000;0.241207
8426.000000;0.241125
8425.000000;0.240942
8424.000000;0.240662
8423.000000;0.240307
8422.000000;0.239981
8421.000000;0.239815
8420.000000;0.239797
8419.000000;0.239776
8418.000000;0.239670
8417.000000;0.239559
8416.000000;0.239529
8415.000000;0.239529
8414.000000;0.239452
8413.000000;0.239261
8412.000000;0.238980
8411.000000;0.238653
8410.000000;0.238349
8409.000000;0.238143
8408.000000;0.238045
8407.000000;0.238008
8406.000000;0.238016
8405.000000;0.238093
8404.000000;0.238201
8403.000000;0.238228
8402.000000;0.238118
8401.000000;0.237922
8400.000000;0.237710
8399.000000;0.237500
8398.000000;0.237300
8397.000000;0.237135
8396.000000;0.236991
8395.000000;0.236819
8394.000000;0.236609
8393.000000;0.236413
8392.000000;0.236260
8391.000000;0.236128
8390.000000;0.236005
8389.000000;0.235904
8388.000000;0.235803
8387.000000;0.235650
8386.000000;0.235436
8385.000000;0.235198
8384.000000;0.234951
8383.000000;0.234710
8382.000000;0.234554
8381.000000;0.234560
8380.000000;0.234660
8379.000000;0.234684
8378.000000;0.234557
8377.000000;0.234354
8376.000000;0.234150
8375.000000;0.233929
8374.000000;0.233676
8373.000000;0.233434
8372.000000;0.233249
8371.000000;0.233125
8370.000000;0.233074
8369.000000;0.233101
8368.000000;0.233121
8367.000000;0.233002
8366.000000;0.232719
8365.000000;0.232382
8364.000000;0.232097
8363.000000;0.231878
8362.000000;0.231721
8361.000000;0.231639
8360.000000;0.231603
8359.000000;0.231546
8358.000000;0.231453
8357.000000;0.231360
8356.000000;0.231246
8355.000000;0.231036
8354.000000;0.230748
8353.000000;0.230517
8352.000000;0.230425
8351.000000;0.230399
8350.000000;0.230311
8349.000000;0.230121
8348.000000;0.229866
8347.000000;0.229605
8346.000000;0.229410
8345.000000;0.229317
8344.000000;0.229280
8343.000000;0.229208
8342.000000;0.229085
8341.000000;0.228966
8340.000000;0.228858
8339.000000;0.228701
8338.000000;0.228475
8337.000000;0.228228
8336.000000;0.227995
8335.000000;0.227773
8334.000000;0.227595
8333.000000;0.227516
8332.000000;0.227499
8331.000000;0.227430
8330.000000;0.227264
8329.000000;0.227062
8328.000000;0.226852
8327.000000;0.226587
8326.000000;0.226276
8325.000000;0.226027
8324.000000;0.225906
8323.000000;0.225830
8322.000000;0.225682
8321.000000;0.225438
8320.000000;0.225139
8319.000000;0.224836
8318.000000;0.224598
8317.000000;0.224491
8316.000000;0.224492
8315.000000;0.224494
8314.000000;0.224440
8313.000000;0.224363
8312.000000;0.224280
8311.000000;0.224142
8310.000000;0.223926
8309.000000;0.223680
8308.000000;0.223438
8307.000000;0.223191
8306.000000;0.222979
8305.000000;0.222892
8304.000000;0.222920
8303.000000;0.222909
8302.000000;0.222737
8301.000000;0.222462
8300.000000;0.222200
8299.000000;0.221969
8298.000000;0.221720
8297.000000;0.221453
8296.000000;0.221212
8295.000000;0.221019
8294.000000;0.220865
8293.000000;0.220737
8292.000000;0.220604
8291.000000;0.220406
8290.000000;0.220132
8289.000000;0.219847
8288.000000;0.219620
8287.000000;0.219453
8286.000000;0.219332
8285.000000;0.219256
8284.000000;0.219205
8283.000000;0.219126
8282.000000;0.218989
8281.000000;0.218817
8280.000000;0.218611
8279.000000;0.218335
8278.000000;0.218006
8277.000000;0.217733
8276.000000;0.217608
8275.000000;0.217603
8274.000000;0.217611
8273.000000;0.217548
8272.000000;0.217393
8271.000000;0.217164
8270.000000;0.216909
8269.000000;0.216677
8268.000000;0.216468
8267.000000;0.216260
8266.000000;0.216069
8265.000000;0.215936
8264.000000;0.215838
8263.000000;0.215692
8262.000000;0.215473
8261.000000;0.215256
8260.000000;0.215123
8259.000000;0.215055
8258.000000;0.214972
8257.000000;0.214808
8256.000000;0.214546
8255.000000;0.214221
8254.000000;0.213916
8253.000000;0.213702
8252.000000;0.213559
8251.000000;0.213406
8250.000000;0.213217
8249.000000;0.213033
8248.000000;0.212883
8247.000000;0.212749
8246.000000;0.212624
8245.000000;0.212520
8244.000000;0.212404
8243.000000;0.212215
8242.000000;0.211964
8241.000000;0.211734
8240.000000;0.211565
8239.000000;0.211425
8238.000000;0.211309
8237.000000;0.211265
8236.000000;0.211277
8235.000000;0.211212
8234.000000;0.210964
8233.000000;0.210583
8232.000000;0.210205
8231.000000;0.209923
8230.000000;0.209753
8229.000000;0.209673
8228.000000;0.209611
8227.000000;0.209465
8226.000000;0.209192
8225.000000;0.208849
8224.000000;0.208525
8223.000000;0.208266
8222.000000;0.208093
8221.000000;0.208020
8220.000000;0.208017
8219.000000;0.207998
8218.000000;0.207896
8217.000000;0.207730
8216.000000;0.207553
8215.000000;0.207386
8214.000000;0.207226
8213.000000;0.207074
8212.000000;0.206924
8211.000000;0.206745
8210.000000;0.206518
8209.000000;0.206268
8208.000000;0.206028
8207.000000;0.205803
8206.000000;0.205583
8205.000000;0.205374
8204.000000;0.205186
8203.000000;0.205021
8202.000000;0.204879
8201.000000;0.204762
8200.000000;0.204655
8199.000000;0.204539
8198.000000;0.204412
8197.000000;0.204287
8196.000000;0.204166
8195.000000;0.204033
8194.000000;0.203879
8193.000000;0.203690
8192.000000;0.203448
8191.000000;0.203166
8190.000000;0.202912
8189.000000;0.202740
8188.000000;0.202615
8187.000000;0.202465
8186.000000;0.202280
8185.000000;0.202117
8184.000000;0.202002
8183.000000;0.201903
8182.000000;0.201765
8181.000000;0.201551
8180.000000;0.201259
8179.000000;0.200968
8178.000000;0.200808
8177.000000;0.200819
8176.000000;0.200849
8175.000000;0.200689
8174.000000;0.200317
8173.000000;0.199901
8172.000000;0.199588
8171.000000;0.199377
8170.000000;0.199216
8169.000000;0.199107
8168.000000;0.199070
8167.000000;0.199065
8166.000000;0.199006
8165.000000;0.198832
8164.000000;0.198553
8163.000000;0.198254
8162.000000;0.198055
8161.000000;0.198010
8160.000000;0.198033
8159.000000;0.197970
8158.000000;0.197750
8157.000000;0.197438
8156.000000;0.197140
8155.000000;0.196925
8154.000000;0.196809
8153.000000;0.196762
8152.000000;0.196705
8151.000000;0.196565
8150.000000;0.196332
8149.000000;0.196032
8148.000000;0.195690
8147.000000;0.195345
8146.000000;0.195072
8145.000000;0.194915
8144.000000;0.194827
8143.000000;0.194730
8142.000000;0.194620
8141.000000;0.194529
8140.000000;0.194440
8139.000000;0.194313
8138.000000;0.194172
8137.000000;0.194059
8136.000000;0.193921
8135.000000;0.193658
8134.000000;0.193272
8133.000000;0.192886
8132.000000;0.192607
8131.000000;0.192440
8130.000000;0.192336
8129.000000;0.192225
8128.000000;0.192022
8127.000000;0.191704
8126.000000;0.191384
8125.000000;0.191209
8124.000000;0.191186
8123.000000;0.191182
8122.000000;0.191100
8121.000000;0.190956
8120.000000;0.190790
8119.000000;0.190597
8118.000000;0.190388
8117.000000;0.190203
8116.000000;0.190039
8115.000000;0.189849
8114.000000;0.189628
8113.000000;0.189431
8112.000000;0.189277
8111.000000;0.189107
8110.000000;0.188878
8109.000000;0.188613
8108.000000;0.188353
8107.000000;0.188112
8106.000000;0.187915
8105.000000;0.187793
8104.000000;0.187722
8103.000000;0.187623
8102.000000;0.187449
8101.000000;0.187212
8100.000000;0.186936
8099.000000;0.186636
8098.000000;0.186365
8097.000000;0.186183
8096.000000;0.186084
8095.000000;0.186003
8094.000000;0.185915
8093.000000;0.185837
8092.000000;0.185745
8091.000000;0.185570
8090.000000;0.185291
8089.000000;0.184974
8088.000000;0.184685
8087.000000;0.184434
8086.000000;0.184219
8085.000000;0.184038
8084.000000;0.183865
8083.000000;0.183674
8082.000000;0.183513
8081.000000;0.183452
8080.000000;0.183463
8079.000000;0.183426
8078.000000;0.183261
8077.000000;0.182995
8076.000000;0.182679
8075.000000;0.182340
8074.000000;0.182031
8073.000000;0.181829
8072.000000;0.181734
8071.000000;0.181649
8070.000000;0.181496
8069.000000;0.181280
8068.000000;0.181033
8067.000000;0.180777
8066.000000;0.180560
8065.000000;0.180442
8064.000000;0.180400
8063.000000;0.180324
8062.000000;0.180151
8061.000000;0.179938
8060.000000;0.179757
8059.000000;0.179594
8058.000000;0.179390
8057.000000;0.179141
8056.000000;0.178893
8055.000000;0.178695
8054.000000;0.178565
8053.000000;0.178480
8052.000000;0.178362
8051.000000;0.178141
8050.000000;0.177839
8049.000000;0.177557
8048.000000;0.177355
8047.000000;0.177186
8046.000000;0.176982
8045.000000;0.176737
8044.000000;0.176493
8043.000000;0.176286
8042.000000;0.176126
8041.000000;0.176000
8040.000000;0.175879
8039.000000;0.175751
8038.000000;0.175644
8037.000000;0.175572
8036.000000;0.175474
8035.000000;0.175272
8034.000000;0.174987
8033.000000;0.174741
8032.000000;0.174600
8031.000000;0.174501
8030.000000;0.174342
8029.000000;0.174097
8028.000000;0.173819
8027.000000;0.173581
8026.000000;0.173422
8025.000000;0.173315
8024.000000;0.173178
8023.000000;0.172960
8022.000000;0.172706
8021.000000;0.172496
8020.000000;0.172339
8019.000000;0.172174
8018.000000;0.171975
8017.000000;0.171772
8016.000000;0.171576
8015.000000;0.171353
8014.000000;0.171096
8013.000000;0.170850
8012.000000;0.170654
8011.000000;0.170508
8010.000000;0.170390
8009.000000;0.170269
8008.000000;0.170086
8007.000000;0.169809
8006.000000;0.169502
8005.000000;0.169270
8004.000000;0.169128
8003.000000;0.168993
8002.000000;0.168801
8001.000000;0.168574
8000.000000;0.168365
7999.000000;0.168197
7998.000000;0.168062
7997.000000;0.167931
7996.000000;0.167754
7995.000000;0.167513
7994.000000;0.167271
7993.000000;0.167109
7992.000000;0.167012
7991.000000;0.166881
7990.000000;0.166667
7989.000000;0.166424
7988.000000;0.166217
7987.000000;0.166046
7986.000000;0.165885
7985.000000;0.165733
7984.000000;0.165580
7983.000000;0.165400
7982.000000;0.165169
7981.000000;0.164888
7980.000000;0.164572
7979.000000;0.164268
7978.000000;0.164057
7977.000000;0.163976
7976.000000;0.163948
7975.000000;0.163840
7974.000000;0.163611
7973.000000;0.163331
7972.000000;0.163075
7971.000000;0.162860
7970.000000;0.162674
7969.000000;0.162505
7968.000000;0.162317
7967.000000;0.162074
7966.000000;0.161793
7965.000000;0.161534
7964.000000;0.161330
7963.000000;0.161181
7962.000000;0.161076
7961.000000;0.160982
7960.000000;0.160824
7959.000000;0.160570
7958.000000;0.160299
7957.000000;0.160103
7956.000000;0.159950
7955.000000;0.159739
7954.000000;0.159474
7953.000000;0.159279
7952.000000;0.159221
7951.000000;0.159227
7950.000000;0.159192
7949.000000;0.159077
7948.000000;0.158882
7947.000000;0.158620
7946.000000;0.158342
7945.000000;0.158111
7944.000000;0.157925
7943.000000;0.157734
7942.000000;0.157542
7941.000000;0.157404
7940.000000;0.157310
7939.000000;0.157165
7938.000000;0.156930
7937.000000;0.156676
7936.000000;0.156468
7935.000000;0.156279
7934.000000;0.156072
7933.000000;0.155872
7932.000000;0.155709
7931.000000;0.155550
7930.000000;0.155348
7929.000000;0.155126
7928.000000;0.154941
7927.000000;0.154806
7926.000000;0.154690
7925.000000;0.154557
7924.000000;0.154379
7923.000000;0.154143
7922.000000;0.153878
7921.000000;0.153652
7920.000000;0.153506
7919.000000;0.153424
7918.000000;0.153352
7917.000000;0.153244
7916.000000;0.153072
7915.000000;0.152853
7914.000000;0.152643
7913.000000;0.152474
7912.000000;0.152309
7911.000000;0.152104
7910.000000;0.151875
7909.000000;0.151670
7908.000000;0.151481
7907.000000;0.151275
7906.000000;0.151073
7905.000000;0.150910
7904.000000;0.150742
7903.000000;0.150480
7902.000000;0.150140
7901.000000;0.149848
7900.000000;0.149677
7899.000000;0.149569
7898.000000;0.149448
7897.000000;0.149321
7896.000000;0.149229
7895.000000;0.149161
7894.000000;0.149080
7893.000000;0.148970
7892.000000;0.148821
7891.000000;0.148615
7890.000000;0.148357
7889.000000;0.148077
7888.000000;0.147793
7887.000000;0.147504
7886.000000;0.147242
7885.000000;0.147053
7884.000000;0.146933
7883.000000;0.146835
7882.000000;0.146748
7881.000000;0.146698
7880.000000;0.146660
7879.000000;0.146554
7878.000000;0.146349
7877.000000;0.146115
7876.000000;0.145925
7875.000000;0.145773
7874.000000;0.145621
7873.000000;0.145465
7872.000000;0.145309
7871.000000;0.145124
7870.000000;0.144883
7869.000000;0.144602
7868.000000;0.144321
7867.000000;0.144078
7866.000000;0.143911
7865.000000;0.143843
7864.000000;0.143828
7863.000000;0.143751
7862.000000;0.143529
7861.000000;0.143194
7860.000000;0.142871
7859.000000;0.142675
7858.000000;0.142634
7857.000000;0.142667
7856.000000;0.142636
7855.000000;0.142469
7854.000000;0.142222
7853.000000;0.142000
7852.000000;0.141837
7851.000000;0.141699
7850.000000;0.141575
7849.000000;0.141486
7848.000000;0.141408
7847.000000;0.141272
7846.000000;0.141053
7845.000000;0.140791
7844.000000;0.140526
7843.000000;0.140265
7842.000000;0.140043
7841.000000;0.139923
7840.000000;0.139908
7839.000000;0.139907
7838.000000;0.139820
7837.000000;0.139621
7836.000000;0.139345
7835.000000;0.139048
7834.000000;0.138798
7833.000000;0.138643
7832.000000;0.138555
7831.000000;0.138454
7830.000000;0.138298
7829.000000;0.138133
7828.000000;0.138018
7827.000000;0.137961
7826.000000;0.137934
7825.000000;0.137907
7824.000000;0.137832
7823.000000;0.137657
7822.000000;0.137382
7821.000000;0.137077
7820.000000;0.136817
7819.000000;0.136640
7818.000000;0.136545
7817.000000;0.136504
7816.000000;0.136458
7815.000000;0.136356
7814.000000;0.136199
7813.000000;0.136028
7812.000000;0.135862
7811.000000;0.135697
7810.000000;0.135547
7809.000000;0.135444
7808.000000;0.135375
7807.000000;0.135285
7806.000000;0.135150
7805.000000;0.135001
7804.000000;0.134860
7803.000000;0.134712
7802.000000;0.134555
7801.000000;0.134416
7800.000000;0.134301
7799.000000;0.134180
7798.000000;0.134042
7797.000000;0.133921
7796.000000;0.133841
7795.000000;0.133771
7794.000000;0.133658
7793.000000;0.133492
7792.000000;0.133301
7791.000000;0.133118
7790.000000;0.132961
7789.000000;0.132830
7788.000000;0.132711
7787.000000;0.132592
7786.000000;0.132473
7785.000000;0.132350
7784.000000;0.132194
7783.000000;0.131990
7782.000000;0.131773
7781.000000;0.131602
7780.000000;0.131485
7779.000000;0.131381
7778.000000;0.131255
7777.000000;0.131109
7776.000000;0.130957
7775.000000;0.130812
7774.000000;0.130697
7773.000000;0.130628
7772.000000;0.130584
7771.000000;0.130527
7770.000000;0.130444
7769.000000;0.130352
7768.000000;0.130255
7767.000000;0.130133
7766.000000;0.129976
7765.000000;0.129793
7764.000000;0.129594
7763.000000;0.129404
7762.000000;0.129265
7761.000000;0.129194
7760.000000;0.129145
7759.000000;0.129061
7758.000000;0.128934
7757.000000;0.128798
7756.000000;0.128672
7755.000000;0.128559
7754.000000;0.128469
7753.000000;0.128402
7752.000000;0.128324
7751.000000;0.128218
7750.000000;0.128128
7749.000000;0.128101
7748.000000;0.128109
7747.000000;0.128078
7746.000000;0.127983
7745.000000;0.127866
7744.000000;0.127758
7743.000000;0.127642
7742.000000;0.127502
7741.000000;0.127344
7740.000000;0.127181
7739.000000;0.127036
7738.000000;0.126952
7737.000000;0.126939
7736.000000;0.126942
7735.000000;0.126901
7734.000000;0.126817
7733.000000;0.126723
7732.000000;0.126617
7731.000000;0.126475
7730.000000;0.126324
7729.000000;0.126203
7728.000000;0.126094
7727.000000;0.125951
7726.000000;0.125786
7725.000000;0.125659
7724.000000;0.125586
7723.000000;0.125532
7722.000000;0.125488
7721.000000;0.125477
7720.000000;0.125481
7719.000000;0.125441
7718.000000;0.125346
7717.000000;0.125254
7716.000000;0.125208
7715.000000;0.125186
7714.000000;0.125149
7713.000000;0.125075
7712.000000;0.124944
7711.000000;0.124753
7710.000000;0.124553
7709.000000;0.124418
7708.000000;0.124361
7707.000000;0.124332
7706.000000;0.124292
7705.000000;0.124238
7704.000000;0.124158
7703.000000;0.124045
7702.000000;0.123936
7701.000000;0.123896
7700.000000;0.123936
7699.000000;0.124004
7698.000000;0.124048
7697.000000;0.124051
7696.000000;0.123999
7695.000000;0.123887
7694.000000;0.123756
7693.000000;0.123654
7692.000000;0.123565
7691.000000;0.123439
7690.000000;0.123290
7689.000000;0.123201
7688.000000;0.123215
7687.000000;0.123289
7686.000000;0.123361
7685.000000;0.123409
7684.000000;0.123429
7683.000000;0.123414
7682.000000;0.123369
7681.000000;0.123308
7680.000000;0.123220
7679.000000;0.123088
7678.000000;0.122934
7677.000000;0.122813
7676.000000;0.122745
7675.000000;0.122715
7674.000000;0.122716
7673.000000;0.122746
7672.000000;0.122765
7671.000000;0.122724
7670.000000;0.122641
7669.000000;0.122594
7668.000000;0.122621
7667.000000;0.122680
7666.000000;0.122724
7665.000000;0.122736
7664.000000;0.122710
7663.000000;0.122635
7662.000000;0.122530
7661.000000;0.122434
7660.000000;0.122367
7659.000000;0.122331
7658.000000;0.122348
7657.000000;0.122433
7656.000000;0.122528
7655.000000;0.122535
7654.000000;0.122433
7653.000000;0.122316
7652.000000;0.122279
7651.000000;0.122320
7650.000000;0.122368
7649.000000;0.122374
7648.000000;0.122333
7647.000000;0.122275
7646.000000;0.122233
7645.000000;0.122217
7644.000000;0.122207
7643.000000;0.122185
7642.000000;0.122172
7641.000000;0.122198
7640.000000;0.122263
7639.000000;0.122343
7638.000000;0.122425
7637.000000;0.122494
7636.000000;0.122518
7635.000000;0.122489
7634.000000;0.122452
7633.000000;0.122458
7632.000000;0.122500
7631.000000;0.122544
7630.000000;0.122601
7629.000000;0.122704
7628.000000;0.122820
7627.000000;0.122876
7626.000000;0.122848
7625.000000;0.122781
7624.000000;0.122719
7623.000000;0.122675
7622.000000;0.122675
7621.000000;0.122758
7620.000000;0.122917
7619.000000;0.123089
7618.000000;0.123225
7617.000000;0.123322
7616.000000;0.123390
7615.000000;0.123420
7614.000000;0.123405
7613.000000;0.123358
7612.000000;0.123301
7611.000000;0.123264
7610.000000;0.123283
7609.000000;0.123359
7608.000000;0.123444
7607.000000;0.123492
7606.000000;0.123510
7605.000000;0.123533
7604.000000;0.123560
7603.000000;0.123579
7602.000000;0.123604
7601.000000;0.123652
7600.000000;0.123694
7599.000000;0.123713
7598.000000;0.123750
7597.000000;0.123856
7596.000000;0.124008
7595.000000;0.124158
7594.000000;0.124319
7593.000000;0.124526
7592.000000;0.124727
7591.000000;0.124824
7590.000000;0.124814
7589.000000;0.124807
7588.000000;0.124886
7587.000000;0.125026
7586.000000;0.125165
7585.000000;0.125282
7584.000000;0.125382
7583.000000;0.125468
7582.000000;0.125553
7581.000000;0.125652
7580.000000;0.125746
7579.000000;0.125805
7578.000000;0.125841
7577.000000;0.125902
7576.000000;0.126012
7575.000000;0.126151
7574.000000;0.126298
7573.000000;0.126451
7572.000000;0.126597
7571.000000;0.126724
7570.000000;0.126855
7569.000000;0.127017
7568.000000;0.127190
7567.000000;0.127330
7566.000000;0.127434
7565.000000;0.127539
7564.000000;0.127674
7563.000000;0.127836
7562.000000;0.128026
7561.000000;0.128230
7560.000000;0.128399
7559.000000;0.128489
7558.000000;0.128523
7557.000000;0.128569
7556.000000;0.128667
7555.000000;0.128816
7554.000000;0.129006
7553.000000;0.129220
7552.000000;0.129424
7551.000000;0.129594
7550.000000;0.129749
7549.000000;0.129906
7548.000000;0.130057
7547.000000;0.130205
7546.000000;0.130385
7545.000000;0.130601
7544.000000;0.130780
7543.000000;0.130863
7542.000000;0.130902
7541.000000;0.130985
7540.000000;0.131115
7539.000000;0.131238
7538.000000;0.131355
7537.000000;0.131510
7536.000000;0.131698
7535.000000;0.131876
7534.000000;0.132054
7533.000000;0.132287
7532.000000;0.132574
7531.000000;0.132857
7530.000000;0.133109
7529.000000;0.133353
7528.000000;0.133589
7527.000000;0.133796
7526.000000;0.133985
7525.000000;0.134193
7524.000000;0.134399
7523.000000;0.134539
7522.000000;0.134596
7521.000000;0.134624
7520.000000;0.134687
7519.000000;0.134819
7518.000000;0.135040
7517.000000;0.135345
7516.000000;0.135681
7515.000000;0.136002
7514.000000;0.136323
7513.000000;0.136669
7512.000000;0.136992
7511.000000;0.137232
7510.000000;0.137419
7509.000000;0.137634
7508.000000;0.137878
7507.000000;0.138071
7506.000000;0.138179
7505.000000;0.138270
7504.000000;0.138441
7503.000000;0.138629
7502.000000;0.138848
7501.000000;0.139074
7500.000000;0.139271
7499.000000;0.139422
7498.000000;0.139578
7497.000000;0.139809
7496.000000;0.140107
7495.000000;0.140407
7494.000000;0.140692
7493.000000;0.140998
7492.000000;0.141327
7491.000000;0.141629
7490.000000;0.141874
7489.000000;0.142086
7488.000000;0.142289
7487.000000;0.142477
7486.000000;0.142647
7485.000000;0.142805
7484.000000;0.142953
7483.000000;0.143106
7482.000000;0.143311
7481.000000;0.143598
7480.000000;0.143918
7479.000000;0.144184
7478.000000;0.144367
7477.000000;0.144501
7476.000000;0.144628
7475.000000;0.144784
7474.000000;0.144997
7473.000000;0.145263
7472.000000;0.145536
7471.000000;0.145794
7470.000000;0.146081
7469.000000;0.146428
7468.000000;0.146777
7467.000000;0.147049
7466.000000;0.147252
7465.000000;0.147440
7464.000000;0.147621
7463.000000;0.147779
7462.000000;0.147954
7461.000000;0.148203
7460.000000;0.148513
7459.000000;0.148824
7458.000000;0.149120
7457.000000;0.149416
7456.000000;0.149683
7455.000000;0.149885
7454.000000;0.150057
7453.000000;0.150268
7452.000000;0.150514
7451.000000;0.150741
7450.000000;0.150943
7449.000000;0.151162
7448.000000;0.151407
7447.000000;0.151670
7446.000000;0.151975
7445.000000;0.152347
7444.000000;0.152739
7443.000000;0.153071
7442.000000;0.153328
7441.000000;0.153545
7440.000000;0.153746
7439.000000;0.153949
7438.000000;0.154208
7437.000000;0.154550
7436.000000;0.154893
7435.000000;0.155119
7434.000000;0.155221
7433.000000;0.155315
7432.000000;0.155498
7431.000000;0.155788
7430.000000;0.156172
7429.000000;0.156612
7428.000000;0.157038
7427.000000;0.157419
7426.000000;0.157793
7425.000000;0.158176
7424.000000;0.158503
7423.000000;0.158749
7422.000000;0.159025
7421.000000;0.159429
7420.000000;0.159878
7419.000000;0.160202
7418.000000;0.160367
7417.000000;0.160475
7416.000000;0.160602
7415.000000;0.160720
7414.000000;0.160812
7413.000000;0.160952
7412.000000;0.161244
7411.000000;0.161730
7410.000000;0.162322
7409.000000;0.162811
7408.000000;0.163050
7407.000000;0.163159
7406.000000;0.163403
7405.000000;0.163883
7404.000000;0.164453
7403.000000;0.164938
7402.000000;0.165351
7401.000000;0.165869
7400.000000;0.166604
7399.000000;0.167451
7398.000000;0.168216
7397.000000;0.168819
7396.000000;0.169355
7395.000000;0.169940
7394.000000;0.170480
7393.000000;0.170740
7392.000000;0.170636
7391.000000;0.170411
7390.000000;0.170454
7389.000000;0.171030
7388.000000;0.172197
7387.000000;0.173884
7386.000000;0.175747
7385.000000;0.177067
7384.000000;0.177369
7383.000000;0.177232
7382.000000;0.177869
7381.000000;0.179551
7380.000000;0.180971
7379.000000;0.180747
7378.000000;0.179169
7377.000000;0.177824
7376.000000;0.177797
7375.000000;0.178761
7374.000000;0.179636
7373.000000;0.179695
7372.000000;0.179002
7371.000000;0.178152
7370.000000;0.177850
7369.000000;0.178501
7368.000000;0.179909
7367.000000;0.181466
7366.000000;0.182634
7365.000000;0.183005
7364.000000;0.182445
7363.000000;0.181623
7362.000000;0.181860
7361.000000;0.183692
7360.000000;0.185909
7359.000000;0.186831
7358.000000;0.186337
7357.000000;0.186002
7356.000000;0.187176
7355.000000;0.189706
7354.000000;0.192459
7353.000000;0.194522
7352.000000;0.195807
7351.000000;0.197044
7350.000000;0.199094
7349.000000;0.201787
7348.000000;0.203758
7347.000000;0.203978
7346.000000;0.203072
7345.000000;0.202275
7344.000000;0.201506
7343.000000;0.199750
7342.000000;0.197229
7341.000000;0.195688
7340.000000;0.195960
7339.000000;0.196707
7338.000000;0.196284
7337.000000;0.194819
7336.000000;0.193805
7335.000000;0.194521
7334.000000;0.197135
7333.000000;0.200490
7332.000000;0.202572
7331.000000;0.202303
7330.000000;0.200990
7329.000000;0.200859
7328.000000;0.202060
7327.000000;0.202284
7326.000000;0.199887
7325.000000;0.196225
7324.000000;0.193912
7323.000000;0.193680
7322.000000;0.194154
7321.000000;0.194263
7320.000000;0.194493
7319.000000;0.195872
7318.000000;0.198782
7317.000000;0.202562
7316.000000;0.205688
7315.000000;0.206903
7314.000000;0.206791
7313.000000;0.207533
7312.000000;0.210227
7311.000000;0.213175
7310.000000;0.213838
7309.000000;0.212008
7308.000000;0.209997
7307.000000;0.209901
7306.000000;0.211627
7305.000000;0.213678
7304.000000;0.214721
7303.000000;0.214260
7302.000000;0.212986
7301.000000;0.212662
7300.000000;0.214507
7299.000000;0.217292
7298.000000;0.218278
7297.000000;0.216510
7296.000000;0.214028
7295.000000;0.213282
7294.000000;0.214312
7293.000000;0.215213
7292.000000;0.214719
7291.000000;0.213418
7290.000000;0.212639
7289.000000;0.212981
7288.000000;0.214093
7287.000000;0.215314
7286.000000;0.216146
7285.000000;0.216585
7284.000000;0.217071
7283.000000;0.217968
7282.000000;0.219205
7281.000000;0.220491
7280.000000;0.221722
7279.000000;0.223015
7278.000000;0.224397
7277.000000;0.225709
7276.000000;0.226885
7275.000000;0.228140
7274.000000;0.229723
7273.000000;0.231533
7272.000000;0.233136
7271.000000;0.234217
7270.000000;0.235010
7269.000000;0.236147
7268.000000;0.237977
7267.000000;0.240154
7266.000000;0.242064
7265.000000;0.243590
7264.000000;0.245201
7263.000000;0.247222
7262.000000;0.249325
7261.000000;0.250972
7260.000000;0.252212
7259.000000;0.253599
7258.000000;0.255397
7257.000000;0.257435
7256.000000;0.259821
7255.000000;0.263143
7254.000000;0.267727
7253.000000;0.272841
7252.000000;0.277004
7251.000000;0.279570
7250.000000;0.281655
7249.000000;0.284879
7248.000000;0.289210
7247.000000;0.292827
7246.000000;0.294524
7245.000000;0.295569
7244.000000;0.298266
7243.000000;0.302997
7242.000000;0.307473
7241.000000;0.309327
7240.000000;0.309032
7239.000000;0.309413
7238.000000;0.312371
7237.000000;0.316954
7236.000000;0.320770
7235.000000;0.322710
7234.000000;0.324022
7233.000000;0.326565
7232.000000;0.330270
7231.000000;0.333112
7230.000000;0.333555
7229.000000;0.332355
7228.000000;0.331735
7227.000000;0.333294
7226.000000;0.336873
7225.000000;0.341018
7224.000000;0.344319
7223.000000;0.346535
7222.000000;0.348575
7221.000000;0.351415
7220.000000;0.355058
7219.000000;0.358656
7218.000000;0.361534
7217.000000;0.363944
7216.000000;0.366678
7215.000000;0.370074
7214.000000;0.373789
7213.000000;0.377452
7212.000000;0.381152
7211.000000;0.385191
7210.000000;0.389612
7209.000000;0.394092
7208.000000;0.398291
7207.000000;0.402249
7206.000000;0.406359
7205.000000;0.410793
7204.000000;0.415101
7203.000000;0.418603
7202.000000;0.421236
7201.000000;0.423749
7200.000000;0.426932
7199.000000;0.430816
7198.000000;0.434915
7197.000000;0.439030
7196.000000;0.443502
7195.000000;0.448661
7194.000000;0.454472
7193.000000;0.460737
7192.000000;0.467331
7191.000000;0.473982
7190.000000;0.480246
7189.000000;0.486130
7188.000000;0.492292
7187.000000;0.499034
7186.000000;0.505435
7185.000000;0.510244
7184.000000;0.513532
7183.000000;0.516809
7182.000000;0.521318
7181.000000;0.526735
7180.000000;0.531853
7179.000000;0.536180
7178.000000;0.540347
7177.000000;0.545190
7176.000000;0.550996
7175.000000;0.557613
7174.000000;0.564840
7173.000000;0.572456
7172.000000;0.580246
7171.000000;0.587962
7170.000000;0.595213
7169.000000;0.601757
7168.000000;0.607853
7167.000000;0.613944
7166.000000;0.619800
7165.000000;0.624521
7164.000000;0.627762
7163.000000;0.630603
7162.000000;0.634547
7161.000000;0.639725
7160.000000;0.644800
7159.000000;0.648865
7158.000000;0.652663
7157.000000;0.657508
7156.000000;0.663740
7155.000000;0.670575
7154.000000;0.677216
7153.000000;0.683694
7152.000000;0.690625
7151.000000;0.698322
7150.000000;0.706384
7149.000000;0.714027
7148.000000;0.720776
7147.000000;0.727033
7146.000000;0.733790
7145.000000;0.741460
7144.000000;0.749084
7143.000000;0.755239
7142.000000;0.759837
7141.000000;0.764324
7140.000000;0.769816
7139.000000;0.775739
7138.000000;0.780796
7137.000000;0.784739
7136.000000;0.788547
7135.000000;0.793056
7134.000000;0.798151
7133.000000;0.803358
7132.000000;0.808580
7131.000000;0.814099
7130.000000;0.820291
7129.000000;0.827411
7128.000000;0.835279
7127.000000;0.843086
7126.000000;0.850060
7125.000000;0.856473
7124.000000;0.863398
7123.000000;0.871189
7122.000000;0.878696
7121.000000;0.884507
7120.000000;0.888669
7119.000000;0.892568
7118.000000;0.897180
7117.000000;0.902069
7116.000000;0.906223
7115.000000;0.909471
7114.000000;0.912744
7113.000000;0.917038
7112.000000;0.922514
7111.000000;0.928622
7110.000000;0.934715
7109.000000;0.940498
7108.000000;0.946126
7107.000000;0.951835
7106.000000;0.957507
7105.000000;0.962663
7104.000000;0.966914
7103.000000;0.970580
7102.000000;0.974751
7101.000000;0.980320
7100.000000;0.986862
7099.000000;0.992856
7098.000000;0.997247
7097.000000;1.000453
7096.000000;1.003566
7095.000000;1.007005
7094.000000;1.010431
7093.000000;1.013630
7092.000000;1.016870
7091.000000;1.020410
7090.000000;1.024122
7089.000000;1.027757
7088.000000;1.031300
7087.000000;1.034937
7086.000000;1.038844
7085.000000;1.043055
7084.000000;1.047335
7083.000000;1.051284
7082.000000;1.054784
7081.000000;1.058160
7080.000000;1.061747
7079.000000;1.065521
7078.000000;1.069324
7077.000000;1.073182
7076.000000;1.077141
7075.000000;1.080989
7074.000000;1.084487
7073.000000;1.087731
7072.000000;1.090970
7071.000000;1.094201
7070.000000;1.097169
7069.000000;1.099688
7068.000000;1.101823
7067.000000;1.103833
7066.000000;1.106037
7065.000000;1.108596
7064.000000;1.111231
7063.000000;1.113373
7062.000000;1.114889
7061.000000;1.116387
7060.000000;1.118529
7059.000000;1.121348
7058.000000;1.124429
7057.000000;1.127449
7056.000000;1.130298
7055.000000;1.132927
7054.000000;1.135355
7053.000000;1.137613
7052.000000;1.139522
7051.000000;1.140822
7050.000000;1.141734
7049.000000;1.142992
7048.000000;1.145040
7047.000000;1.147521
7046.000000;1.149832
7045.000000;1.151827
7044.000000;1.153650
7043.000000;1.155273
7042.000000;1.156690
7041.000000;1.158178
7040.000000;1.159906
7039.000000;1.161579
7038.000000;1.162890
7037.000000;1.164004
7036.000000;1.165223
7035.000000;1.166536
7034.000000;1.167895
7033.000000;1.169529
7032.000000;1.171486
7031.000000;1.173259
7030.000000;1.174445
7029.000000;1.175421
7028.000000;1.176720
7027.000000;1.178096
7026.000000;1.178895
7025.000000;1.179131
7024.000000;1.179474
7023.000000;1.180331
7022.000000;1.181625
7021.000000;1.183315
7020.000000;1.185387
7019.000000;1.187323
7018.000000;1.188309
7017.000000;1.188191
7016.000000;1.187731
7015.000000;1.187761
7014.000000;1.188521
7013.000000;1.189815
7012.000000;1.191297
7011.000000;1.192533
7010.000000;1.193261
7009.000000;1.193728
7008.000000;1.194412
7007.000000;1.195361
7006.000000;1.196163
7005.000000;1.196584
7004.000000;1.196843
7003.000000;1.197141
7002.000000;1.197338
7001.000000;1.197276
7000.000000;1.197130
6999.000000;1.197221
6998.000000;1.197667
6997.000000;1.198327
6996.000000;1.198972
6995.000000;1.199461
6994.000000;1.199845
6993.000000;1.200264
6992.000000;1.200739
6991.000000;1.201114
6990.000000;1.201299
6989.000000;1.201427
6988.000000;1.201643
6987.000000;1.201873
6986.000000;1.201943
6985.000000;1.201778
6984.000000;1.201379
6983.000000;1.200799
6982.000000;1.200301
6981.000000;1.200295
6980.000000;1.200896
6979.000000;1.201718
6978.000000;1.202285
6977.000000;1.202440
6976.000000;1.202240
6975.000000;1.201754
6974.000000;1.201171
6973.000000;1.200778
6972.000000;1.200626
6971.000000;1.200455
6970.000000;1.200123
6969.000000;1.199843
6968.000000;1.199775
6967.000000;1.199708
6966.000000;1.199420
6965.000000;1.199087
6964.000000;1.199028
6963.000000;1.199311
6962.000000;1.199871
6961.000000;1.200681
6960.000000;1.201489
6959.000000;1.201784
6958.000000;1.201365
6957.000000;1.200635
6956.000000;1.199954
6955.000000;1.199073
6954.000000;1.197622
6953.000000;1.195804
6952.000000;1.194151
6951.000000;1.192888
6950.000000;1.192006
6949.000000;1.191680
6948.000000;1.192039
6947.000000;1.192638
6946.000000;1.192722
6945.000000;1.192036
6944.000000;1.190949
6943.000000;1.189835
6942.000000;1.188770
6941.000000;1.187854
6940.000000;1.187355
6939.000000;1.187376
6938.000000;1.187574
6937.000000;1.187308
6936.000000;1.186021
6935.000000;1.183679
6934.000000;1.181052
6933.000000;1.179379
6932.000000;1.179362
6931.000000;1.180471
6930.000000;1.181398
6929.000000;1.181212
6928.000000;1.179982
6927.000000;1.178441
6926.000000;1.177341
6925.000000;1.177056
6924.000000;1.177425
6923.000000;1.177810
6922.000000;1.177503
6921.000000;1.176245
6920.000000;1.174406
6919.000000;1.172703
6918.000000;1.171733
6917.000000;1.171562
6916.000000;1.171676
6915.000000;1.171434
6914.000000;1.170627
6913.000000;1.169539
6912.000000;1.168526
6911.000000;1.167759
6910.000000;1.167293
6909.000000;1.167008
6908.000000;1.166485
6907.000000;1.165339
6906.000000;1.163733
6905.000000;1.162219
6904.000000;1.161015
6903.000000;1.159820
6902.000000;1.158450
6901.000000;1.157200
6900.000000;1.156368
6899.000000;1.155861
6898.000000;1.155514
6897.000000;1.155365
6896.000000;1.155323
6895.000000;1.154982
6894.000000;1.154184
6893.000000;1.153369
6892.000000;1.152951
6891.000000;1.152634
6890.000000;1.151816
6889.000000;1.150404
6888.000000;1.148805
6887.000000;1.147308
6886.000000;1.145877
6885.000000;1.144431
6884.000000;1.142987
6883.000000;1.141654
6882.000000;1.140752
6881.000000;1.140656
6880.000000;1.141179
6879.000000;1.141411
6878.000000;1.140597
6877.000000;1.138978
6876.000000;1.137359
6875.000000;1.136106
6874.000000;1.135044
6873.000000;1.134107
6872.000000;1.133447
6871.000000;1.132980
6870.000000;1.132315
6869.000000;1.131215
6868.000000;1.129780
6867.000000;1.128194
6866.000000;1.126654
6865.000000;1.125464
6864.000000;1.124803
6863.000000;1.124374
6862.000000;1.123670
6861.000000;1.122590
6860.000000;1.121451
6859.000000;1.120429
6858.000000;1.119362
6857.000000;1.118119
6856.000000;1.116802
6855.000000;1.115487
6854.000000;1.114107
6853.000000;1.112686
6852.000000;1.111405
6851.000000;1.110319
6850.000000;1.109232
6849.000000;1.107955
6848.000000;1.106486
6847.000000;1.104863
6846.000000;1.103057
6845.000000;1.101114
6844.000000;1.099260
6843.000000;1.097693
6842.000000;1.096337
6841.000000;1.094908
6840.000000;1.093183
6839.000000;1.091190
6838.000000;1.089200
6837.000000;1.087535
6836.000000;1.086282
6835.000000;1.085178
6834.000000;1.083786
6833.000000;1.081860
6832.000000;1.079507
6831.000000;1.077058
6830.000000;1.074794
6829.000000;1.072788
6828.000000;1.070952
6827.000000;1.069197
6826.000000;1.067468
6825.000000;1.065642
6824.000000;1.063542
6823.000000;1.061197
6822.000000;1.058930
6821.000000;1.056991
6820.000000;1.055150
6819.000000;1.052914
6818.000000;1.050214
6817.000000;1.047569
6816.000000;1.045465
6815.000000;1.043810
6814.000000;1.042150
6813.000000;1.040205
6812.000000;1.037994
6811.000000;1.035586
6810.000000;1.032992
6809.000000;1.030275
6808.000000;1.027557
6807.000000;1.024872
6806.000000;1.022139
6805.000000;1.019298
6804.000000;1.016414
6803.000000;1.013657
6802.000000;1.011187
6801.000000;1.009017
6800.000000;1.007002
6799.000000;1.004975
6798.000000;1.002849
6797.000000;1.000510
6796.000000;0.997722
6795.000000;0.994353
6794.000000;0.990673
6793.000000;0.987239
6792.000000;0.984404
6791.000000;0.982064
6790.000000;0.979871
6789.000000;0.977545
6788.000000;0.974950
6787.000000;0.972064
6786.000000;0.969012
6785.000000;0.965998
6784.000000;0.963131
6783.000000;0.960389
6782.000000;0.957752
6781.000000;0.955227
6780.000000;0.952733
6779.000000;0.950110
6778.000000;0.947317
6777.000000;0.944473
6776.000000;0.941664
6775.000000;0.938839
6774.000000;0.935958
6773.000000;0.933079
6772.000000;0.930227
6771.000000;0.927306
6770.000000;0.924249
6769.000000;0.921180
6768.000000;0.918302
6767.000000;0.915680
6766.000000;0.913161
6765.000000;0.910469
6764.000000;0.907395
6763.000000;0.904028
6762.000000;0.900769
6761.000000;0.897981
6760.000000;0.895610
6759.000000;0.893267
6758.000000;0.890678
6757.000000;0.887918
6756.000000;0.885172
6755.000000;0.882472
6754.000000;0.879738
6753.000000;0.876923
6752.000000;0.874023
6751.000000;0.871053
6750.000000;0.868082
6749.000000;0.865169
6748.000000;0.862262
6747.000000;0.859276
6746.000000;0.856274
6745.000000;0.853414
6744.000000;0.850671
6743.000000;0.847812
6742.000000;0.844717
6741.000000;0.841549
6740.000000;0.838531
6739.000000;0.835718
6738.000000;0.833036
6737.000000;0.830397
6736.000000;0.827671
6735.000000;0.824734
6734.000000;0.821642
6733.000000;0.818635
6732.000000;0.815848
6731.000000;0.813156
6730.000000;0.810367
6729.000000;0.807475
6728.000000;0.804607
6727.000000;0.801847
6726.000000;0.799229
6725.000000;0.796751
6724.000000;0.794298
6723.000000;0.791658
6722.000000;0.788739
6721.000000;0.785687
6720.000000;0.782716
6719.000000;0.779860
6718.000000;0.776993
6717.000000;0.774070
6716.000000;0.771132
6715.000000;0.768267
6714.000000;0.765578
6713.000000;0.763095
6712.000000;0.760679
6711.000000;0.758193
6710.000000;0.755494
6709.000000;0.752637
6708.000000;0.749793
6707.000000;0.746944
6706.000000;0.744123
6705.000000;0.741404
6704.000000;0.738851
6703.000000;0.736394
6702.000000;0.733904
6701.000000;0.731323
6700.000000;0.728670
6699.000000;0.725961
6698.000000;0.723189
6697.000000;0.720340
6696.000000;0.717398
6695.000000;0.714387
6694.000000;0.711419
6693.000000;0.708630
6692.000000;0.706040
6691.000000;0.703558
6690.000000;0.701133
6689.000000;0.698798
6688.000000;0.696517
6687.000000;0.694144
6686.000000;0.691585
6685.000000;0.688916
6684.000000;0.686255
6683.000000;0.683609
6682.000000;0.680914
6681.000000;0.678137
6680.000000;0.675279
6679.000000;0.672363
6678.000000;0.669492
6677.000000;0.666834
6676.000000;0.664438
6675.000000;0.662150
6674.000000;0.659775
6673.000000;0.657257
6672.000000;0.654647
6671.000000;0.651997
6670.000000;0.649366
6669.000000;0.646855
6668.000000;0.644501
6667.000000;0.642176
6666.000000;0.639728
6665.000000;0.637183
6664.000000;0.634714
6663.000000;0.632401
6662.000000;0.630135
6661.000000;0.627751
6660.000000;0.625203
6659.000000;0.622580
6658.000000;0.620001
6657.000000;0.617512
6656.000000;0.615075
6655.000000;0.612627
6654.000000;0.610158
6653.000000;0.607695
6652.000000;0.605239
6651.000000;0.602780
6650.000000;0.600347
6649.000000;0.597990
6648.000000;0.595681
6647.000000;0.593326
6646.000000;0.590883
6645.000000;0.588407
6644.000000;0.585959
6643.000000;0.583555
6642.000000;0.581234
6641.000000;0.579054
6640.000000;0.576965
6639.000000;0.574790
6638.000000;0.572416
6637.000000;0.569935
6636.000000;0.567511
6635.000000;0.565171
6634.000000;0.562827
6633.000000;0.560443
6632.000000;0.558071
6631.000000;0.555743
6630.000000;0.553446
6629.000000;0.551190
6628.000000;0.549004
6627.000000;0.546848
6626.000000;0.544615
6625.000000;0.542244
6624.000000;0.539798
6623.000000;0.537400
6622.000000;0.535119
6621.000000;0.532925
6620.000000;0.530732
6619.000000;0.528483
6618.000000;0.526203
6617.000000;0.523969
6616.000000;0.521835
6615.000000;0.519779
6614.000000;0.517755
6613.000000;0.515740
6612.000000;0.513714
6611.000000;0.511629
6610.000000;0.509435
6609.000000;0.507158
6608.000000;0.504911
6607.000000;0.502798
6606.000000;0.500812
6605.000000;0.498836
6604.000000;0.496749
6603.000000;0.494533
6602.000000;0.492273
6601.000000;0.490045
6600.000000;0.487857
6599.000000;0.485695
6598.000000;0.483577
6597.000000;0.481516
6596.000000;0.479473
6595.000000;0.477398
6594.000000;0.475306
6593.000000;0.473241
6592.000000;0.471198
6591.000000;0.469148
6590.000000;0.467118
6589.000000;0.465165
6588.000000;0.463258
6587.000000;0.461288
6586.000000;0.459211
6585.000000;0.457116
6584.000000;0.455112
6583.000000;0.453219
6582.000000;0.451385
6581.000000;0.449562
6580.000000;0.447704
6579.000000;0.445769
6578.000000;0.443765
6577.000000;0.441766
6576.000000;0.439841
6575.000000;0.437994
6574.000000;0.436177
6573.000000;0.434335
6572.000000;0.432433
6571.000000;0.430472
6570.000000;0.428500
6569.000000;0.426563
6568.000000;0.424630
6567.000000;0.422631
6566.000000;0.420566
6565.000000;0.418547
6564.000000;0.416686
6563.000000;0.414983
6562.000000;0.413352
6561.000000;0.411692
6560.000000;0.409912
6559.000000;0.407961
6558.000000;0.405882
6557.000000;0.403819
6556.000000;0.401909
6555.000000;0.400176
6554.000000;0.398539
6553.000000;0.396904
6552.000000;0.395223
6551.000000;0.393500
6550.000000;0.391773
6549.000000;0.390070
6548.000000;0.388377
6547.000000;0.386643
6546.000000;0.384835
6545.000000;0.382968
6544.000000;0.381084
6543.000000;0.379237
6542.000000;0.377481
6541.000000;0.375836
6540.000000;0.374247
6539.000000;0.372612
6538.000000;0.370864
6537.000000;0.369013
6536.000000;0.367133
6535.000000;0.365322
6534.000000;0.363668
6533.000000;0.362174
6532.000000;0.360736
6531.000000;0.359222
6530.000000;0.357595
6529.000000;0.355899
6528.000000;0.354170
6527.000000;0.352415
6526.000000;0.350672
6525.000000;0.348999
6524.000000;0.347387
6523.000000;0.345770
6522.000000;0.344133
6521.000000;0.342537
6520.000000;0.340997
6519.000000;0.339438
6518.000000;0.337802
6517.000000;0.336136
6516.000000;0.334523
6515.000000;0.332967
6514.000000;0.331418
6513.000000;0.329860
6512.000000;0.328315
6511.000000;0.326794
6510.000000;0.325289
6509.000000;0.323787
6508.000000;0.322258
6507.000000;0.320676
6506.000000;0.319057
6505.000000;0.317458
6504.000000;0.315892
6503.000000;0.314312
6502.000000;0.312709
6501.000000;0.311154
6500.000000;0.309704
6499.000000;0.308306
6498.000000;0.306875
6497.000000;0.305400
6496.000000;0.303933
6495.000000;0.302499
6494.000000;0.301068
6493.000000;0.299618
6492.000000;0.298151
6491.000000;0.296658
6490.000000;0.295132
6489.000000;0.293608
6488.000000;0.292137
6487.000000;0.290735
6486.000000;0.289369
6485.000000;0.287991
6484.000000;0.286575
6483.000000;0.285120
6482.000000;0.283656
6481.000000;0.282227
6480.000000;0.280843
6479.000000;0.279473
6478.000000;0.278092
6477.000000;0.276719
6476.000000;0.275368
6475.000000;0.274012
6474.000000;0.272612
6473.000000;0.271169
6472.000000;0.269719
6471.000000;0.268281
6470.000000;0.266858
6469.000000;0.265455
6468.000000;0.264080
6467.000000;0.262727
6466.000000;0.261399
6465.000000;0.260110
6464.000000;0.258862
6463.000000;0.257619
6462.000000;0.256351
6461.000000;0.255066
6460.000000;0.253786
6459.000000;0.252506
6458.000000;0.251203
6457.000000;0.249880
6456.000000;0.248564
6455.000000;0.247273
6454.000000;0.246010
6453.000000;0.244766
6452.000000;0.243519
6451.000000;0.242227
6450.000000;0.240880
6449.000000;0.239525
6448.000000;0.238232
6447.000000;0.237025
6446.000000;0.235868
6445.000000;0.234698
6444.000000;0.233465
6443.000000;0.232161
6442.000000;0.230832
6441.000000;0.229555
6440.000000;0.228369
6439.000000;0.227230
6438.000000;0.226069
6437.000000;0.224862
6436.000000;0.223640
6435.000000;0.222435
6434.000000;0.221246
6433.000000;0.220062
6432.000000;0.218885
6431.000000;0.217728
6430.000000;0.216587
6429.000000;0.215433
6428.000000;0.214229
6427.000000;0.212975
6426.000000;0.211728
6425.000000;0.210561
6424.000000;0.209485
6423.000000;0.208441
6422.000000;0.207363
6421.000000;0.206237
6420.000000;0.205078
6419.000000;0.203901
6418.000000;0.202723
6417.000000;0.201573
6416.000000;0.200457
6415.000000;0.199351
6414.000000;0.198232
6413.000000;0.197117
6412.000000;0.196036
6411.000000;0.194998
6410.000000;0.193981
6409.000000;0.192963
6408.000000;0.191910
6407.000000;0.190788
6406.000000;0.189608
6405.000000;0.188436
6404.000000;0.187331
6403.000000;0.186286
6402.000000;0.185260
6401.000000;0.184243
6400.000000;0.183253
6399.000000;0.182277
6398.000000;0.181258
6397.000000;0.180162
6396.000000;0.179020
6395.000000;0.177897
6394.000000;0.176839
6393.000000;0.175846
6392.000000;0.174883
6391.000000;0.173912
6390.000000;0.172910
6389.000000;0.171878
6388.000000;0.170827
6387.000000;0.169779
6386.000000;0.168768
6385.000000;0.167814
6384.000000;0.166892
6383.000000;0.165943
6382.000000;0.164934
6381.000000;0.163893
6380.000000;0.162864
6379.000000;0.161862
6378.000000;0.160887
6377.000000;0.159952
6376.000000;0.159061
6375.000000;0.158174
6374.000000;0.157243
6373.000000;0.156263
6372.000000;0.155269
6371.000000;0.154282
6370.000000;0.153297
6369.000000;0.152316
6368.000000;0.151353
6367.000000;0.150415
6366.000000;0.149483
6365.000000;0.148543
6364.000000;0.147598
6363.000000;0.146666
6362.000000;0.145753
6361.000000;0.144846
6360.000000;0.143926
6359.000000;0.142991
6358.000000;0.142071
6357.000000;0.141195
6356.000000;0.140355
6355.000000;0.139504
6354.000000;0.138614
6353.000000;0.137709
6352.000000;0.136827
6351.000000;0.135957
6350.000000;0.135056
6349.000000;0.134106
6348.000000;0.133149
6347.000000;0.132243
6346.000000;0.131412
6345.000000;0.130633
6344.000000;0.129864
6343.000000;0.129071
6342.000000;0.128242
6341.000000;0.127381
6340.000000;0.126499
6339.000000;0.125613
6338.000000;0.124749
6337.000000;0.123922
6336.000000;0.123116
6335.000000;0.122296
6334.000000;0.121457
6333.000000;0.120628
6332.000000;0.119823
6331.000000;0.119013
6330.000000;0.118165
6329.000000;0.117298
6328.000000;0.116458
6327.000000;0.115655
6326.000000;0.114861
6325.000000;0.114052
6324.000000;0.113237
6323.000000;0.112443
6322.000000;0.111682
6321.000000;0.110951
6320.000000;0.110222
6319.000000;0.109460
6318.000000;0.108642
6317.000000;0.107797
6316.000000;0.106979
6315.000000;0.106213
6314.000000;0.105469
6313.000000;0.104698
6312.000000;0.103888
6311.000000;0.103072
6310.000000;0.102294
6309.000000;0.101565
6308.000000;0.100860
6307.000000;0.100145
6306.000000;0.099415
6305.000000;0.098685
6304.000000;0.097962
6303.000000;0.097227
6302.000000;0.096459
6301.000000;0.095672
6300.000000;0.094906
6299.000000;0.094185
6298.000000;0.093495
6297.000000;0.092802
6296.000000;0.092090
6295.000000;0.091376
6294.000000;0.090685
6293.000000;0.090011
6292.000000;0.089315
6291.000000;0.088569
6290.000000;0.087800
6289.000000;0.087062
6288.000000;0.086371
6287.000000;0.085693
6286.000000;0.084998
6285.000000;0.084307
6284.000000;0.083657
6283.000000;0.083046
6282.000000;0.082429
6281.000000;0.081769
6280.000000;0.081065
6279.000000;0.080353
6278.000000;0.079672
6277.000000;0.079028
6276.000000;0.078388
6275.000000;0.077716
6274.000000;0.077008
6273.000000;0.076295
6272.000000;0.075601
6271.000000;0.074921
6270.000000;0.074248
6269.000000;0.073582
6268.000000;0.072923
6267.000000;0.072254
6266.000000;0.071565
6265.000000;0.070871
6264.000000;0.070199
6263.000000;0.069565
6262.000000;0.068968
6261.000000;0.068398
6260.000000;0.067826
6259.000000;0.067219
6258.000000;0.066575
6257.000000;0.065923
6256.000000;0.065279
6255.000000;0.064625
6254.000000;0.063952
6253.000000;0.063289
6252.000000;0.062664
6251.000000;0.062055
6250.000000;0.061416
6249.000000;0.060748
6248.000000;0.060093
6247.000000;0.059478
6246.000000;0.058892
6245.000000;0.058316
6244.000000;0.057757
6243.000000;0.057221
6242.000000;0.056686
6241.000000;0.056124
6240.000000;0.055521
6239.000000;0.054889
6238.000000;0.054259
6237.000000;0.053667
6236.000000;0.053118
6235.000000;0.052578
6234.000000;0.052005
6233.000000;0.051395
6232.000000;0.050770
6231.000000;0.050138
6230.000000;0.049482
6229.000000;0.048813
6228.000000;0.048179
6227.000000;0.047612
6226.000000;0.047091
6225.000000;0.046572
6224.000000;0.046032
6223.000000;0.045473
6222.000000;0.044905
6221.000000;0.044339
6220.000000;0.043791
6219.000000;0.043263
6218.000000;0.042726
6217.000000;0.042145
6216.000000;0.041533
6215.000000;0.040950
6214.000000;0.040442
6213.000000;0.039994
6212.000000;0.039542
6211.000000;0.039037
6210.000000;0.038476
6209.000000;0.037895
6208.000000;0.037323
6207.000000;0.036773
6206.000000;0.036240
6205.000000;0.035717
6204.000000;0.035194
6203.000000;0.034650
6202.000000;0.034072
6201.000000;0.033474
6200.000000;0.032891
6199.000000;0.032350
6198.000000;0.031844
6197.000000;0.031346
6196.000000;0.030834
6195.000000;0.030309
6194.000000;0.029786
6193.000000;0.029274
6192.000000;0.028776
6191.000000;0.028291
6190.000000;0.027812
6189.000000;0.027336
6188.000000;0.026864
6187.000000;0.026396
6186.000000;0.025919
6185.000000;0.025404
6184.000000;0.024832
6183.000000;0.024231
6182.000000;0.023652
6181.000000;0.023131
6180.000000;0.022650
6179.000000;0.022174
6178.000000;0.021693
6177.000000;0.021222
6176.000000;0.020767
6175.000000;0.020314
6174.000000;0.019863
6173.000000;0.019437
6172.000000;0.019049
6171.000000;0.018672
6170.000000;0.018264
6169.000000;0.017805
6168.000000;0.017311
6167.000000;0.016803
6166.000000;0.016288
6165.000000;0.015762
6164.000000;0.015222
6163.000000;0.014675
6162.000000;0.014145
6161.000000;0.013652
6160.000000;0.013199
6159.000000;0.012761
6158.000000;0.012316
6157.000000;0.011860
6156.000000;0.011401
6155.000000;0.010938
6154.000000;0.010467
6153.000000;0.009993
6152.000000;0.009533
6151.000000;0.009096
6150.000000;0.008666
6149.000000;0.008221
6148.000000;0.007757
6147.000000;0.007290
6146.000000;0.006834
6145.000000;0.006384
6144.000000;0.005920
6143.000000;0.005431
6142.000000;0.004939
6141.000000;0.004487
6140.000000;0.004098
6139.000000;0.003754
6138.000000;0.003421
6137.000000;0.003078
6136.000000;0.002718
6135.000000;0.002332
6134.000000;0.001905
6133.000000;0.001442
6132.000000;0.000968
6131.000000;0.000508
6130.000000;0.000075
6129.000000;-0.000336
6128.000000;-0.000737
6127.000000;-0.001139
6126.000000;-0.001542
6125.000000;-0.001930
6124.000000;-0.002297
6123.000000;-0.002661
6122.000000;-0.003058
6121.000000;-0.003508
6120.000000;-0.003996
6119.000000;-0.004486
6118.000000;-0.004946
6117.000000;-0.005361
6116.000000;-0.005739
6115.000000;-0.006108
6114.000000;-0.006498
6113.000000;-0.006919
6112.000000;-0.007351
6111.000000;-0.007772
6110.000000;-0.008164
6109.000000;-0.008524
6108.000000;-0.008854
6107.000000;-0.009177
6106.000000;-0.009526
6105.000000;-0.009922
6104.000000;-0.010352
6103.000000;-0.010771
6102.000000;-0.011145
6101.000000;-0.011480
6100.000000;-0.011810
6099.000000;-0.012175
6098.000000;-0.012597
6097.000000;-0.013067
6096.000000;-0.013552
6095.000000;-0.014012
6094.000000;-0.014420
6093.000000;-0.014770
6092.000000;-0.015072
6091.000000;-0.015343
6090.000000;-0.015604
6089.000000;-0.015872
6088.000000;-0.016154
6087.000000;-0.016458
6086.000000;-0.016800
6085.000000;-0.017194
6084.000000;-0.017626
6083.000000;-0.018046
6082.000000;-0.018419
6081.000000;-0.018761
6080.000000;-0.019130
6079.000000;-0.019553
6078.000000;-0.019995
6077.000000;-0.020389
6076.000000;-0.020706
6075.000000;-0.020975
6074.000000;-0.021242
6073.000000;-0.021539
6072.000000;-0.021869
6071.000000;-0.022227
6070.000000;-0.022608
6069.000000;-0.023012
6068.000000;-0.023431
6067.000000;-0.023845
6066.000000;-0.024230
6065.000000;-0.024575
6064.000000;-0.024891
6063.000000;-0.025195
6062.000000;-0.025499
6061.000000;-0.025812
6060.000000;-0.026139
6059.000000;-0.026472
6058.000000;-0.026790
6057.000000;-0.027083
6056.000000;-0.027364
6055.000000;-0.027660
6054.000000;-0.027971
6053.000000;-0.028276
6052.000000;-0.028567
6051.000000;-0.028858
6050.000000;-0.029168
6049.000000;-0.029492
6048.000000;-0.029810
6047.000000;-0.030103
6046.000000;-0.030369
6045.000000;-0.030625
6044.000000;-0.030891
6043.000000;-0.031183
6042.000000;-0.031497
6041.000000;-0.031823
6040.000000;-0.032154
6039.000000;-0.032489
6038.000000;-0.032820
6037.000000;-0.033134
6036.000000;-0.033425
6035.000000;-0.033710
6034.000000;-0.034014
6033.000000;-0.034347
6032.000000;-0.034696
6031.000000;-0.035027
6030.000000;-0.035311
6029.000000;-0.035551
6028.000000;-0.035776
6027.000000;-0.036016
6026.000000;-0.036264
6025.000000;-0.036498
6024.000000;-0.036712
6023.000000;-0.036928
6022.000000;-0.037169
6021.000000;-0.037427
6020.000000;-0.037683
6019.000000;-0.037928
6018.000000;-0.038164
6017.000000;-0.038398
6016.000000;-0.038634
6015.000000;-0.038884
6014.000000;-0.039154
6013.000000;-0.039434
6012.000000;-0.039704
6011.000000;-0.039956
6010.000000;-0.040196
6009.000000;-0.040439
6008.000000;-0.040687
6007.000000;-0.040939
6006.000000;-0.041202
6005.000000;-0.041478
6004.000000;-0.041759
6003.000000;-0.042020
6002.000000;-0.042244
6001.000000;-0.042450
6000.000000;-0.042672
5999.000000;-0.042923
5998.000000;-0.043175
5997.000000;-0.043397
5996.000000;-0.043597
5995.000000;-0.043808
5994.000000;-0.044049
5993.000000;-0.044300
5992.000000;-0.044538
5991.000000;-0.044760
5990.000000;-0.044970
5989.000000;-0.045164
5988.000000;-0.045339
5987.000000;-0.045504
5986.000000;-0.045669
5985.000000;-0.045829
5984.000000;-0.045980
5983.000000;-0.046136
5982.000000;-0.046319
5981.000000;-0.046538
5980.000000;-0.046784
5979.000000;-0.047043
5978.000000;-0.047306
5977.000000;-0.047558
5976.000000;-0.047784
5975.000000;-0.047979
5974.000000;-0.048148
5973.000000;-0.048297
5972.000000;-0.048433
5971.000000;-0.048573
5970.000000;-0.048726
5969.000000;-0.048891
5968.000000;-0.049063
5967.000000;-0.049246
5966.000000;-0.049440
5965.000000;-0.049617
5964.000000;-0.049744
5963.000000;-0.049831
5962.000000;-0.049946
5961.000000;-0.050139
5960.000000;-0.050396
5959.000000;-0.050653
5958.000000;-0.050864
5957.000000;-0.051032
5956.000000;-0.051182
5955.000000;-0.051328
5954.000000;-0.051469
5953.000000;-0.051598
5952.000000;-0.051705
5951.000000;-0.051778
5950.000000;-0.051834
5949.000000;-0.051925
5948.000000;-0.052097
5947.000000;-0.052332
5946.000000;-0.052554
5945.000000;-0.052700
5944.000000;-0.052784
5943.000000;-0.052866
5942.000000;-0.052981
5941.000000;-0.053105
5940.000000;-0.053194
5939.000000;-0.053246
5938.000000;-0.053297
5937.000000;-0.053385
5936.000000;-0.053522
5935.000000;-0.053685
5934.000000;-0.053836
5933.000000;-0.053944
5932.000000;-0.054017
5931.000000;-0.054090
5930.000000;-0.054189
5929.000000;-0.054304
5928.000000;-0.054415
5927.000000;-0.054518
5926.000000;-0.054623
5925.000000;-0.054727
5924.000000;-0.054828
5923.000000;-0.054932
5922.000000;-0.055051
5921.000000;-0.055167
5920.000000;-0.055247
5919.000000;-0.055277
5918.000000;-0.055291
5917.000000;-0.055326
5916.000000;-0.055399
5915.000000;-0.055497
5914.000000;-0.055607
5913.000000;-0.055723
5912.000000;-0.055840
5911.000000;-0.055957
5910.000000;-0.056071
5909.000000;-0.056172
5908.000000;-0.056247
5907.000000;-0.056295
5906.000000;-0.056334
5905.000000;-0.056384
5904.000000;-0.056446
5903.000000;-0.056511
5902.000000;-0.056583
5901.000000;-0.056674
5900.000000;-0.056785
5899.000000;-0.056890
5898.000000;-0.056956
5897.000000;-0.056974
5896.000000;-0.056959
5895.000000;-0.056943
5894.000000;-0.056951
5893.000000;-0.056996
5892.000000;-0.057068
5891.000000;-0.057147
5890.000000;-0.057213
5889.000000;-0.057257
5888.000000;-0.057291
5887.000000;-0.057326
5886.000000;-0.057364
5885.000000;-0.057390
5884.000000;-0.057390
5883.000000;-0.057374
5882.000000;-0.057378
5881.000000;-0.057426
5880.000000;-0.057507
5879.000000;-0.057575
5878.000000;-0.057597
5877.000000;-0.057592
5876.000000;-0.057600
5875.000000;-0.057642
5874.000000;-0.057694
5873.000000;-0.057722
5872.000000;-0.057713
5871.000000;-0.057675
5870.000000;-0.057620
5869.000000;-0.057560
5868.000000;-0.057515
5867.000000;-0.057501
5866.000000;-0.057512
5865.000000;-0.057519
5864.000000;-0.057497
5863.000000;-0.057443
5862.000000;-0.057374
5861.000000;-0.057306
5860.000000;-0.057252
5859.000000;-0.057220
5858.000000;-0.057203
5857.000000;-0.057182
5856.000000;-0.057137
5855.000000;-0.057069
5854.000000;-0.056991
5853.000000;-0.056923
5852.000000;-0.056874
5851.000000;-0.056841
5850.000000;-0.056811
5849.000000;-0.056764
5848.000000;-0.056692
5847.000000;-0.056600
5846.000000;-0.056499
5845.000000;-0.056398
5844.000000;-0.056304
5843.000000;-0.056218
5842.000000;-0.056130
5841.000000;-0.056034
5840.000000;-0.055939
5839.000000;-0.055860
5838.000000;-0.055788
5837.000000;-0.055690
5836.000000;-0.055549
5835.000000;-0.055384
5834.000000;-0.055230
5833.000000;-0.055094
5832.000000;-0.054963
5831.000000;-0.054832
5830.000000;-0.054710
5829.000000;-0.054593
5828.000000;-0.054466
5827.000000;-0.054324
5826.000000;-0.054176
5825.000000;-0.054022
5824.000000;-0.053850
5823.000000;-0.053653
5822.000000;-0.053449
5821.000000;-0.053258
5820.000000;-0.053087
5819.000000;-0.052932
5818.000000;-0.052787
5817.000000;-0.052637
5816.000000;-0.052458
5815.000000;-0.052238
5814.000000;-0.052004
5813.000000;-0.051796
5812.000000;-0.051629
5811.000000;-0.051485
5810.000000;-0.051340
5809.000000;-0.051187
5808.000000;-0.051031
5807.000000;-0.050871
5806.000000;-0.050694
5805.000000;-0.050491
5804.000000;-0.050267
5803.000000;-0.050036
5802.000000;-0.049810
5801.000000;-0.049588
5800.000000;-0.049361
5799.000000;-0.049116
5798.000000;-0.048849
5797.000000;-0.048568
5796.000000;-0.048291
5795.000000;-0.048031
5794.000000;-0.047787
5793.000000;-0.047546
5792.000000;-0.047297
5791.000000;-0.047043
5790.000000;-0.046792
5789.000000;-0.046542
5788.000000;-0.046274
5787.000000;-0.045973
5786.000000;-0.045631
5785.000000;-0.045262
5784.000000;-0.044891
5783.000000;-0.044549
5782.000000;-0.044251
5781.000000;-0.043987
5780.000000;-0.043729
5779.000000;-0.043456
5778.000000;-0.043163
5777.000000;-0.042858
5776.000000;-0.042549
5775.000000;-0.042243
5774.000000;-0.041933
5773.000000;-0.041605
5772.000000;-0.041247
5771.000000;-0.040873
5770.000000;-0.040507
5769.000000;-0.040160
5768.000000;-0.039828
5767.000000;-0.039511
5766.000000;-0.039212
5765.000000;-0.038911
5764.000000;-0.038566
5763.000000;-0.038152
5762.000000;-0.037693
5761.000000;-0.037245
5760.000000;-0.036842
5759.000000;-0.036470
5758.000000;-0.036095
5757.000000;-0.035705
5756.000000;-0.035312
5755.000000;-0.034923
5754.000000;-0.034524
5753.000000;-0.034093
5752.000000;-0.033636
5751.000000;-0.033192
5750.000000;-0.032788
5749.000000;-0.032401
5748.000000;-0.031975
5747.000000;-0.031485
5746.000000;-0.030962
5745.000000;-0.030457
5744.000000;-0.029985
5743.000000;-0.029526
5742.000000;-0.029057
5741.000000;-0.028576
5740.000000;-0.028093
5739.000000;-0.027627
5738.000000;-0.027190
5737.000000;-0.026784
5736.000000;-0.026385
5735.000000;-0.025957
5734.000000;-0.025476
5733.000000;-0.024952
5732.000000;-0.024412
5731.000000;-0.023878
5730.000000;-0.023344
5729.000000;-0.022790
5728.000000;-0.022201
5727.000000;-0.021594
5726.000000;-0.020998
5725.000000;-0.020432
5724.000000;-0.019891
5723.000000;-0.019360
5722.000000;-0.018830
5721.000000;-0.018300
5720.000000;-0.017773
5719.000000;-0.017248
5718.000000;-0.016699
5717.000000;-0.016093
5716.000000;-0.015415
5715.000000;-0.014705
5714.000000;-0.014032
5713.000000;-0.013436
5712.000000;-0.012897
5711.000000;-0.012371
5710.000000;-0.011828
5709.000000;-0.011262
5708.000000;-0.010671
5707.000000;-0.010056
5706.000000;-0.009423
5705.000000;-0.008785
5704.000000;-0.008131
5703.000000;-0.007462
5702.000000;-0.006798
5701.000000;-0.006146
5700.000000;-0.005514
5699.000000;-0.004887
5698.000000;-0.004254
5697.000000;-0.003614
5696.000000;-0.002970
5695.000000;-0.002314
5694.000000;-0.001635
5693.000000;-0.000939
5692.000000;-0.000260
5691.000000;0.000349
5690.000000;0.000871
5689.000000;0.001357
5688.000000;0.001900
5687.000000;0.002562
5686.000000;0.003322
5685.000000;0.004099
5684.000000;0.004821
5683.000000;0.005475
5682.000000;0.006104
5681.000000;0.006760
5680.000000;0.007461
5679.000000;0.008174
5678.000000;0.008858
5677.000000;0.009507
5676.000000;0.010148
5675.000000;0.010806
5674.000000;0.011470
5673.000000;0.012113
5672.000000;0.012724
5671.000000;0.013314
5670.000000;0.013912
5669.000000;0.014557
5668.000000;0.015263
5667.000000;0.016001
5666.000000;0.016718
5665.000000;0.017392
5664.000000;0.018038
5663.000000;0.018668
5662.000000;0.019267
5661.000000;0.019839
5660.000000;0.020420
5659.000000;0.021037
5658.000000;0.021666
5657.000000;0.022275
5656.000000;0.022866
5655.000000;0.023460
5654.000000;0.024056
5653.000000;0.024637
5652.000000;0.025214
5651.000000;0.025823
5650.000000;0.026477
5649.000000;0.027148
5648.000000;0.027802
5647.000000;0.028426
5646.000000;0.029025
5645.000000;0.029602
5644.000000;0.030142
5643.000000;0.030627
5642.000000;0.031063
5641.000000;0.031497
5640.000000;0.031987
5639.000000;0.032542
5638.000000;0.033117
5637.000000;0.033659
5636.000000;0.034157
5635.000000;0.034626
5634.000000;0.035075
5633.000000;0.035520
5632.000000;0.035994
5631.000000;0.036510
5630.000000;0.037037
5629.000000;0.037522
5628.000000;0.037954
5627.000000;0.038364
5626.000000;0.038791
5625.000000;0.039238
5624.000000;0.039687
5623.000000;0.040111
5622.000000;0.040494
5621.000000;0.040852
5620.000000;0.041230
5619.000000;0.041655
5618.000000;0.042106
5617.000000;0.042547
5616.000000;0.042964
5615.000000;0.043352
5614.000000;0.043689
5613.000000;0.043953
5612.000000;0.044158
5611.000000;0.044344
5610.000000;0.044547
5609.000000;0.044795
5608.000000;0.045114
5607.000000;0.045494
5606.000000;0.045884
5605.000000;0.046239
5604.000000;0.046560
5603.000000;0.046856
5602.000000;0.047110
5601.000000;0.047299
5600.000000;0.047450
5599.000000;0.047607
5598.000000;0.047784
5597.000000;0.047966
5596.000000;0.048143
5595.000000;0.048310
5594.000000;0.048444
5593.000000;0.048532
5592.000000;0.048605
5591.000000;0.048710
5590.000000;0.048852
5589.000000;0.049014
5588.000000;0.049204
5587.000000;0.049427
5586.000000;0.049638
5585.000000;0.049783
5584.000000;0.049862
5583.000000;0.049927
5582.000000;0.050009
5581.000000;0.050102
5580.000000;0.050213
5579.000000;0.050358
5578.000000;0.050512
5577.000000;0.050629
5576.000000;0.050691
5575.000000;0.050712
5574.000000;0.050695
5573.000000;0.050643
5572.000000;0.050606
5571.000000;0.050649
5570.000000;0.050755
5569.000000;0.050832
5568.000000;0.050835
5567.000000;0.050817
5566.000000;0.050837
5565.000000;0.050887
5564.000000;0.050929
5563.000000;0.050947
5562.000000;0.050939
5561.000000;0.050901
5560.000000;0.050853
5559.000000;0.050864
5558.000000;0.050997
5557.000000;0.051240
5556.000000;0.051505
5555.000000;0.051693
5554.000000;0.051771
5553.000000;0.051759
5552.000000;0.051680
5551.000000;0.051531
5550.000000;0.051309
5549.000000;0.051052
5548.000000;0.050826
5547.000000;0.050656
5546.000000;0.050499
5545.000000;0.050315
5544.000000;0.050144
5543.000000;0.050088
5542.000000;0.050211
5541.000000;0.050466
5540.000000;0.050741
5539.000000;0.050973
5538.000000;0.051154
5537.000000;0.051228
5536.000000;0.051074
5535.000000;0.050639
5534.000000;0.050066
5533.000000;0.049608
5532.000000;0.049402
5531.000000;0.049384
5530.000000;0.049406
5529.000000;0.049422
5528.000000;0.049534
5527.000000;0.049842
5526.000000;0.050303
5525.000000;0.050759
5524.000000;0.051073
5523.000000;0.051253
5522.000000;0.051375
5521.000000;0.051420
5520.000000;0.051290
5519.000000;0.051009
5518.000000;0.050798
5517.000000;0.050841
5516.000000;0.051008
5515.000000;0.051038
5514.000000;0.050969
5513.000000;0.051149
5512.000000;0.051745
5511.000000;0.052495
5510.000000;0.053045
5509.000000;0.053336
5508.000000;0.053452
5507.000000;0.053250
5506.000000;0.052534
5505.000000;0.051569
5504.000000;0.051028
5503.000000;0.051389
5502.000000;0.052467
5501.000000;0.053683
5500.000000;0.054829
5499.000000;0.056247
5498.000000;0.058186
5497.000000;0.060255
5496.000000;0.061778
5495.000000;0.062595
5494.000000;0.063058
5493.000000;0.063233
5492.000000;0.062602
5491.000000;0.060861
5490.000000;0.058566
5489.000000;0.056556
5488.000000;0.055034
5487.000000;0.053700
5486.000000;0.052713
5485.000000;0.052879
5484.000000;0.054510
5483.000000;0.056861
5482.000000;0.059151
5481.000000;0.061423
5480.000000;0.063896
5479.000000;0.066010
5478.000000;0.067016
5477.000000;0.067106
5476.000000;0.066990
5475.000000;0.066621
5474.000000;0.065397
5473.000000;0.063533
5472.000000;0.062233
5471.000000;0.062505
5470.000000;0.064255
5469.000000;0.066540
5468.000000;0.068468
5467.000000;0.069748
5466.000000;0.070603
5465.000000;0.071326
5464.000000;0.071841
5463.000000;0.071805
5462.000000;0.071170
5461.000000;0.070291
5460.000000;0.069450
5459.000000;0.068665
5458.000000;0.068059
5457.000000;0.068110
5456.000000;0.069391
5455.000000;0.071990
5454.000000;0.075255
5453.000000;0.078398
5452.000000;0.081354
5451.000000;0.084809
5450.000000;0.088959
5449.000000;0.092621
5448.000000;0.094469
5447.000000;0.094747
5446.000000;0.094796
5445.000000;0.095173
5444.000000;0.095212
5443.000000;0.094467
5442.000000;0.093622
5441.000000;0.093558
5440.000000;0.094262
5439.000000;0.095287
5438.000000;0.096659
5437.000000;0.098697
5436.000000;0.101384
5435.000000;0.104160
5434.000000;0.106144
5433.000000;0.106640
5432.000000;0.105686
5431.000000;0.104185
5430.000000;0.103068
5429.000000;0.102197
5428.000000;0.100593
5427.000000;0.097807
5426.000000;0.094710
5425.000000;0.092885
5424.000000;0.093506
5423.000000;0.096562
5422.000000;0.101103
5421.000000;0.106445
5420.000000;0.112740
5419.000000;0.120114
5418.000000;0.127611
5417.000000;0.133735
5416.000000;0.138033
5415.000000;0.141103
5414.000000;0.142963
5413.000000;0.142626
5412.000000;0.139816
5411.000000;0.136027
5410.000000;0.133065
5409.000000;0.131355
5408.000000;0.130377
5407.000000;0.130095
5406.000000;0.131145
5405.000000;0.133749
5404.000000;0.137593
5403.000000;0.142532
5402.000000;0.148328
5401.000000;0.154307
5400.000000;0.159879
5399.000000;0.165030
5398.000000;0.169804
5397.000000;0.173758
5396.000000;0.176725
5395.000000;0.179379
5394.000000;0.182276
5393.000000;0.185021
5392.000000;0.187099
5391.000000;0.189077
5390.000000;0.191925
5389.000000;0.195611
5388.000000;0.199433
5387.000000;0.203528
5386.000000;0.208634
5385.000000;0.214446
5384.000000;0.219920
5383.000000;0.225072
5382.000000;0.230941
5381.000000;0.237676
5380.000000;0.244086
5379.000000;0.249409
5378.000000;0.254151
5377.000000;0.258574
5376.000000;0.261918
5375.000000;0.263908
5374.000000;0.265814
5373.000000;0.269169
5372.000000;0.274205
5371.000000;0.280286
5370.000000;0.287138
5369.000000;0.294870
5368.000000;0.303148
5367.000000;0.311380
5366.000000;0.319481
5365.000000;0.327805
5364.000000;0.336709
5363.000000;0.346382
5362.000000;0.356825
5361.000000;0.367814
5360.000000;0.379183
5359.000000;0.391247
5358.000000;0.404211
5357.000000;0.417328
5356.000000;0.429649
5355.000000;0.441651
5354.000000;0.454739
5353.000000;0.468830
5352.000000;0.482110
5351.000000;0.493836
5350.000000;0.505830
5349.000000;0.520078
5348.000000;0.536062
5347.000000;0.551833
5346.000000;0.566893
5345.000000;0.582115
5344.000000;0.597380
5343.000000;0.611414
5342.000000;0.624025
5341.000000;0.636704
5340.000000;0.650720
5339.000000;0.665818
5338.000000;0.681031
5337.000000;0.696088
5336.000000;0.711350
5335.000000;0.727314
5334.000000;0.744724
5333.000000;0.764157
5332.000000;0.784973
5331.000000;0.805461
5330.000000;0.824666
5329.000000;0.843370
5328.000000;0.862710
5327.000000;0.882496
5326.000000;0.901947
5325.000000;0.921305
5324.000000;0.941704
5323.000000;0.963948
5322.000000;0.988088
5321.000000;1.013609
5320.000000;1.039598
5319.000000;1.065351
5318.000000;1.091142
5317.000000;1.117854
5316.000000;1.145514
5315.000000;1.173223
5314.000000;1.200715
5313.000000;1.228500
5312.000000;1.256242
5311.000000;1.282638
5310.000000;1.307422
5309.000000;1.331781
5308.000000;1.356256
5307.000000;1.380057
5306.000000;1.402962
5305.000000;1.425847
5304.000000;1.448681
5303.000000;1.470048
5302.000000;1.489432
5301.000000;1.508167
5300.000000;1.527511
5299.000000;1.547386
5298.000000;1.567276
5297.000000;1.586530
5296.000000;1.603621
5295.000000;1.617552
5294.000000;1.629987
5293.000000;1.643437
5292.000000;1.657556
5291.000000;1.669593
5290.000000;1.678516
5289.000000;1.686037
5288.000000;1.693283
5287.000000;1.699463
5286.000000;1.703892
5285.000000;1.706739
5284.000000;1.707981
5283.000000;1.707971
5282.000000;1.708550
5281.000000;1.711180
5280.000000;1.714693
5279.000000;1.717077
5278.000000;1.718847
5277.000000;1.722086
5276.000000;1.726994
5275.000000;1.732169
5274.000000;1.737523
5273.000000;1.743970
5272.000000;1.750829
5271.000000;1.756394
5270.000000;1.760380
5269.000000;1.763416
5268.000000;1.765121
5267.000000;1.765299
5266.000000;1.765739
5265.000000;1.768033
5264.000000;1.770389
5263.000000;1.769609
5262.000000;1.766085
5261.000000;1.763741
5260.000000;1.765260
5259.000000;1.770084
5258.000000;1.776289
5257.000000;1.781656
5256.000000;1.783909
5255.000000;1.782520
5254.000000;1.780213
5253.000000;1.780300
5252.000000;1.783146
5251.000000;1.787053
5250.000000;1.790757
5249.000000;1.793106
5248.000000;1.792356
5247.000000;1.788592
5246.000000;1.784688
5245.000000;1.782515
5244.000000;1.780283
5243.000000;1.775940
5242.000000;1.771414
5241.000000;1.770134
5240.000000;1.772485
5239.000000;1.776887
5238.000000;1.783224
5237.000000;1.791366
5236.000000;1.798013
5235.000000;1.799662
5234.000000;1.798011
5233.000000;1.797722
5232.000000;1.799987
5231.000000;1.802330
5230.000000;1.803339
5229.000000;1.803802
5228.000000;1.803712
5227.000000;1.802282
5226.000000;1.800565
5225.000000;1.800445
5224.000000;1.801278
5223.000000;1.800715
5222.000000;1.798649
5221.000000;1.797203
5220.000000;1.797015
5219.000000;1.797010
5218.000000;1.797404
5217.000000;1.799610
5216.000000;1.803364
5215.000000;1.806789
5214.000000;1.809324
5213.000000;1.811983
5212.000000;1.814615
5211.000000;1.815825
5210.000000;1.815673
5209.000000;1.815874
5208.000000;1.817039
5207.000000;1.817660
5206.000000;1.816200
5205.000000;1.812581
5204.000000;1.807480
5203.000000;1.802288
5202.000000;1.799533
5201.000000;1.800817
5200.000000;1.804423
5199.000000;1.806864
5198.000000;1.806693
5197.000000;1.805270
5196.000000;1.803896
5195.000000;1.802611
5194.000000;1.801835
5193.000000;1.802563
5192.000000;1.804632
5191.000000;1.806529
5190.000000;1.807038
5189.000000;1.805893
5188.000000;1.803476
5187.000000;1.801179
5186.000000;1.800862
5185.000000;1.802436
5184.000000;1.803247
5183.000000;1.801811
5182.000000;1.800699
5181.000000;1.803155
5180.000000;1.808152
5179.000000;1.811483
5178.000000;1.811221
5177.000000;1.808986
5176.000000;1.806246
5175.000000;1.802925
5174.000000;1.799599
5173.000000;1.797815
5172.000000;1.797684
5171.000000;1.797728
5170.000000;1.797531
5169.000000;1.798297
5168.000000;1.800520
5167.000000;1.803387
5166.000000;1.806698
5165.000000;1.811028
5164.000000;1.815476
5163.000000;1.817531
5162.000000;1.816034
5161.000000;1.812531
5160.000000;1.809043
5159.000000;1.806188
5158.000000;1.803926
5157.000000;1.802157
5156.000000;1.800141
5155.000000;1.797048
5154.000000;1.793531
5153.000000;1.791399
5152.000000;1.791515
5151.000000;1.793102
5150.000000;1.795006
5149.000000;1.796434
5148.000000;1.796600
5147.000000;1.795153
5146.000000;1.793088
5145.000000;1.791996
5144.000000;1.792555
5143.000000;1.794620
5142.000000;1.798197
5141.000000;1.802853
5140.000000;1.806381
5139.000000;1.806180
5138.000000;1.802127
5137.000000;1.796536
5136.000000;1.791768
5135.000000;1.789200
5134.000000;1.789625
5133.000000;1.792719
5132.000000;1.796321
5131.000000;1.797834
5130.000000;1.796650
5129.000000;1.794326
5128.000000;1.792564
5127.000000;1.792140
5126.000000;1.793138
5125.000000;1.794814
5124.000000;1.795666
5123.000000;1.794867
5122.000000;1.793319
5121.000000;1.792285
5120.000000;1.791818
5119.000000;1.791455
5118.000000;1.791171
5117.000000;1.790640
5116.000000;1.789206
5115.000000;1.787729
5114.000000;1.788589
5113.000000;1.792166
5112.000000;1.795057
5111.000000;1.794214
5110.000000;1.791163
5109.000000;1.789312
5108.000000;1.788958
5107.000000;1.787876
5106.000000;1.785612
5105.000000;1.783950
5104.000000;1.783636
5103.000000;1.783663
5102.000000;1.783707
5101.000000;1.784615
5100.000000;1.786448
5099.000000;1.788424
5098.000000;1.790657
5097.000000;1.793651
5096.000000;1.796195
5095.000000;1.796264
5094.000000;1.794194
5093.000000;1.792458
5092.000000;1.792116
5091.000000;1.791916
5090.000000;1.790925
5089.000000;1.789730
5088.000000;1.788671
5087.000000;1.787156
5086.000000;1.785357
5085.000000;1.784707
5084.000000;1.786089
5083.000000;1.788932
5082.000000;1.792109
5081.000000;1.794432
5080.000000;1.794634
5079.000000;1.792419
5078.000000;1.789602
5077.000000;1.788574
5076.000000;1.789538
5075.000000;1.790610
5074.000000;1.790524
5073.000000;1.789685
5072.000000;1.788459
5071.000000;1.786523
5070.000000;1.784148
5069.000000;1.782351
5068.000000;1.781647
5067.000000;1.781804
5066.000000;1.782588
5065.000000;1.783402
5064.000000;1.782753
5063.000000;1.779891
5062.000000;1.776715
5061.000000;1.776121
5060.000000;1.778579
5059.000000;1.781875
5058.000000;1.783810
5057.000000;1.783700
5056.000000;1.781604
5055.000000;1.778290
5054.000000;1.776076
5053.000000;1.777136
5052.000000;1.780417
5051.000000;1.782132
5050.000000;1.780147
5049.000000;1.776200
5048.000000;1.773045
5047.000000;1.771423
5046.000000;1.770531
5045.000000;1.769768
5044.000000;1.769204
5043.000000;1.769188
5042.000000;1.769951
5041.000000;1.770939
5040.000000;1.770673
5039.000000;1.768320
5038.000000;1.765079
5037.000000;1.762927
5036.000000;1.762342
5035.000000;1.762397
5034.000000;1.762695
5033.000000;1.763700
5032.000000;1.765330
5031.000000;1.766897
5030.000000;1.768264
5029.000000;1.769450
5028.000000;1.769302
5027.000000;1.766397
5026.000000;1.761369
5025.000000;1.756520
5024.000000;1.753033
5023.000000;1.750199
5022.000000;1.747473
5021.000000;1.745623
5020.000000;1.745272
5019.000000;1.745636
5018.000000;1.745264
5017.000000;1.743294
5016.000000;1.739901
5015.000000;1.736242
5014.000000;1.733988
5013.000000;1.733920
5012.000000;1.734959
5011.000000;1.735419
5010.000000;1.734790
5009.000000;1.733182
5008.000000;1.729939
5007.000000;1.724484
5006.000000;1.718250
5005.000000;1.713468
5004.000000;1.710432
5003.000000;1.707703
5002.000000;1.704892
5001.000000;1.703193
5000.000000;1.702690
4999.000000;1.701446
4998.000000;1.698355
4997.000000;1.695029
4996.000000;1.693518
4995.000000;1.693526
4994.000000;1.693079
4993.000000;1.691178
4992.000000;1.688619
4991.000000;1.686532
4990.000000;1.685007
4989.000000;1.683107
4988.000000;1.679662
4987.000000;1.674230
4986.000000;1.667766
4985.000000;1.662101
4984.000000;1.658584
4983.000000;1.657351
4982.000000;1.657626
4981.000000;1.658142
4980.000000;1.657545
4979.000000;1.655179
4978.000000;1.651738
4977.000000;1.648576
4976.000000;1.646173
4975.000000;1.643738
4974.000000;1.640389
4973.000000;1.636284
4972.000000;1.632120
4971.000000;1.627927
4970.000000;1.622941
4969.000000;1.616770
4968.000000;1.610491
4967.000000;1.606126
4966.000000;1.604482
4965.000000;1.603801
4964.000000;1.601428
4963.000000;1.596936
4962.000000;1.592448
4961.000000;1.589554
4960.000000;1.587324
4959.000000;1.584111
4958.000000;1.580046
4957.000000;1.576326
4956.000000;1.572979
4955.000000;1.568927
4954.000000;1.563739
4953.000000;1.558146
4952.000000;1.552846
4951.000000;1.547818
4950.000000;1.542871
4949.000000;1.538044
4948.000000;1.533447
4947.000000;1.529383
4946.000000;1.526352
4945.000000;1.524273
4944.000000;1.522094
4943.000000;1.518920
4942.000000;1.515114
4941.000000;1.511454
4940.000000;1.507750
4939.000000;1.503377
4938.000000;1.498717
4937.000000;1.494860
4936.000000;1.491948
4935.000000;1.488874
4934.000000;1.484629
4933.000000;1.479147
4932.000000;1.472921
4931.000000;1.466696
4930.000000;1.461500
4929.000000;1.457969
4928.000000;1.455465
4927.000000;1.452563
4926.000000;1.448544
4925.000000;1.443779
4924.000000;1.438733
4923.000000;1.433489
4922.000000;1.428277
4921.000000;1.423579
4920.000000;1.419499
4919.000000;1.415618
4918.000000;1.411506
4917.000000;1.406891
4916.000000;1.401510
4915.000000;1.395398
4914.000000;1.389280
4913.000000;1.384073
4912.000000;1.380017
4911.000000;1.376759
4910.000000;1.374065
4909.000000;1.371780
4908.000000;1.369280
4907.000000;1.365795
4906.000000;1.361357
4905.000000;1.356692
4904.000000;1.352114
4903.000000;1.347240
4902.000000;1.341830
4901.000000;1.336240
4900.000000;1.330985
4899.000000;1.326432
4898.000000;1.322861
4897.000000;1.320133
4896.000000;1.317263
4895.000000;1.313111
4894.000000;1.307721
4893.000000;1.302311
4892.000000;1.297746
4891.000000;1.293634
4890.000000;1.289137
4889.000000;1.284059
4888.000000;1.278843
4887.000000;1.273954
4886.000000;1.269566
4885.000000;1.265520
4884.000000;1.261420
4883.000000;1.257055
4882.000000;1.252772
4881.000000;1.249063
4880.000000;1.245734
4879.000000;1.241968
4878.000000;1.237318
4877.000000;1.232204
4876.000000;1.227290
4875.000000;1.222847
4874.000000;1.218836
4873.000000;1.215105
4872.000000;1.211288
4871.000000;1.206961
4870.000000;1.202151
4869.000000;1.197382
4868.000000;1.192997
4867.000000;1.188768
4866.000000;1.184374
4865.000000;1.179931
4864.000000;1.175778
4863.000000;1.171995
4862.000000;1.168382
4861.000000;1.164701
4860.000000;1.160770
4859.000000;1.156499
4858.000000;1.152044
4857.000000;1.147730
4856.000000;1.143668
4855.000000;1.139609
4854.000000;1.135300
4853.000000;1.130783
4852.000000;1.126231
4851.000000;1.121712
4850.000000;1.117282
4849.000000;1.113095
4848.000000;1.109260
4847.000000;1.105649
4846.000000;1.102007
4845.000000;1.098172
4844.000000;1.094144
4843.000000;1.090037
4842.000000;1.086019
4841.000000;1.082185
4840.000000;1.078413
4839.000000;1.074460
4838.000000;1.070265
4837.000000;1.066042
4836.000000;1.062034
4835.000000;1.058269
4834.000000;1.054602
4833.000000;1.050903
4832.000000;1.047154
4831.000000;1.043460
4830.000000;1.039974
4829.000000;1.036728
4828.000000;1.033518
4827.000000;1.030032
4826.000000;1.026143
4825.000000;1.022027
4824.000000;1.017964
4823.000000;1.014068
4822.000000;1.010208
4821.000000;1.006201
4820.000000;1.002079
4819.000000;0.998135
4818.000000;0.994588
4817.000000;0.991271
4816.000000;0.987787
4815.000000;0.984052
4814.000000;0.980377
4813.000000;0.976964
4812.000000;0.973590
4811.000000;0.969980
4810.000000;0.966241
4809.000000;0.962628
4808.000000;0.959131
4807.000000;0.955595
4806.000000;0.952076
4805.000000;0.948746
4804.000000;0.945530
4803.000000;0.942156
4802.000000;0.938576
4801.000000;0.935005
4800.000000;0.931569
4799.000000;0.928181
4798.000000;0.924779
4797.000000;0.921439
4796.000000;0.918188
4795.000000;0.914943
4794.000000;0.911649
4793.000000;0.908309
4792.000000;0.904875
4791.000000;0.901316
4790.000000;0.897772
4789.000000;0.894433
4788.000000;0.891293
4787.000000;0.888209
4786.000000;0.885151
4785.000000;0.882161
4784.000000;0.879125
4783.000000;0.875864
4782.000000;0.872462
4781.000000;0.869201
4780.000000;0.866134
4779.000000;0.863001
4778.000000;0.859636
4777.000000;0.856194
4776.000000;0.852903
4775.000000;0.849831
4774.000000;0.846999
4773.000000;0.844461
4772.000000;0.842111
4771.000000;0.839620
4770.000000;0.836723
4769.000000;0.833483
4768.000000;0.830158
4767.000000;0.826950
4766.000000;0.823953
4765.000000;0.821181
4764.000000;0.818536
4763.000000;0.815868
4762.000000;0.813154
4761.000000;0.810488
4760.000000;0.807857
4759.000000;0.805096
4758.000000;0.802134
4757.000000;0.799107
4756.000000;0.796132
4755.000000;0.793146
4754.000000;0.790079
4753.000000;0.787044
4752.000000;0.784216
4751.000000;0.781628
4750.000000;0.779211
4749.000000;0.776919
4748.000000;0.774675
4747.000000;0.772302
4746.000000;0.769681
4745.000000;0.766917
4744.000000;0.764225
4743.000000;0.761679
4742.000000;0.759176
4741.000000;0.756602
4740.000000;0.753955
4739.000000;0.751317
4738.000000;0.748810
4737.000000;0.746510
4736.000000;0.744350
4735.000000;0.742132
4734.000000;0.739723
4733.000000;0.737213
4732.000000;0.734826
4731.000000;0.732657
4730.000000;0.730564
4729.000000;0.728307
4728.000000;0.725785
4727.000000;0.723152
4726.000000;0.720690
4725.000000;0.718555
4724.000000;0.716618
4723.000000;0.714608
4722.000000;0.712391
4721.000000;0.710054
4720.000000;0.707742
4719.000000;0.705514
4718.000000;0.703373
4717.000000;0.701323
4716.000000;0.699356
4715.000000;0.697452
4714.000000;0.695625
4713.000000;0.693898
4712.000000;0.692197
4711.000000;0.690368
4710.000000;0.688336
4709.000000;0.686195
4708.000000;0.684081
4707.000000;0.682016
4706.000000;0.679955
4705.000000;0.677912
4704.000000;0.675980
4703.000000;0.674236
4702.000000;0.672663
4701.000000;0.671146
4700.000000;0.669512
4699.000000;0.667651
4698.000000;0.665625
4697.000000;0.663652
4696.000000;0.661924
4695.000000;0.660450
4694.000000;0.659072
4693.000000;0.657600
4692.000000;0.655931
4691.000000;0.654107
4690.000000;0.652289
4689.000000;0.650649
4688.000000;0.649238
4687.000000;0.647960
4686.000000;0.646663
4685.000000;0.645248
4684.000000;0.643709
4683.000000;0.642116
4682.000000;0.640556
4681.000000;0.639051
4680.000000;0.637546
4679.000000;0.636017
4678.000000;0.634550
4677.000000;0.633229
4676.000000;0.632003
4675.000000;0.630742
4674.000000;0.629414
4673.000000;0.628097
4672.000000;0.626853
4671.000000;0.625684
4670.000000;0.624601
4669.000000;0.623604
4668.000000;0.622556
4667.000000;0.621254
4666.000000;0.619705
4665.000000;0.618192
4664.000000;0.616972
4663.000000;0.615986
4662.000000;0.614974
4661.000000;0.613803
4660.000000;0.612567
4659.000000;0.611408
4658.000000;0.610353
4657.000000;0.609351
4656.000000;0.608378
4655.000000;0.607440
4654.000000;0.606518
4653.000000;0.605532
4652.000000;0.604395
4651.000000;0.603115
4650.000000;0.601829
4649.000000;0.600697
4648.000000;0.599759
4647.000000;0.598930
4646.000000;0.598133
4645.000000;0.597370
4644.000000;0.596648
4643.000000;0.595909
4642.000000;0.595102
4641.000000;0.594270
4640.000000;0.593499
4639.000000;0.592795
4638.000000;0.592077
4637.000000;0.591284
4636.000000;0.590449
4635.000000;0.589651
4634.000000;0.588936
4633.000000;0.588281
4632.000000;0.587621
4631.000000;0.586924
4630.000000;0.586215
4629.000000;0.585534
4628.000000;0.584878
4627.000000;0.584201
4626.000000;0.583487
4625.000000;0.582797
4624.000000;0.582233
4623.000000;0.581848
4622.000000;0.581585
4621.000000;0.581292
4620.000000;0.580834
4619.000000;0.580190
4618.000000;0.579458
4617.000000;0.578743
4616.000000;0.578096
4615.000000;0.577559
4614.000000;0.577191
4613.000000;0.576980
4612.000000;0.576775
4611.000000;0.576400
4610.000000;0.575841
4609.000000;0.575258
4608.000000;0.574797
4607.000000;0.574454
4606.000000;0.574138
4605.000000;0.573794
4604.000000;0.573451
4603.000000;0.573179
4602.000000;0.573005
4601.000000;0.572877
4600.000000;0.572707
4599.000000;0.572479
4598.000000;0.572267
4597.000000;0.572117
4596.000000;0.571970
4595.000000;0.571743
4594.000000;0.571452
4593.000000;0.571182
4592.000000;0.570984
4591.000000;0.570869
4590.000000;0.570877
4589.000000;0.571021
4588.000000;0.571200
4587.000000;0.571280
4586.000000;0.571265
4585.000000;0.571298
4584.000000;0.571468
4583.000000;0.571707
4582.000000;0.571890
4581.000000;0.571951
4580.000000;0.571898
4579.000000;0.571801
4578.000000;0.571781
4577.000000;0.571936
4576.000000;0.572226
4575.000000;0.572530
4574.000000;0.572790
4573.000000;0.573051
4572.000000;0.573340
4571.000000;0.573633
4570.000000;0.573948
4569.000000;0.574349
4568.000000;0.574816
4567.000000;0.575238
4566.000000;0.575593
4565.000000;0.576028
4564.000000;0.576681
4563.000000;0.577497
4562.000000;0.578289
4561.000000;0.578937
4560.000000;0.579457
4559.000000;0.579936
4558.000000;0.580463
4557.000000;0.581076
4556.000000;0.581722
4555.000000;0.582304
4554.000000;0.582799
4553.000000;0.583284
4552.000000;0.583843
4551.000000;0.584499
4550.000000;0.585263
4549.000000;0.586140
4548.000000;0.587067
4547.000000;0.587938
4546.000000;0.588751
4545.000000;0.589614
4544.000000;0.590562
4543.000000;0.591463
4542.000000;0.592208
4541.000000;0.592886
4540.000000;0.593686
4539.000000;0.594651
4538.000000;0.595646
4537.000000;0.596521
4536.000000;0.597248
4535.000000;0.597940
4534.000000;0.598758
4533.000000;0.599775
4532.000000;0.600867
4531.000000;0.601827
4530.000000;0.602600
4529.000000;0.603340
4528.000000;0.604187
4527.000000;0.605124
4526.000000;0.606090
4525.000000;0.607108
4524.000000;0.608176
4523.000000;0.609160
4522.000000;0.609968
4521.000000;0.610744
4520.000000;0.611713
4519.000000;0.612873
4518.000000;0.613993
4517.000000;0.614916
4516.000000;0.615695
4515.000000;0.616447
4514.000000;0.617228
4513.000000;0.618092
4512.000000;0.619116
4511.000000;0.620291
4510.000000;0.621479
4509.000000;0.622554
4508.000000;0.623520
4507.000000;0.624470
4506.000000;0.625489
4505.000000;0.626620
4504.000000;0.627842
4503.000000;0.629053
4502.000000;0.630142
4501.000000;0.631130
4500.000000;0.632165
4499.000000;0.633338
4498.000000;0.634563
4497.000000;0.635686
4496.000000;0.636677
4495.000000;0.637660
4494.000000;0.638765
4493.000000;0.640006
4492.000000;0.641295
4491.000000;0.642532
4490.000000;0.643692
4489.000000;0.644844
4488.000000;0.646113
4487.000000;0.647604
4486.000000;0.649326
4485.000000;0.651169
4484.000000;0.652956
4483.000000;0.654576
4482.000000;0.656079
4481.000000;0.657604
4480.000000;0.659197
4479.000000;0.660754
4478.000000;0.662164
4477.000000;0.663481
4476.000000;0.664871
4475.000000;0.666434
4474.000000;0.668118
4473.000000;0.669832
4472.000000;0.671573
4471.000000;0.673403
4470.000000;0.675343
4469.000000;0.677317
4468.000000;0.679231
4467.000000;0.681115
4466.000000;0.683133
4465.000000;0.685405
4464.000000;0.687817
4463.000000;0.690072
4462.000000;0.691966
4461.000000;0.693593
4460.000000;0.695214
4459.000000;0.696998
4458.000000;0.698936
4457.000000;0.700952
4456.000000;0.703009
4455.000000;0.705090
4454.000000;0.707161
4453.000000;0.709199
4452.000000;0.711243
4451.000000;0.713391
4450.000000;0.715734
4449.000000;0.718257
4448.000000;0.720825
4447.000000;0.723277
4446.000000;0.725565
4445.000000;0.727770
4444.000000;0.729974
4443.000000;0.732173
4442.000000;0.734344
4441.000000;0.736548
4440.000000;0.738902
4439.000000;0.741477
4438.000000;0.744240
4437.000000;0.747093
4436.000000;0.749922
4435.000000;0.752637
4434.000000;0.755231
4433.000000;0.757802
4432.000000;0.760483
4431.000000;0.763335
4430.000000;0.766279
4429.000000;0.769137
4428.000000;0.771742
4427.000000;0.774104
4426.000000;0.776450
4425.000000;0.779070
4424.000000;0.782063
4423.000000;0.785267
4422.000000;0.788435
4421.000000;0.791429
4420.000000;0.794241
4419.000000;0.796922
4418.000000;0.799562
4417.000000;0.802274
4416.000000;0.805128
4415.000000;0.808125
4414.000000;0.811256
4413.000000;0.814530
4412.000000;0.817873
4411.000000;0.821084
4410.000000;0.823993
4409.000000;0.826658
4408.000000;0.829317
4407.000000;0.832149
4406.000000;0.835149
4405.000000;0.838230
4404.000000;0.841384
4403.000000;0.844701
4402.000000;0.848236
4401.000000;0.851883
4400.000000;0.855407
4399.000000;0.858630
4398.000000;0.861609
4397.000000;0.864574
4396.000000;0.867694
4395.000000;0.870923
4394.000000;0.874115
4393.000000;0.877239
4392.000000;0.880455
4391.000000;0.883959
4390.000000;0.887768
4389.000000;0.891641
4388.000000;0.895253
4387.000000;0.898507
4386.000000;0.901647
4385.000000;0.905035
4384.000000;0.908825
4383.000000;0.912899
4382.000000;0.917062
4381.000000;0.921194
4380.000000;0.925268
4379.000000;0.929333
4378.000000;0.933470
4377.000000;0.937660
4376.000000;0.941687
4375.000000;0.945312
4374.000000;0.948565
4373.000000;0.951769
4372.000000;0.955246
4371.000000;0.959110
4370.000000;0.963298
4369.000000;0.967635
4368.000000;0.971879
4367.000000;0.975919
4366.000000;0.979978
4365.000000;0.984422
4364.000000;0.989271
4363.000000;0.994063
4362.000000;0.998319
4361.000000;1.002028
4360.000000;1.005591
4359.000000;1.009435
4358.000000;1.013749
4357.000000;1.018451
4356.000000;1.023262
4355.000000;1.027929
4354.000000;1.032446
4353.000000;1.036970
4352.000000;1.041502
4351.000000;1.045870
4350.000000;1.050065
4349.000000;1.054329
4348.000000;1.058823
4347.000000;1.063463
4346.000000;1.068221
4345.000000;1.073269
4344.000000;1.078610
4343.000000;1.083867
4342.000000;1.088728
4341.000000;1.093368
4340.000000;1.098130
4339.000000;1.102983
4338.000000;1.107666
4337.000000;1.112252
4336.000000;1.117176
4335.000000;1.122685
4334.000000;1.128573
4333.000000;1.134453
4332.000000;1.140055
4331.000000;1.145272
4330.000000;1.150133
4329.000000;1.154774
4328.000000;1.159312
4327.000000;1.163789
4326.000000;1.168297
4325.000000;1.173038
4324.000000;1.178134
4323.000000;1.183491
4322.000000;1.188975
4321.000000;1.194524
4320.000000;1.199976
4319.000000;1.205111
4318.000000;1.210126
4317.000000;1.215682
4316.000000;1.222097
4315.000000;1.228779
4314.000000;1.234878
4313.000000;1.240308
4312.000000;1.245692
4311.000000;1.251459
4310.000000;1.257507
4309.000000;1.263561
4308.000000;1.269330
4307.000000;1.274438
4306.000000;1.278861
4305.000000;1.283417
4304.000000;1.289098
4303.000000;1.295796
4302.000000;1.302226
4301.000000;1.307321
4300.000000;1.311312
4299.000000;1.315274
4298.000000;1.320170
4297.000000;1.326497
4296.000000;1.334243
4295.000000;1.342702
4294.000000;1.350666
4293.000000;1.357268
4292.000000;1.362532
4291.000000;1.367081
4290.000000;1.371697
4289.000000;1.377241
4288.000000;1.384336
4287.000000;1.392659
4286.000000;1.400907
4285.000000;1.407967
4284.000000;1.413967
4283.000000;1.419795
4282.000000;1.425883
4281.000000;1.431984
4280.000000;1.437955
4279.000000;1.444143
4278.000000;1.450929
4277.000000;1.458193
4276.000000;1.465314
4275.000000;1.471542
4274.000000;1.476421
4273.000000;1.480313
4272.000000;1.484584
4271.000000;1.490738
4270.000000;1.499035
4269.000000;1.508164
4268.000000;1.516506
4267.000000;1.523585
4266.000000;1.530077
4265.000000;1.536715
4264.000000;1.543645
4263.000000;1.550794
4262.000000;1.558156
4261.000000;1.565420
4260.000000;1.571871
4259.000000;1.577218
4258.000000;1.582371
4257.000000;1.588803
4256.000000;1.596980
4255.000000;1.605872
4254.000000;1.614080
4253.000000;1.621035
4252.000000;1.627142
4251.000000;1.633315
4250.000000;1.640495
4249.000000;1.649260
4248.000000;1.659146
4247.000000;1.668675
4246.000000;1.676235
4245.000000;1.681251
4244.000000;1.684997
4243.000000;1.690193
4242.000000;1.699074
4241.000000;1.711296
4240.000000;1.723621
4239.000000;1.732405
4238.000000;1.737044
4237.000000;1.740041
4236.000000;1.743785
4235.000000;1.748568
4234.000000;1.753655
4233.000000;1.758953
4232.000000;1.765139
4231.000000;1.772909
4230.000000;1.782512
4229.000000;1.793389
4228.000000;1.803516
4227.000000;1.810544
4226.000000;1.814594
4225.000000;1.818705
4224.000000;1.825721
4223.000000;1.835601
4222.000000;1.846230
4221.000000;1.855977
4220.000000;1.864473
4219.000000;1.871712
4218.000000;1.877755
4217.000000;1.883402
4216.000000;1.890056
4215.000000;1.898555
4214.000000;1.908587
4213.000000;1.919013
4212.000000;1.928735
4211.000000;1.937555
4210.000000;1.946302
4209.000000;1.955314
4208.000000;1.963224
4207.000000;1.968503
4206.000000;1.971677
4205.000000;1.974767
4204.000000;1.979390
4203.000000;1.986467
4202.000000;1.996924
4201.000000;2.010157
4200.000000;2.021878
4199.000000;2.027439
4198.000000;2.028375
4197.000000;2.031490
4196.000000;2.039822
4195.000000;2.048722
4194.000000;2.052888
4193.000000;2.053743
4192.000000;2.056583
4191.000000;2.063284
4190.000000;2.071435
4189.000000;2.079703
4188.000000;2.089218
4187.000000;2.099589
4186.000000;2.108719
4185.000000;2.116294
4184.000000;2.123815
4183.000000;2.131004
4182.000000;2.136479
4181.000000;2.142952
4180.000000;2.156044
4179.000000;2.178164
4178.000000;2.205468
4177.000000;2.229608
4176.000000;2.243276
4175.000000;2.245477
4174.000000;2.241725
4173.000000;2.239094
4172.000000;2.240144
4171.000000;2.242103
4170.000000;2.243274
4169.000000;2.246611
4168.000000;2.253863
4167.000000;2.260529
4166.000000;2.261893
4165.000000;2.261075
4164.000000;2.264847
4163.000000;2.273907
4162.000000;2.282079
4161.000000;2.287142
4160.000000;2.294099
4159.000000;2.306740
4158.000000;2.324935
4157.000000;2.347978
4156.000000;2.374519
4155.000000;2.396847
4154.000000;2.403691
4153.000000;2.395334
4152.000000;2.385948
4151.000000;2.388125
4150.000000;2.399186
4149.000000;2.406888
4148.000000;2.407399
4147.000000;2.407918
4146.000000;2.413434
4145.000000;2.420567
4144.000000;2.424146
4143.000000;2.425048
4142.000000;2.429875
4141.000000;2.443810
4140.000000;2.463998
4139.000000;2.482524
4138.000000;2.493514
4137.000000;2.497350
4136.000000;2.498213
4135.000000;2.496867
4134.000000;2.491980
4133.000000;2.485527
4132.000000;2.484054
4131.000000;2.490401
4130.000000;2.498163
4129.000000;2.499737
4128.000000;2.494935
4127.000000;2.492936
4126.000000;2.501273
4125.000000;2.519568
4124.000000;2.541128
4123.000000;2.558582
4122.000000;2.572994
4121.000000;2.591860
4120.000000;2.614255
4119.000000;2.630866
4118.000000;2.639682
4117.000000;2.648112
4116.000000;2.664097
4115.000000;2.683724
4114.000000;2.692409
4113.000000;2.684210
4112.000000;2.670491
4111.000000;2.661788
4110.000000;2.660044
4109.000000;2.673683
4108.000000;2.711393
4107.000000;2.764295
4106.000000;2.801820
4105.000000;2.793161
4104.000000;2.750281
4103.000000;2.711028
4102.000000;2.700188
4101.000000;2.723381
4100.000000;2.758202
4099.000000;2.769479
4098.000000;2.757728
4097.000000;2.751309
4096.000000;2.762745
4095.000000;2.777472
4094.000000;2.779837
4093.000000;2.775308
4092.000000;2.776083
4091.000000;2.779082
4090.000000;2.761542
4089.000000;2.724859
4088.000000;2.697686
4087.000000;2.696411
4086.000000;2.715057
4085.000000;2.732841
4084.000000;2.733377
4083.000000;2.721849
4082.000000;2.721255
4081.000000;2.747073
4080.000000;2.786065
4079.000000;2.807195
4078.000000;2.797606
4077.000000;2.775248
4076.000000;2.762290
4075.000000;2.762128
4074.000000;2.767632
4073.000000;2.777392
4072.000000;2.792656
4071.000000;2.814117
4070.000000;2.830895
4069.000000;2.833925
4068.000000;2.831309
4067.000000;2.833734
4066.000000;2.830930
4065.000000;2.804314
4064.000000;2.768287
4063.000000;2.754293
4062.000000;2.787038
4061.000000;2.871545
4060.000000;2.966953
4059.000000;3.004072
4058.000000;2.973397
4057.000000;2.919749
4056.000000;2.890937
4055.000000;2.913415
4054.000000;2.970666
4053.000000;3.025271
4052.000000;3.044084
4051.000000;3.011042
4050.000000;2.946726
4049.000000;2.889057
4048.000000;2.865217
4047.000000;2.875321
4046.000000;2.914459
4045.000000;2.974491
4044.000000;3.018391
4043.000000;2.991773
4042.000000;2.915556
4041.000000;2.864580
4040.000000;2.856615
4039.000000;2.871436
4038.000000;2.897778
4037.000000;2.938593
4036.000000;2.985050
4035.000000;2.993329
4034.000000;2.961325
4033.000000;2.943281
4032.000000;2.950564
4031.000000;2.953932
4030.000000;2.932592
4029.000000;2.900368
4028.000000;2.893774
4027.000000;2.924056
4026.000000;2.949687
4025.000000;2.948788
4024.000000;2.937905
4023.000000;2.911589
4022.000000;2.874125
4021.000000;2.853594
4020.000000;2.880718
4019.000000;2.956887
4018.000000;3.041376
4017.000000;3.089623
4016.000000;3.126198
4015.000000;3.180078
4014.000000;3.190477
4013.000000;3.140771
4012.000000;3.055065
4011.000000;2.961547
4010.000000;2.897554
4009.000000;2.884777
4008.000000;2.936930
4007.000000;3.048862
4006.000000;3.165275
4005.000000;3.180772
4004.000000;3.114651
4003.000000;3.057006
4002.000000;3.015781
4001.000000;3.002053
4000.000000;3.006476
3999.000000;2.985654
3998.000000;2.936870
3997.000000;2.892391
3996.000000;2.873291
3995.000000;2.878577
3994.000000;2.903790
3993.000000;2.955579
3992.000000;3.054503
3991.000000;3.207740
3990.000000;3.377695
3989.000000;3.483647
3988.000000;3.433417
3987.000000;3.296235
3986.000000;3.180701
3985.000000;3.106702
3984.000000;3.061879
3983.000000;3.046455
3982.000000;3.011601
3981.000000;2.945227
3980.000000;2.921326
3979.000000;2.971836
3978.000000;3.082148
3977.000000;3.219439
3976.000000;3.347271
3975.000000;3.363610
3974.000000;3.281717
3973.000000;3.204797
3972.000000;3.130556
3971.000000;3.111673
3970.000000;3.170787
3969.000000;3.288354
3968.000000;3.472679
3967.000000;3.722544
3966.000000;3.939631
3965.000000;3.746356
3964.000000;3.450570
3963.000000;3.228732
3962.000000;3.074369
3961.000000;3.015337
3960.000000;3.041803
3959.000000;3.113102
3958.000000;3.167280
3957.000000;3.162025
3956.000000;3.124316
3955.000000;3.083329
3954.000000;3.030041
3953.000000;2.982796
3952.000000;3.009700
3951.000000;3.133370
3950.000000;3.213940
3949.000000;3.182217
3948.000000;3.159136
3947.000000;3.138371
3946.000000;3.127515
3945.000000;3.138612
3944.000000;3.165828
3943.000000;3.204685
3942.000000;3.203708
3941.000000;3.148608
3940.000000;3.113268
3939.000000;3.136582
3938.000000;3.244761
3937.000000;3.440345
3936.000000;3.644477
3935.000000;3.944662
3934.000000;3.748514
3933.000000;3.293312
3932.000000;3.069187
3931.000000;3.018343
3930.000000;3.067328
3929.000000;3.128221
3928.000000;3.183893
3927.000000;3.253778
3926.000000;3.336196
3925.000000;3.548095
3924.000000;3.869300
3923.000000;3.648250
3922.000000;3.383690
3921.000000;3.295197
3920.000000;3.369678
3919.000000;3.567699
3918.000000;3.803559
3917.000000;3.628935
3916.000000;3.367704
3915.000000;3.327936
3914.000000;3.395766
3913.000000;3.463488
3912.000000;3.559105
3911.000000;3.617223
3910.000000;3.419787
3909.000000;3.213363
3908.000000;3.094273
3907.000000;3.056346
3906.000000;3.050031
3905.000000;3.057817
3904.000000;3.097644
3903.000000;3.093048
3902.000000;3.062965
3901.000000;3.092416
3900.000000;3.227800
3899.000000;3.429912
3898.000000;3.770604
3897.000000;4.402615
3896.000000;3.962537
3895.000000;3.804050
3894.000000;3.769861
3893.000000;3.865239
3892.000000;3.831125
3891.000000;3.706329
3890.000000;3.595513
3889.000000;3.403199
3888.000000;3.261005
3887.000000;3.296614
3886.000000;3.906535
3885.000000;4.079094
3884.000000;3.866334
3883.000000;4.229601
3882.000000;3.728296
3881.000000;3.479482
3880.000000;3.352005
3879.000000;3.378210
3878.000000;3.458488
3877.000000;3.346927
3876.000000;3.235209
3875.000000;3.253412
3874.000000;3.381622
3873.000000;3.560943
3872.000000;3.736002
3871.000000;3.788540
3870.000000;3.882893
3869.000000;4.115713
3868.000000;3.971856
3867.000000;3.887787
3866.000000;4.066243
3865.000000;3.749250
3864.000000;3.468401
3863.000000;3.473587
3862.000000;3.656888
3861.000000;4.190975
3860.000000;4.340890
3859.000000;4.075269
3858.000000;4.170226
3857.000000;4.098717
3856.000000;3.944286
3855.000000;3.723801
3854.000000;3.611053
3853.000000;3.563600
3852.000000;3.739069
3851.000000;3.677747
3850.000000;3.302397
3849.000000;3.195029
3848.000000;3.375511
3847.000000;3.987413
3846.000000;3.486846
3845.000000;3.159562
3844.000000;3.148571
3843.000000;3.315366
3842.000000;3.595427
3841.000000;3.795752
3840.000000;3.929715
3839.000000;3.921900
3838.000000;3.752707
3837.000000;3.658015
3836.000000;4.029752
3835.000000;3.808973
3834.000000;3.392834
3833.000000;3.328987
3832.000000;3.378921
3831.000000;3.639776
3830.000000;3.656496
3829.000000;3.375189
3828.000000;3.326638
3827.000000;3.365755
3826.000000;3.469788
3825.000000;3.618521
3824.000000;3.696675
3823.000000;3.632806
3822.000000;3.403619
3821.000000;3.310102
3820.000000;3.358772
3819.000000;3.433399
3818.000000;3.495548
3817.000000;3.782714
3816.000000;4.023628
3815.000000;3.613905
3814.000000;3.875518
3813.000000;3.842449
3812.000000;3.520387
3811.000000;3.667540
3810.000000;3.956671
3809.000000;4.070682
3808.000000;3.840884
3807.000000;3.696164
3806.000000;3.670702
3805.000000;3.685144
3804.000000;3.662170
3803.000000;3.580085
3802.000000;3.592242
3801.000000;3.618664
3800.000000;3.537402
3799.000000;3.748129
3798.000000;4.104697
3797.000000;3.637058
3796.000000;3.438548
3795.000000;3.328338
3794.000000;3.256133
3793.000000;3.280919
3792.000000;3.357699
3791.000000;3.449663
3790.000000;3.530092
3789.000000;3.547335
3788.000000;3.449038
3787.000000;3.352528
3786.000000;3.339116
3785.000000;3.498634
3784.000000;3.971422
3783.000000;3.657058
3782.000000;3.262563
3781.000000;3.157252
3780.000000;3.150093
3779.000000;3.202629
3778.000000;3.283954
3777.000000;3.373035
3776.000000;3.502339
3775.000000;3.760043
3774.000000;4.009270
3773.000000;3.728201
3772.000000;3.541563
3771.000000;3.591964
3770.000000;3.637677
3769.000000;3.511047
3768.000000;3.414306
3767.000000;3.323384
3766.000000;3.264107
3765.000000;3.369543
3764.000000;3.653800
3763.000000;3.703065
3762.000000;3.479236
3761.000000;3.318843
3760.000000;3.286609
3759.000000;3.467119
3758.000000;3.909420
3757.000000;4.079959
3756.000000;3.912217
3755.000000;3.960814
3754.000000;4.142593
3753.000000;4.407250
3752.000000;4.168462
3751.000000;3.714004
3750.000000;3.567401
3749.000000;3.688106
3748.000000;3.906249
3747.000000;4.001289
3746.000000;4.115858
3745.000000;3.651646
3744.000000;3.246959
3743.000000;3.183186
3742.000000;3.328991
3741.000000;3.340388
3740.000000;3.169598
3739.000000;3.043446
3738.000000;3.066986
3737.000000;3.256637
3736.000000;3.469253
3735.000000;3.576175
3734.000000;3.580307
3733.000000;3.829502
3732.000000;3.945219
3731.000000;3.682110
3730.000000;3.798034
3729.000000;3.366204
3728.000000;3.031330
3727.000000;2.986249
3726.000000;3.150620
3725.000000;3.463430
3724.000000;3.561337
3723.000000;3.389449
3722.000000;3.282779
3721.000000;3.291059
3720.000000;3.373609
3719.000000;3.452559
3718.000000;3.504124
3717.000000;3.442438
3716.000000;3.408282
3715.000000;3.500690
3714.000000;3.387136
3713.000000;3.229462
3712.000000;3.238100
3711.000000;3.328945
3710.000000;3.325030
3709.000000;3.180022
3708.000000;3.082700
3707.000000;3.114703
3706.000000;3.260472
3705.000000;3.398591
3704.000000;3.382048
3703.000000;3.323344
3702.000000;3.358970
3701.000000;3.519009
3700.000000;3.558185
3699.000000;3.398116
3698.000000;3.352407
3697.000000;3.460579
3696.000000;3.484211
3695.000000;3.339937
3694.000000;3.374639
3693.000000;3.675103
3692.000000;4.100146
3691.000000;4.279045
3690.000000;3.875378
3689.000000;3.521181
3688.000000;3.337833
3687.000000;3.273476
3686.000000;3.285037
3685.000000;3.302383
3684.000000;3.257993
3683.000000;3.263669
3682.000000;3.424843
3681.000000;3.768221
3680.000000;4.179710
3679.000000;4.039133
3678.000000;3.834481
3677.000000;3.652493
3676.000000;3.512575
3675.000000;3.507054
3674.000000;3.606474
3673.000000;3.746108
3672.000000;3.662194
3671.000000;3.412580
3670.000000;3.419587
3669.000000;3.623069
3668.000000;3.665505
3667.000000;3.973302
3666.000000;3.908098
3665.000000;3.472707
3664.000000;3.343896
3663.000000;3.513292
3662.000000;3.788741
3661.000000;3.453937
3660.000000;3.385251
3659.000000;3.591760
3658.000000;4.092891
3657.000000;4.082821
3656.000000;3.630451
3655.000000;3.494265
3654.000000;3.420681
3653.000000;3.450485
3652.000000;3.650747
3651.000000;4.126691
3650.000000;3.727341
3649.000000;3.275675
3648.000000;3.180074
3647.000000;3.333838
3646.000000;3.571939
3645.000000;3.586262
3644.000000;3.565992
3643.000000;3.501939
3642.000000;3.415600
3641.000000;3.412580
3640.000000;3.467708
3639.000000;3.515679
3638.000000;3.677158
3637.000000;3.882348
3636.000000;3.559631
3635.000000;3.482831
3634.000000;3.595839
3633.000000;3.578514
3632.000000;3.538423
3631.000000;3.571879
3630.000000;3.555462
3629.000000;3.445377
3628.000000;3.448949
3627.000000;3.433526
3626.000000;3.276883
3625.000000;3.135298
3624.000000;3.105281
3623.000000;3.176516
3622.000000;3.421681
3621.000000;3.782757
3620.000000;3.539955
3619.000000;3.439421
3618.000000;3.345383
3617.000000;3.273318
3616.000000;3.435390
3615.000000;3.574873
3614.000000;3.484051
3613.000000;3.337287
3612.000000;3.209741
3611.000000;3.202324
3610.000000;3.318701
3609.000000;3.554021
3608.000000;3.883752
3607.000000;3.502106
3606.000000;3.232322
3605.000000;3.184568
3604.000000;3.200514
3603.000000;3.258282
3602.000000;3.321810
3601.000000;3.257994
3600.000000;3.176241
3599.000000;3.161740
3598.000000;3.148387
3597.000000;3.098003
3596.000000;3.049233
3595.000000;3.043424
3594.000000;3.091810
3593.000000;3.147755
3592.000000;3.205213
3591.000000;3.206817
3590.000000;3.324543
3589.000000;3.811834
3588.000000;3.671934
3587.000000;3.540399
3586.000000;3.470425
3585.000000;3.267418
3584.000000;3.192248
3583.000000;3.190400
3582.000000;3.221691
3581.000000;3.229992
3580.000000;3.223466
3579.000000;3.248247
3578.000000;3.291031
3577.000000;3.352385
3576.000000;3.374618
3575.000000;3.649670
3574.000000;4.457631
3573.000000;3.666295
3572.000000;3.700818
3571.000000;3.774309
3570.000000;3.346545
3569.000000;3.099476
3568.000000;3.016601
3567.000000;3.070322
3566.000000;3.128046
3565.000000;3.143518
3564.000000;3.228512
3563.000000;3.498347
3562.000000;3.475095
3561.000000;3.350505
3560.000000;3.390080
3559.000000;3.455804
3558.000000;3.892719
3557.000000;3.751992
3556.000000;3.336143
3555.000000;3.306218
3554.000000;3.460535
3553.000000;3.644704
3552.000000;3.652989
3551.000000;3.599719
3550.000000;3.807088
3549.000000;3.918131
3548.000000;3.487460
3547.000000;3.346238
3546.000000;3.300626
3545.000000;3.296284
3544.000000;3.416679
3543.000000;3.798724
3542.000000;4.436248
3541.000000;3.832196
3540.000000;3.448750
3539.000000;3.294478
3538.000000;3.263026
3537.000000;3.238993
3536.000000;3.214556
3535.000000;3.264985
3534.000000;3.389435
3533.000000;3.474308
3532.000000;3.662371
3531.000000;3.874646
3530.000000;3.393937
3529.000000;3.127680
3528.000000;3.040667
3527.000000;3.110721
3526.000000;3.316874
3525.000000;3.383517
3524.000000;3.293654
3523.000000;3.198897
3522.000000;3.182910
3521.000000;3.399991
3520.000000;3.774121
3519.000000;3.429420
3518.000000;3.248176
3517.000000;3.242358
3516.000000;3.331138
3515.000000;3.409800
3514.000000;3.402305
3513.000000;3.530011
3512.000000;3.894490
3511.000000;4.174080
3510.000000;4.084200
3509.000000;3.874153
3508.000000;3.574946
3507.000000;3.342338
3506.000000;3.289438
3505.000000;3.573345
3504.000000;3.716783
3503.000000;3.457248
3502.000000;3.432211
3501.000000;3.437368
3500.000000;3.489353
3499.000000;3.666466
3498.000000;3.594389
3497.000000;3.459076
3496.000000;3.420928
3495.000000;3.481383
3494.000000;3.599970
3493.000000;3.723938
3492.000000;3.735844
3491.000000;3.486603
3490.000000;3.359585
3489.000000;3.323085
3488.000000;3.316578
3487.000000;3.346990
3486.000000;3.429759
3485.000000;3.532469
3484.000000;3.464549
3483.000000;3.304299
3482.000000;3.180956
3481.000000;3.104267
3480.000000;3.146134
3479.000000;3.457061
3478.000000;3.710960
3477.000000;3.507967
3476.000000;3.489123
3475.000000;3.580764
3474.000000;3.675221
3473.000000;3.658034
3472.000000;3.624028
3471.000000;3.737638
3470.000000;3.898271
3469.000000;4.116747
3468.000000;3.961660
3467.000000;3.584614
3466.000000;3.535222
3465.000000;3.651945
3464.000000;3.770902
3463.000000;3.773927
3462.000000;3.926542
3461.000000;3.812726
3460.000000;3.545801
3459.000000;3.499874
3458.000000;3.517027
3457.000000;3.532421
3456.000000;3.379482
3455.000000;3.318128
3454.000000;3.423384
3453.000000;3.450733
3452.000000;3.351574
3451.000000;3.278898
3450.000000;3.284976
3449.000000;3.459953
3448.000000;3.815125
3447.000000;3.634121
3446.000000;3.423423
3445.000000;3.303704
3444.000000;3.225754
3443.000000;3.210994
3442.000000;3.261188
3441.000000;3.351548
3440.000000;3.551326
3439.000000;3.716389
3438.000000;3.540063
3437.000000;3.681889
3436.000000;3.634182
3435.000000;3.368559
3434.000000;3.348159
3433.000000;3.357498
3432.000000;3.414229
3431.000000;3.800476
3430.000000;3.802351
3429.000000;3.527352
3428.000000;3.605105
3427.000000;3.633185
3426.000000;3.750653
3425.000000;4.200095
3424.000000;3.739859
3423.000000;3.513436
3422.000000;3.367197
3421.000000;3.275265
3420.000000;3.347929
3419.000000;3.489523
3418.000000;3.574168
3417.000000;3.515696
3416.000000;3.494873
3415.000000;3.772889
3414.000000;3.842360
3413.000000;3.552547
3412.000000;3.573549
3411.000000;3.677629
3410.000000;3.695280
3409.000000;3.571886
3408.000000;3.424094
3407.000000;3.302177
3406.000000;3.207528
3405.000000;3.211522
3404.000000;3.276597
3403.000000;3.344146
3402.000000;3.448938
3401.000000;3.517426
3400.000000;3.412819
3399.000000;3.383110
3398.000000;3.527012
3397.000000;3.638090
3396.000000;3.474921
3395.000000;3.286564
3394.000000;3.226537
3393.000000;3.323796
3392.000000;3.461477
3391.000000;3.369427
3390.000000;3.217092
3389.000000;3.208373
3388.000000;3.333753
3387.000000;3.466155
3386.000000;3.513094
3385.000000;3.542272
3384.000000;3.650789
3383.000000;3.956984
3382.000000;3.973738
3381.000000;3.674826
3380.000000;3.524595
3379.000000;3.330117
3378.000000;3.170240
3377.000000;3.072701
3376.000000;3.056332
3375.000000;3.111811
3374.000000;3.169762
3373.000000;3.164532
3372.000000;3.150270
3371.000000;3.199503
3370.000000;3.284099
3369.000000;3.360379
3368.000000;3.382167
3367.000000;3.270684
3366.000000;3.134001
3365.000000;3.087469
3364.000000;3.056064
3363.000000;2.995815
3362.000000;2.993276
3361.000000;3.087540
3360.000000;3.297370
3359.000000;3.513245
3358.000000;3.729774
3357.000000;4.114959
3356.000000;3.466685
3355.000000;3.269760
3354.000000;3.297177
3353.000000;3.389050
3352.000000;3.379233
3351.000000;3.463773
3350.000000;3.686552
3349.000000;3.665212
3348.000000;3.444135
3347.000000;3.369835
3346.000000;3.451576
3345.000000;3.587892
3344.000000;3.659307
3343.000000;4.354564
3342.000000;3.812281
3341.000000;3.448267
3340.000000;3.398040
3339.000000;3.459710
3338.000000;3.698693
3337.000000;4.134946
3336.000000;3.938608
3335.000000;4.257520
3334.000000;4.282628
3333.000000;3.792689
3332.000000;3.453386
3331.000000;3.457665
3330.000000;3.795086
3329.000000;3.609009
3328.000000;3.431970
3327.000000;3.428341
3326.000000;3.406680
3325.000000;3.381485
3324.000000;3.391649
3323.000000;3.512725
3322.000000;3.560110
3321.000000;3.422264
3320.000000;3.317033
3319.000000;3.255430
3318.000000;3.199741
3317.000000;3.239450
3316.000000;3.425348
3315.000000;3.810344
3314.000000;3.983999
3313.000000;3.357050
3312.000000;3.076312
3311.000000;2.980684
3310.000000;3.013260
3309.000000;3.136751
3308.000000;3.193928
3307.000000;3.161603
3306.000000;3.156945
3305.000000;3.200564
3304.000000;3.296694
3303.000000;3.466766
3302.000000;3.652250
3301.000000;3.575361
3300.000000;3.403453
3299.000000;3.333626
3298.000000;3.366996
3297.000000;3.461995
3296.000000;3.512793
3295.000000;3.496432
3294.000000;3.521385
3293.000000;3.842208
3292.000000;4.049210
3291.000000;3.663920
3290.000000;3.565171
3289.000000;4.146400
3288.000000;3.695986
3287.000000;3.384895
3286.000000;3.296095
3285.000000;3.230954
3284.000000;3.263887
3283.000000;3.497778
3282.000000;3.862466
3281.000000;3.818210
3280.000000;4.013956
3279.000000;3.809644
3278.000000;3.578452
3277.000000;3.452709
3276.000000;3.505333
3275.000000;3.841773
3274.000000;3.872388
3273.000000;3.665948
3272.000000;3.606278
3271.000000;3.443625
3270.000000;3.381691
3269.000000;3.549969
3268.000000;3.983893
3267.000000;4.006754
3266.000000;3.925808
3265.000000;3.662215
3264.000000;3.392739
3263.000000;3.294470
3262.000000;3.273665
3261.000000;3.281850
3260.000000;3.289716
3259.000000;3.259123
3258.000000;3.294831
3257.000000;3.564701
3256.000000;4.565158
3255.000000;4.008059
3254.000000;4.092427
3253.000000;3.854318
3252.000000;3.725878
3251.000000;3.703971
3250.000000;3.536134
3249.000000;3.541181
3248.000000;3.635217
3247.000000;3.557135
3246.000000;3.585556
3245.000000;3.907818
3244.000000;3.728617
3243.000000;3.409371
3242.000000;3.338799
3241.000000;3.295312
3240.000000;3.225218
3239.000000;3.209316
3238.000000;3.327227
3237.000000;3.537021
3236.000000;3.609162
3235.000000;3.403658
3234.000000;3.242170
3233.000000;3.227152
3232.000000;3.329675
3231.000000;3.404215
3230.000000;3.375764
3229.000000;3.373704
3228.000000;3.287117
3227.000000;3.136819
3226.000000;3.029103
3225.000000;2.998492
3224.000000;3.025020
3223.000000;3.076191
3222.000000;3.196189
3221.000000;3.511487
3220.000000;3.582706
3219.000000;3.341879
3218.000000;3.345545
3217.000000;3.411024
3216.000000;3.551895
3215.000000;4.122269
3214.000000;4.439692
3213.000000;3.911002
3212.000000;3.595867
3211.000000;3.418184
3210.000000;3.463725
3209.000000;3.521403
3208.000000;3.534590
3207.000000;3.534093
3206.000000;3.598772
3205.000000;3.702661
3204.000000;3.619325
3203.000000;3.500621
3202.000000;3.455934
3201.000000;3.609821
3200.000000;4.071925
3199.000000;3.793331
3198.000000;3.477766
3197.000000;3.405696
3196.000000;3.419467
3195.000000;3.355895
3194.000000;3.259042
3193.000000;3.227438
3192.000000;3.223688
3191.000000;3.182316
3190.000000;3.161554
3189.000000;3.244044
3188.000000;3.452210
3187.000000;3.598482
3186.000000;3.533235
3185.000000;3.425066
3184.000000;3.388695
3183.000000;3.467003
3182.000000;3.833246
3181.000000;3.756087
3180.000000;3.514185
3179.000000;3.580355
3178.000000;3.765801
3177.000000;3.778730
3176.000000;3.565959
3175.000000;3.412727
3174.000000;3.354860
3173.000000;3.408862
3172.000000;3.475993
3171.000000;3.488922
3170.000000;3.551154
3169.000000;3.674440
3168.000000;3.999028
3167.000000;3.992924
3166.000000;3.557469
3165.000000;3.565510
3164.000000;3.655732
3163.000000;3.601726
3162.000000;3.487401
3161.000000;3.541050
3160.000000;3.841031
3159.000000;4.140787
3158.000000;4.194627
3157.000000;3.606655
3156.000000;3.379893
3155.000000;3.522531
3154.000000;3.577381
3153.000000;3.324916
3152.000000;3.129415
3151.000000;3.032928
3150.000000;3.045402
3149.000000;3.162362
3148.000000;3.328829
3147.000000;3.378284
3146.000000;3.398409
3145.000000;3.684738
3144.000000;3.974903
3143.000000;3.545343
3142.000000;3.400677
3141.000000;3.311824
3140.000000;3.356904
3139.000000;3.472201
3138.000000;3.425524
3137.000000;3.447195
3136.000000;3.672279
3135.000000;3.906458
3134.000000;3.804694
3133.000000;3.596454
3132.000000;3.502370
3131.000000;3.504195
3130.000000;3.540693
3129.000000;3.808148
3128.000000;3.879120
3127.000000;3.975998
3126.000000;4.000848
3125.000000;3.490893
3124.000000;3.346422
3123.000000;3.411179
3122.000000;3.521442
3121.000000;3.385814
3120.000000;3.234812
3119.000000;3.187977
3118.000000;3.223528
3117.000000;3.508620
3116.000000;4.316464
3115.000000;3.260126
3114.000000;3.160711
3113.000000;3.210238
3112.000000;3.567049
3111.000000;3.965730
3110.000000;3.404465
3109.000000;3.254724
3108.000000;3.230656
3107.000000;3.272947
3106.000000;3.421776
3105.000000;3.436928
3104.000000;3.300077
3103.000000;3.373198
3102.000000;3.588022
3101.000000;3.537981
3100.000000;3.306383
3099.000000;3.190114
3098.000000;3.195985
3097.000000;3.262448
3096.000000;3.345549
3095.000000;3.530455
3094.000000;3.859355
3093.000000;3.790489
3092.000000;3.610634
3091.000000;3.552217
3090.000000;3.547677
3089.000000;3.513785
3088.000000;3.434936
3087.000000;3.454286
3086.000000;3.598851
3085.000000;3.844392
3084.000000;3.711524
3083.000000;3.384048
3082.000000;3.282777
3081.000000;3.270268
3080.000000;3.286533
3079.000000;3.360467
3078.000000;3.427486
3077.000000;3.409399
3076.000000;3.514300
3075.000000;3.909479
3074.000000;3.552285
3073.000000;3.426589
3072.000000;3.664333
3071.000000;3.628441
3070.000000;3.351530
3069.000000;3.232333
3068.000000;3.240186
3067.000000;3.280693
3066.000000;3.310608
3065.000000;3.366721
3064.000000;3.434987
3063.000000;3.735191
3062.000000;4.106460
3061.000000;3.476555
3060.000000;3.280580
3059.000000;3.223257
3058.000000;3.285720
3057.000000;3.479259
3056.000000;3.549840
3055.000000;3.224676
3054.000000;3.018944
3053.000000;2.988640
3052.000000;3.117223
3051.000000;3.355385
3050.000000;4.038528
3049.000000;3.910189
3048.000000;3.486084
3047.000000;3.435761
3046.000000;3.424077
3045.000000;3.380984
3044.000000;3.350315
3043.000000;3.466919
3042.000000;3.616060
3041.000000;3.625233
3040.000000;3.678467
3039.000000;3.650046
3038.000000;3.598674
3037.000000;3.725251
3036.000000;3.708811
3035.000000;3.481183
3034.000000;3.478019
3033.000000;3.800164
3032.000000;4.114477
3031.000000;3.788332
3030.000000;3.729158
3029.000000;3.982919
3028.000000;4.228068
3027.000000;3.576995
3026.000000;3.349443
3025.000000;3.295753
3024.000000;3.299670
3023.000000;3.360658
3022.000000;3.653831
3021.000000;3.711078
3020.000000;3.473176
3019.000000;3.519136
3018.000000;4.594567
3017.000000;3.706790
3016.000000;3.409213
3015.000000;3.392656
3014.000000;3.502429
3013.000000;3.714621
3012.000000;3.814056
3011.000000;3.711880
3010.000000;3.422170
3009.000000;3.422990
3008.000000;3.587469
3007.000000;3.510483
3006.000000;3.392712
3005.000000;3.374486
3004.000000;3.408033
3003.000000;3.648205
3002.000000;4.208774
3001.000000;4.075228
3000.000000;4.032837
2999.000000;3.972686
2998.000000;3.724116
2997.000000;3.549704
2996.000000;3.378940
2995.000000;3.223347
2994.000000;3.165179
2993.000000;3.259359
2992.000000;3.512094
2991.000000;3.697669
2990.000000;3.587932
2989.000000;3.460015
2988.000000;3.446613
2987.000000;3.446850
2986.000000;3.336291
2985.000000;3.287443
2984.000000;3.290128
2983.000000;3.281781
2982.000000;3.249368
2981.000000;3.151004
2980.000000;3.049740
2979.000000;3.015817
2978.000000;3.033918
2977.000000;3.079083
2976.000000;3.174584
2975.000000;3.265430
2974.000000;3.263499
2973.000000;3.269206
2972.000000;3.301230
2971.000000;3.386559
2970.000000;3.546051
2969.000000;3.734994
2968.000000;3.756862
2967.000000;3.455955
2966.000000;3.282892
2965.000000;3.311238
2964.000000;3.468881
2963.000000;3.622190
2962.000000;3.755956
2961.000000;4.050842
2960.000000;3.823843
2959.000000;3.409193
2958.000000;3.286508
2957.000000;3.558111
2956.000000;3.993349
2955.000000;3.434280
2954.000000;3.385994
2953.000000;3.372164
2952.000000;3.319848
2951.000000;3.264463
2950.000000;3.241223
2949.000000;3.259057
2948.000000;3.306917
2947.000000;3.573511
2946.000000;3.615169
2945.000000;3.276968
2944.000000;3.123877
2943.000000;3.062014
2942.000000;3.109566
2941.000000;3.303755
2940.000000;3.465842
2939.000000;3.513485
2938.000000;3.711657
2937.000000;3.508057
2936.000000;3.371598
2935.000000;3.572350
2934.000000;3.689923
2933.000000;3.541572
2932.000000;3.381399
2931.000000;3.259807
2930.000000;3.279926
2929.000000;3.326217
2928.000000;3.202419
2927.000000;3.152438
2926.000000;3.194074
2925.000000;3.182122
2924.000000;3.130210
2923.000000;3.146972
2922.000000;3.245558
2921.000000;3.335527
2920.000000;3.386708
2919.000000;3.434417
2918.000000;3.399796
2917.000000;3.368147
2916.000000;3.436798
2915.000000;3.561389
2914.000000;3.770067
2913.000000;4.012753
2912.000000;3.970143
2911.000000;3.629531
2910.000000;3.393691
2909.000000;3.419963
2908.000000;3.697782
2907.000000;3.827383
2906.000000;3.647105
2905.000000;3.514503
2904.000000;3.450880
2903.000000;3.425099
2902.000000;3.588689
2901.000000;3.819247
2900.000000;3.442563
2899.000000;3.312054
2898.000000;3.295478
2897.000000;3.234545
2896.000000;3.199248
2895.000000;3.289096
2894.000000;3.364943
2893.000000;3.193084
2892.000000;3.062087
2891.000000;3.070793
2890.000000;3.221410
2889.000000;3.546343
2888.000000;3.635315
2887.000000;3.503275
2886.000000;3.562364
2885.000000;3.618706
2884.000000;3.736325
2883.000000;3.868135
2882.000000;3.559585
2881.000000;3.515988
2880.000000;3.690747
2879.000000;3.741573
2878.000000;3.633758
2877.000000;3.585838
2876.000000;3.614302
2875.000000;3.599807
2874.000000;3.514857
2873.000000;3.444501
2872.000000;3.460642
2871.000000;3.628348
2870.000000;3.936366
2869.000000;3.863128
2868.000000;4.004929
2867.000000;4.142117
2866.000000;3.619946
2865.000000;3.552608
2864.000000;3.756975
2863.000000;3.762680
2862.000000;3.634219
2861.000000;3.826479
2860.000000;3.896679
2859.000000;3.584553
2858.000000;3.546126
2857.000000;3.802445
2856.000000;3.735003
2855.000000;3.546533
2854.000000;3.569635
2853.000000;3.578227
2852.000000;3.475892
2851.000000;3.371287
2850.000000;3.407676
2849.000000;3.410413
2848.000000;3.235252
2847.000000;3.220495
2846.000000;3.382605
2845.000000;3.633229
2844.000000;3.910640
2843.000000;4.052765
2842.000000;4.105543
2841.000000;3.688755
2840.000000;3.388301
2839.000000;3.339297
2838.000000;3.358353
2837.000000;3.334582
2836.000000;3.316660
2835.000000;3.420188
2834.000000;3.485166
2833.000000;3.493919
2832.000000;3.632364
2831.000000;3.764730
2830.000000;4.068643
2829.000000;3.771526
2828.000000;3.468210
2827.000000;3.613839
2826.000000;3.712963
2825.000000;3.552452
2824.000000;3.655399
2823.000000;3.438255
2822.000000;3.208183
2821.000000;3.174616
2820.000000;3.216822
2819.000000;3.244764
2818.000000;3.243029
2817.000000;3.245561
2816.000000;3.261618
2815.000000;3.314150
2814.000000;3.523824
2813.000000;3.867680
2812.000000;3.521555
2811.000000;3.341704
2810.000000;3.388390
2809.000000;3.332019
2808.000000;3.208774
2807.000000;3.136393
2806.000000;3.143616
2805.000000;3.217207
2804.000000;3.276986
2803.000000;3.353579
2802.000000;3.444472
2801.000000;3.393770
2800.000000;3.326698
2799.000000;3.306329
2798.000000;3.365891
2797.000000;3.479267
2796.000000;3.729206
2795.000000;4.138624
2794.000000;3.735940
2793.000000;3.696411
2792.000000;3.947171
2791.000000;4.236404
2790.000000;4.086470
2789.000000;3.747587
2788.000000;3.579399
2787.000000;3.458573
2786.000000;3.490299
2785.000000;3.811959
2784.000000;3.918521
2783.000000;3.691918
2782.000000;3.900555
2781.000000;3.695208
2780.000000;3.345552
2779.000000;3.283604
2778.000000;3.290126
2777.000000;3.290660
2776.000000;3.320391
2775.000000;3.491143
2774.000000;3.871237
2773.000000;3.915019
2772.000000;3.946838
2771.000000;3.783452
2770.000000;3.692861
2769.000000;3.767439
2768.000000;3.549337
2767.000000;3.491774
2766.000000;3.543290
2765.000000;3.483878
2764.000000;3.402317
2763.000000;3.473083
2762.000000;3.685700
2761.000000;3.583235
2760.000000;3.413259
2759.000000;3.431325
2758.000000;3.623454
2757.000000;3.658060
2756.000000;3.505300
2755.000000;3.493030
2754.000000;3.427942
2753.000000;3.273270
2752.000000;3.219039
2751.000000;3.326957
2750.000000;3.459583
2749.000000;3.382877
2748.000000;3.289587
2747.000000;3.237024
2746.000000;3.303210
2745.000000;3.701800
2744.000000;3.804529
2743.000000;3.429008
2742.000000;3.430165
2741.000000;3.675086
2740.000000;3.643169
2739.000000;3.400471
2738.000000;3.332321
2737.000000;3.664074
2736.000000;4.125984
2735.000000;3.533025
2734.000000;3.469601
2733.000000;3.462875
2732.000000;3.369023
2731.000000;3.394194
2730.000000;3.477016
2729.000000;3.470404
2728.000000;3.372945
2727.000000;3.470721
2726.000000;3.753800
2725.000000;3.416603
2724.000000;3.153142
2723.000000;3.111774
2722.000000;3.129394
2721.000000;3.166764
2720.000000;3.232854
2719.000000;3.415091
2718.000000;3.500179
2717.000000;3.225870
2716.000000;3.071622
2715.000000;3.065009
2714.000000;3.214344
2713.000000;3.531410
2712.000000;3.717350
2711.000000;3.845157
2710.000000;3.914077
2709.000000;3.796645
2708.000000;3.747754
2707.000000;3.760304
2706.000000;3.891362
2705.000000;3.691301
2704.000000;3.569889
2703.000000;3.722957
2702.000000;3.515855
2701.000000;3.312170
2700.000000;3.280136
2699.000000;3.254846
2698.000000;3.281828
2697.000000;3.383894
2696.000000;3.502319
2695.000000;3.588359
2694.000000;3.590025
2693.000000;3.563838
2692.000000;3.505730
2691.000000;3.422314
2690.000000;3.505004
2689.000000;3.880106
2688.000000;4.322213
2687.000000;4.043426
2686.000000;3.947941
2685.000000;4.018363
2684.000000;3.677236
2683.000000;3.380751
2682.000000;3.212120
2681.000000;3.147940
2680.000000;3.161194
2679.000000;3.185100
2678.000000;3.242993
2677.000000;3.316776
2676.000000;3.281468
2675.000000;3.252384
2674.000000;3.255361
2673.000000;3.241841
2672.000000;3.234596
2671.000000;3.351186
2670.000000;3.834366
2669.000000;3.670634
2668.000000;3.463113
2667.000000;3.609206
2666.000000;3.459562
2665.000000;3.382949
2664.000000;3.480601
2663.000000;3.664082
2662.000000;3.935746
2661.000000;3.693332
2660.000000;3.492078
2659.000000;3.465625
2658.000000;3.531681
2657.000000;3.642972
2656.000000;3.736933
2655.000000;3.971328
2654.000000;4.082804
2653.000000;4.225199
2652.000000;4.429152
2651.000000;4.056071
2650.000000;4.165028
2649.000000;4.123410
2648.000000;3.731601
2647.000000;3.582452
2646.000000;3.565134
2645.000000;3.639819
2644.000000;3.853457
2643.000000;3.778639
2642.000000;3.425383
2641.000000;3.389154
2640.000000;3.615094
2639.000000;3.983741
2638.000000;3.997522
2637.000000;3.670962
2636.000000;3.647262
2635.000000;3.456732
2634.000000;3.229745
2633.000000;3.235983
2632.000000;3.396839
2631.000000;3.454464
2630.000000;3.381838
2629.000000;3.413571
2628.000000;3.530339
2627.000000;3.563246
2626.000000;3.694932
2625.000000;3.960555
2624.000000;3.828577
2623.000000;3.921939
2622.000000;3.817925
2621.000000;3.520297
2620.000000;3.396853
2619.000000;3.276865
2618.000000;3.219399
2617.000000;3.220906
2616.000000;3.259809
2615.000000;3.288806
2614.000000;3.336453
2613.000000;3.538590
2612.000000;3.603247
2611.000000;3.486714
2610.000000;3.400828
2609.000000;3.246783
2608.000000;3.171223
2607.000000;3.237429
2606.000000;3.395024
2605.000000;3.502200
2604.000000;3.572779
2603.000000;3.859317
2602.000000;3.898386
2601.000000;3.577848
2600.000000;3.456946
2599.000000;3.383035
2598.000000;3.396599
2597.000000;3.458529
2596.000000;3.505296
2595.000000;3.468589
2594.000000;3.501050
2593.000000;3.939377
2592.000000;3.758175
2591.000000;3.456324
2590.000000;3.397496
2589.000000;3.281951
2588.000000;3.215997
2587.000000;3.198927
2586.000000;3.316397
2585.000000;3.439965
2584.000000;3.407779
2583.000000;3.640232
2582.000000;3.677025
2581.000000;3.497858
2580.000000;3.541591
2579.000000;3.637616
2578.000000;3.839374
2577.000000;3.927818
2576.000000;3.771901
2575.000000;3.615021
2574.000000;3.432092
2573.000000;3.287386
2572.000000;3.224392
2571.000000;3.167425
2570.000000;3.115050
2569.000000;3.105230
2568.000000;3.104024
2567.000000;3.077491
2566.000000;3.076515
2565.000000;3.141583
2564.000000;3.221917
2563.000000;3.239250
2562.000000;3.280775
2561.000000;3.358325
2560.000000;3.388079
2559.000000;3.386378
2558.000000;3.444092
2557.000000;3.796088
2556.000000;3.875869
2555.000000;3.634464
2554.000000;3.805129
2553.000000;4.237229
2552.000000;4.053076
2551.000000;3.708072
2550.000000;3.578630
2549.000000;3.693283
2548.000000;3.960219
2547.000000;3.715617
2546.000000;3.364794
2545.000000;3.188553
2544.000000;3.174781
2543.000000;3.342096
2542.000000;3.853369
2541.000000;4.081826
2540.000000;3.826563
2539.000000;3.794220
2538.000000;3.590933
2537.000000;3.606950
2536.000000;3.587451
2535.000000;3.332975
2534.000000;3.218032
2533.000000;3.222298
2532.000000;3.293501
2531.000000;3.382244
2530.000000;3.670389
2529.000000;4.067083
2528.000000;3.522909
2527.000000;3.436908
2526.000000;3.450441
2525.000000;3.395372
2524.000000;3.394935
2523.000000;3.328496
2522.000000;3.237147
2521.000000;3.145457
2520.000000;3.095344
2519.000000;3.139594
2518.000000;3.246204
2517.000000;3.269320
2516.000000;3.264328
2515.000000;3.377507
2514.000000;3.539667
2513.000000;3.542102
2512.000000;3.464943
2511.000000;3.409640
2510.000000;3.445691
2509.000000;3.766318
2508.000000;4.029986
2507.000000;3.778485
2506.000000;3.744905
2505.000000;3.664214
2504.000000;3.526195
2503.000000;3.459857
2502.000000;3.475778
2501.000000;3.506960
2500.000000;3.431091
2499.000000;3.308632
2498.000000;3.184739
2497.000000;3.093694
2496.000000;3.045425
2495.000000;3.052915
2494.000000;3.157605
2493.000000;3.350004
2492.000000;3.920057
2491.000000;4.116396
2490.000000;3.454837
2489.000000;3.457949
2488.000000;3.462221
2487.000000;3.290506
2486.000000;3.187187
2485.000000;3.237335
2484.000000;3.406304
2483.000000;3.612672
2482.000000;3.962792
2481.000000;3.625657
2480.000000;3.293339
2479.000000;3.265330
2478.000000;3.344421
2477.000000;3.580679
2476.000000;4.268547
2475.000000;3.513295
2474.000000;3.279017
2473.000000;3.315893
2472.000000;3.405166
2471.000000;3.584680
2470.000000;3.764753
2469.000000;3.609526
2468.000000;3.461576
2467.000000;3.409834
2466.000000;3.741070
2465.000000;4.027760
2464.000000;3.484200
2463.000000;3.618052
2462.000000;3.678227
2461.000000;3.408834
2460.000000;3.310143
2459.000000;3.292502
2458.000000;3.470343
2457.000000;3.795178
2456.000000;3.674097
2455.000000;3.578248
2454.000000;3.451902
2453.000000;3.338900
2452.000000;3.352482
2451.000000;3.378546
2450.000000;3.363182
2449.000000;3.308779
2448.000000;3.327127
2447.000000;3.525662
2446.000000;3.830855
2445.000000;3.710615
2444.000000;3.466389
2443.000000;3.407096
2442.000000;3.458205
2441.000000;3.479079
2440.000000;3.560260
2439.000000;3.975095
2438.000000;3.878798
2437.000000;3.657979
2436.000000;3.557059
2435.000000;3.307518
2434.000000;3.212247
2433.000000;3.202377
2432.000000;3.227227
2431.000000;3.256967
2430.000000;3.313725
2429.000000;3.467969
2428.000000;3.675432
2427.000000;3.635983
2426.000000;3.634880
2425.000000;3.815763
2424.000000;3.788808
2423.000000;3.937898
2422.000000;3.519787
2421.000000;3.378724
2420.000000;3.407057
2419.000000;3.309961
2418.000000;3.332279
2417.000000;3.511592
2416.000000;3.937553
2415.000000;3.997967
2414.000000;3.720772
2413.000000;4.025877
2412.000000;3.681351
2411.000000;3.410207
2410.000000;3.399192
2409.000000;3.455703
2408.000000;3.611761
2407.000000;3.482487
2406.000000;3.289578
2405.000000;3.332489
2404.000000;3.498639
2403.000000;3.468276
2402.000000;3.300496
2401.000000;3.263682
2400.000000;3.371640
2399.000000;3.562992
2398.000000;3.684828
2397.000000;3.759430
2396.000000;4.001822
2395.000000;3.974086
2394.000000;3.866476
2393.000000;3.750264
2392.000000;3.411761
2391.000000;3.216712
2390.000000;3.124051
2389.000000;3.122892
2388.000000;3.212909
2387.000000;3.432673
2386.000000;3.746853
2385.000000;3.611256
2384.000000;3.495676
2383.000000;3.705457
2382.000000;4.298724
2381.000000;4.452375
2380.000000;3.955508
2379.000000;3.647544
2378.000000;3.484431
2377.000000;3.505047
2376.000000;3.559487
2375.000000;3.569230
2374.000000;3.637615
2373.000000;3.750080
2372.000000;3.835443
2371.000000;3.869194
2370.000000;3.793208
2369.000000;3.614613
2368.000000;3.516124
2367.000000;3.573437
2366.000000;3.740676
2365.000000;3.807428
2364.000000;3.724327
2363.000000;3.675438
2362.000000;3.741117
2361.000000;4.070059
2360.000000;4.185748
2359.000000;3.838508
2358.000000;3.742480
2357.000000;3.690450
2356.000000;3.696962
2355.000000;3.780689
2354.000000;3.843507
2353.000000;3.763239
2352.000000;3.722561
2351.000000;3.823339
2350.000000;4.080915
2349.000000;4.459856
2348.000000;4.233555
2347.000000;4.099054
2346.000000;4.235840
2345.000000;4.175884
2344.000000;4.265290
2343.000000;4.281129
2342.000000;3.839114
2341.000000;3.742427
2340.000000;3.805779
2339.000000;3.898324
2338.000000;4.217972
2337.000000;4.038592
2336.000000;3.600507
2335.000000;3.538366
2334.000000;3.685051
2333.000000;3.966604
2332.000000;4.025093
2331.000000;3.842416
2330.000000;3.854634
2329.000000;4.212166
2328.000000;4.006362
2327.000000;3.864953
2326.000000;3.877022
2325.000000;3.812120
2324.000000;3.810904
2323.000000;3.513139
2322.000000;3.354123
2321.000000;3.416485
2320.000000;3.574407
2319.000000;3.649815
2318.000000;3.549072
2317.000000;3.541035
2316.000000;3.678894
2315.000000;3.855842
2314.000000;3.968717
2313.000000;3.822434
2312.000000;3.741985
2311.000000;3.912792
2310.000000;3.753689
2309.000000;3.636047
2308.000000;3.865503
2307.000000;4.272505
2306.000000;4.224067
2305.000000;4.018342
2304.000000;3.596794
2303.000000;3.456981
2302.000000;3.380752
2301.000000;3.430441
2300.000000;3.569804
2299.000000;3.758309
2298.000000;3.874768
2297.000000;3.705904
2296.000000;3.609707
2295.000000;3.559318
2294.000000;3.476196
2293.000000;3.476895
2292.000000;3.596764
2291.000000;3.861344
2290.000000;4.104841
2289.000000;3.706090
2288.000000;3.396450
2287.000000;3.280317
2286.000000;3.228130
2285.000000;3.176469
2284.000000;3.176533
2283.000000;3.324279
2282.000000;3.638986
2281.000000;3.857075
2280.000000;3.909552
2279.000000;3.859572
2278.000000;3.598676
2277.000000;3.550222
2276.000000;3.516134
2275.000000;3.355898
2274.000000;3.297436
2273.000000;3.324370
2272.000000;3.313391
2271.000000;3.270866
2270.000000;3.274700
2269.000000;3.376244
2268.000000;3.526351
2267.000000;3.574414
2266.000000;3.598743
2265.000000;3.925644
2264.000000;3.715361
2263.000000;3.479475
2262.000000;3.466426
2261.000000;3.540413
2260.000000;3.683025
2259.000000;3.870910
2258.000000;4.046107
2257.000000;3.441105
2256.000000;3.161393
2255.000000;3.109016
2254.000000;3.168528
2253.000000;3.261175
2252.000000;3.324376
2251.000000;3.363815
2250.000000;3.387590
2249.000000;3.370642
2248.000000;3.398440
2247.000000;3.505501
2246.000000;3.568982
2245.000000;3.643478
2244.000000;3.925018
2243.000000;3.903409
2242.000000;3.618724
2241.000000;3.552379
2240.000000;3.566794
2239.000000;3.871513
2238.000000;3.947434
2237.000000;3.603390
2236.000000;3.590522
2235.000000;3.871352
2234.000000;3.843638
2233.000000;3.553681
2232.000000;3.507207
2231.000000;3.810491
2230.000000;3.907457
2229.000000;3.799988
2228.000000;3.793654
2227.000000;3.568915
2226.000000;3.486125
2225.000000;3.508849
2224.000000;3.632409
2223.000000;3.983421
2222.000000;4.049191
2221.000000;3.702592
2220.000000;3.480292
2219.000000;3.232081
2218.000000;3.087035
2217.000000;3.042959
2216.000000;3.053100
2215.000000;3.081751
2214.000000;3.176066
2213.000000;3.437377
2212.000000;3.789279
2211.000000;3.689212
2210.000000;3.565719
2209.000000;3.668136
2208.000000;3.893098
2207.000000;3.679808
2206.000000;3.456690
2205.000000;3.417809
2204.000000;3.424518
2203.000000;3.454638
2202.000000;3.502507
2201.000000;3.680564
2200.000000;3.912355
2199.000000;3.425993
2198.000000;3.232433
2197.000000;3.176750
2196.000000;3.224342
2195.000000;3.514019
2194.000000;3.744211
2193.000000;3.613729
2192.000000;3.667367
2191.000000;3.374519
2190.000000;3.238043
2189.000000;3.264883
2188.000000;3.601932
2187.000000;3.684274
2186.000000;3.400702
2185.000000;3.577813
2184.000000;3.802377
2183.000000;3.467545
2182.000000;3.384699
2181.000000;3.395023
2180.000000;3.436903
2179.000000;3.459497
2178.000000;3.326735
2177.000000;3.246798
2176.000000;3.250939
2175.000000;3.348244
2174.000000;3.612971
2173.000000;3.848902
2172.000000;3.721953
2171.000000;3.710565
2170.000000;3.531258
2169.000000;3.586527
2168.000000;3.634941
2167.000000;3.638416
2166.000000;3.781457
2165.000000;3.810375
2164.000000;3.756343
2163.000000;3.683647
2162.000000;3.606430
2161.000000;3.555289
2160.000000;3.494452
2159.000000;3.484226
2158.000000;3.660174
2157.000000;4.035578
2156.000000;4.205710
2155.000000;3.794388
2154.000000;3.514836
2153.000000;3.467430
2152.000000;3.557284
2151.000000;3.800660
2150.000000;4.100257
2149.000000;3.846210
2148.000000;3.966647
2147.000000;3.903672
2146.000000;3.517338
2145.000000;3.427658
2144.000000;3.362482
2143.000000;3.413074
2142.000000;3.566516
2141.000000;3.628392
2140.000000;3.562460
2139.000000;3.551666
2138.000000;3.482598
2137.000000;3.349543
2136.000000;3.318250
2135.000000;3.463854
2134.000000;3.549293
2133.000000;3.439899
2132.000000;3.426615
2131.000000;3.571096
2130.000000;3.812576
2129.000000;3.662421
2128.000000;3.452101
2127.000000;3.424405
2126.000000;3.304042
2125.000000;3.165280
2124.000000;3.096160
2123.000000;3.123795
2122.000000;3.240591
2121.000000;3.380931
2120.000000;3.458982
2119.000000;3.422740
2118.000000;3.385059
2117.000000;3.431643
2116.000000;3.521632
2115.000000;3.808093
2114.000000;4.015890
2113.000000;3.889362
2112.000000;4.082377
2111.000000;4.262697
2110.000000;4.028160
2109.000000;3.653717
2108.000000;3.451425
2107.000000;3.336295
2106.000000;3.351414
2105.000000;3.393546
2104.000000;3.224291
2103.000000;3.173377
2102.000000;3.258409
2101.000000;3.373615
2100.000000;3.513103
2099.000000;3.778034
2098.000000;3.880800
2097.000000;3.960464
2096.000000;3.925052
2095.000000;3.752532
2094.000000;3.619806
2093.000000;3.585218
2092.000000;3.636594
2091.000000;3.898866
2090.000000;4.237727
2089.000000;4.187435
2088.000000;3.784015
2087.000000;3.258850
2086.000000;3.113111
2085.000000;3.090932
2084.000000;3.098350
2083.000000;3.069457
2082.000000;3.081623
2081.000000;3.213178
2080.000000;3.361515
2079.000000;3.417512
2078.000000;3.524588
2077.000000;3.564810
2076.000000;3.570322
2075.000000;3.518553
2074.000000;3.337976
2073.000000;3.295422
2072.000000;3.352018
2071.000000;3.396718
2070.000000;3.471373
2069.000000;3.740814
2068.000000;4.351039
2067.000000;4.138107
2066.000000;3.760376
2065.000000;3.486678
2064.000000;3.534071
2063.000000;3.808224
2062.000000;3.638355
2061.000000;3.580027
2060.000000;3.638691
2059.000000;3.596064
2058.000000;3.463838
2057.000000;3.425886
2056.000000;3.479456
2055.000000;3.460289
2054.000000;3.389739
2053.000000;3.379936
2052.000000;3.357350
2051.000000;3.319779
2050.000000;3.403642
2049.000000;3.662924
2048.000000;3.742049
2047.000000;3.741531
2046.000000;3.827249
2045.000000;3.841473
2044.000000;3.684616
2043.000000;3.571530
2042.000000;3.384794
2041.000000;3.388656
2040.000000;3.566732
2039.000000;3.544580
2038.000000;3.329428
2037.000000;3.244311
2036.000000;3.270390
2035.000000;3.365037
2034.000000;3.517791
2033.000000;4.034240
2032.000000;4.027941
2031.000000;3.784221
2030.000000;4.036135
2029.000000;4.017399
2028.000000;3.836849
2027.000000;3.646780
2026.000000;3.572195
2025.000000;3.614712
2024.000000;3.576460
2023.000000;3.425922
2022.000000;3.378559
2021.000000;3.476504
2020.000000;3.588314
2019.000000;3.673404
2018.000000;4.013837
2017.000000;3.868526
2016.000000;3.501370
2015.000000;3.575593
2014.000000;4.039202
2013.000000;3.803542
2012.000000;3.462055
2011.000000;3.431310
2010.000000;3.517658
2009.000000;3.578679
2008.000000;3.610577
2007.000000;3.756947
2006.000000;3.853960
2005.000000;4.012163
2004.000000;4.767074
2003.000000;3.868645
2002.000000;3.392826
2001.000000;3.267096
2000.000000;3.267232
1999.000000;3.307770
1998.000000;3.384091
1997.000000;3.501713
1996.000000;3.610472
1995.000000;4.713460
1994.000000;3.735755
1993.000000;3.498496
1992.000000;3.523635
1991.000000;3.574067
1990.000000;3.762587
1989.000000;3.750216
1988.000000;3.576900
1987.000000;3.870593
1986.000000;3.877386
1985.000000;3.850060
1984.000000;3.987468
1983.000000;3.747078
1982.000000;3.547799
1981.000000;3.311790
1980.000000;3.181589
1979.000000;3.182251
1978.000000;3.214500
1977.000000;3.160161
1976.000000;3.092836
1975.000000;3.102992
1974.000000;3.162317
1973.000000;3.231139
1972.000000;3.309735
1971.000000;3.347253
1970.000000;3.317303
1969.000000;3.161936
1968.000000;3.032686
1967.000000;2.994851
1966.000000;2.975076
1965.000000;2.944868
1964.000000;2.951024
1963.000000;3.045033
1962.000000;3.255574
1961.000000;3.699688
1960.000000;4.223353
1959.000000;3.558615
1958.000000;3.413586
1957.000000;3.391575
1956.000000;3.433493
1955.000000;3.421314
1954.000000;3.254381
1953.000000;3.218152
1952.000000;3.481841
1951.000000;3.778232
1950.000000;3.372851
1949.000000;3.149281
1948.000000;3.130033
1947.000000;3.331332
1946.000000;3.769401
1945.000000;3.737190
1944.000000;3.471109
1943.000000;3.361489
1942.000000;3.357692
1941.000000;3.475010
1940.000000;3.746110
1939.000000;3.679037
1938.000000;3.550856
1937.000000;3.691958
1936.000000;3.784716
1935.000000;3.702474
1934.000000;3.714413
1933.000000;3.718340
1932.000000;3.524574
1931.000000;3.483504
1930.000000;3.478400
1929.000000;3.386221
1928.000000;3.361517
1927.000000;3.538767
1926.000000;3.893394
1925.000000;3.789563
1924.000000;3.519810
1923.000000;3.466527
1922.000000;3.587744
1921.000000;3.869414
1920.000000;3.798314
1919.000000;3.407747
1918.000000;3.243961
1917.000000;3.308468
1916.000000;3.500787
1915.000000;3.734061
1914.000000;3.761120
1913.000000;3.647428
1912.000000;3.725053
1911.000000;4.134587
1910.000000;4.094700
1909.000000;3.543290
1908.000000;3.238838
1907.000000;3.188054
1906.000000;3.267749
1905.000000;3.355442
1904.000000;3.419204
1903.000000;3.435012
1902.000000;3.440649
1901.000000;3.609848
1900.000000;3.848625
1899.000000;3.976993
1898.000000;4.070161
1897.000000;3.784024
1896.000000;4.086462
1895.000000;3.954618
1894.000000;3.512775
1893.000000;3.591913
1892.000000;3.648997
1891.000000;3.663230
1890.000000;3.824238
1889.000000;3.916581
1888.000000;3.946210
1887.000000;3.529912
1886.000000;3.289235
1885.000000;3.287639
1884.000000;3.378624
1883.000000;3.392379
1882.000000;3.370632
1881.000000;3.559650
1880.000000;4.193705
1879.000000;4.128958
1878.000000;4.116181
1877.000000;4.234367
1876.000000;4.436083
1875.000000;4.027496
1874.000000;3.638379
1873.000000;3.576560
1872.000000;3.391369
1871.000000;3.194437
1870.000000;3.121275
1869.000000;3.125617
1868.000000;3.128888
1867.000000;3.121250
1866.000000;3.127101
1865.000000;3.151188
1864.000000;3.208126
1863.000000;3.258579
1862.000000;3.284059
1861.000000;3.395463
1860.000000;3.555567
1859.000000;3.829324
1858.000000;3.973249
1857.000000;3.912969
1856.000000;4.442940
1855.000000;3.601730
1854.000000;3.342811
1853.000000;3.317526
1852.000000;3.330989
1851.000000;3.318416
1850.000000;3.430012
1849.000000;3.764767
1848.000000;3.589256
1847.000000;3.458592
1846.000000;3.554981
1845.000000;3.750611
1844.000000;3.950163
1843.000000;3.646278
1842.000000;3.501388
1841.000000;3.685399
1840.000000;4.239280
1839.000000;3.774467
1838.000000;3.368966
1837.000000;3.239910
1836.000000;3.254464
1835.000000;3.360295
1834.000000;3.439916
1833.000000;3.594815
1832.000000;3.766769
1831.000000;3.708066
1830.000000;3.733995
1829.000000;4.069151
1828.000000;3.670759
1827.000000;3.293633
1826.000000;3.165833
1825.000000;3.096821
1824.000000;3.102375
1823.000000;3.273178
1822.000000;3.573462
1821.000000;3.729994
1820.000000;3.562140
1819.000000;3.339337
1818.000000;3.207441
1817.000000;3.181709
1816.000000;3.257493
1815.000000;3.471372
1814.000000;3.768523
1813.000000;3.652413
1812.000000;3.600556
1811.000000;3.393413
1810.000000;3.197875
1809.000000;3.211366
1808.000000;3.294914
1807.000000;3.359441
1806.000000;3.477658
1805.000000;3.816528
1804.000000;3.928829
1803.000000;3.770863
1802.000000;3.705977
1801.000000;3.549023
1800.000000;3.519395
1799.000000;3.512205
1798.000000;3.431744
1797.000000;3.535846
1796.000000;3.684989
1795.000000;3.661767
1794.000000;3.643029
1793.000000;3.574391
1792.000000;3.465469
1791.000000;3.354782
1790.000000;3.307277
1789.000000;3.383240
1788.000000;3.519625
1787.000000;3.530779
1786.000000;3.498770
1785.000000;3.615676
1784.000000;3.700046
1783.000000;3.536726
1782.000000;3.413988
1781.000000;3.482047
1780.000000;3.716844
1779.000000;3.680911
1778.000000;3.594335
1777.000000;3.709302
1776.000000;3.721263
1775.000000;3.481343
1774.000000;3.370976
1773.000000;3.427630
1772.000000;3.362599
1771.000000;3.272012
1770.000000;3.367155
1769.000000;3.528499
1768.000000;3.484844
1767.000000;3.548097
1766.000000;3.899367
1765.000000;3.853253
1764.000000;3.570530
1763.000000;3.536013
1762.000000;3.683445
1761.000000;3.922272
1760.000000;4.054591
1759.000000;3.671632
1758.000000;3.456786
1757.000000;3.443730
1756.000000;3.519450
1755.000000;3.482315
1754.000000;3.578203
1753.000000;4.159276
1752.000000;3.557967
1751.000000;3.327562
1750.000000;3.297904
1749.000000;3.195572
1748.000000;3.180669
1747.000000;3.236912
1746.000000;3.274966
1745.000000;3.351834
1744.000000;3.467246
1743.000000;3.500279
1742.000000;3.472161
1741.000000;3.564746
1740.000000;3.633101
1739.000000;3.228565
1738.000000;3.058310
1737.000000;3.119465
1736.000000;3.240328
1735.000000;3.350410
1734.000000;3.456752
1733.000000;3.773192
1732.000000;4.079815
1731.000000;3.724255
1730.000000;3.538983
1729.000000;3.384257
1728.000000;3.489299
1727.000000;3.787470
1726.000000;3.440785
1725.000000;3.346980
1724.000000;3.488178
1723.000000;3.705453
1722.000000;3.852417
1721.000000;3.721921
1720.000000;3.845275
1719.000000;3.886079
1718.000000;3.570690
1717.000000;3.569122
1716.000000;3.664505
1715.000000;3.543373
1714.000000;3.464617
1713.000000;3.476435
1712.000000;3.890186
1711.000000;4.139422
1710.000000;3.613361
1709.000000;3.725902
1708.000000;3.549951
1707.000000;3.435372
1706.000000;3.463426
1705.000000;3.398685
1704.000000;3.449953
1703.000000;3.693997
1702.000000;4.399442
1701.000000;4.224254
1700.000000;3.681580
1699.000000;3.664763
1698.000000;3.931302
1697.000000;3.960319
1696.000000;3.683071
1695.000000;3.377516
1694.000000;3.241146
1693.000000;3.429566
1692.000000;3.969017
1691.000000;3.970784
1690.000000;3.855570
1689.000000;3.720491
1688.000000;3.610251
1687.000000;3.423493
1686.000000;3.223282
1685.000000;3.237440
1684.000000;3.441652
1683.000000;3.697459
1682.000000;3.758334
1681.000000;3.507191
1680.000000;3.314310
1679.000000;3.282508
1678.000000;3.295956
1677.000000;3.299612
1676.000000;3.310124
1675.000000;3.299593
1674.000000;3.210094
1673.000000;3.125831
1672.000000;3.197266
1671.000000;3.488321
1670.000000;3.742264
1669.000000;3.664840
1668.000000;3.680081
1667.000000;3.523721
1666.000000;3.340710
1665.000000;3.409824
1664.000000;3.565825
1663.000000;3.481533
1662.000000;3.427344
1661.000000;3.446997
1660.000000;3.582637
1659.000000;3.696827
1658.000000;3.350960
1657.000000;3.248042
1656.000000;3.291481
1655.000000;3.263935
1654.000000;3.261150
1653.000000;3.267626
1652.000000;3.276419
1651.000000;3.311952
1650.000000;3.559525
1649.000000;3.661668
1648.000000;3.454206
1647.000000;3.577554
1646.000000;4.063505
1645.000000;3.902028
1644.000000;3.801845
1643.000000;4.123677
1642.000000;4.159747
1641.000000;3.763953
1640.000000;3.589539
1639.000000;3.880108
1638.000000;3.536720
1637.000000;3.332461
1636.000000;3.463743
1635.000000;3.649441
1634.000000;3.776960
1633.000000;3.494056
1632.000000;3.333532
1631.000000;3.412657
1630.000000;3.564585
1629.000000;3.463948
1628.000000;3.284428
1627.000000;3.227791
1626.000000;3.235092
1625.000000;3.203772
1624.000000;3.184311
1623.000000;3.223552
1622.000000;3.211384
1621.000000;3.237735
1620.000000;3.551513
1619.000000;3.876726
1618.000000;3.666298
1617.000000;3.450227
1616.000000;3.226260
1615.000000;3.209131
1614.000000;3.358518
1613.000000;3.444796
1612.000000;3.445108
1611.000000;3.428785
1610.000000;3.377167
1609.000000;3.295762
1608.000000;3.241596
1607.000000;3.211837
1606.000000;3.241837
1605.000000;3.486794
1604.000000;3.727658
1603.000000;3.641046
1602.000000;3.527294
1601.000000;3.441811
1600.000000;3.808990
1599.000000;3.956739
1598.000000;3.454066
1597.000000;3.308975
1596.000000;3.203584
1595.000000;3.147414
1594.000000;3.147126
1593.000000;3.149756
1592.000000;3.152944
1591.000000;3.191652
1590.000000;3.240564
1589.000000;3.227726
1588.000000;3.189317
1587.000000;3.158676
1586.000000;3.152824
1585.000000;3.184281
1584.000000;3.229549
1583.000000;3.249363
1582.000000;3.225788
1581.000000;3.246646
1580.000000;3.306108
1579.000000;3.346110
1578.000000;3.442993
1577.000000;3.529188
1576.000000;3.517982
1575.000000;3.467314
1574.000000;3.306511
1573.000000;3.135171
1572.000000;3.021264
1571.000000;3.130171
1570.000000;3.574667
1569.000000;3.836535
1568.000000;3.589731
1567.000000;3.519096
1566.000000;3.769109
1565.000000;3.538579
1564.000000;3.251401
1563.000000;3.438632
1562.000000;3.958293
1561.000000;3.510389
1560.000000;3.287083
1559.000000;3.177646
1558.000000;3.059326
1557.000000;3.026083
1556.000000;3.092770
1555.000000;3.249453
1554.000000;3.302370
1553.000000;3.211657
1552.000000;3.184076
1551.000000;3.293303
1550.000000;3.674815
1549.000000;4.098542
1548.000000;3.544432
1547.000000;3.239499
1546.000000;3.219120
1545.000000;3.378909
1544.000000;3.343623
1543.000000;3.465187
1542.000000;3.487362
1541.000000;3.282323
1540.000000;3.255431
1539.000000;3.228840
1538.000000;3.240824
1537.000000;3.216277
1536.000000;3.196155
1535.000000;3.327906
1534.000000;3.671024
1533.000000;4.186894
1532.000000;4.569743
1531.000000;3.812170
1530.000000;3.539764
1529.000000;3.376000
1528.000000;3.245528
1527.000000;3.215372
1526.000000;3.203611
1525.000000;3.148700
1524.000000;3.188551
1523.000000;3.664686
1522.000000;4.140789
1521.000000;3.775231
1520.000000;3.994051
1519.000000;3.610169
1518.000000;3.431337
1517.000000;3.339215
1516.000000;3.389598
1515.000000;3.810357
1514.000000;3.700986
1513.000000;3.518709
1512.000000;3.433809
1511.000000;3.433510
1510.000000;3.848428
1509.000000;3.936512
1508.000000;3.844419
1507.000000;3.871474
1506.000000;3.370690
1505.000000;3.218203
1504.000000;3.238910
1503.000000;3.330557
1502.000000;3.627316
1501.000000;3.926399
1500.000000;4.007358
1499.000000;3.623522
1498.000000;3.272321
1497.000000;3.215292
1496.000000;3.176103
1495.000000;3.120539
1494.000000;3.154397
1493.000000;3.260777
1492.000000;3.294485
1491.000000;3.254451
1490.000000;3.290711
1489.000000;3.450336
1488.000000;3.608714
1487.000000;3.489907
1486.000000;3.388955
1485.000000;3.421983
1484.000000;3.492523
1483.000000;3.446845
1482.000000;3.423371
1481.000000;3.451306
1480.000000;3.596241
1479.000000;3.673005
1478.000000;3.307295
1477.000000;3.157678
1476.000000;3.132777
1475.000000;3.137467
1474.000000;3.225803
1473.000000;3.412080
1472.000000;3.587544
1471.000000;3.577438
1470.000000;3.432510
1469.000000;3.311908
1468.000000;3.426393
1467.000000;3.327332
1466.000000;3.147620
1465.000000;3.282472
1464.000000;3.570352
1463.000000;3.573804
1462.000000;3.320205
1461.000000;3.228926
1460.000000;3.246982
1459.000000;3.237752
1458.000000;3.310541
1457.000000;3.528441
1456.000000;4.019913
1455.000000;4.602842
1454.000000;3.820811
1453.000000;3.352740
1452.000000;3.188265
1451.000000;3.200701
1450.000000;3.197675
1449.000000;3.203405
1448.000000;3.238992
1447.000000;3.144629
1446.000000;3.047793
1445.000000;3.048994
1444.000000;3.168147
1443.000000;3.622937
1442.000000;4.215932
1441.000000;3.965886
1440.000000;4.066870
1439.000000;3.625148
1438.000000;3.429805
1437.000000;3.392420
1436.000000;3.469920
1435.000000;3.440025
1434.000000;3.252842
1433.000000;3.203192
1432.000000;3.292915
1431.000000;3.496094
1430.000000;3.617469
1429.000000;3.424807
1428.000000;3.322996
1427.000000;3.322533
1426.000000;3.289872
1425.000000;3.264960
1424.000000;3.472243
1423.000000;3.723520
1422.000000;3.656744
1421.000000;4.024212
1420.000000;3.727955
1419.000000;3.463807
1418.000000;3.350689
1417.000000;3.235996
1416.000000;3.201434
1415.000000;3.211087
1414.000000;3.227949
1413.000000;3.289281
1412.000000;3.381450
1411.000000;3.502804
1410.000000;3.553213
1409.000000;3.472957
1408.000000;3.722199
1407.000000;3.566704
1406.000000;3.196119
1405.000000;3.160689
1404.000000;3.275331
1403.000000;3.355249
1402.000000;3.408358
1401.000000;3.499897
1400.000000;3.496458
1399.000000;3.383826
1398.000000;3.300940
1397.000000;3.264668
1396.000000;3.257104
1395.000000;3.328278
1394.000000;3.479252
1393.000000;3.843759
1392.000000;4.359144
1391.000000;3.895220
1390.000000;3.796840
1389.000000;3.652898
1388.000000;3.553802
1387.000000;3.748628
1386.000000;3.585364
1385.000000;3.388949
1384.000000;3.378742
1383.000000;3.425269
1382.000000;3.637079
1381.000000;3.441812
1380.000000;3.243612
1379.000000;3.319649
1378.000000;3.451878
1377.000000;3.340259
1376.000000;3.175501
1375.000000;3.165576
1374.000000;3.248503
1373.000000;3.306733
1372.000000;3.400956
1371.000000;3.504903
1370.000000;3.454069
1369.000000;3.459442
1368.000000;3.522684
1367.000000;3.394609
1366.000000;3.225244
1365.000000;3.202552
1364.000000;3.277053
1363.000000;3.360125
1362.000000;3.427616
1361.000000;3.630581
1360.000000;3.705670
1359.000000;3.389552
1358.000000;3.339333
1357.000000;3.639715
1356.000000;4.119947
1355.000000;4.043845
1354.000000;3.809239
1353.000000;3.633879
1352.000000;3.593580
1351.000000;3.598479
1350.000000;3.496386
1349.000000;3.298339
1348.000000;3.223228
1347.000000;3.290355
1346.000000;3.357269
1345.000000;3.352539
1344.000000;3.330886
1343.000000;3.359758
1342.000000;3.338100
1341.000000;3.247980
1340.000000;3.225291
1339.000000;3.279131
1338.000000;3.252327
1337.000000;3.111442
1336.000000;3.052918
1335.000000;3.167869
1334.000000;3.409601
1333.000000;3.544619
1332.000000;3.427771
1331.000000;3.226863
1330.000000;3.134262
1329.000000;3.163523
1328.000000;3.254131
1327.000000;3.443548
1326.000000;3.492896
1325.000000;3.319732
1324.000000;3.281977
1323.000000;3.438853
1322.000000;3.684081
1321.000000;3.680738
1320.000000;3.638978
1319.000000;3.681373
1318.000000;3.752134
1317.000000;3.619594
1316.000000;3.601359
1315.000000;3.705896
1314.000000;3.277699
1313.000000;3.061383
1312.000000;2.988669
1311.000000;3.025569
1310.000000;3.131506
1309.000000;3.233596
1308.000000;3.376408
1307.000000;3.769109
1306.000000;3.672234
1305.000000;3.304369
1304.000000;3.226711
1303.000000;3.197141
1302.000000;3.262475
1301.000000;3.394527
1300.000000;3.374702
1299.000000;3.451957
1298.000000;3.771975
1297.000000;3.765806
1296.000000;3.421068
1295.000000;3.215270
1294.000000;3.143025
1293.000000;3.128426
1292.000000;3.190905
1291.000000;3.479304
1290.000000;3.840248
1289.000000;3.604548
1288.000000;3.413828
1287.000000;3.352278
1286.000000;3.350139
1285.000000;3.282888
1284.000000;3.195946
1283.000000;3.175350
1282.000000;3.289825
1281.000000;3.403076
1280.000000;3.289226
1279.000000;3.257491
1278.000000;3.345551
1277.000000;3.414956
1276.000000;3.410001
1275.000000;3.250439
1274.000000;3.062545
1273.000000;3.009067
1272.000000;3.097861
1271.000000;3.279632
1270.000000;3.741201
1269.000000;3.638121
1268.000000;3.281487
1267.000000;3.295943
1266.000000;3.468921
1265.000000;3.427457
1264.000000;3.228270
1263.000000;3.103967
1262.000000;3.043531
1261.000000;3.067282
1260.000000;3.176944
1259.000000;3.320772
1258.000000;3.446377
1257.000000;3.644579
1256.000000;3.492133
1255.000000;3.138636
1254.000000;3.039290
1253.000000;3.026696
1252.000000;3.023362
1251.000000;3.111681
1250.000000;3.289492
1249.000000;3.396756
1248.000000;3.308525
1247.000000;3.214855
1246.000000;3.266451
1245.000000;3.361761
1244.000000;3.532095
1243.000000;3.685490
1242.000000;3.196305
1241.000000;3.031799
1240.000000;3.056997
1239.000000;3.150713
1238.000000;3.333219
1237.000000;3.430635
1236.000000;3.245852
1235.000000;3.117494
1234.000000;3.070097
1233.000000;3.102078
1232.000000;3.145353
1231.000000;3.294499
1230.000000;3.337509
1229.000000;3.063144
1228.000000;2.982014
1227.000000;3.041920
1226.000000;3.258485
1225.000000;3.811238
1224.000000;3.631207
1223.000000;3.338554
1222.000000;3.286113
1221.000000;3.117604
1220.000000;3.006621
1219.000000;3.001634
1218.000000;3.057686
1217.000000;3.148894
1216.000000;3.372118
1215.000000;3.584492
1214.000000;3.557256
1213.000000;3.836235
1212.000000;3.474301
1211.000000;3.196569
1210.000000;3.047590
1209.000000;2.938039
1208.000000;2.868046
1207.000000;2.868001
1206.000000;2.952260
1205.000000;3.161778
1204.000000;3.377371
1203.000000;3.146349
1202.000000;2.999097
1201.000000;3.038841
1200.000000;3.066681
