Criado como novo conjunto de dados;"e2410_daniel_v2.spp","30963.1 Secs"
cm-1;Abs
10000.000000;0.667944
9999.000000;0.667561
9998.000000;0.666841
9997.000000;0.665954
9996.000000;0.665129
9995.000000;0.664444
9994.000000;0.663948
9993.000000;0.663694
9992.000000;0.663573
9991.000000;0.663378
9990.000000;0.663076
9989.000000;0.662767
9988.000000;0.662384
9987.000000;0.661732
9986.000000;0.660817
9985.000000;0.659844
9984.000000;0.658909
9983.000000;0.658003
9982.000000;0.657285
9981.000000;0.656975
9980.000000;0.656985
9979.000000;0.656981
9978.000000;0.656793
9977.000000;0.656504
9976.000000;0.656166
9975.000000;0.655762
9974.000000;0.655360
9973.000000;0.654961
9972.000000;0.654307
9971.000000;0.653244
9970.000000;0.652155
9969.000000;0.651558
9968.000000;0.651376
9967.000000;0.651098
9966.000000;0.650602
9965.000000;0.650251
9964.000000;0.650153
9963.000000;0.649926
9962.000000;0.649363
9961.000000;0.648809
9960.000000;0.648619
9959.000000;0.648627
9958.000000;0.648382
9957.000000;0.647634
9956.000000;0.646457
9955.000000;0.645150
9954.000000;0.644100
9953.000000;0.643510
9952.000000;0.643198
9951.000000;0.642876
9950.000000;0.642537
9949.000000;0.642302
9948.000000;0.642012
9947.000000;0.641378
9946.000000;0.640477
9945.000000;0.639672
9944.000000;0.639077
9943.000000;0.638515
9942.000000;0.637968
9941.000000;0.637613
9940.000000;0.637393
9939.000000;0.637031
9938.000000;0.636493
9937.000000;0.636015
9936.000000;0.635635
9935.000000;0.635151
9934.000000;0.634580
9933.000000;0.634199
9932.000000;0.634049
9931.000000;0.633830
9930.000000;0.633400
9929.000000;0.632946
9928.000000;0.632548
9927.000000;0.631996
9926.000000;0.631200
9925.000000;0.630396
9924.000000;0.629802
9923.000000;0.629360
9922.000000;0.628949
9921.000000;0.628573
9920.000000;0.628232
9919.000000;0.627885
9918.000000;0.627585
9917.000000;0.627388
9916.000000;0.627120
9915.000000;0.626527
9914.000000;0.625648
9913.000000;0.624764
9912.000000;0.624011
9911.000000;0.623341
9910.000000;0.622788
9909.000000;0.622422
9908.000000;0.622107
9907.000000;0.621667
9906.000000;0.621226
9905.000000;0.620992
9904.000000;0.620767
9903.000000;0.620141
9902.000000;0.619147
9901.000000;0.618257
9900.000000;0.617698
9899.000000;0.617228
9898.000000;0.616636
9897.000000;0.616025
9896.000000;0.615534
9895.000000;0.615162
9894.000000;0.614943
9893.000000;0.614910
9892.000000;0.614850
9891.000000;0.614462
9890.000000;0.613805
9889.000000;0.613236
9888.000000;0.612875
9887.000000;0.612535
9886.000000;0.612153
9885.000000;0.611868
9884.000000;0.611626
9883.000000;0.611152
9882.000000;0.610413
9881.000000;0.609712
9880.000000;0.609220
9879.000000;0.608770
9878.000000;0.608187
9877.000000;0.607490
9876.000000;0.606701
9875.000000;0.605815
9874.000000;0.605002
9873.000000;0.604495
9872.000000;0.604248
9871.000000;0.604009
9870.000000;0.603721
9869.000000;0.603505
9868.000000;0.603267
9867.000000;0.602750
9866.000000;0.601999
9865.000000;0.601367
9864.000000;0.601028
9863.000000;0.600847
9862.000000;0.600749
9861.000000;0.600823
9860.000000;0.600970
9859.000000;0.600838
9858.000000;0.600200
9857.000000;0.599128
9856.000000;0.597804
9855.000000;0.596468
9854.000000;0.595489
9853.000000;0.595095
9852.000000;0.595039
9851.000000;0.594868
9850.000000;0.594486
9849.000000;0.594089
9848.000000;0.593655
9847.000000;0.592973
9846.000000;0.592134
9845.000000;0.591492
9844.000000;0.591146
9843.000000;0.590884
9842.000000;0.590625
9841.000000;0.590442
9840.000000;0.590184
9839.000000;0.589597
9838.000000;0.588851
9837.000000;0.588414
9836.000000;0.588334
9835.000000;0.588146
9834.000000;0.587584
9833.000000;0.586888
9832.000000;0.586281
9831.000000;0.585667
9830.000000;0.584998
9829.000000;0.584454
9828.000000;0.584079
9827.000000;0.583645
9826.000000;0.583068
9825.000000;0.582557
9824.000000;0.582208
9823.000000;0.581812
9822.000000;0.581256
9821.000000;0.580728
9820.000000;0.580407
9819.000000;0.580239
9818.000000;0.580125
9817.000000;0.579992
9816.000000;0.579639
9815.000000;0.578892
9814.000000;0.578001
9813.000000;0.577441
9812.000000;0.577244
9811.000000;0.576924
9810.000000;0.576173
9809.000000;0.575232
9808.000000;0.574451
9807.000000;0.573891
9806.000000;0.573510
9805.000000;0.573326
9804.000000;0.573221
9803.000000;0.572921
9802.000000;0.572376
9801.000000;0.571846
9800.000000;0.571487
9799.000000;0.571166
9798.000000;0.570787
9797.000000;0.570444
9796.000000;0.570148
9795.000000;0.569715
9794.000000;0.569074
9793.000000;0.568355
9792.000000;0.567593
9791.000000;0.566700
9790.000000;0.565825
9789.000000;0.565354
9788.000000;0.565372
9787.000000;0.565452
9786.000000;0.565169
9785.000000;0.564559
9784.000000;0.563913
9783.000000;0.563372
9782.000000;0.562887
9781.000000;0.562367
9780.000000;0.561734
9779.000000;0.561026
9778.000000;0.560465
9777.000000;0.560231
9776.000000;0.560139
9775.000000;0.559811
9774.000000;0.559177
9773.000000;0.558515
9772.000000;0.558014
9771.000000;0.557596
9770.000000;0.557179
9769.000000;0.556766
9768.000000;0.556263
9767.000000;0.555542
9766.000000;0.554743
9765.000000;0.554160
9764.000000;0.553778
9763.000000;0.553284
9762.000000;0.552580
9761.000000;0.551951
9760.000000;0.551617
9759.000000;0.551466
9758.000000;0.551320
9757.000000;0.551165
9756.000000;0.551011
9755.000000;0.550809
9754.000000;0.550582
9753.000000;0.550393
9752.000000;0.550118
9751.000000;0.549556
9750.000000;0.548797
9749.000000;0.548186
9748.000000;0.547860
9747.000000;0.547605
9746.000000;0.547211
9745.000000;0.546684
9744.000000;0.546060
9743.000000;0.545322
9742.000000;0.544563
9741.000000;0.543963
9740.000000;0.543540
9739.000000;0.543148
9738.000000;0.542725
9737.000000;0.542302
9736.000000;0.541808
9735.000000;0.541160
9734.000000;0.540514
9733.000000;0.540086
9732.000000;0.539786
9731.000000;0.539339
9730.000000;0.538750
9729.000000;0.538287
9728.000000;0.538030
9727.000000;0.537801
9726.000000;0.537532
9725.000000;0.537315
9724.000000;0.537090
9723.000000;0.536652
9722.000000;0.536025
9721.000000;0.535452
9720.000000;0.535004
9719.000000;0.534541
9718.000000;0.534066
9717.000000;0.533741
9716.000000;0.533516
9715.000000;0.533120
9714.000000;0.532476
9713.000000;0.531758
9712.000000;0.531027
9711.000000;0.530197
9710.000000;0.529375
9709.000000;0.528850
9708.000000;0.528666
9707.000000;0.528577
9706.000000;0.528450
9705.000000;0.528352
9704.000000;0.528214
9703.000000;0.527838
9702.000000;0.527291
9701.000000;0.526878
9700.000000;0.526649
9699.000000;0.526323
9698.000000;0.525786
9697.000000;0.525242
9696.000000;0.524787
9695.000000;0.524262
9694.000000;0.523633
9693.000000;0.523122
9692.000000;0.522785
9691.000000;0.522364
9690.000000;0.521734
9689.000000;0.521133
9688.000000;0.520765
9687.000000;0.520478
9686.000000;0.520031
9685.000000;0.519428
9684.000000;0.518824
9683.000000;0.518342
9682.000000;0.518080
9681.000000;0.518069
9680.000000;0.518103
9679.000000;0.517853
9678.000000;0.517224
9677.000000;0.516418
9676.000000;0.515646
9675.000000;0.514998
9674.000000;0.514557
9673.000000;0.514330
9672.000000;0.514110
9671.000000;0.513708
9670.000000;0.513276
9669.000000;0.513053
9668.000000;0.512843
9667.000000;0.512191
9666.000000;0.511076
9665.000000;0.509993
9664.000000;0.509295
9663.000000;0.508896
9662.000000;0.508706
9661.000000;0.508841
9660.000000;0.509211
9659.000000;0.509344
9658.000000;0.508888
9657.000000;0.508027
9656.000000;0.507169
9655.000000;0.506509
9654.000000;0.506039
9653.000000;0.505718
9652.000000;0.505473
9651.000000;0.505195
9650.000000;0.504860
9649.000000;0.504498
9648.000000;0.504044
9647.000000;0.503453
9646.000000;0.502895
9645.000000;0.502565
9644.000000;0.502324
9643.000000;0.501898
9642.000000;0.501378
9641.000000;0.501107
9640.000000;0.501073
9639.000000;0.500842
9638.000000;0.500194
9637.000000;0.499385
9636.000000;0.498705
9635.000000;0.498160
9634.000000;0.497724
9633.000000;0.497482
9632.000000;0.497361
9631.000000;0.497080
9630.000000;0.496540
9629.000000;0.495962
9628.000000;0.495485
9627.000000;0.494991
9626.000000;0.494438
9625.000000;0.494026
9624.000000;0.493851
9623.000000;0.493720
9622.000000;0.493455
9621.000000;0.493099
9620.000000;0.492692
9619.000000;0.492146
9618.000000;0.491492
9617.000000;0.490927
9616.000000;0.490480
9615.000000;0.489947
9614.000000;0.489287
9613.000000;0.488781
9612.000000;0.488616
9611.000000;0.488604
9610.000000;0.488480
9609.000000;0.488200
9608.000000;0.487808
9607.000000;0.487277
9606.000000;0.486665
9605.000000;0.486151
9604.000000;0.485766
9603.000000;0.485320
9602.000000;0.484752
9601.000000;0.484278
9600.000000;0.484047
9599.000000;0.483886
9598.000000;0.483573
9597.000000;0.483132
9596.000000;0.482683
9595.000000;0.482219
9594.000000;0.481682
9593.000000;0.481102
9592.000000;0.480528
9591.000000;0.479974
9590.000000;0.479500
9589.000000;0.479186
9588.000000;0.478959
9587.000000;0.478639
9586.000000;0.478198
9585.000000;0.477789
9584.000000;0.477486
9583.000000;0.477219
9582.000000;0.476955
9581.000000;0.476720
9580.000000;0.476420
9579.000000;0.475921
9578.000000;0.475320
9577.000000;0.474874
9576.000000;0.474628
9575.000000;0.474404
9574.000000;0.474142
9573.000000;0.473929
9572.000000;0.473679
9571.000000;0.473162
9570.000000;0.472410
9569.000000;0.471743
9568.000000;0.471278
9567.000000;0.470780
9566.000000;0.470118
9565.000000;0.469503
9564.000000;0.469104
9563.000000;0.468779
9562.000000;0.468382
9561.000000;0.468041
9560.000000;0.467894
9559.000000;0.467791
9558.000000;0.467482
9557.000000;0.466931
9556.000000;0.466281
9555.000000;0.465649
9554.000000;0.465102
9553.000000;0.464695
9552.000000;0.464414
9551.000000;0.464223
9550.000000;0.464167
9549.000000;0.464261
9548.000000;0.464281
9547.000000;0.463932
9546.000000;0.463250
9545.000000;0.462578
9544.000000;0.462106
9543.000000;0.461712
9542.000000;0.461274
9541.000000;0.460829
9540.000000;0.460345
9539.000000;0.459693
9538.000000;0.458954
9537.000000;0.458428
9536.000000;0.458222
9535.000000;0.458114
9534.000000;0.457961
9533.000000;0.457915
9532.000000;0.458044
9531.000000;0.458048
9530.000000;0.457627
9529.000000;0.456909
9528.000000;0.456256
9527.000000;0.455828
9526.000000;0.455517
9525.000000;0.455186
9524.000000;0.454763
9523.000000;0.454239
9522.000000;0.453695
9521.000000;0.453242
9520.000000;0.452875
9519.000000;0.452489
9518.000000;0.452114
9517.000000;0.451902
9516.000000;0.451839
9515.000000;0.451676
9514.000000;0.451269
9513.000000;0.450767
9512.000000;0.450333
9511.000000;0.449881
9510.000000;0.449269
9509.000000;0.448604
9508.000000;0.448148
9507.000000;0.448019
9506.000000;0.448072
9505.000000;0.448043
9504.000000;0.447728
9503.000000;0.447135
9502.000000;0.446489
9501.000000;0.446021
9500.000000;0.445726
9499.000000;0.445424
9498.000000;0.445006
9497.000000;0.444502
9496.000000;0.443936
9495.000000;0.443333
9494.000000;0.442839
9493.000000;0.442627
9492.000000;0.442632
9491.000000;0.442576
9490.000000;0.442283
9489.000000;0.441805
9488.000000;0.441241
9487.000000;0.440627
9486.000000;0.440025
9485.000000;0.439524
9484.000000;0.439103
9483.000000;0.438677
9482.000000;0.438274
9481.000000;0.437982
9480.000000;0.437754
9479.000000;0.437479
9478.000000;0.437220
9477.000000;0.437124
9476.000000;0.437097
9475.000000;0.436839
9474.000000;0.436252
9473.000000;0.435564
9472.000000;0.434980
9471.000000;0.434465
9470.000000;0.433950
9469.000000;0.433495
9468.000000;0.433152
9467.000000;0.432869
9466.000000;0.432640
9465.000000;0.432551
9464.000000;0.432568
9463.000000;0.432460
9462.000000;0.432049
9461.000000;0.431425
9460.000000;0.430827
9459.000000;0.430437
9458.000000;0.430298
9457.000000;0.430307
9456.000000;0.430243
9455.000000;0.429942
9454.000000;0.429478
9453.000000;0.429050
9452.000000;0.428715
9451.000000;0.428382
9450.000000;0.428027
9449.000000;0.427729
9448.000000;0.427488
9447.000000;0.427199
9446.000000;0.426803
9445.000000;0.426310
9444.000000;0.425707
9443.000000;0.425043
9442.000000;0.424535
9441.000000;0.424350
9440.000000;0.424301
9439.000000;0.424002
9438.000000;0.423369
9437.000000;0.422698
9436.000000;0.422249
9435.000000;0.421980
9434.000000;0.421736
9433.000000;0.421475
9432.000000;0.421219
9431.000000;0.420978
9430.000000;0.420768
9429.000000;0.420584
9428.000000;0.420317
9427.000000;0.419893
9426.000000;0.419439
9425.000000;0.419143
9424.000000;0.418945
9423.000000;0.418602
9422.000000;0.418057
9421.000000;0.417527
9420.000000;0.417198
9419.000000;0.417037
9418.000000;0.416917
9417.000000;0.416734
9416.000000;0.416370
9415.000000;0.415794
9414.000000;0.415197
9413.000000;0.414825
9412.000000;0.414644
9411.000000;0.414376
9410.000000;0.413897
9409.000000;0.413364
9408.000000;0.412928
9407.000000;0.412560
9406.000000;0.412217
9405.000000;0.411954
9404.000000;0.411787
9403.000000;0.411636
9402.000000;0.411467
9401.000000;0.411333
9400.000000;0.411219
9399.000000;0.411010
9398.000000;0.410683
9397.000000;0.410358
9396.000000;0.410105
9395.000000;0.409838
9394.000000;0.409439
9393.000000;0.408898
9392.000000;0.408311
9391.000000;0.407820
9390.000000;0.407530
9389.000000;0.407378
9388.000000;0.407152
9387.000000;0.406757
9386.000000;0.406353
9385.000000;0.406086
9384.000000;0.405816
9383.000000;0.405340
9382.000000;0.404751
9381.000000;0.404311
9380.000000;0.404050
9379.000000;0.403762
9378.000000;0.403361
9377.000000;0.402946
9376.000000;0.402532
9375.000000;0.402021
9374.000000;0.401469
9373.000000;0.401097
9372.000000;0.400989
9371.000000;0.400993
9370.000000;0.400970
9369.000000;0.400914
9368.000000;0.400803
9367.000000;0.400552
9366.000000;0.400166
9365.000000;0.399749
9364.000000;0.399330
9363.000000;0.398864
9362.000000;0.398404
9361.000000;0.398078
9360.000000;0.397885
9359.000000;0.397694
9358.000000;0.397445
9357.000000;0.397153
9356.000000;0.396742
9355.000000;0.396130
9354.000000;0.395460
9353.000000;0.395011
9352.000000;0.394847
9351.000000;0.394771
9350.000000;0.394634
9349.000000;0.394475
9348.000000;0.394303
9347.000000;0.393999
9346.000000;0.393502
9345.000000;0.392925
9344.000000;0.392434
9343.000000;0.392138
9342.000000;0.392082
9341.000000;0.392175
9340.000000;0.392167
9339.000000;0.391859
9338.000000;0.391332
9337.000000;0.390815
9336.000000;0.390372
9335.000000;0.389934
9334.000000;0.389550
9333.000000;0.389353
9332.000000;0.389301
9331.000000;0.389191
9330.000000;0.388951
9329.000000;0.388673
9328.000000;0.388376
9327.000000;0.387970
9326.000000;0.387474
9325.000000;0.387041
9324.000000;0.386735
9323.000000;0.386486
9322.000000;0.386285
9321.000000;0.386181
9320.000000;0.386088
9319.000000;0.385819
9318.000000;0.385365
9317.000000;0.384929
9316.000000;0.384650
9315.000000;0.384462
9314.000000;0.384247
9313.000000;0.383954
9312.000000;0.383550
9311.000000;0.383038
9310.000000;0.382547
9309.000000;0.382228
9308.000000;0.382058
9307.000000;0.381886
9306.000000;0.381647
9305.000000;0.381366
9304.000000;0.381006
9303.000000;0.380508
9302.000000;0.379967
9301.000000;0.379582
9300.000000;0.379437
9299.000000;0.379459
9298.000000;0.379540
9297.000000;0.379556
9296.000000;0.379350
9295.000000;0.378907
9294.000000;0.378444
9293.000000;0.378143
9292.000000;0.377887
9291.000000;0.377482
9290.000000;0.377011
9289.000000;0.376696
9288.000000;0.376520
9287.000000;0.376282
9286.000000;0.375955
9285.000000;0.375670
9284.000000;0.375415
9283.000000;0.375055
9282.000000;0.374632
9281.000000;0.374338
9280.000000;0.374173
9279.000000;0.373951
9278.000000;0.373642
9277.000000;0.373406
9276.000000;0.373273
9275.000000;0.373073
9274.000000;0.372738
9273.000000;0.372385
9272.000000;0.372058
9271.000000;0.371658
9270.000000;0.371180
9269.000000;0.370773
9268.000000;0.370500
9267.000000;0.370261
9266.000000;0.370021
9265.000000;0.369873
9264.000000;0.369859
9263.000000;0.369903
9262.000000;0.369948
9261.000000;0.369941
9260.000000;0.369724
9259.000000;0.369197
9258.000000;0.368587
9257.000000;0.368263
9256.000000;0.368267
9255.000000;0.368268
9254.000000;0.368030
9253.000000;0.367630
9252.000000;0.367185
9251.000000;0.366669
9250.000000;0.366097
9249.000000;0.365642
9248.000000;0.365420
9247.000000;0.365344
9246.000000;0.365290
9245.000000;0.365240
9244.000000;0.365180
9243.000000;0.365028
9242.000000;0.364740
9241.000000;0.364352
9240.000000;0.363897
9239.000000;0.363401
9238.000000;0.362963
9237.000000;0.362681
9236.000000;0.362494
9235.000000;0.362255
9234.000000;0.361942
9233.000000;0.361644
9232.000000;0.361373
9231.000000;0.361074
9230.000000;0.360789
9229.000000;0.360603
9228.000000;0.360449
9227.000000;0.360199
9226.000000;0.359904
9225.000000;0.359716
9224.000000;0.359604
9223.000000;0.359381
9222.000000;0.359026
9221.000000;0.358711
9220.000000;0.358510
9219.000000;0.358302
9218.000000;0.357999
9217.000000;0.357635
9216.000000;0.357236
9215.000000;0.356799
9214.000000;0.356428
9213.000000;0.356257
9212.000000;0.356228
9211.000000;0.356148
9210.000000;0.355971
9209.000000;0.355796
9208.000000;0.355607
9207.000000;0.355252
9206.000000;0.354727
9205.000000;0.354249
9204.000000;0.353989
9203.000000;0.353931
9202.000000;0.353998
9201.000000;0.354109
9200.000000;0.354106
9199.000000;0.353844
9198.000000;0.353393
9197.000000;0.352978
9196.000000;0.352679
9195.000000;0.352402
9194.000000;0.352128
9193.000000;0.351972
9192.000000;0.351936
9191.000000;0.351850
9190.000000;0.351598
9189.000000;0.351248
9188.000000;0.350919
9187.000000;0.350666
9186.000000;0.350520
9185.000000;0.350458
9184.000000;0.350341
9183.000000;0.350032
9182.000000;0.349596
9181.000000;0.349206
9180.000000;0.348892
9179.000000;0.348557
9178.000000;0.348201
9177.000000;0.347924
9176.000000;0.347743
9175.000000;0.347591
9174.000000;0.347483
9173.000000;0.347461
9172.000000;0.347404
9171.000000;0.347124
9170.000000;0.346660
9169.000000;0.346249
9168.000000;0.346022
9167.000000;0.345916
9166.000000;0.345858
9165.000000;0.345801
9164.000000;0.345611
9163.000000;0.345176
9162.000000;0.344658
9161.000000;0.344371
9160.000000;0.344390
9159.000000;0.344479
9158.000000;0.344420
9157.000000;0.344195
9156.000000;0.343820
9155.000000;0.343270
9154.000000;0.342632
9153.000000;0.342112
9152.000000;0.341819
9151.000000;0.341679
9150.000000;0.341589
9149.000000;0.341488
9148.000000;0.341300
9147.000000;0.340996
9146.000000;0.340701
9145.000000;0.340566
9144.000000;0.340518
9143.000000;0.340356
9142.000000;0.340076
9141.000000;0.339882
9140.000000;0.339874
9139.000000;0.339920
9138.000000;0.339867
9137.000000;0.339673
9136.000000;0.339329
9135.000000;0.338841
9134.000000;0.338318
9133.000000;0.337898
9132.000000;0.337598
9131.000000;0.337382
9130.000000;0.337316
9129.000000;0.337466
9128.000000;0.337661
9127.000000;0.337585
9126.000000;0.337140
9125.000000;0.336514
9124.000000;0.335942
9123.000000;0.335566
9122.000000;0.335478
9121.000000;0.335647
9120.000000;0.335819
9119.000000;0.335734
9118.000000;0.335437
9117.000000;0.335170
9116.000000;0.334989
9115.000000;0.334742
9114.000000;0.334394
9113.000000;0.334088
9112.000000;0.333873
9111.000000;0.333634
9110.000000;0.333343
9109.000000;0.333130
9108.000000;0.333053
9107.000000;0.333000
9106.000000;0.332880
9105.000000;0.332708
9104.000000;0.332478
9103.000000;0.332137
9102.000000;0.331737
9101.000000;0.331425
9100.000000;0.331259
9099.000000;0.331186
9098.000000;0.331177
9097.000000;0.331202
9096.000000;0.331115
9095.000000;0.330792
9094.000000;0.330354
9093.000000;0.330049
9092.000000;0.329906
9091.000000;0.329744
9090.000000;0.329501
9089.000000;0.329315
9088.000000;0.329258
9087.000000;0.329223
9086.000000;0.329114
9085.000000;0.328923
9084.000000;0.328619
9083.000000;0.328164
9082.000000;0.327670
9081.000000;0.327318
9080.000000;0.327097
9079.000000;0.326835
9078.000000;0.326505
9077.000000;0.326272
9076.000000;0.326223
9075.000000;0.326271
9074.000000;0.326331
9073.000000;0.326372
9072.000000;0.326291
9071.000000;0.325961
9070.000000;0.325467
9069.000000;0.325056
9068.000000;0.324839
9067.000000;0.324714
9066.000000;0.324611
9065.000000;0.324550
9064.000000;0.324466
9063.000000;0.324218
9062.000000;0.323838
9061.000000;0.323527
9060.000000;0.323352
9059.000000;0.323177
9058.000000;0.322944
9057.000000;0.322784
9056.000000;0.322769
9055.000000;0.322761
9054.000000;0.322635
9053.000000;0.322446
9052.000000;0.322280
9051.000000;0.322114
9050.000000;0.321896
9049.000000;0.321633
9048.000000;0.321325
9047.000000;0.320948
9046.000000;0.320554
9045.000000;0.320264
9044.000000;0.320114
9043.000000;0.320028
9042.000000;0.319956
9041.000000;0.319897
9040.000000;0.319806
9039.000000;0.319625
9038.000000;0.319424
9037.000000;0.319329
9036.000000;0.319317
9035.000000;0.319231
9034.000000;0.319011
9033.000000;0.318750
9032.000000;0.318517
9031.000000;0.318320
9030.000000;0.318210
9029.000000;0.318236
9028.000000;0.318278
9027.000000;0.318121
9026.000000;0.317735
9025.000000;0.317301
9024.000000;0.316956
9023.000000;0.316681
9022.000000;0.316447
9021.000000;0.316274
9020.000000;0.316127
9019.000000;0.315948
9018.000000;0.315789
9017.000000;0.315749
9016.000000;0.315759
9015.000000;0.315615
9014.000000;0.315260
9013.000000;0.314852
9012.000000;0.314530
9011.000000;0.314292
9010.000000;0.314109
9009.000000;0.313995
9008.000000;0.313916
9007.000000;0.313808
9006.000000;0.313698
9005.000000;0.313652
9004.000000;0.313605
9003.000000;0.313410
9002.000000;0.313070
9001.000000;0.312751
9000.000000;0.312532
8999.000000;0.312333
8998.000000;0.312102
8997.000000;0.311909
8996.000000;0.311816
8995.000000;0.311789
8994.000000;0.311761
8993.000000;0.311656
8992.000000;0.311391
8991.000000;0.310987
8990.000000;0.310644
8989.000000;0.310546
8988.000000;0.310612
8987.000000;0.310605
8986.000000;0.310441
8985.000000;0.310215
8984.000000;0.309967
8983.000000;0.309675
8982.000000;0.309425
8981.000000;0.309346
8980.000000;0.309373
8979.000000;0.309287
8978.000000;0.309025
8977.000000;0.308733
8976.000000;0.308511
8975.000000;0.308340
8974.000000;0.308263
8973.000000;0.308398
8972.000000;0.308686
8971.000000;0.308857
8970.000000;0.308736
8969.000000;0.308402
8968.000000;0.308005
8967.000000;0.307602
8966.000000;0.307229
8965.000000;0.306951
8964.000000;0.306742
8963.000000;0.306477
8962.000000;0.306106
8961.000000;0.305739
8960.000000;0.305505
8959.000000;0.305450
8958.000000;0.305578
8957.000000;0.305849
8956.000000;0.306110
8955.000000;0.306178
8954.000000;0.306025
8953.000000;0.305749
8952.000000;0.305395
8951.000000;0.304951
8950.000000;0.304505
8949.000000;0.304216
8948.000000;0.304104
8947.000000;0.304007
8946.000000;0.303797
8945.000000;0.303509
8944.000000;0.303230
8943.000000;0.302999
8942.000000;0.302822
8941.000000;0.302679
8940.000000;0.302522
8939.000000;0.302364
8938.000000;0.302321
8937.000000;0.302447
8936.000000;0.302582
8935.000000;0.302529
8934.000000;0.302316
8933.000000;0.302110
8932.000000;0.301938
8931.000000;0.301713
8930.000000;0.301471
8929.000000;0.301360
8928.000000;0.301398
8927.000000;0.301445
8926.000000;0.301415
8925.000000;0.301310
8924.000000;0.301068
8923.000000;0.300624
8922.000000;0.300124
8921.000000;0.299846
8920.000000;0.299868
8919.000000;0.299982
8918.000000;0.300000
8917.000000;0.299933
8916.000000;0.299854
8915.000000;0.299768
8914.000000;0.299685
8913.000000;0.299640
8912.000000;0.299605
8911.000000;0.299512
8910.000000;0.299393
8909.000000;0.299334
8908.000000;0.299300
8907.000000;0.299167
8906.000000;0.298929
8905.000000;0.298700
8904.000000;0.298511
8903.000000;0.298290
8902.000000;0.298064
8901.000000;0.297975
8900.000000;0.298040
8899.000000;0.298085
8898.000000;0.297971
8897.000000;0.297723
8896.000000;0.297422
8895.000000;0.297106
8894.000000;0.296835
8893.000000;0.296671
8892.000000;0.296573
8891.000000;0.296433
8890.000000;0.296267
8889.000000;0.296225
8888.000000;0.296381
8887.000000;0.296644
8886.000000;0.296878
8885.000000;0.296960
8884.000000;0.296752
8883.000000;0.296213
8882.000000;0.295560
8881.000000;0.295146
8880.000000;0.295102
8879.000000;0.295239
8878.000000;0.295323
8877.000000;0.295288
8876.000000;0.295166
8875.000000;0.294980
8874.000000;0.294777
8873.000000;0.294621
8872.000000;0.294499
8871.000000;0.294335
8870.000000;0.294129
8869.000000;0.293983
8868.000000;0.293963
8867.000000;0.294019
8866.000000;0.294076
8865.000000;0.294095
8864.000000;0.294055
8863.000000;0.293983
8862.000000;0.293963
8861.000000;0.294030
8860.000000;0.294066
8859.000000;0.293937
8858.000000;0.293686
8857.000000;0.293469
8856.000000;0.293337
8855.000000;0.293236
8854.000000;0.293167
8853.000000;0.293170
8852.000000;0.293179
8851.000000;0.293052
8850.000000;0.292781
8849.000000;0.292498
8848.000000;0.292286
8847.000000;0.292129
8846.000000;0.292028
8845.000000;0.292032
8844.000000;0.292110
8843.000000;0.292174
8842.000000;0.292207
8841.000000;0.292255
8840.000000;0.292289
8839.000000;0.292207
8838.000000;0.291998
8837.000000;0.291767
8836.000000;0.291594
8835.000000;0.291492
8834.000000;0.291483
8833.000000;0.291597
8832.000000;0.291777
8831.000000;0.291912
8830.000000;0.291947
8829.000000;0.291882
8828.000000;0.291721
8827.000000;0.291522
8826.000000;0.291443
8825.000000;0.291584
8824.000000;0.291832
8823.000000;0.291997
8822.000000;0.292050
8821.000000;0.292088
8820.000000;0.292124
8819.000000;0.292092
8818.000000;0.292012
8817.000000;0.291975
8816.000000;0.292021
8815.000000;0.292151
8814.000000;0.292418
8813.000000;0.292809
8812.000000;0.293121
8811.000000;0.293142
8810.000000;0.292931
8809.000000;0.292711
8808.000000;0.292538
8807.000000;0.292297
8806.000000;0.292000
8805.000000;0.291855
8804.000000;0.291981
8803.000000;0.292264
8802.000000;0.292519
8801.000000;0.292645
8800.000000;0.292609
8799.000000;0.292444
8798.000000;0.292286
8797.000000;0.292269
8796.000000;0.292349
8795.000000;0.292373
8794.000000;0.292308
8793.000000;0.292255
8792.000000;0.292261
8791.000000;0.292280
8790.000000;0.292303
8789.000000;0.292373
8788.000000;0.292486
8787.000000;0.292614
8786.000000;0.292827
8785.000000;0.293198
8784.000000;0.293614
8783.000000;0.293828
8782.000000;0.293736
8781.000000;0.293441
8780.000000;0.293098
8779.000000;0.292823
8778.000000;0.292732
8777.000000;0.292874
8776.000000;0.293117
8775.000000;0.293275
8774.000000;0.293350
8773.000000;0.293508
8772.000000;0.293807
8771.000000;0.294109
8770.000000;0.294276
8769.000000;0.294321
8768.000000;0.294361
8767.000000;0.294519
8766.000000;0.294859
8765.000000;0.295291
8764.000000;0.295575
8763.000000;0.295561
8762.000000;0.295379
8761.000000;0.295263
8760.000000;0.295273
8759.000000;0.295335
8758.000000;0.295448
8757.000000;0.295645
8756.000000;0.295802
8755.000000;0.295754
8754.000000;0.295566
8753.000000;0.295486
8752.000000;0.295607
8751.000000;0.295786
8750.000000;0.295906
8749.000000;0.296003
8748.000000;0.296123
8747.000000;0.296248
8746.000000;0.296392
8745.000000;0.296591
8744.000000;0.296782
8743.000000;0.296861
8742.000000;0.296884
8741.000000;0.297039
8740.000000;0.297381
8739.000000;0.297754
8738.000000;0.297999
8737.000000;0.298104
8736.000000;0.298137
8735.000000;0.298174
8734.000000;0.298307
8733.000000;0.298576
8732.000000;0.298882
8731.000000;0.299070
8730.000000;0.299122
8729.000000;0.299126
8728.000000;0.299112
8727.000000;0.299048
8726.000000;0.298985
8725.000000;0.299045
8724.000000;0.299268
8723.000000;0.299590
8722.000000;0.299962
8721.000000;0.300340
8720.000000;0.300607
8719.000000;0.300663
8718.000000;0.300592
8717.000000;0.300587
8716.000000;0.300715
8715.000000;0.300882
8714.000000;0.301005
8713.000000;0.301065
8712.000000;0.301031
8711.000000;0.300891
8710.000000;0.300753
8709.000000;0.300753
8708.000000;0.300882
8707.000000;0.301022
8706.000000;0.301132
8705.000000;0.301248
8704.000000;0.301344
8703.000000;0.301347
8702.000000;0.301288
8701.000000;0.301275
8700.000000;0.301341
8699.000000;0.301451
8698.000000;0.301618
8697.000000;0.301868
8696.000000;0.302120
8695.000000;0.302233
8694.000000;0.302175
8693.000000;0.302001
8692.000000;0.301746
8691.000000;0.301463
8690.000000;0.301299
8689.000000;0.301375
8688.000000;0.301620
8687.000000;0.301876
8686.000000;0.302098
8685.000000;0.302314
8684.000000;0.302458
8683.000000;0.302438
8682.000000;0.302305
8681.000000;0.302189
8680.000000;0.302113
8679.000000;0.302053
8678.000000;0.302075
8677.000000;0.302240
8676.000000;0.302421
8675.000000;0.302436
8674.000000;0.302319
8673.000000;0.302247
8672.000000;0.302254
8671.000000;0.302229
8670.000000;0.302164
8669.000000;0.302178
8668.000000;0.302305
8667.000000;0.302451
8666.000000;0.302559
8665.000000;0.302629
8664.000000;0.302595
8663.000000;0.302369
8662.000000;0.302024
8661.000000;0.301746
8660.000000;0.301626
8659.000000;0.301627
8658.000000;0.301709
8657.000000;0.301810
8656.000000;0.301773
8655.000000;0.301508
8654.000000;0.301170
8653.000000;0.300999
8652.000000;0.301001
8651.000000;0.300994
8650.000000;0.300919
8649.000000;0.300868
8648.000000;0.300847
8647.000000;0.300745
8646.000000;0.300554
8645.000000;0.300398
8644.000000;0.300323
8643.000000;0.300270
8642.000000;0.300232
8641.000000;0.300263
8640.000000;0.300302
8639.000000;0.300219
8638.000000;0.300040
8637.000000;0.299942
8636.000000;0.299979
8635.000000;0.299995
8634.000000;0.299845
8633.000000;0.299542
8632.000000;0.299195
8631.000000;0.298928
8630.000000;0.298862
8629.000000;0.299010
8628.000000;0.299181
8627.000000;0.299158
8626.000000;0.298962
8625.000000;0.298777
8624.000000;0.298660
8623.000000;0.298514
8622.000000;0.298318
8621.000000;0.298177
8620.000000;0.298118
8619.000000;0.298028
8618.000000;0.297831
8617.000000;0.297582
8616.000000;0.297375
8615.000000;0.297280
8614.000000;0.297361
8613.000000;0.297589
8612.000000;0.297751
8611.000000;0.297624
8610.000000;0.297230
8609.000000;0.296798
8608.000000;0.296482
8607.000000;0.296286
8606.000000;0.296191
8605.000000;0.296174
8604.000000;0.296117
8603.000000;0.295880
8602.000000;0.295504
8601.000000;0.295178
8600.000000;0.295021
8599.000000;0.295018
8598.000000;0.295120
8597.000000;0.295240
8596.000000;0.295199
8595.000000;0.294893
8594.000000;0.294490
8593.000000;0.294265
8592.000000;0.294254
8591.000000;0.294249
8590.000000;0.294112
8589.000000;0.293909
8588.000000;0.293720
8587.000000;0.293540
8586.000000;0.293373
8585.000000;0.293273
8584.000000;0.293246
8583.000000;0.293248
8582.000000;0.293267
8581.000000;0.293274
8580.000000;0.293153
8579.000000;0.292834
8578.000000;0.292477
8577.000000;0.292319
8576.000000;0.292363
8575.000000;0.292384
8574.000000;0.292225
8573.000000;0.291925
8572.000000;0.291570
8571.000000;0.291210
8570.000000;0.290934
8569.000000;0.290821
8568.000000;0.290815
8567.000000;0.290768
8566.000000;0.290624
8565.000000;0.290434
8564.000000;0.290215
8563.000000;0.289959
8562.000000;0.289744
8561.000000;0.289658
8560.000000;0.289653
8559.000000;0.289615
8558.000000;0.289558
8557.000000;0.289562
8556.000000;0.289573
8555.000000;0.289458
8554.000000;0.289252
8553.000000;0.289117
8552.000000;0.289077
8551.000000;0.288971
8550.000000;0.288710
8549.000000;0.288391
8548.000000;0.288124
8547.000000;0.287918
8546.000000;0.287749
8545.000000;0.287620
8544.000000;0.287522
8543.000000;0.287438
8542.000000;0.287388
8541.000000;0.287358
8540.000000;0.287237
8539.000000;0.286954
8538.000000;0.286620
8537.000000;0.286400
8536.000000;0.286288
8535.000000;0.286168
8534.000000;0.286009
8533.000000;0.285852
8532.000000;0.285672
8531.000000;0.285447
8530.000000;0.285291
8529.000000;0.285312
8528.000000;0.285409
8527.000000;0.285393
8526.000000;0.285257
8525.000000;0.285116
8524.000000;0.284942
8523.000000;0.284615
8522.000000;0.284192
8521.000000;0.283874
8520.000000;0.283714
8519.000000;0.283573
8518.000000;0.283384
8517.000000;0.283215
8516.000000;0.283080
8515.000000;0.282919
8514.000000;0.282770
8513.000000;0.282734
8512.000000;0.282744
8511.000000;0.282599
8510.000000;0.282262
8509.000000;0.281916
8508.000000;0.281687
8507.000000;0.281527
8506.000000;0.281403
8505.000000;0.281386
8504.000000;0.281471
8503.000000;0.281499
8502.000000;0.281346
8501.000000;0.281065
8500.000000;0.280770
8499.000000;0.280515
8498.000000;0.280335
8497.000000;0.280255
8496.000000;0.280228
8495.000000;0.280163
8494.000000;0.280049
8493.000000;0.279950
8492.000000;0.279871
8491.000000;0.279751
8490.000000;0.279566
8489.000000;0.279327
8488.000000;0.279012
8487.000000;0.278639
8486.000000;0.278356
8485.000000;0.278286
8484.000000;0.278315
8483.000000;0.278228
8482.000000;0.278008
8481.000000;0.277833
8480.000000;0.277789
8479.000000;0.277808
8478.000000;0.277852
8477.000000;0.277949
8476.000000;0.278020
8475.000000;0.277907
8474.000000;0.277631
8473.000000;0.277400
8472.000000;0.277315
8471.000000;0.277235
8470.000000;0.277010
8469.000000;0.276679
8468.000000;0.276362
8467.000000;0.276113
8466.000000;0.275940
8465.000000;0.275833
8464.000000;0.275721
8463.000000;0.275530
8462.000000;0.275312
8461.000000;0.275204
8460.000000;0.275232
8459.000000;0.275274
8458.000000;0.275225
8457.000000;0.275082
8456.000000;0.274862
8455.000000;0.274579
8454.000000;0.274312
8453.000000;0.274163
8452.000000;0.274114
8451.000000;0.274043
8450.000000;0.273885
8449.000000;0.273675
8448.000000;0.273436
8447.000000;0.273175
8446.000000;0.272970
8445.000000;0.272911
8444.000000;0.272942
8443.000000;0.272915
8442.000000;0.272810
8441.000000;0.272740
8440.000000;0.272734
8439.000000;0.272669
8438.000000;0.272472
8437.000000;0.272238
8436.000000;0.272079
8435.000000;0.271985
8434.000000;0.271879
8433.000000;0.271724
8432.000000;0.271522
8431.000000;0.271290
8430.000000;0.271062
8429.000000;0.270865
8428.000000;0.270699
8427.000000;0.270584
8426.000000;0.270573
8425.000000;0.270643
8424.000000;0.270633
8423.000000;0.270408
8422.000000;0.270038
8421.000000;0.269705
8420.000000;0.269483
8419.000000;0.269330
8418.000000;0.269227
8417.000000;0.269175
8416.000000;0.269116
8415.000000;0.268999
8414.000000;0.268899
8413.000000;0.268904
8412.000000;0.268933
8411.000000;0.268819
8410.000000;0.268552
8409.000000;0.268274
8408.000000;0.268070
8407.000000;0.267925
8406.000000;0.267857
8405.000000;0.267911
8404.000000;0.268019
8403.000000;0.268042
8402.000000;0.267937
8401.000000;0.267762
8400.000000;0.267511
8399.000000;0.267133
8398.000000;0.266691
8397.000000;0.266352
8396.000000;0.266186
8395.000000;0.266108
8394.000000;0.266035
8393.000000;0.265957
8392.000000;0.265851
8391.000000;0.265678
8390.000000;0.265481
8389.000000;0.265370
8388.000000;0.265355
8387.000000;0.265318
8386.000000;0.265150
8385.000000;0.264836
8384.000000;0.264435
8383.000000;0.264070
8382.000000;0.263879
8381.000000;0.263878
8380.000000;0.263894
8379.000000;0.263766
8378.000000;0.263560
8377.000000;0.263445
8376.000000;0.263430
8375.000000;0.263384
8374.000000;0.263274
8373.000000;0.263189
8372.000000;0.263149
8371.000000;0.263076
8370.000000;0.262959
8369.000000;0.262857
8368.000000;0.262753
8367.000000;0.262557
8366.000000;0.262266
8365.000000;0.261979
8364.000000;0.261737
8363.000000;0.261485
8362.000000;0.261217
8361.000000;0.261006
8360.000000;0.260874
8359.000000;0.260771
8358.000000;0.260671
8357.000000;0.260587
8356.000000;0.260475
8355.000000;0.260273
8354.000000;0.260022
8353.000000;0.259821
8352.000000;0.259663
8351.000000;0.259460
8350.000000;0.259209
8349.000000;0.258996
8348.000000;0.258847
8347.000000;0.258716
8346.000000;0.258606
8345.000000;0.258561
8344.000000;0.258537
8343.000000;0.258437
8342.000000;0.258261
8341.000000;0.258103
8340.000000;0.257975
8339.000000;0.257796
8338.000000;0.257554
8337.000000;0.257344
8336.000000;0.257221
8335.000000;0.257133
8334.000000;0.257025
8333.000000;0.256889
8332.000000;0.256718
8331.000000;0.256517
8330.000000;0.256361
8329.000000;0.256320
8328.000000;0.256324
8327.000000;0.256222
8326.000000;0.255970
8325.000000;0.255667
8324.000000;0.255401
8323.000000;0.255176
8322.000000;0.254968
8321.000000;0.254764
8320.000000;0.254547
8319.000000;0.254334
8318.000000;0.254188
8317.000000;0.254123
8316.000000;0.254038
8315.000000;0.253853
8314.000000;0.253642
8313.000000;0.253516
8312.000000;0.253428
8311.000000;0.253249
8310.000000;0.252966
8309.000000;0.252678
8308.000000;0.252425
8307.000000;0.252183
8306.000000;0.251991
8305.000000;0.251907
8304.000000;0.251865
8303.000000;0.251734
8302.000000;0.251503
8301.000000;0.251262
8300.000000;0.251037
8299.000000;0.250793
8298.000000;0.250576
8297.000000;0.250486
8296.000000;0.250494
8295.000000;0.250461
8294.000000;0.250332
8293.000000;0.250179
8292.000000;0.250042
8291.000000;0.249882
8290.000000;0.249705
8289.000000;0.249558
8288.000000;0.249405
8287.000000;0.249143
8286.000000;0.248769
8285.000000;0.248404
8284.000000;0.248151
8283.000000;0.248016
8282.000000;0.247974
8281.000000;0.247971
8280.000000;0.247906
8279.000000;0.247710
8278.000000;0.247464
8277.000000;0.247301
8276.000000;0.247211
8275.000000;0.247065
8274.000000;0.246822
8273.000000;0.246571
8272.000000;0.246390
8271.000000;0.246272
8270.000000;0.246201
8269.000000;0.246152
8268.000000;0.246039
8267.000000;0.245779
8266.000000;0.245415
8265.000000;0.245076
8264.000000;0.244811
8263.000000;0.244593
8262.000000;0.244437
8261.000000;0.244382
8260.000000;0.244363
8259.000000;0.244253
8258.000000;0.244032
8257.000000;0.243796
8256.000000;0.243603
8255.000000;0.243425
8254.000000;0.243248
8253.000000;0.243077
8252.000000;0.242873
8251.000000;0.242593
8250.000000;0.242300
8249.000000;0.242101
8248.000000;0.241998
8247.000000;0.241892
8246.000000;0.241733
8245.000000;0.241538
8244.000000;0.241297
8243.000000;0.240984
8242.000000;0.240651
8241.000000;0.240382
8240.000000;0.240168
8239.000000;0.239962
8238.000000;0.239827
8237.000000;0.239866
8236.000000;0.240019
8235.000000;0.240087
8234.000000;0.239961
8233.000000;0.239704
8232.000000;0.239416
8231.000000;0.239145
8230.000000;0.238932
8229.000000;0.238803
8228.000000;0.238695
8227.000000;0.238518
8226.000000;0.238281
8225.000000;0.238071
8224.000000;0.237909
8223.000000;0.237745
8222.000000;0.237563
8221.000000;0.237380
8220.000000;0.237158
8219.000000;0.236864
8218.000000;0.236578
8217.000000;0.236421
8216.000000;0.236375
8215.000000;0.236318
8214.000000;0.236203
8213.000000;0.236075
8212.000000;0.235931
8211.000000;0.235712
8210.000000;0.235440
8209.000000;0.235209
8208.000000;0.235032
8207.000000;0.234827
8206.000000;0.234569
8205.000000;0.234327
8204.000000;0.234131
8203.000000;0.233949
8202.000000;0.233781
8201.000000;0.233676
8200.000000;0.233619
8199.000000;0.233531
8198.000000;0.233378
8197.000000;0.233192
8196.000000;0.232970
8195.000000;0.232684
8194.000000;0.232399
8193.000000;0.232248
8192.000000;0.232260
8191.000000;0.232313
8190.000000;0.232262
8189.000000;0.232048
8188.000000;0.231681
8187.000000;0.231236
8186.000000;0.230847
8185.000000;0.230601
8184.000000;0.230453
8183.000000;0.230316
8182.000000;0.230208
8181.000000;0.230188
8180.000000;0.230190
8179.000000;0.230061
8178.000000;0.229765
8177.000000;0.229429
8176.000000;0.229166
8175.000000;0.228982
8174.000000;0.228842
8173.000000;0.228727
8172.000000;0.228597
8171.000000;0.228421
8170.000000;0.228246
8169.000000;0.228138
8168.000000;0.228067
8167.000000;0.227927
8166.000000;0.227690
8165.000000;0.227427
8164.000000;0.227195
8163.000000;0.227005
8162.000000;0.226873
8161.000000;0.226798
8160.000000;0.226701
8159.000000;0.226496
8158.000000;0.226218
8157.000000;0.225984
8156.000000;0.225845
8155.000000;0.225750
8154.000000;0.225655
8153.000000;0.225550
8152.000000;0.225401
8151.000000;0.225166
8150.000000;0.224872
8149.000000;0.224594
8148.000000;0.224360
8147.000000;0.224149
8146.000000;0.223950
8145.000000;0.223748
8144.000000;0.223484
8143.000000;0.223144
8142.000000;0.222820
8141.000000;0.222605
8140.000000;0.222442
8139.000000;0.222221
8138.000000;0.221961
8137.000000;0.221779
8136.000000;0.221708
8135.000000;0.221670
8134.000000;0.221623
8133.000000;0.221591
8132.000000;0.221542
8131.000000;0.221394
8130.000000;0.221145
8129.000000;0.220896
8128.000000;0.220727
8127.000000;0.220624
8126.000000;0.220536
8125.000000;0.220421
8124.000000;0.220246
8123.000000;0.220022
8122.000000;0.219817
8121.000000;0.219679
8120.000000;0.219550
8119.000000;0.219343
8118.000000;0.219059
8117.000000;0.218754
8116.000000;0.218458
8115.000000;0.218182
8114.000000;0.217975
8113.000000;0.217861
8112.000000;0.217768
8111.000000;0.217623
8110.000000;0.217447
8109.000000;0.217272
8108.000000;0.217041
8107.000000;0.216721
8106.000000;0.216426
8105.000000;0.216282
8104.000000;0.216228
8103.000000;0.216092
8102.000000;0.215852
8101.000000;0.215635
8100.000000;0.215501
8099.000000;0.215367
8098.000000;0.215168
8097.000000;0.214939
8096.000000;0.214725
8095.000000;0.214520
8094.000000;0.214324
8093.000000;0.214158
8092.000000;0.214014
8091.000000;0.213874
8090.000000;0.213756
8089.000000;0.213656
8088.000000;0.213493
8087.000000;0.213209
8086.000000;0.212889
8085.000000;0.212668
8084.000000;0.212558
8083.000000;0.212457
8082.000000;0.212309
8081.000000;0.212136
8080.000000;0.211944
8079.000000;0.211720
8078.000000;0.211495
8077.000000;0.211305
8076.000000;0.211118
8075.000000;0.210899
8074.000000;0.210701
8073.000000;0.210588
8072.000000;0.210513
8071.000000;0.210386
8070.000000;0.210221
8069.000000;0.210083
8068.000000;0.209936
8067.000000;0.209696
8066.000000;0.209396
8065.000000;0.209140
8064.000000;0.208935
8063.000000;0.208693
8062.000000;0.208397
8061.000000;0.208121
8060.000000;0.207892
8059.000000;0.207670
8058.000000;0.207447
8057.000000;0.207250
8056.000000;0.207062
8055.000000;0.206849
8054.000000;0.206649
8053.000000;0.206525
8052.000000;0.206439
8051.000000;0.206300
8050.000000;0.206112
8049.000000;0.205942
8048.000000;0.205776
8047.000000;0.205541
8046.000000;0.205260
8045.000000;0.205030
8044.000000;0.204861
8043.000000;0.204675
8042.000000;0.204459
8041.000000;0.204288
8040.000000;0.204176
8039.000000;0.204052
8038.000000;0.203885
8037.000000;0.203718
8036.000000;0.203564
8035.000000;0.203377
8034.000000;0.203155
8033.000000;0.202950
8032.000000;0.202770
8031.000000;0.202570
8030.000000;0.202345
8029.000000;0.202136
8028.000000;0.201948
8027.000000;0.201747
8026.000000;0.201543
8025.000000;0.201377
8024.000000;0.201232
8023.000000;0.201063
8022.000000;0.200882
8021.000000;0.200717
8020.000000;0.200536
8019.000000;0.200293
8018.000000;0.200044
8017.000000;0.199866
8016.000000;0.199720
8015.000000;0.199506
8014.000000;0.199246
8013.000000;0.199059
8012.000000;0.198965
8011.000000;0.198865
8010.000000;0.198693
8009.000000;0.198483
8008.000000;0.198252
8007.000000;0.197983
8006.000000;0.197714
8005.000000;0.197525
8004.000000;0.197405
8003.000000;0.197248
8002.000000;0.197016
8001.000000;0.196784
8000.000000;0.196618
7999.000000;0.196505
7998.000000;0.196421
7997.000000;0.196358
7996.000000;0.196260
7995.000000;0.196040
7994.000000;0.195700
7993.000000;0.195350
7992.000000;0.195081
7991.000000;0.194894
7990.000000;0.194748
7989.000000;0.194609
7988.000000;0.194425
7987.000000;0.194164
7986.000000;0.193867
7985.000000;0.193598
7984.000000;0.193352
7983.000000;0.193078
7982.000000;0.192790
7981.000000;0.192560
7980.000000;0.192398
7979.000000;0.192246
7978.000000;0.192076
7977.000000;0.191910
7976.000000;0.191743
7975.000000;0.191535
7974.000000;0.191294
7973.000000;0.191077
7972.000000;0.190896
7971.000000;0.190703
7970.000000;0.190469
7969.000000;0.190225
7968.000000;0.190012
7967.000000;0.189855
7966.000000;0.189771
7965.000000;0.189727
7964.000000;0.189635
7963.000000;0.189444
7962.000000;0.189219
7961.000000;0.189047
7960.000000;0.188899
7959.000000;0.188679
7958.000000;0.188382
7957.000000;0.188094
7956.000000;0.187860
7955.000000;0.187658
7954.000000;0.187479
7953.000000;0.187340
7952.000000;0.187217
7951.000000;0.187059
7950.000000;0.186872
7949.000000;0.186696
7948.000000;0.186527
7947.000000;0.186328
7946.000000;0.186108
7945.000000;0.185919
7944.000000;0.185758
7943.000000;0.185577
7942.000000;0.185357
7941.000000;0.185117
7940.000000;0.184881
7939.000000;0.184676
7938.000000;0.184558
7937.000000;0.184526
7936.000000;0.184480
7935.000000;0.184319
7934.000000;0.184071
7933.000000;0.183833
7932.000000;0.183618
7931.000000;0.183373
7930.000000;0.183097
7929.000000;0.182852
7928.000000;0.182674
7927.000000;0.182548
7926.000000;0.182459
7925.000000;0.182371
7924.000000;0.182208
7923.000000;0.181942
7922.000000;0.181665
7921.000000;0.181484
7920.000000;0.181360
7919.000000;0.181177
7918.000000;0.180922
7917.000000;0.180689
7916.000000;0.180523
7915.000000;0.180382
7914.000000;0.180227
7913.000000;0.180064
7912.000000;0.179886
7911.000000;0.179678
7910.000000;0.179466
7909.000000;0.179277
7908.000000;0.179078
7907.000000;0.178832
7906.000000;0.178590
7905.000000;0.178429
7904.000000;0.178314
7903.000000;0.178145
7902.000000;0.177910
7901.000000;0.177700
7900.000000;0.177562
7899.000000;0.177459
7898.000000;0.177365
7897.000000;0.177299
7896.000000;0.177256
7895.000000;0.177192
7894.000000;0.177075
7893.000000;0.176889
7892.000000;0.176599
7891.000000;0.176205
7890.000000;0.175810
7889.000000;0.175537
7888.000000;0.175391
7887.000000;0.175273
7886.000000;0.175121
7885.000000;0.174957
7884.000000;0.174804
7883.000000;0.174652
7882.000000;0.174489
7881.000000;0.174310
7880.000000;0.174101
7879.000000;0.173867
7878.000000;0.173666
7877.000000;0.173546
7876.000000;0.173475
7875.000000;0.173394
7874.000000;0.173292
7873.000000;0.173172
7872.000000;0.172995
7871.000000;0.172736
7870.000000;0.172448
7869.000000;0.172193
7868.000000;0.171957
7867.000000;0.171707
7866.000000;0.171479
7865.000000;0.171316
7864.000000;0.171180
7863.000000;0.171023
7862.000000;0.170882
7861.000000;0.170800
7860.000000;0.170728
7859.000000;0.170598
7858.000000;0.170441
7857.000000;0.170327
7856.000000;0.170220
7855.000000;0.170033
7854.000000;0.169781
7853.000000;0.169564
7852.000000;0.169420
7851.000000;0.169311
7850.000000;0.169228
7849.000000;0.169180
7848.000000;0.169107
7847.000000;0.168931
7846.000000;0.168677
7845.000000;0.168453
7844.000000;0.168292
7843.000000;0.168136
7842.000000;0.167953
7841.000000;0.167767
7840.000000;0.167583
7839.000000;0.167384
7838.000000;0.167191
7837.000000;0.167040
7836.000000;0.166909
7835.000000;0.166754
7834.000000;0.166594
7833.000000;0.166467
7832.000000;0.166347
7831.000000;0.166173
7830.000000;0.165953
7829.000000;0.165734
7828.000000;0.165515
7827.000000;0.165293
7826.000000;0.165149
7825.000000;0.165156
7824.000000;0.165236
7823.000000;0.165214
7822.000000;0.165024
7821.000000;0.164757
7820.000000;0.164516
7819.000000;0.164322
7818.000000;0.164157
7817.000000;0.164001
7816.000000;0.163815
7815.000000;0.163589
7814.000000;0.163393
7813.000000;0.163300
7812.000000;0.163279
7811.000000;0.163248
7810.000000;0.163183
7809.000000;0.163109
7808.000000;0.162999
7807.000000;0.162799
7806.000000;0.162529
7805.000000;0.162270
7804.000000;0.162053
7803.000000;0.161859
7802.000000;0.161700
7801.000000;0.161601
7800.000000;0.161531
7799.000000;0.161438
7798.000000;0.161332
7797.000000;0.161243
7796.000000;0.161130
7795.000000;0.160937
7794.000000;0.160717
7793.000000;0.160571
7792.000000;0.160500
7791.000000;0.160423
7790.000000;0.160304
7789.000000;0.160168
7788.000000;0.160014
7787.000000;0.159818
7786.000000;0.159618
7785.000000;0.159475
7784.000000;0.159362
7783.000000;0.159204
7782.000000;0.159023
7781.000000;0.158916
7780.000000;0.158899
7779.000000;0.158864
7778.000000;0.158731
7777.000000;0.158537
7776.000000;0.158358
7775.000000;0.158244
7774.000000;0.158211
7773.000000;0.158226
7772.000000;0.158195
7771.000000;0.158044
7770.000000;0.157823
7769.000000;0.157654
7768.000000;0.157579
7767.000000;0.157534
7766.000000;0.157460
7765.000000;0.157354
7764.000000;0.157224
7763.000000;0.157076
7762.000000;0.156940
7761.000000;0.156831
7760.000000;0.156703
7759.000000;0.156506
7758.000000;0.156284
7757.000000;0.156127
7756.000000;0.156045
7755.000000;0.155962
7754.000000;0.155822
7753.000000;0.155629
7752.000000;0.155395
7751.000000;0.155157
7750.000000;0.155004
7749.000000;0.154995
7748.000000;0.155055
7747.000000;0.155042
7746.000000;0.154900
7745.000000;0.154700
7744.000000;0.154519
7743.000000;0.154382
7742.000000;0.154290
7741.000000;0.154233
7740.000000;0.154178
7739.000000;0.154115
7738.000000;0.154086
7737.000000;0.154110
7736.000000;0.154106
7735.000000;0.153978
7734.000000;0.153755
7733.000000;0.153557
7732.000000;0.153442
7731.000000;0.153365
7730.000000;0.153283
7729.000000;0.153203
7728.000000;0.153133
7727.000000;0.153056
7726.000000;0.152964
7725.000000;0.152855
7724.000000;0.152707
7723.000000;0.152515
7722.000000;0.152342
7721.000000;0.152259
7720.000000;0.152267
7719.000000;0.152317
7718.000000;0.152372
7717.000000;0.152397
7716.000000;0.152331
7715.000000;0.152164
7714.000000;0.151988
7713.000000;0.151898
7712.000000;0.151874
7711.000000;0.151836
7710.000000;0.151764
7709.000000;0.151689
7708.000000;0.151609
7707.000000;0.151505
7706.000000;0.151407
7705.000000;0.151360
7704.000000;0.151328
7703.000000;0.151242
7702.000000;0.151115
7701.000000;0.151021
7700.000000;0.150980
7699.000000;0.150946
7698.000000;0.150886
7697.000000;0.150803
7696.000000;0.150704
7695.000000;0.150604
7694.000000;0.150546
7693.000000;0.150539
7692.000000;0.150522
7691.000000;0.150448
7690.000000;0.150368
7689.000000;0.150355
7688.000000;0.150395
7687.000000;0.150421
7686.000000;0.150418
7685.000000;0.150396
7684.000000;0.150325
7683.000000;0.150181
7682.000000;0.150025
7681.000000;0.149928
7680.000000;0.149868
7679.000000;0.149781
7678.000000;0.149683
7677.000000;0.149637
7676.000000;0.149642
7675.000000;0.149640
7674.000000;0.149617
7673.000000;0.149591
7672.000000;0.149537
7671.000000;0.149438
7670.000000;0.149360
7669.000000;0.149372
7668.000000;0.149423
7667.000000;0.149403
7666.000000;0.149307
7665.000000;0.149227
7664.000000;0.149204
7663.000000;0.149190
7662.000000;0.149145
7661.000000;0.149081
7660.000000;0.149003
7659.000000;0.148915
7658.000000;0.148873
7657.000000;0.148929
7656.000000;0.149038
7655.000000;0.149091
7654.000000;0.149053
7653.000000;0.148979
7652.000000;0.148916
7651.000000;0.148866
7650.000000;0.148838
7649.000000;0.148850
7648.000000;0.148880
7647.000000;0.148892
7646.000000;0.148901
7645.000000;0.148934
7644.000000;0.148967
7643.000000;0.148958
7642.000000;0.148929
7641.000000;0.148937
7640.000000;0.148983
7639.000000;0.149029
7638.000000;0.149075
7637.000000;0.149137
7636.000000;0.149177
7635.000000;0.149155
7634.000000;0.149121
7633.000000;0.149160
7632.000000;0.149270
7631.000000;0.149380
7630.000000;0.149459
7629.000000;0.149516
7628.000000;0.149530
7627.000000;0.149474
7626.000000;0.149402
7625.000000;0.149404
7624.000000;0.149478
7623.000000;0.149543
7622.000000;0.149566
7621.000000;0.149603
7620.000000;0.149691
7619.000000;0.149789
7618.000000;0.149833
7617.000000;0.149800
7616.000000;0.149706
7615.000000;0.149615
7614.000000;0.149606
7613.000000;0.149690
7612.000000;0.149779
7611.000000;0.149796
7610.000000;0.149775
7609.000000;0.149799
7608.000000;0.149871
7607.000000;0.149930
7606.000000;0.149951
7605.000000;0.149967
7604.000000;0.150009
7603.000000;0.150099
7602.000000;0.150248
7601.000000;0.150410
7600.000000;0.150484
7599.000000;0.150435
7598.000000;0.150360
7597.000000;0.150373
7596.000000;0.150465
7595.000000;0.150569
7594.000000;0.150689
7593.000000;0.150858
7592.000000;0.151034
7591.000000;0.151139
7590.000000;0.151192
7589.000000;0.151274
7588.000000;0.151401
7587.000000;0.151514
7586.000000;0.151589
7585.000000;0.151656
7584.000000;0.151720
7583.000000;0.151766
7582.000000;0.151821
7581.000000;0.151923
7580.000000;0.152055
7579.000000;0.152172
7578.000000;0.152286
7577.000000;0.152430
7576.000000;0.152573
7575.000000;0.152661
7574.000000;0.152711
7573.000000;0.152783
7572.000000;0.152872
7571.000000;0.152930
7570.000000;0.152968
7569.000000;0.153051
7568.000000;0.153191
7567.000000;0.153337
7566.000000;0.153457
7565.000000;0.153569
7564.000000;0.153689
7563.000000;0.153838
7562.000000;0.154055
7561.000000;0.154337
7560.000000;0.154589
7559.000000;0.154717
7558.000000;0.154761
7557.000000;0.154839
7556.000000;0.154997
7555.000000;0.155182
7554.000000;0.155363
7553.000000;0.155561
7552.000000;0.155767
7551.000000;0.155926
7550.000000;0.156008
7549.000000;0.156048
7548.000000;0.156102
7547.000000;0.156206
7546.000000;0.156361
7545.000000;0.156533
7544.000000;0.156668
7543.000000;0.156761
7542.000000;0.156879
7541.000000;0.157077
7540.000000;0.157330
7539.000000;0.157574
7538.000000;0.157785
7537.000000;0.157953
7536.000000;0.158070
7535.000000;0.158171
7534.000000;0.158344
7533.000000;0.158621
7532.000000;0.158917
7531.000000;0.159140
7530.000000;0.159304
7529.000000;0.159465
7528.000000;0.159627
7527.000000;0.159774
7526.000000;0.159944
7525.000000;0.160163
7524.000000;0.160381
7523.000000;0.160544
7522.000000;0.160689
7521.000000;0.160874
7520.000000;0.161082
7519.000000;0.161267
7518.000000;0.161445
7517.000000;0.161653
7516.000000;0.161873
7515.000000;0.162083
7514.000000;0.162331
7513.000000;0.162661
7512.000000;0.163009
7511.000000;0.163277
7510.000000;0.163450
7509.000000;0.163582
7508.000000;0.163698
7507.000000;0.163812
7506.000000;0.163974
7505.000000;0.164201
7504.000000;0.164421
7503.000000;0.164569
7502.000000;0.164708
7501.000000;0.164939
7500.000000;0.165235
7499.000000;0.165492
7498.000000;0.165677
7497.000000;0.165848
7496.000000;0.166044
7495.000000;0.166268
7494.000000;0.166530
7493.000000;0.166841
7492.000000;0.167167
7491.000000;0.167462
7490.000000;0.167725
7489.000000;0.167974
7488.000000;0.168198
7487.000000;0.168404
7486.000000;0.168636
7485.000000;0.168903
7484.000000;0.169127
7483.000000;0.169259
7482.000000;0.169375
7481.000000;0.169559
7480.000000;0.169784
7479.000000;0.169980
7478.000000;0.170160
7477.000000;0.170375
7476.000000;0.170614
7475.000000;0.170834
7474.000000;0.171050
7473.000000;0.171286
7472.000000;0.171513
7471.000000;0.171708
7470.000000;0.171940
7469.000000;0.172258
7468.000000;0.172587
7467.000000;0.172827
7466.000000;0.173007
7465.000000;0.173222
7464.000000;0.173480
7463.000000;0.173721
7462.000000;0.173953
7461.000000;0.174225
7460.000000;0.174515
7459.000000;0.174757
7458.000000;0.174957
7457.000000;0.175169
7456.000000;0.175391
7455.000000;0.175586
7454.000000;0.175772
7453.000000;0.176004
7452.000000;0.176286
7451.000000;0.176582
7450.000000;0.176877
7449.000000;0.177165
7448.000000;0.177419
7447.000000;0.177640
7446.000000;0.177882
7445.000000;0.178164
7444.000000;0.178423
7443.000000;0.178624
7442.000000;0.178832
7441.000000;0.179101
7440.000000;0.179378
7439.000000;0.179605
7438.000000;0.179837
7437.000000;0.180130
7436.000000;0.180415
7435.000000;0.180593
7434.000000;0.180686
7433.000000;0.180784
7432.000000;0.180916
7431.000000;0.181077
7430.000000;0.181293
7429.000000;0.181563
7428.000000;0.181805
7427.000000;0.181985
7426.000000;0.182182
7425.000000;0.182471
7424.000000;0.182802
7423.000000;0.183104
7422.000000;0.183399
7421.000000;0.183736
7420.000000;0.184072
7419.000000;0.184336
7418.000000;0.184543
7417.000000;0.184743
7416.000000;0.184932
7415.000000;0.185100
7414.000000;0.185296
7413.000000;0.185545
7412.000000;0.185771
7411.000000;0.185932
7410.000000;0.186114
7409.000000;0.186370
7408.000000;0.186585
7407.000000;0.186647
7406.000000;0.186644
7405.000000;0.186765
7404.000000;0.187049
7403.000000;0.187370
7402.000000;0.187651
7401.000000;0.187916
7400.000000;0.188169
7399.000000;0.188400
7398.000000;0.188663
7397.000000;0.188941
7396.000000;0.189102
7395.000000;0.189136
7394.000000;0.189205
7393.000000;0.189324
7392.000000;0.189249
7391.000000;0.188901
7390.000000;0.188661
7389.000000;0.188947
7388.000000;0.189695
7387.000000;0.190542
7386.000000;0.191284
7385.000000;0.191852
7384.000000;0.192120
7383.000000;0.192054
7382.000000;0.191929
7381.000000;0.192130
7380.000000;0.192707
7379.000000;0.193324
7378.000000;0.193642
7377.000000;0.193600
7376.000000;0.193428
7375.000000;0.193468
7374.000000;0.193903
7373.000000;0.194559
7372.000000;0.195020
7371.000000;0.195015
7370.000000;0.194710
7369.000000;0.194472
7368.000000;0.194456
7367.000000;0.194691
7366.000000;0.195235
7365.000000;0.195904
7364.000000;0.196226
7363.000000;0.196014
7362.000000;0.195671
7361.000000;0.195797
7360.000000;0.196546
7359.000000;0.197488
7358.000000;0.198041
7357.000000;0.197969
7356.000000;0.197563
7355.000000;0.197400
7354.000000;0.197914
7353.000000;0.198970
7352.000000;0.199958
7351.000000;0.200360
7350.000000;0.200256
7349.000000;0.200156
7348.000000;0.200395
7347.000000;0.200834
7346.000000;0.201131
7345.000000;0.201185
7344.000000;0.201222
7343.000000;0.201571
7342.000000;0.202348
7341.000000;0.203320
7340.000000;0.204123
7339.000000;0.204598
7338.000000;0.204884
7337.000000;0.205073
7336.000000;0.205099
7335.000000;0.205002
7334.000000;0.205060
7333.000000;0.205519
7332.000000;0.206285
7331.000000;0.206921
7330.000000;0.207059
7329.000000;0.206879
7328.000000;0.207001
7327.000000;0.207701
7326.000000;0.208529
7325.000000;0.208939
7324.000000;0.208904
7323.000000;0.208851
7322.000000;0.209212
7321.000000;0.210040
7320.000000;0.210993
7319.000000;0.211710
7318.000000;0.212271
7317.000000;0.213008
7316.000000;0.213930
7315.000000;0.214645
7314.000000;0.214858
7313.000000;0.214887
7312.000000;0.215454
7311.000000;0.216806
7310.000000;0.218276
7309.000000;0.218959
7308.000000;0.218728
7307.000000;0.218313
7306.000000;0.218494
7305.000000;0.219491
7304.000000;0.220945
7303.000000;0.222165
7302.000000;0.222649
7301.000000;0.222526
7300.000000;0.222511
7299.000000;0.223312
7298.000000;0.224888
7297.000000;0.226415
7296.000000;0.227108
7295.000000;0.227132
7294.000000;0.227402
7293.000000;0.228467
7292.000000;0.230019
7291.000000;0.231468
7290.000000;0.232604
7289.000000;0.233651
7288.000000;0.234862
7287.000000;0.236182
7286.000000;0.237331
7285.000000;0.238196
7284.000000;0.238974
7283.000000;0.239858
7282.000000;0.240873
7281.000000;0.241929
7280.000000;0.242951
7279.000000;0.243993
7278.000000;0.245150
7277.000000;0.246429
7276.000000;0.247777
7275.000000;0.249145
7274.000000;0.250511
7273.000000;0.251905
7272.000000;0.253335
7271.000000;0.254717
7270.000000;0.255957
7269.000000;0.257131
7268.000000;0.258453
7267.000000;0.260046
7266.000000;0.261815
7265.000000;0.263599
7264.000000;0.265377
7263.000000;0.267198
7262.000000;0.268996
7261.000000;0.270622
7260.000000;0.272033
7259.000000;0.273361
7258.000000;0.274813
7257.000000;0.276516
7256.000000;0.278431
7255.000000;0.280432
7254.000000;0.282501
7253.000000;0.284673
7252.000000;0.286797
7251.000000;0.288667
7250.000000;0.290306
7249.000000;0.291973
7248.000000;0.294025
7247.000000;0.296571
7246.000000;0.299241
7245.000000;0.301508
7244.000000;0.303376
7243.000000;0.305452
7242.000000;0.308153
7241.000000;0.311132
7240.000000;0.313777
7239.000000;0.315930
7238.000000;0.317973
7237.000000;0.320388
7236.000000;0.323231
7235.000000;0.326090
7234.000000;0.328680
7233.000000;0.331175
7232.000000;0.333849
7231.000000;0.336763
7230.000000;0.339730
7229.000000;0.342482
7228.000000;0.345045
7227.000000;0.347750
7226.000000;0.350821
7225.000000;0.354119
7224.000000;0.357363
7223.000000;0.360401
7222.000000;0.363228
7221.000000;0.365997
7220.000000;0.369038
7219.000000;0.372551
7218.000000;0.376360
7217.000000;0.380101
7216.000000;0.383591
7215.000000;0.386878
7214.000000;0.390121
7213.000000;0.393473
7212.000000;0.397033
7211.000000;0.400871
7210.000000;0.404975
7209.000000;0.409212
7208.000000;0.413442
7207.000000;0.417634
7206.000000;0.421835
7205.000000;0.426118
7204.000000;0.430505
7203.000000;0.434884
7202.000000;0.439047
7201.000000;0.442964
7200.000000;0.446883
7199.000000;0.451068
7198.000000;0.455521
7197.000000;0.460084
7196.000000;0.464703
7195.000000;0.469470
7194.000000;0.474371
7193.000000;0.479245
7192.000000;0.483956
7191.000000;0.488558
7190.000000;0.493181
7189.000000;0.497941
7188.000000;0.502934
7187.000000;0.508219
7186.000000;0.513717
7185.000000;0.519086
7184.000000;0.523942
7183.000000;0.528352
7182.000000;0.532929
7181.000000;0.538236
7180.000000;0.544219
7179.000000;0.550369
7178.000000;0.556255
7177.000000;0.561824
7176.000000;0.567269
7175.000000;0.572735
7174.000000;0.578221
7173.000000;0.583717
7172.000000;0.589266
7171.000000;0.594952
7170.000000;0.600822
7169.000000;0.606892
7168.000000;0.613019
7167.000000;0.618994
7166.000000;0.624867
7165.000000;0.630775
7164.000000;0.636526
7163.000000;0.641767
7162.000000;0.646661
7161.000000;0.651927
7160.000000;0.658042
7159.000000;0.664717
7158.000000;0.671322
7157.000000;0.677562
7156.000000;0.683599
7155.000000;0.689629
7154.000000;0.695660
7153.000000;0.701693
7152.000000;0.707736
7151.000000;0.713808
7150.000000;0.720006
7149.000000;0.726341
7148.000000;0.732522
7147.000000;0.738292
7146.000000;0.743909
7145.000000;0.749951
7144.000000;0.756645
7143.000000;0.763562
7142.000000;0.770076
7141.000000;0.775941
7140.000000;0.781431
7139.000000;0.787046
7138.000000;0.793088
7137.000000;0.799444
7136.000000;0.805746
7135.000000;0.811782
7134.000000;0.817702
7133.000000;0.823775
7132.000000;0.829955
7131.000000;0.835958
7130.000000;0.841687
7129.000000;0.847313
7128.000000;0.853007
7127.000000;0.858786
7126.000000;0.864568
7125.000000;0.870228
7124.000000;0.875689
7123.000000;0.881120
7122.000000;0.886841
7121.000000;0.892799
7120.000000;0.898460
7119.000000;0.903489
7118.000000;0.908297
7117.000000;0.913520
7116.000000;0.919234
7115.000000;0.925026
7114.000000;0.930603
7113.000000;0.935920
7112.000000;0.940977
7111.000000;0.945896
7110.000000;0.951007
7109.000000;0.956480
7108.000000;0.961925
7107.000000;0.966761
7106.000000;0.971012
7105.000000;0.975213
7104.000000;0.979593
7103.000000;0.984028
7102.000000;0.988584
7101.000000;0.993407
7100.000000;0.998278
7099.000000;1.002809
7098.000000;1.007020
7097.000000;1.011262
7096.000000;1.015662
7095.000000;1.020125
7094.000000;1.024742
7093.000000;1.029648
7092.000000;1.034534
7091.000000;1.038887
7090.000000;1.042711
7089.000000;1.046506
7088.000000;1.050515
7087.000000;1.054507
7086.000000;1.058301
7085.000000;1.061951
7084.000000;1.065377
7083.000000;1.068411
7082.000000;1.071256
7081.000000;1.074394
7080.000000;1.078035
7079.000000;1.082041
7078.000000;1.086233
7077.000000;1.090424
7076.000000;1.094216
7075.000000;1.097210
7074.000000;1.099492
7073.000000;1.101558
7072.000000;1.103761
7071.000000;1.106175
7070.000000;1.108876
7069.000000;1.111923
7068.000000;1.115084
7067.000000;1.118019
7066.000000;1.120796
7065.000000;1.123797
7064.000000;1.127053
7063.000000;1.130115
7062.000000;1.132642
7061.000000;1.134697
7060.000000;1.136495
7059.000000;1.138220
7058.000000;1.140022
7057.000000;1.141936
7056.000000;1.143888
7055.000000;1.145943
7054.000000;1.148394
7053.000000;1.151369
7052.000000;1.154501
7051.000000;1.157285
7050.000000;1.159594
7049.000000;1.161513
7048.000000;1.162971
7047.000000;1.163972
7046.000000;1.164969
7045.000000;1.166502
7044.000000;1.168529
7043.000000;1.170528
7042.000000;1.172133
7041.000000;1.173303
7040.000000;1.174102
7039.000000;1.174746
7038.000000;1.175629
7037.000000;1.176950
7036.000000;1.178486
7035.000000;1.180018
7034.000000;1.181675
7033.000000;1.183548
7032.000000;1.185357
7031.000000;1.186930
7030.000000;1.188614
7029.000000;1.190662
7028.000000;1.192645
7027.000000;1.194048
7026.000000;1.195038
7025.000000;1.196025
7024.000000;1.196875
7023.000000;1.197316
7022.000000;1.197780
7021.000000;1.198941
7020.000000;1.200622
7019.000000;1.202007
7018.000000;1.202888
7017.000000;1.203893
7016.000000;1.205370
7015.000000;1.206756
7014.000000;1.207268
7013.000000;1.206734
7012.000000;1.205652
7011.000000;1.204842
7010.000000;1.205057
7009.000000;1.206482
7008.000000;1.208537
7007.000000;1.210363
7006.000000;1.211490
7005.000000;1.211900
7004.000000;1.211748
7003.000000;1.211374
7002.000000;1.211250
7001.000000;1.211557
7000.000000;1.212028
6999.000000;1.212521
6998.000000;1.213318
6997.000000;1.214448
6996.000000;1.215231
6995.000000;1.215069
6994.000000;1.214316
6993.000000;1.213822
6992.000000;1.213980
6991.000000;1.214663
6990.000000;1.215682
6989.000000;1.216755
6988.000000;1.217414
6987.000000;1.217568
6986.000000;1.217757
6985.000000;1.218287
6984.000000;1.218591
6983.000000;1.218150
6982.000000;1.217503
6981.000000;1.217544
6980.000000;1.218229
6979.000000;1.218837
6978.000000;1.219090
6977.000000;1.219197
6976.000000;1.219116
6975.000000;1.218705
6974.000000;1.218316
6973.000000;1.218369
6972.000000;1.218513
6971.000000;1.218066
6970.000000;1.217122
6969.000000;1.216391
6968.000000;1.216083
6967.000000;1.215791
6966.000000;1.215353
6965.000000;1.214924
6964.000000;1.214336
6963.000000;1.213338
6962.000000;1.212429
6961.000000;1.212496
6960.000000;1.213533
6959.000000;1.214505
6958.000000;1.214611
6957.000000;1.214006
6956.000000;1.213166
6955.000000;1.212262
6954.000000;1.211370
6953.000000;1.210656
6952.000000;1.210168
6951.000000;1.209859
6950.000000;1.209841
6949.000000;1.210130
6948.000000;1.210211
6947.000000;1.209483
6946.000000;1.208180
6945.000000;1.207214
6944.000000;1.206975
6943.000000;1.206865
6942.000000;1.206159
6941.000000;1.204780
6940.000000;1.203088
6939.000000;1.201425
6938.000000;1.200083
6937.000000;1.199300
6936.000000;1.199073
6935.000000;1.199207
6934.000000;1.199564
6933.000000;1.199998
6932.000000;1.200107
6931.000000;1.199447
6930.000000;1.198065
6929.000000;1.196510
6928.000000;1.195242
6927.000000;1.194300
6926.000000;1.193502
6925.000000;1.192725
6924.000000;1.191934
6923.000000;1.191171
6922.000000;1.190556
6921.000000;1.190132
6920.000000;1.189784
6919.000000;1.189405
6918.000000;1.188971
6917.000000;1.188388
6916.000000;1.187568
6915.000000;1.186766
6914.000000;1.186393
6913.000000;1.186295
6912.000000;1.185727
6911.000000;1.184361
6910.000000;1.182837
6909.000000;1.181868
6908.000000;1.181360
6907.000000;1.180838
6906.000000;1.180241
6905.000000;1.179691
6904.000000;1.178876
6903.000000;1.177441
6902.000000;1.175771
6901.000000;1.174676
6900.000000;1.174403
6899.000000;1.174541
6898.000000;1.174686
6897.000000;1.174628
6896.000000;1.174059
6895.000000;1.172762
6894.000000;1.171072
6893.000000;1.169640
6892.000000;1.168735
6891.000000;1.168170
6890.000000;1.167750
6889.000000;1.167351
6888.000000;1.166739
6887.000000;1.165792
6886.000000;1.164752
6885.000000;1.163847
6884.000000;1.162838
6883.000000;1.161406
6882.000000;1.159820
6881.000000;1.158678
6880.000000;1.158090
6879.000000;1.157590
6878.000000;1.156770
6877.000000;1.155601
6876.000000;1.154254
6875.000000;1.152975
6874.000000;1.152063
6873.000000;1.151584
6872.000000;1.151200
6871.000000;1.150540
6870.000000;1.149621
6869.000000;1.148643
6868.000000;1.147647
6867.000000;1.146680
6866.000000;1.145962
6865.000000;1.145513
6864.000000;1.144908
6863.000000;1.143777
6862.000000;1.142291
6861.000000;1.140787
6860.000000;1.139259
6859.000000;1.137655
6858.000000;1.136287
6857.000000;1.135417
6856.000000;1.134699
6855.000000;1.133581
6854.000000;1.132066
6853.000000;1.130596
6852.000000;1.129383
6851.000000;1.128325
6850.000000;1.127381
6849.000000;1.126510
6848.000000;1.125438
6847.000000;1.123977
6846.000000;1.122426
6845.000000;1.121119
6844.000000;1.119756
6843.000000;1.117741
6842.000000;1.115113
6841.000000;1.112595
6840.000000;1.110714
6839.000000;1.109372
6838.000000;1.108239
6837.000000;1.107101
6836.000000;1.105785
6835.000000;1.104129
6834.000000;1.102129
6833.000000;1.099926
6832.000000;1.097671
6831.000000;1.095580
6830.000000;1.093906
6829.000000;1.092570
6828.000000;1.091025
6827.000000;1.088837
6826.000000;1.086254
6825.000000;1.083861
6824.000000;1.081834
6823.000000;1.079909
6822.000000;1.077873
6821.000000;1.075714
6820.000000;1.073432
6819.000000;1.071106
6818.000000;1.069033
6817.000000;1.067386
6816.000000;1.065822
6815.000000;1.063803
6814.000000;1.061208
6813.000000;1.058346
6812.000000;1.055506
6811.000000;1.052842
6810.000000;1.050557
6809.000000;1.048722
6808.000000;1.046982
6807.000000;1.044820
6806.000000;1.042157
6805.000000;1.039373
6804.000000;1.036760
6803.000000;1.034243
6802.000000;1.031634
6801.000000;1.028858
6800.000000;1.025926
6799.000000;1.022916
6798.000000;1.019985
6797.000000;1.017211
6796.000000;1.014489
6795.000000;1.011725
6794.000000;1.009023
6793.000000;1.006504
6792.000000;1.004088
6791.000000;1.001660
6790.000000;0.999285
6789.000000;0.997036
6788.000000;0.994736
6787.000000;0.992163
6786.000000;0.989382
6785.000000;0.986604
6784.000000;0.983816
6783.000000;0.980821
6782.000000;0.977578
6781.000000;0.974282
6780.000000;0.971177
6779.000000;0.968420
6778.000000;0.966037
6777.000000;0.963796
6776.000000;0.961292
6775.000000;0.958365
6774.000000;0.955334
6773.000000;0.952604
6772.000000;0.950166
6771.000000;0.947680
6770.000000;0.944914
6769.000000;0.941870
6768.000000;0.938633
6767.000000;0.935354
6766.000000;0.932274
6765.000000;0.929510
6764.000000;0.926889
6763.000000;0.924191
6762.000000;0.921461
6761.000000;0.918876
6760.000000;0.916400
6759.000000;0.913790
6758.000000;0.910896
6757.000000;0.907778
6756.000000;0.904580
6755.000000;0.901452
6754.000000;0.898531
6753.000000;0.895826
6752.000000;0.893169
6751.000000;0.890392
6750.000000;0.887477
6749.000000;0.884489
6748.000000;0.881488
6747.000000;0.878587
6746.000000;0.875889
6745.000000;0.873276
6744.000000;0.870464
6743.000000;0.867412
6742.000000;0.864454
6741.000000;0.861871
6740.000000;0.859540
6739.000000;0.857173
6738.000000;0.854659
6737.000000;0.851973
6736.000000;0.848953
6735.000000;0.845513
6734.000000;0.841930
6733.000000;0.838649
6732.000000;0.835848
6731.000000;0.833381
6730.000000;0.831040
6729.000000;0.828655
6728.000000;0.826066
6727.000000;0.823229
6726.000000;0.820302
6725.000000;0.817454
6724.000000;0.814652
6723.000000;0.811812
6722.000000;0.809023
6721.000000;0.806418
6720.000000;0.803883
6719.000000;0.801146
6718.000000;0.798119
6717.000000;0.795024
6716.000000;0.792100
6715.000000;0.789463
6714.000000;0.787042
6713.000000;0.784624
6712.000000;0.781967
6711.000000;0.779016
6710.000000;0.775928
6709.000000;0.772953
6708.000000;0.770150
6707.000000;0.767388
6706.000000;0.764713
6705.000000;0.762209
6704.000000;0.759808
6703.000000;0.757349
6702.000000;0.754735
6701.000000;0.751983
6700.000000;0.749149
6699.000000;0.746318
6698.000000;0.743594
6697.000000;0.740992
6696.000000;0.738402
6695.000000;0.735731
6694.000000;0.733024
6693.000000;0.730368
6692.000000;0.727764
6691.000000;0.725166
6690.000000;0.722553
6689.000000;0.719905
6688.000000;0.717202
6687.000000;0.714486
6686.000000;0.711821
6685.000000;0.709157
6684.000000;0.706385
6683.000000;0.703569
6682.000000;0.700942
6681.000000;0.698579
6680.000000;0.696264
6679.000000;0.693774
6678.000000;0.691148
6677.000000;0.688531
6676.000000;0.685940
6675.000000;0.683331
6674.000000;0.680741
6673.000000;0.678221
6672.000000;0.675728
6671.000000;0.673223
6670.000000;0.670769
6669.000000;0.668398
6668.000000;0.666010
6667.000000;0.663525
6666.000000;0.661022
6665.000000;0.658610
6664.000000;0.656263
6663.000000;0.653895
6662.000000;0.651465
6661.000000;0.648914
6660.000000;0.646154
6659.000000;0.643259
6658.000000;0.640520
6657.000000;0.638143
6656.000000;0.636018
6655.000000;0.633906
6654.000000;0.631721
6653.000000;0.629463
6652.000000;0.627056
6651.000000;0.624451
6650.000000;0.621778
6649.000000;0.619208
6648.000000;0.616730
6647.000000;0.614240
6646.000000;0.611767
6645.000000;0.609414
6644.000000;0.607155
6643.000000;0.604891
6642.000000;0.602627
6641.000000;0.600413
6640.000000;0.598166
6639.000000;0.595752
6638.000000;0.593224
6637.000000;0.590789
6636.000000;0.588533
6635.000000;0.586351
6634.000000;0.584134
6633.000000;0.581897
6632.000000;0.579683
6631.000000;0.577484
6630.000000;0.575265
6629.000000;0.572990
6628.000000;0.570619
6627.000000;0.568174
6626.000000;0.565771
6625.000000;0.563507
6624.000000;0.561340
6623.000000;0.559170
6622.000000;0.556979
6621.000000;0.554800
6620.000000;0.552592
6619.000000;0.550298
6618.000000;0.547967
6617.000000;0.545713
6616.000000;0.543554
6615.000000;0.541389
6614.000000;0.539144
6613.000000;0.536841
6612.000000;0.534534
6611.000000;0.532261
6610.000000;0.530065
6609.000000;0.527982
6608.000000;0.526003
6607.000000;0.524082
6606.000000;0.522170
6605.000000;0.520213
6604.000000;0.518161
6603.000000;0.516021
6602.000000;0.513863
6601.000000;0.511726
6600.000000;0.509577
6599.000000;0.507405
6598.000000;0.505293
6597.000000;0.503310
6596.000000;0.501410
6595.000000;0.499496
6594.000000;0.497538
6593.000000;0.495551
6592.000000;0.493522
6591.000000;0.491442
6590.000000;0.489369
6589.000000;0.487350
6588.000000;0.485343
6587.000000;0.483268
6586.000000;0.481125
6585.000000;0.478991
6584.000000;0.476923
6583.000000;0.474931
6582.000000;0.473011
6581.000000;0.471132
6580.000000;0.469231
6579.000000;0.467272
6578.000000;0.465292
6577.000000;0.463347
6576.000000;0.461456
6575.000000;0.459630
6574.000000;0.457873
6573.000000;0.456106
6572.000000;0.454177
6571.000000;0.452035
6570.000000;0.449839
6569.000000;0.447804
6568.000000;0.445977
6567.000000;0.444235
6566.000000;0.442452
6565.000000;0.440590
6564.000000;0.438673
6563.000000;0.436744
6562.000000;0.434846
6561.000000;0.432994
6560.000000;0.431175
6559.000000;0.429387
6558.000000;0.427633
6557.000000;0.425874
6556.000000;0.424046
6555.000000;0.422173
6554.000000;0.420364
6553.000000;0.418660
6552.000000;0.416972
6551.000000;0.415226
6550.000000;0.413476
6549.000000;0.411790
6548.000000;0.410107
6547.000000;0.408336
6546.000000;0.406501
6545.000000;0.404694
6544.000000;0.402922
6543.000000;0.401133
6542.000000;0.399336
6541.000000;0.397590
6540.000000;0.395889
6539.000000;0.394160
6538.000000;0.392388
6537.000000;0.390633
6536.000000;0.388938
6535.000000;0.387289
6534.000000;0.385668
6533.000000;0.384067
6532.000000;0.382456
6531.000000;0.380797
6530.000000;0.379088
6529.000000;0.377351
6528.000000;0.375591
6527.000000;0.373810
6526.000000;0.372059
6525.000000;0.370390
6524.000000;0.368799
6523.000000;0.367242
6522.000000;0.365700
6521.000000;0.364165
6520.000000;0.362604
6519.000000;0.360978
6518.000000;0.359319
6517.000000;0.357701
6516.000000;0.356158
6515.000000;0.354670
6514.000000;0.353206
6513.000000;0.351742
6512.000000;0.350241
6511.000000;0.348679
6510.000000;0.347079
6509.000000;0.345489
6508.000000;0.343926
6507.000000;0.342379
6506.000000;0.340835
6505.000000;0.339283
6504.000000;0.337694
6503.000000;0.336066
6502.000000;0.334461
6501.000000;0.332950
6500.000000;0.331531
6499.000000;0.330131
6498.000000;0.328691
6497.000000;0.327211
6496.000000;0.325706
6495.000000;0.324194
6494.000000;0.322699
6493.000000;0.321246
6492.000000;0.319823
6491.000000;0.318382
6490.000000;0.316895
6489.000000;0.315384
6488.000000;0.313897
6487.000000;0.312465
6486.000000;0.311088
6485.000000;0.309743
6484.000000;0.308391
6483.000000;0.306994
6482.000000;0.305547
6481.000000;0.304092
6480.000000;0.302697
6479.000000;0.301382
6478.000000;0.300081
6477.000000;0.298695
6476.000000;0.297216
6475.000000;0.295752
6474.000000;0.294393
6473.000000;0.293101
6472.000000;0.291770
6471.000000;0.290372
6470.000000;0.288975
6469.000000;0.287620
6468.000000;0.286278
6467.000000;0.284922
6466.000000;0.283575
6465.000000;0.282265
6464.000000;0.280981
6463.000000;0.279694
6462.000000;0.278388
6461.000000;0.277046
6460.000000;0.275666
6459.000000;0.274293
6458.000000;0.272987
6457.000000;0.271757
6456.000000;0.270551
6455.000000;0.269333
6454.000000;0.268105
6453.000000;0.266863
6452.000000;0.265585
6451.000000;0.264277
6450.000000;0.262976
6449.000000;0.261686
6448.000000;0.260382
6447.000000;0.259074
6446.000000;0.257808
6445.000000;0.256580
6444.000000;0.255333
6443.000000;0.254060
6442.000000;0.252831
6441.000000;0.251695
6440.000000;0.250600
6439.000000;0.249466
6438.000000;0.248273
6437.000000;0.247040
6436.000000;0.245764
6435.000000;0.244440
6434.000000;0.243108
6433.000000;0.241834
6432.000000;0.240645
6431.000000;0.239515
6430.000000;0.238388
6429.000000;0.237223
6428.000000;0.236028
6427.000000;0.234864
6426.000000;0.233769
6425.000000;0.232694
6424.000000;0.231562
6423.000000;0.230371
6422.000000;0.229184
6421.000000;0.228026
6420.000000;0.226860
6419.000000;0.225683
6418.000000;0.224547
6417.000000;0.223464
6416.000000;0.222372
6415.000000;0.221224
6414.000000;0.220058
6413.000000;0.218932
6412.000000;0.217858
6411.000000;0.216822
6410.000000;0.215829
6409.000000;0.214852
6408.000000;0.213822
6407.000000;0.212703
6406.000000;0.211545
6405.000000;0.210420
6404.000000;0.209351
6403.000000;0.208322
6402.000000;0.207315
6401.000000;0.206294
6400.000000;0.205210
6399.000000;0.204068
6398.000000;0.202944
6397.000000;0.201898
6396.000000;0.200920
6395.000000;0.199962
6394.000000;0.198995
6393.000000;0.197994
6392.000000;0.196928
6391.000000;0.195817
6390.000000;0.194738
6389.000000;0.193734
6388.000000;0.192767
6387.000000;0.191782
6386.000000;0.190775
6385.000000;0.189760
6384.000000;0.188720
6383.000000;0.187647
6382.000000;0.186582
6381.000000;0.185566
6380.000000;0.184587
6379.000000;0.183610
6378.000000;0.182623
6377.000000;0.181631
6376.000000;0.180627
6375.000000;0.179629
6374.000000;0.178674
6373.000000;0.177765
6372.000000;0.176848
6371.000000;0.175893
6370.000000;0.174955
6369.000000;0.174097
6368.000000;0.173291
6367.000000;0.172441
6366.000000;0.171488
6365.000000;0.170451
6364.000000;0.169390
6363.000000;0.168369
6362.000000;0.167431
6361.000000;0.166557
6360.000000;0.165675
6359.000000;0.164735
6358.000000;0.163763
6357.000000;0.162813
6356.000000;0.161909
6355.000000;0.161050
6354.000000;0.160235
6353.000000;0.159447
6352.000000;0.158636
6351.000000;0.157758
6350.000000;0.156827
6349.000000;0.155891
6348.000000;0.154980
6347.000000;0.154108
6346.000000;0.153285
6345.000000;0.152505
6344.000000;0.151734
6343.000000;0.150943
6342.000000;0.150137
6341.000000;0.149328
6340.000000;0.148501
6339.000000;0.147629
6338.000000;0.146715
6337.000000;0.145793
6336.000000;0.144904
6335.000000;0.144082
6334.000000;0.143336
6333.000000;0.142618
6332.000000;0.141853
6331.000000;0.140998
6330.000000;0.140079
6329.000000;0.139144
6328.000000;0.138224
6327.000000;0.137338
6326.000000;0.136507
6325.000000;0.135728
6324.000000;0.134968
6323.000000;0.134195
6322.000000;0.133404
6321.000000;0.132602
6320.000000;0.131797
6319.000000;0.131006
6318.000000;0.130251
6317.000000;0.129526
6316.000000;0.128798
6315.000000;0.128047
6314.000000;0.127273
6313.000000;0.126477
6312.000000;0.125668
6311.000000;0.124884
6310.000000;0.124158
6309.000000;0.123463
6308.000000;0.122734
6307.000000;0.121969
6306.000000;0.121225
6305.000000;0.120528
6304.000000;0.119830
6303.000000;0.119084
6302.000000;0.118298
6301.000000;0.117497
6300.000000;0.116683
6299.000000;0.115869
6298.000000;0.115102
6297.000000;0.114403
6296.000000;0.113740
6295.000000;0.113075
6294.000000;0.112412
6293.000000;0.111756
6292.000000;0.111076
6291.000000;0.110352
6290.000000;0.109608
6289.000000;0.108875
6288.000000;0.108144
6287.000000;0.107392
6286.000000;0.106632
6285.000000;0.105899
6284.000000;0.105213
6283.000000;0.104577
6282.000000;0.103986
6281.000000;0.103408
6280.000000;0.102796
6279.000000;0.102132
6278.000000;0.101439
6277.000000;0.100728
6276.000000;0.099986
6275.000000;0.099217
6274.000000;0.098474
6273.000000;0.097797
6272.000000;0.097171
6271.000000;0.096556
6270.000000;0.095930
6269.000000;0.095284
6268.000000;0.094607
6267.000000;0.093902
6266.000000;0.093199
6265.000000;0.092515
6264.000000;0.091849
6263.000000;0.091212
6262.000000;0.090635
6261.000000;0.090107
6260.000000;0.089559
6259.000000;0.088934
6258.000000;0.088255
6257.000000;0.087574
6256.000000;0.086912
6255.000000;0.086265
6254.000000;0.085636
6253.000000;0.085019
6252.000000;0.084383
6251.000000;0.083708
6250.000000;0.083017
6249.000000;0.082347
6248.000000;0.081714
6247.000000;0.081120
6246.000000;0.080572
6245.000000;0.080049
6244.000000;0.079505
6243.000000;0.078915
6242.000000;0.078307
6241.000000;0.077709
6240.000000;0.077112
6239.000000;0.076500
6238.000000;0.075890
6237.000000;0.075311
6236.000000;0.074763
6235.000000;0.074230
6234.000000;0.073709
6233.000000;0.073185
6232.000000;0.072615
6231.000000;0.071963
6230.000000;0.071252
6229.000000;0.070542
6228.000000;0.069880
6227.000000;0.069284
6226.000000;0.068748
6225.000000;0.068235
6224.000000;0.067692
6223.000000;0.067096
6222.000000;0.066487
6221.000000;0.065910
6220.000000;0.065365
6219.000000;0.064827
6218.000000;0.064284
6217.000000;0.063748
6216.000000;0.063228
6215.000000;0.062724
6214.000000;0.062230
6213.000000;0.061722
6212.000000;0.061170
6211.000000;0.060567
6210.000000;0.059949
6209.000000;0.059351
6208.000000;0.058781
6207.000000;0.058240
6206.000000;0.057736
6205.000000;0.057262
6204.000000;0.056786
6203.000000;0.056280
6202.000000;0.055745
6201.000000;0.055189
6200.000000;0.054612
6199.000000;0.054022
6198.000000;0.053453
6197.000000;0.052927
6196.000000;0.052426
6195.000000;0.051927
6194.000000;0.051437
6193.000000;0.050974
6192.000000;0.050526
6191.000000;0.050057
6190.000000;0.049546
6189.000000;0.048993
6188.000000;0.048422
6187.000000;0.047871
6186.000000;0.047368
6185.000000;0.046892
6184.000000;0.046394
6183.000000;0.045869
6182.000000;0.045363
6181.000000;0.044912
6180.000000;0.044490
6179.000000;0.044047
6178.000000;0.043560
6177.000000;0.043036
6176.000000;0.042492
6175.000000;0.041958
6174.000000;0.041470
6173.000000;0.041028
6172.000000;0.040580
6171.000000;0.040084
6170.000000;0.039557
6169.000000;0.039057
6168.000000;0.038609
6167.000000;0.038189
6166.000000;0.037758
6165.000000;0.037294
6164.000000;0.036792
6163.000000;0.036270
6162.000000;0.035752
6161.000000;0.035252
6160.000000;0.034761
6159.000000;0.034272
6158.000000;0.033790
6157.000000;0.033321
6156.000000;0.032865
6155.000000;0.032428
6154.000000;0.032012
6153.000000;0.031588
6152.000000;0.031107
6151.000000;0.030554
6150.000000;0.029979
6149.000000;0.029445
6148.000000;0.028962
6147.000000;0.028506
6146.000000;0.028062
6145.000000;0.027631
6144.000000;0.027218
6143.000000;0.026825
6142.000000;0.026445
6141.000000;0.026065
6140.000000;0.025663
6139.000000;0.025238
6138.000000;0.024804
6137.000000;0.024381
6136.000000;0.023967
6135.000000;0.023552
6134.000000;0.023136
6133.000000;0.022719
6132.000000;0.022307
6131.000000;0.021914
6130.000000;0.021542
6129.000000;0.021169
6128.000000;0.020763
6127.000000;0.020332
6126.000000;0.019918
6125.000000;0.019549
6124.000000;0.019208
6123.000000;0.018862
6122.000000;0.018492
6121.000000;0.018096
6120.000000;0.017668
6119.000000;0.017206
6118.000000;0.016720
6117.000000;0.016226
6116.000000;0.015748
6115.000000;0.015313
6114.000000;0.014922
6113.000000;0.014545
6112.000000;0.014142
6111.000000;0.013706
6110.000000;0.013256
6109.000000;0.012810
6108.000000;0.012379
6107.000000;0.011988
6106.000000;0.011655
6105.000000;0.011355
6104.000000;0.011040
6103.000000;0.010690
6102.000000;0.010327
6101.000000;0.009963
6100.000000;0.009586
6099.000000;0.009182
6098.000000;0.008750
6097.000000;0.008291
6096.000000;0.007818
6095.000000;0.007369
6094.000000;0.006991
6093.000000;0.006685
6092.000000;0.006404
6091.000000;0.006104
6090.000000;0.005776
6089.000000;0.005435
6088.000000;0.005105
6087.000000;0.004802
6086.000000;0.004515
6085.000000;0.004190
6084.000000;0.003787
6083.000000;0.003348
6082.000000;0.002951
6081.000000;0.002620
6080.000000;0.002298
6079.000000;0.001934
6078.000000;0.001533
6077.000000;0.001127
6076.000000;0.000726
6075.000000;0.000337
6074.000000;-0.000027
6073.000000;-0.000370
6072.000000;-0.000724
6071.000000;-0.001103
6070.000000;-0.001491
6069.000000;-0.001868
6068.000000;-0.002227
6067.000000;-0.002566
6066.000000;-0.002882
6065.000000;-0.003198
6064.000000;-0.003545
6063.000000;-0.003926
6062.000000;-0.004313
6061.000000;-0.004689
6060.000000;-0.005062
6059.000000;-0.005431
6058.000000;-0.005776
6057.000000;-0.006082
6056.000000;-0.006359
6055.000000;-0.006626
6054.000000;-0.006899
6053.000000;-0.007198
6052.000000;-0.007540
6051.000000;-0.007901
6050.000000;-0.008230
6049.000000;-0.008507
6048.000000;-0.008761
6047.000000;-0.009016
6046.000000;-0.009272
6045.000000;-0.009527
6044.000000;-0.009797
6043.000000;-0.010092
6042.000000;-0.010405
6041.000000;-0.010737
6040.000000;-0.011096
6039.000000;-0.011459
6038.000000;-0.011787
6037.000000;-0.012073
6036.000000;-0.012354
6035.000000;-0.012658
6034.000000;-0.012966
6033.000000;-0.013254
6032.000000;-0.013522
6031.000000;-0.013786
6030.000000;-0.014054
6029.000000;-0.014339
6028.000000;-0.014650
6027.000000;-0.014968
6026.000000;-0.015249
6025.000000;-0.015479
6024.000000;-0.015688
6023.000000;-0.015907
6022.000000;-0.016145
6021.000000;-0.016402
6020.000000;-0.016680
6019.000000;-0.016954
6018.000000;-0.017187
6017.000000;-0.017376
6016.000000;-0.017564
6015.000000;-0.017778
6014.000000;-0.018008
6013.000000;-0.018238
6012.000000;-0.018484
6011.000000;-0.018757
6010.000000;-0.019037
6009.000000;-0.019299
6008.000000;-0.019542
6007.000000;-0.019784
6006.000000;-0.020043
6005.000000;-0.020331
6004.000000;-0.020643
6003.000000;-0.020939
6002.000000;-0.021183
6001.000000;-0.021392
6000.000000;-0.021622
5999.000000;-0.021894
5998.000000;-0.022165
5997.000000;-0.022393
5996.000000;-0.022590
5995.000000;-0.022784
5994.000000;-0.022980
5993.000000;-0.023172
5992.000000;-0.023377
5991.000000;-0.023608
5990.000000;-0.023847
5989.000000;-0.024072
5988.000000;-0.024289
5987.000000;-0.024508
5986.000000;-0.024718
5985.000000;-0.024901
5984.000000;-0.025070
5983.000000;-0.025256
5982.000000;-0.025474
5981.000000;-0.025723
5980.000000;-0.025991
5979.000000;-0.026255
5978.000000;-0.026483
5977.000000;-0.026670
5976.000000;-0.026845
5975.000000;-0.027040
5974.000000;-0.027243
5973.000000;-0.027415
5972.000000;-0.027543
5971.000000;-0.027655
5970.000000;-0.027790
5969.000000;-0.027964
5968.000000;-0.028159
5967.000000;-0.028348
5966.000000;-0.028513
5965.000000;-0.028658
5964.000000;-0.028789
5963.000000;-0.028912
5962.000000;-0.029041
5961.000000;-0.029202
5960.000000;-0.029403
5959.000000;-0.029621
5958.000000;-0.029834
5957.000000;-0.030048
5956.000000;-0.030270
5955.000000;-0.030472
5954.000000;-0.030618
5953.000000;-0.030716
5952.000000;-0.030810
5951.000000;-0.030923
5950.000000;-0.031053
5949.000000;-0.031205
5948.000000;-0.031377
5947.000000;-0.031531
5946.000000;-0.031620
5945.000000;-0.031653
5944.000000;-0.031693
5943.000000;-0.031787
5942.000000;-0.031926
5941.000000;-0.032075
5940.000000;-0.032208
5939.000000;-0.032304
5938.000000;-0.032357
5937.000000;-0.032402
5936.000000;-0.032493
5935.000000;-0.032638
5934.000000;-0.032793
5933.000000;-0.032919
5932.000000;-0.033028
5931.000000;-0.033151
5930.000000;-0.033301
5929.000000;-0.033477
5928.000000;-0.033661
5927.000000;-0.033822
5926.000000;-0.033923
5925.000000;-0.033957
5924.000000;-0.033961
5923.000000;-0.033976
5922.000000;-0.034028
5921.000000;-0.034122
5920.000000;-0.034235
5919.000000;-0.034321
5918.000000;-0.034353
5917.000000;-0.034370
5916.000000;-0.034437
5915.000000;-0.034569
5914.000000;-0.034722
5913.000000;-0.034854
5912.000000;-0.034964
5911.000000;-0.035061
5910.000000;-0.035149
5909.000000;-0.035249
5908.000000;-0.035382
5907.000000;-0.035529
5906.000000;-0.035636
5905.000000;-0.035682
5904.000000;-0.035695
5903.000000;-0.035698
5902.000000;-0.035688
5901.000000;-0.035676
5900.000000;-0.035702
5899.000000;-0.035791
5898.000000;-0.035919
5897.000000;-0.036044
5896.000000;-0.036145
5895.000000;-0.036214
5894.000000;-0.036257
5893.000000;-0.036306
5892.000000;-0.036395
5891.000000;-0.036509
5890.000000;-0.036590
5889.000000;-0.036607
5888.000000;-0.036591
5887.000000;-0.036572
5886.000000;-0.036539
5885.000000;-0.036482
5884.000000;-0.036433
5883.000000;-0.036436
5882.000000;-0.036490
5881.000000;-0.036573
5880.000000;-0.036672
5879.000000;-0.036775
5878.000000;-0.036853
5877.000000;-0.036885
5876.000000;-0.036882
5875.000000;-0.036869
5874.000000;-0.036850
5873.000000;-0.036824
5872.000000;-0.036791
5871.000000;-0.036746
5870.000000;-0.036671
5869.000000;-0.036574
5868.000000;-0.036501
5867.000000;-0.036488
5866.000000;-0.036522
5865.000000;-0.036565
5864.000000;-0.036591
5863.000000;-0.036586
5862.000000;-0.036539
5861.000000;-0.036459
5860.000000;-0.036377
5859.000000;-0.036321
5858.000000;-0.036287
5857.000000;-0.036266
5856.000000;-0.036268
5855.000000;-0.036296
5854.000000;-0.036315
5853.000000;-0.036288
5852.000000;-0.036220
5851.000000;-0.036149
5850.000000;-0.036089
5849.000000;-0.036025
5848.000000;-0.035946
5847.000000;-0.035872
5846.000000;-0.035822
5845.000000;-0.035791
5844.000000;-0.035754
5843.000000;-0.035691
5842.000000;-0.035596
5841.000000;-0.035469
5840.000000;-0.035319
5839.000000;-0.035166
5838.000000;-0.035026
5837.000000;-0.034898
5836.000000;-0.034756
5835.000000;-0.034576
5834.000000;-0.034376
5833.000000;-0.034213
5832.000000;-0.034120
5831.000000;-0.034070
5830.000000;-0.034013
5829.000000;-0.033935
5828.000000;-0.033851
5827.000000;-0.033753
5826.000000;-0.033604
5825.000000;-0.033390
5824.000000;-0.033141
5823.000000;-0.032906
5822.000000;-0.032722
5821.000000;-0.032599
5820.000000;-0.032516
5819.000000;-0.032429
5818.000000;-0.032300
5817.000000;-0.032134
5816.000000;-0.031958
5815.000000;-0.031776
5814.000000;-0.031573
5813.000000;-0.031357
5812.000000;-0.031165
5811.000000;-0.031017
5810.000000;-0.030887
5809.000000;-0.030740
5808.000000;-0.030569
5807.000000;-0.030381
5806.000000;-0.030180
5805.000000;-0.029960
5804.000000;-0.029717
5803.000000;-0.029464
5802.000000;-0.029222
5801.000000;-0.029016
5800.000000;-0.028844
5799.000000;-0.028666
5798.000000;-0.028437
5797.000000;-0.028159
5796.000000;-0.027876
5795.000000;-0.027617
5794.000000;-0.027380
5793.000000;-0.027152
5792.000000;-0.026928
5791.000000;-0.026695
5790.000000;-0.026439
5789.000000;-0.026167
5788.000000;-0.025896
5787.000000;-0.025628
5786.000000;-0.025338
5785.000000;-0.025009
5784.000000;-0.024647
5783.000000;-0.024275
5782.000000;-0.023915
5781.000000;-0.023589
5780.000000;-0.023306
5779.000000;-0.023055
5778.000000;-0.022809
5777.000000;-0.022557
5776.000000;-0.022297
5775.000000;-0.022014
5774.000000;-0.021686
5773.000000;-0.021322
5772.000000;-0.020957
5771.000000;-0.020610
5770.000000;-0.020262
5769.000000;-0.019899
5768.000000;-0.019532
5767.000000;-0.019192
5766.000000;-0.018888
5765.000000;-0.018601
5764.000000;-0.018294
5763.000000;-0.017935
5762.000000;-0.017518
5761.000000;-0.017070
5760.000000;-0.016630
5759.000000;-0.016214
5758.000000;-0.015816
5757.000000;-0.015428
5756.000000;-0.015042
5755.000000;-0.014654
5754.000000;-0.014260
5753.000000;-0.013869
5752.000000;-0.013481
5751.000000;-0.013082
5750.000000;-0.012661
5749.000000;-0.012224
5748.000000;-0.011779
5747.000000;-0.011308
5746.000000;-0.010800
5745.000000;-0.010278
5744.000000;-0.009776
5743.000000;-0.009301
5742.000000;-0.008833
5741.000000;-0.008363
5740.000000;-0.007896
5739.000000;-0.007430
5738.000000;-0.006960
5737.000000;-0.006497
5736.000000;-0.006061
5735.000000;-0.005641
5734.000000;-0.005211
5733.000000;-0.004754
5732.000000;-0.004269
5731.000000;-0.003747
5730.000000;-0.003186
5729.000000;-0.002615
5728.000000;-0.002075
5727.000000;-0.001573
5726.000000;-0.001081
5725.000000;-0.000581
5724.000000;-0.000068
5723.000000;0.000472
5722.000000;0.001057
5721.000000;0.001682
5720.000000;0.002309
5719.000000;0.002904
5718.000000;0.003458
5717.000000;0.003987
5716.000000;0.004526
5715.000000;0.005111
5714.000000;0.005747
5713.000000;0.006390
5712.000000;0.006998
5711.000000;0.007574
5710.000000;0.008156
5709.000000;0.008759
5708.000000;0.009369
5707.000000;0.009977
5706.000000;0.010590
5705.000000;0.011212
5704.000000;0.011842
5703.000000;0.012479
5702.000000;0.013122
5701.000000;0.013763
5700.000000;0.014395
5699.000000;0.015028
5698.000000;0.015677
5697.000000;0.016331
5696.000000;0.016980
5695.000000;0.017630
5694.000000;0.018293
5693.000000;0.018956
5692.000000;0.019597
5691.000000;0.020212
5690.000000;0.020800
5689.000000;0.021348
5688.000000;0.021861
5687.000000;0.022394
5686.000000;0.023012
5685.000000;0.023718
5684.000000;0.024462
5683.000000;0.025199
5682.000000;0.025915
5681.000000;0.026606
5680.000000;0.027274
5679.000000;0.027937
5678.000000;0.028608
5677.000000;0.029266
5676.000000;0.029884
5675.000000;0.030467
5674.000000;0.031047
5673.000000;0.031643
5672.000000;0.032261
5671.000000;0.032917
5670.000000;0.033620
5669.000000;0.034341
5668.000000;0.035046
5667.000000;0.035737
5666.000000;0.036433
5665.000000;0.037119
5664.000000;0.037770
5663.000000;0.038394
5662.000000;0.039030
5661.000000;0.039687
5660.000000;0.040341
5659.000000;0.040971
5658.000000;0.041564
5657.000000;0.042102
5656.000000;0.042579
5655.000000;0.043052
5654.000000;0.043597
5653.000000;0.044235
5652.000000;0.044916
5651.000000;0.045580
5650.000000;0.046202
5649.000000;0.046777
5648.000000;0.047315
5647.000000;0.047857
5646.000000;0.048447
5645.000000;0.049081
5644.000000;0.049701
5643.000000;0.050265
5642.000000;0.050785
5641.000000;0.051302
5640.000000;0.051839
5639.000000;0.052384
5638.000000;0.052910
5637.000000;0.053400
5636.000000;0.053870
5635.000000;0.054358
5634.000000;0.054884
5633.000000;0.055430
5632.000000;0.055961
5631.000000;0.056457
5630.000000;0.056916
5629.000000;0.057340
5628.000000;0.057746
5627.000000;0.058166
5626.000000;0.058615
5625.000000;0.059075
5624.000000;0.059513
5623.000000;0.059910
5622.000000;0.060262
5621.000000;0.060582
5620.000000;0.060915
5619.000000;0.061313
5618.000000;0.061773
5617.000000;0.062229
5616.000000;0.062618
5615.000000;0.062937
5614.000000;0.063208
5613.000000;0.063444
5612.000000;0.063666
5611.000000;0.063924
5610.000000;0.064247
5609.000000;0.064604
5608.000000;0.064946
5607.000000;0.065266
5606.000000;0.065584
5605.000000;0.065906
5604.000000;0.066236
5603.000000;0.066578
5602.000000;0.066902
5601.000000;0.067148
5600.000000;0.067305
5599.000000;0.067439
5598.000000;0.067609
5597.000000;0.067793
5596.000000;0.067942
5595.000000;0.068057
5594.000000;0.068169
5593.000000;0.068277
5592.000000;0.068374
5591.000000;0.068488
5590.000000;0.068648
5589.000000;0.068833
5588.000000;0.069001
5587.000000;0.069138
5586.000000;0.069251
5585.000000;0.069335
5584.000000;0.069391
5583.000000;0.069451
5582.000000;0.069533
5581.000000;0.069614
5580.000000;0.069678
5579.000000;0.069745
5578.000000;0.069832
5577.000000;0.069912
5576.000000;0.069961
5575.000000;0.070002
5574.000000;0.070044
5573.000000;0.070058
5572.000000;0.070037
5571.000000;0.070032
5570.000000;0.070073
5569.000000;0.070115
5568.000000;0.070112
5567.000000;0.070091
5566.000000;0.070100
5565.000000;0.070124
5564.000000;0.070116
5563.000000;0.070076
5562.000000;0.070021
5561.000000;0.069941
5560.000000;0.069840
5559.000000;0.069772
5558.000000;0.069771
5557.000000;0.069791
5556.000000;0.069774
5555.000000;0.069721
5554.000000;0.069654
5553.000000;0.069569
5552.000000;0.069481
5551.000000;0.069441
5550.000000;0.069457
5549.000000;0.069457
5548.000000;0.069384
5547.000000;0.069262
5546.000000;0.069124
5545.000000;0.068950
5544.000000;0.068741
5543.000000;0.068580
5542.000000;0.068525
5541.000000;0.068524
5540.000000;0.068491
5539.000000;0.068416
5538.000000;0.068350
5537.000000;0.068324
5536.000000;0.068325
5535.000000;0.068329
5534.000000;0.068309
5533.000000;0.068244
5532.000000;0.068154
5531.000000;0.068083
5530.000000;0.068030
5529.000000;0.067943
5528.000000;0.067803
5527.000000;0.067679
5526.000000;0.067627
5525.000000;0.067599
5524.000000;0.067527
5523.000000;0.067431
5522.000000;0.067367
5521.000000;0.067342
5520.000000;0.067307
5519.000000;0.067240
5518.000000;0.067184
5517.000000;0.067166
5516.000000;0.067164
5515.000000;0.067141
5514.000000;0.067072
5513.000000;0.066991
5512.000000;0.066978
5511.000000;0.067066
5510.000000;0.067179
5509.000000;0.067233
5508.000000;0.067242
5507.000000;0.067265
5506.000000;0.067284
5505.000000;0.067226
5504.000000;0.067138
5503.000000;0.067153
5502.000000;0.067265
5501.000000;0.067335
5500.000000;0.067276
5499.000000;0.067161
5498.000000;0.067175
5497.000000;0.067384
5496.000000;0.067656
5495.000000;0.067830
5494.000000;0.067907
5493.000000;0.068043
5492.000000;0.068297
5491.000000;0.068551
5490.000000;0.068668
5489.000000;0.068650
5488.000000;0.068603
5487.000000;0.068592
5486.000000;0.068607
5485.000000;0.068617
5484.000000;0.068660
5483.000000;0.068803
5482.000000;0.068975
5481.000000;0.069154
5480.000000;0.069516
5479.000000;0.070142
5478.000000;0.070795
5477.000000;0.071166
5476.000000;0.071300
5475.000000;0.071463
5474.000000;0.071675
5473.000000;0.071789
5472.000000;0.071832
5471.000000;0.071948
5470.000000;0.072153
5469.000000;0.072425
5468.000000;0.072807
5467.000000;0.073284
5466.000000;0.073771
5465.000000;0.074261
5464.000000;0.074871
5463.000000;0.075596
5462.000000;0.076170
5461.000000;0.076467
5460.000000;0.076747
5459.000000;0.077185
5458.000000;0.077591
5457.000000;0.077844
5456.000000;0.078178
5455.000000;0.078803
5454.000000;0.079604
5453.000000;0.080341
5452.000000;0.080947
5451.000000;0.081539
5450.000000;0.082234
5449.000000;0.083118
5448.000000;0.084081
5447.000000;0.084829
5446.000000;0.085360
5445.000000;0.086032
5444.000000;0.086982
5443.000000;0.087900
5442.000000;0.088499
5441.000000;0.088956
5440.000000;0.089683
5439.000000;0.090774
5438.000000;0.091930
5437.000000;0.092899
5436.000000;0.093733
5435.000000;0.094586
5434.000000;0.095585
5433.000000;0.096821
5432.000000;0.098168
5431.000000;0.099301
5430.000000;0.100218
5429.000000;0.101343
5428.000000;0.102842
5427.000000;0.104385
5426.000000;0.105684
5425.000000;0.106829
5424.000000;0.108061
5423.000000;0.109488
5422.000000;0.111068
5421.000000;0.112649
5420.000000;0.114154
5419.000000;0.115780
5418.000000;0.117729
5417.000000;0.119877
5416.000000;0.121884
5415.000000;0.123676
5414.000000;0.125571
5413.000000;0.127730
5412.000000;0.129926
5411.000000;0.131936
5410.000000;0.133845
5409.000000;0.135876
5408.000000;0.138092
5407.000000;0.140392
5406.000000;0.142673
5405.000000;0.144994
5404.000000;0.147518
5403.000000;0.150246
5402.000000;0.153159
5401.000000;0.156216
5400.000000;0.159221
5399.000000;0.162191
5398.000000;0.165339
5397.000000;0.168700
5396.000000;0.172087
5395.000000;0.175432
5394.000000;0.178941
5393.000000;0.182660
5392.000000;0.186358
5391.000000;0.190021
5390.000000;0.193891
5389.000000;0.198009
5388.000000;0.202140
5387.000000;0.206219
5386.000000;0.210461
5385.000000;0.215041
5384.000000;0.219771
5383.000000;0.224405
5382.000000;0.229178
5381.000000;0.234414
5380.000000;0.239902
5379.000000;0.245269
5378.000000;0.250614
5377.000000;0.256274
5376.000000;0.262197
5375.000000;0.268114
5374.000000;0.274108
5373.000000;0.280399
5372.000000;0.286908
5371.000000;0.293506
5370.000000;0.300307
5369.000000;0.307473
5368.000000;0.314958
5367.000000;0.322649
5366.000000;0.330540
5365.000000;0.338689
5364.000000;0.347033
5363.000000;0.355520
5362.000000;0.364338
5361.000000;0.373551
5360.000000;0.382914
5359.000000;0.392379
5358.000000;0.402280
5357.000000;0.412743
5356.000000;0.423363
5355.000000;0.433919
5354.000000;0.444874
5353.000000;0.456646
5352.000000;0.468815
5351.000000;0.480752
5350.000000;0.492714
5349.000000;0.505442
5348.000000;0.518962
5347.000000;0.532669
5346.000000;0.546388
5345.000000;0.560554
5344.000000;0.575378
5343.000000;0.590588
5342.000000;0.606053
5341.000000;0.621753
5340.000000;0.637583
5339.000000;0.653804
5338.000000;0.670987
5337.000000;0.689227
5336.000000;0.707862
5335.000000;0.726280
5334.000000;0.744662
5333.000000;0.763713
5332.000000;0.783696
5331.000000;0.804177
5330.000000;0.824872
5329.000000;0.845965
5328.000000;0.867622
5327.000000;0.889880
5326.000000;0.912798
5325.000000;0.936224
5324.000000;0.959764
5323.000000;0.983322
5322.000000;1.007388
5321.000000;1.032264
5320.000000;1.057439
5319.000000;1.082421
5318.000000;1.107698
5317.000000;1.133893
5316.000000;1.160443
5315.000000;1.186296
5314.000000;1.211477
5313.000000;1.236971
5312.000000;1.263270
5311.000000;1.290015
5310.000000;1.316810
5309.000000;1.343225
5308.000000;1.368340
5307.000000;1.391567
5306.000000;1.413673
5305.000000;1.435738
5304.000000;1.457800
5303.000000;1.479772
5302.000000;1.502428
5301.000000;1.525793
5300.000000;1.547900
5299.000000;1.567263
5298.000000;1.585120
5297.000000;1.602801
5296.000000;1.618885
5295.000000;1.631760
5294.000000;1.642822
5293.000000;1.654213
5292.000000;1.665439
5291.000000;1.675101
5290.000000;1.683870
5289.000000;1.692721
5288.000000;1.700299
5287.000000;1.705205
5286.000000;1.708982
5285.000000;1.713716
5284.000000;1.718553
5283.000000;1.721485
5282.000000;1.722803
5281.000000;1.724026
5280.000000;1.725367
5279.000000;1.726800
5278.000000;1.729317
5277.000000;1.732658
5276.000000;1.734393
5275.000000;1.733633
5274.000000;1.732967
5273.000000;1.734531
5272.000000;1.736904
5271.000000;1.738019
5270.000000;1.738610
5269.000000;1.740068
5268.000000;1.741472
5267.000000;1.741578
5266.000000;1.741288
5265.000000;1.741649
5264.000000;1.741682
5263.000000;1.740621
5262.000000;1.739860
5261.000000;1.740290
5260.000000;1.740429
5259.000000;1.739401
5258.000000;1.739027
5257.000000;1.740835
5256.000000;1.743583
5255.000000;1.745437
5254.000000;1.746479
5253.000000;1.747231
5252.000000;1.746960
5251.000000;1.745372
5250.000000;1.743809
5249.000000;1.743178
5248.000000;1.742775
5247.000000;1.742603
5246.000000;1.744054
5245.000000;1.746743
5244.000000;1.747741
5243.000000;1.745781
5242.000000;1.743174
5241.000000;1.741743
5240.000000;1.740762
5239.000000;1.740439
5238.000000;1.743216
5237.000000;1.749248
5236.000000;1.754024
5235.000000;1.753647
5234.000000;1.750081
5233.000000;1.747760
5232.000000;1.747831
5231.000000;1.748997
5230.000000;1.751134
5229.000000;1.754473
5228.000000;1.757186
5227.000000;1.757189
5226.000000;1.755251
5225.000000;1.753834
5224.000000;1.753931
5223.000000;1.755152
5222.000000;1.757169
5221.000000;1.758849
5220.000000;1.758186
5219.000000;1.755165
5218.000000;1.752579
5217.000000;1.752441
5216.000000;1.753613
5215.000000;1.754538
5214.000000;1.755998
5213.000000;1.758930
5212.000000;1.761903
5211.000000;1.763147
5210.000000;1.763233
5209.000000;1.763453
5208.000000;1.763090
5207.000000;1.760761
5206.000000;1.757200
5205.000000;1.754755
5204.000000;1.755064
5203.000000;1.757992
5202.000000;1.761527
5201.000000;1.762563
5200.000000;1.760085
5199.000000;1.757599
5198.000000;1.759581
5197.000000;1.765734
5196.000000;1.771227
5195.000000;1.773226
5194.000000;1.773714
5193.000000;1.774416
5192.000000;1.773598
5191.000000;1.770094
5190.000000;1.766624
5189.000000;1.766379
5188.000000;1.769285
5187.000000;1.773517
5186.000000;1.777858
5185.000000;1.780691
5184.000000;1.779670
5183.000000;1.774845
5182.000000;1.769590
5181.000000;1.766588
5180.000000;1.765488
5179.000000;1.765417
5178.000000;1.767128
5177.000000;1.771061
5176.000000;1.775432
5175.000000;1.778321
5174.000000;1.779815
5173.000000;1.780490
5172.000000;1.780159
5171.000000;1.779200
5170.000000;1.778677
5169.000000;1.778392
5168.000000;1.777218
5167.000000;1.776079
5166.000000;1.777522
5165.000000;1.781355
5164.000000;1.783822
5163.000000;1.782709
5162.000000;1.780393
5161.000000;1.780023
5160.000000;1.781768
5159.000000;1.784335
5158.000000;1.787299
5157.000000;1.790187
5156.000000;1.791785
5155.000000;1.791986
5154.000000;1.792159
5153.000000;1.792480
5152.000000;1.791375
5151.000000;1.788511
5150.000000;1.785574
5149.000000;1.783372
5148.000000;1.781023
5147.000000;1.778779
5146.000000;1.778493
5145.000000;1.780105
5144.000000;1.780952
5143.000000;1.779893
5142.000000;1.779241
5141.000000;1.781142
5140.000000;1.784526
5139.000000;1.787208
5138.000000;1.788535
5137.000000;1.788297
5136.000000;1.785687
5135.000000;1.781181
5134.000000;1.777091
5133.000000;1.775003
5132.000000;1.774827
5131.000000;1.776669
5130.000000;1.780833
5129.000000;1.785444
5128.000000;1.787054
5127.000000;1.784935
5126.000000;1.782104
5125.000000;1.781052
5124.000000;1.781458
5123.000000;1.782553
5122.000000;1.784373
5121.000000;1.785748
5120.000000;1.784525
5119.000000;1.781185
5118.000000;1.779048
5117.000000;1.779824
5116.000000;1.781917
5115.000000;1.783883
5114.000000;1.786576
5113.000000;1.790352
5112.000000;1.793114
5111.000000;1.793320
5110.000000;1.792045
5109.000000;1.790533
5108.000000;1.788899
5107.000000;1.787803
5106.000000;1.788221
5105.000000;1.788836
5104.000000;1.786985
5103.000000;1.783231
5102.000000;1.781319
5101.000000;1.782655
5100.000000;1.784349
5099.000000;1.784084
5098.000000;1.783533
5097.000000;1.784743
5096.000000;1.786560
5095.000000;1.786869
5094.000000;1.785964
5093.000000;1.785475
5092.000000;1.785866
5091.000000;1.786743
5090.000000;1.787728
5089.000000;1.787882
5088.000000;1.786401
5087.000000;1.784642
5086.000000;1.784871
5085.000000;1.786641
5084.000000;1.787075
5083.000000;1.785149
5082.000000;1.782937
5081.000000;1.781914
5080.000000;1.781195
5079.000000;1.780210
5078.000000;1.780025
5077.000000;1.781061
5076.000000;1.782262
5075.000000;1.783407
5074.000000;1.785393
5073.000000;1.787370
5072.000000;1.786984
5071.000000;1.784369
5070.000000;1.782335
5069.000000;1.781888
5068.000000;1.781008
5067.000000;1.778785
5066.000000;1.777260
5065.000000;1.777784
5064.000000;1.778963
5063.000000;1.779373
5062.000000;1.779397
5061.000000;1.779172
5060.000000;1.777815
5059.000000;1.776233
5058.000000;1.777339
5057.000000;1.781735
5056.000000;1.785940
5055.000000;1.786555
5054.000000;1.783779
5053.000000;1.779530
5052.000000;1.775054
5051.000000;1.771717
5050.000000;1.771203
5049.000000;1.773191
5048.000000;1.775029
5047.000000;1.775064
5046.000000;1.774211
5045.000000;1.773338
5044.000000;1.771822
5043.000000;1.769619
5042.000000;1.768172
5041.000000;1.768136
5040.000000;1.768527
5039.000000;1.768997
5038.000000;1.770173
5037.000000;1.771218
5036.000000;1.770127
5035.000000;1.767253
5034.000000;1.765437
5033.000000;1.765562
5032.000000;1.765271
5031.000000;1.763163
5030.000000;1.760884
5029.000000;1.759807
5028.000000;1.758746
5027.000000;1.756515
5026.000000;1.754008
5025.000000;1.751994
5024.000000;1.749683
5023.000000;1.747023
5022.000000;1.745525
5021.000000;1.745470
5020.000000;1.744684
5019.000000;1.741612
5018.000000;1.737654
5017.000000;1.734760
5016.000000;1.732924
5015.000000;1.731331
5014.000000;1.729968
5013.000000;1.728849
5012.000000;1.727442
5011.000000;1.726290
5010.000000;1.726845
5009.000000;1.728680
5008.000000;1.729249
5007.000000;1.727171
5006.000000;1.724131
5005.000000;1.722407
5004.000000;1.722405
5003.000000;1.723351
5002.000000;1.724274
5001.000000;1.723689
5000.000000;1.720251
4999.000000;1.714635
4998.000000;1.709078
4997.000000;1.704504
4996.000000;1.699930
4995.000000;1.695052
4994.000000;1.691081
4993.000000;1.688564
4992.000000;1.686563
4991.000000;1.684459
4990.000000;1.682777
4989.000000;1.681698
4988.000000;1.680347
4987.000000;1.677946
4986.000000;1.674405
4985.000000;1.669840
4984.000000;1.664856
4983.000000;1.660924
4982.000000;1.658843
4981.000000;1.657126
4980.000000;1.653855
4979.000000;1.649842
4978.000000;1.647471
4977.000000;1.646643
4976.000000;1.644704
4975.000000;1.640556
4974.000000;1.635978
4973.000000;1.632579
4972.000000;1.630064
4971.000000;1.627899
4970.000000;1.626198
4969.000000;1.624233
4968.000000;1.620428
4967.000000;1.614738
4966.000000;1.609016
4965.000000;1.604350
4964.000000;1.599964
4963.000000;1.595284
4962.000000;1.590969
4961.000000;1.587193
4960.000000;1.583060
4959.000000;1.578413
4958.000000;1.574359
4957.000000;1.571388
4956.000000;1.568649
4955.000000;1.565597
4954.000000;1.562736
4953.000000;1.560227
4952.000000;1.557366
4951.000000;1.554047
4950.000000;1.551113
4949.000000;1.548751
4948.000000;1.546087
4947.000000;1.542780
4946.000000;1.539535
4945.000000;1.536554
4944.000000;1.532927
4943.000000;1.528026
4942.000000;1.522226
4941.000000;1.515972
4940.000000;1.509636
4939.000000;1.504385
4938.000000;1.501475
4937.000000;1.500342
4936.000000;1.498852
4935.000000;1.495788
4934.000000;1.491709
4933.000000;1.487177
4932.000000;1.481924
4931.000000;1.476159
4930.000000;1.470947
4929.000000;1.466777
4928.000000;1.463162
4927.000000;1.459933
4926.000000;1.457355
4925.000000;1.454679
4924.000000;1.450386
4923.000000;1.444456
4922.000000;1.438818
4921.000000;1.434871
4920.000000;1.431915
4919.000000;1.428559
4918.000000;1.424358
4917.000000;1.419478
4916.000000;1.413992
4915.000000;1.408323
4914.000000;1.403362
4913.000000;1.399422
4912.000000;1.395854
4911.000000;1.392029
4910.000000;1.387856
4909.000000;1.383167
4908.000000;1.377660
4907.000000;1.371818
4906.000000;1.366753
4905.000000;1.362740
4904.000000;1.358890
4903.000000;1.354560
4902.000000;1.350116
4901.000000;1.345917
4900.000000;1.341581
4899.000000;1.336780
4898.000000;1.331907
4897.000000;1.327438
4896.000000;1.323296
4895.000000;1.319250
4894.000000;1.315305
4893.000000;1.311380
4892.000000;1.307205
4891.000000;1.302750
4890.000000;1.298271
4889.000000;1.293815
4888.000000;1.289247
4887.000000;1.284772
4886.000000;1.280759
4885.000000;1.277019
4884.000000;1.272953
4883.000000;1.268459
4882.000000;1.263965
4881.000000;1.259607
4880.000000;1.255155
4879.000000;1.250734
4878.000000;1.246804
4877.000000;1.243334
4876.000000;1.239744
4875.000000;1.235774
4874.000000;1.231680
4873.000000;1.227473
4872.000000;1.222733
4871.000000;1.217399
4870.000000;1.212051
4869.000000;1.207230
4868.000000;1.203040
4867.000000;1.199427
4866.000000;1.196210
4865.000000;1.192846
4864.000000;1.188877
4863.000000;1.184661
4862.000000;1.180954
4861.000000;1.177711
4860.000000;1.174019
4859.000000;1.169359
4858.000000;1.164268
4857.000000;1.159530
4856.000000;1.155358
4855.000000;1.151569
4854.000000;1.147959
4853.000000;1.144325
4852.000000;1.140541
4851.000000;1.136761
4850.000000;1.133177
4849.000000;1.129633
4848.000000;1.125875
4847.000000;1.122065
4846.000000;1.118532
4845.000000;1.115118
4844.000000;1.111350
4843.000000;1.107190
4842.000000;1.103015
4841.000000;1.098966
4840.000000;1.094929
4839.000000;1.091047
4838.000000;1.087523
4837.000000;1.083998
4836.000000;1.079895
4835.000000;1.075407
4834.000000;1.071347
4833.000000;1.067933
4832.000000;1.064452
4831.000000;1.060354
4830.000000;1.055972
4829.000000;1.051860
4828.000000;1.048098
4827.000000;1.044520
4826.000000;1.041107
4825.000000;1.037781
4824.000000;1.034257
4823.000000;1.030393
4822.000000;1.026381
4821.000000;1.022427
4820.000000;1.018541
4819.000000;1.014740
4818.000000;1.011122
4817.000000;1.007622
4816.000000;1.004041
4815.000000;1.000375
4814.000000;0.996760
4813.000000;0.993088
4812.000000;0.989118
4811.000000;0.984997
4810.000000;0.981215
4809.000000;0.977945
4808.000000;0.974859
4807.000000;0.971672
4806.000000;0.968416
4805.000000;0.965093
4804.000000;0.961504
4803.000000;0.957617
4802.000000;0.953749
4801.000000;0.950190
4800.000000;0.946918
4799.000000;0.943779
4798.000000;0.940671
4797.000000;0.937449
4796.000000;0.933948
4795.000000;0.930214
4794.000000;0.926492
4793.000000;0.922915
4792.000000;0.919426
4791.000000;0.916029
4790.000000;0.912825
4789.000000;0.909793
4788.000000;0.906783
4787.000000;0.903741
4786.000000;0.900703
4785.000000;0.897590
4784.000000;0.894277
4783.000000;0.890852
4782.000000;0.887536
4781.000000;0.884395
4780.000000;0.881393
4779.000000;0.878630
4778.000000;0.876179
4777.000000;0.873739
4776.000000;0.870866
4775.000000;0.867570
4774.000000;0.864289
4773.000000;0.861258
4772.000000;0.858242
4771.000000;0.854990
4770.000000;0.851592
4769.000000;0.848277
4768.000000;0.845148
4767.000000;0.842218
4766.000000;0.839489
4765.000000;0.836873
4764.000000;0.834227
4763.000000;0.831490
4762.000000;0.828643
4761.000000;0.825606
4760.000000;0.822396
4759.000000;0.819306
4758.000000;0.816641
4757.000000;0.814276
4756.000000;0.811760
4755.000000;0.808869
4754.000000;0.805794
4753.000000;0.802827
4752.000000;0.800119
4751.000000;0.797739
4750.000000;0.795649
4749.000000;0.793571
4748.000000;0.791171
4747.000000;0.788446
4746.000000;0.785685
4745.000000;0.783043
4744.000000;0.780389
4743.000000;0.777613
4742.000000;0.774826
4741.000000;0.772179
4740.000000;0.769716
4739.000000;0.767445
4738.000000;0.765360
4737.000000;0.763339
4736.000000;0.761202
4735.000000;0.758908
4734.000000;0.756567
4733.000000;0.754254
4732.000000;0.751948
4731.000000;0.749638
4730.000000;0.747311
4729.000000;0.744895
4728.000000;0.742379
4727.000000;0.739927
4726.000000;0.737699
4725.000000;0.735604
4724.000000;0.733433
4723.000000;0.731145
4722.000000;0.728822
4721.000000;0.726452
4720.000000;0.724009
4719.000000;0.721674
4718.000000;0.719669
4717.000000;0.717913
4716.000000;0.716084
4715.000000;0.714025
4714.000000;0.711841
4713.000000;0.709639
4712.000000;0.707448
4711.000000;0.705388
4710.000000;0.703628
4709.000000;0.702112
4708.000000;0.700560
4707.000000;0.698779
4706.000000;0.696801
4705.000000;0.694728
4704.000000;0.692669
4703.000000;0.690800
4702.000000;0.689232
4701.000000;0.687795
4700.000000;0.686181
4699.000000;0.684311
4698.000000;0.682390
4697.000000;0.680588
4696.000000;0.678897
4695.000000;0.677266
4694.000000;0.675661
4693.000000;0.673969
4692.000000;0.672097
4691.000000;0.670194
4690.000000;0.668543
4689.000000;0.667213
4688.000000;0.666000
4687.000000;0.664720
4686.000000;0.663366
4685.000000;0.661942
4684.000000;0.660386
4683.000000;0.658719
4682.000000;0.657055
4681.000000;0.655419
4680.000000;0.653737
4679.000000;0.652049
4678.000000;0.650555
4677.000000;0.649367
4676.000000;0.648371
4675.000000;0.647379
4674.000000;0.646279
4673.000000;0.645024
4672.000000;0.643626
4671.000000;0.642214
4670.000000;0.640940
4669.000000;0.639787
4668.000000;0.638582
4667.000000;0.637239
4666.000000;0.635862
4665.000000;0.634590
4664.000000;0.633456
4663.000000;0.632402
4662.000000;0.631340
4661.000000;0.630187
4660.000000;0.628921
4659.000000;0.627621
4658.000000;0.626388
4657.000000;0.625258
4656.000000;0.624246
4655.000000;0.623386
4654.000000;0.622618
4653.000000;0.621743
4652.000000;0.620634
4651.000000;0.619415
4650.000000;0.618293
4649.000000;0.617311
4648.000000;0.616409
4647.000000;0.615608
4646.000000;0.614944
4645.000000;0.614302
4644.000000;0.613525
4643.000000;0.612637
4642.000000;0.611770
4641.000000;0.610923
4640.000000;0.609999
4639.000000;0.609038
4638.000000;0.608192
4637.000000;0.607485
4636.000000;0.606795
4635.000000;0.606076
4634.000000;0.605404
4633.000000;0.604816
4632.000000;0.604248
4631.000000;0.603636
4630.000000;0.602951
4629.000000;0.602167
4628.000000;0.601315
4627.000000;0.600527
4626.000000;0.599875
4625.000000;0.599241
4624.000000;0.598489
4623.000000;0.597692
4622.000000;0.597003
4621.000000;0.596404
4620.000000;0.595803
4619.000000;0.595280
4618.000000;0.594982
4617.000000;0.594811
4616.000000;0.594500
4615.000000;0.593986
4614.000000;0.593467
4613.000000;0.593066
4612.000000;0.592694
4611.000000;0.592281
4610.000000;0.591911
4609.000000;0.591634
4608.000000;0.591341
4607.000000;0.590934
4606.000000;0.590470
4605.000000;0.590063
4604.000000;0.589761
4603.000000;0.589559
4602.000000;0.589438
4601.000000;0.589360
4600.000000;0.589293
4599.000000;0.589264
4598.000000;0.589274
4597.000000;0.589222
4596.000000;0.588999
4595.000000;0.588642
4594.000000;0.588279
4593.000000;0.587967
4592.000000;0.587727
4591.000000;0.587644
4590.000000;0.587774
4589.000000;0.587984
4588.000000;0.588066
4587.000000;0.587999
4586.000000;0.587928
4585.000000;0.587912
4584.000000;0.587874
4583.000000;0.587806
4582.000000;0.587831
4581.000000;0.588027
4580.000000;0.588327
4579.000000;0.588614
4578.000000;0.588824
4577.000000;0.588933
4576.000000;0.588965
4575.000000;0.589007
4574.000000;0.589159
4573.000000;0.589452
4572.000000;0.589881
4571.000000;0.590433
4570.000000;0.591008
4569.000000;0.591412
4568.000000;0.591555
4567.000000;0.591576
4566.000000;0.591672
4565.000000;0.591901
4564.000000;0.592259
4563.000000;0.592818
4562.000000;0.593596
4561.000000;0.594398
4560.000000;0.595000
4559.000000;0.595436
4558.000000;0.595905
4557.000000;0.596477
4556.000000;0.597086
4555.000000;0.597738
4554.000000;0.598511
4553.000000;0.599354
4552.000000;0.600112
4551.000000;0.600747
4550.000000;0.601386
4549.000000;0.602128
4548.000000;0.602979
4547.000000;0.603947
4546.000000;0.605029
4545.000000;0.606114
4544.000000;0.607064
4543.000000;0.607889
4542.000000;0.608718
4541.000000;0.609613
4540.000000;0.610532
4539.000000;0.611455
4538.000000;0.612388
4537.000000;0.613288
4536.000000;0.614099
4535.000000;0.614855
4534.000000;0.615631
4533.000000;0.616463
4532.000000;0.617385
4531.000000;0.618441
4530.000000;0.619558
4529.000000;0.620537
4528.000000;0.621326
4527.000000;0.622136
4526.000000;0.623143
4525.000000;0.624190
4524.000000;0.625016
4523.000000;0.625651
4522.000000;0.626344
4521.000000;0.627198
4520.000000;0.628109
4519.000000;0.628997
4518.000000;0.629893
4517.000000;0.630823
4516.000000;0.631803
4515.000000;0.632874
4514.000000;0.633979
4513.000000;0.634921
4512.000000;0.635624
4511.000000;0.636354
4510.000000;0.637423
4509.000000;0.638777
4508.000000;0.640105
4507.000000;0.641253
4506.000000;0.642283
4505.000000;0.643223
4504.000000;0.644025
4503.000000;0.644774
4502.000000;0.645635
4501.000000;0.646627
4500.000000;0.647661
4499.000000;0.648778
4498.000000;0.650106
4497.000000;0.651582
4496.000000;0.652978
4495.000000;0.654206
4494.000000;0.655388
4493.000000;0.656617
4492.000000;0.657860
4491.000000;0.659112
4490.000000;0.660434
4489.000000;0.661819
4488.000000;0.663178
4487.000000;0.664490
4486.000000;0.665817
4485.000000;0.667168
4484.000000;0.668493
4483.000000;0.669802
4482.000000;0.671158
4481.000000;0.672599
4480.000000;0.674153
4479.000000;0.675860
4478.000000;0.677671
4477.000000;0.679415
4476.000000;0.681004
4475.000000;0.682543
4474.000000;0.684144
4473.000000;0.685787
4472.000000;0.687513
4471.000000;0.689510
4470.000000;0.691800
4469.000000;0.694032
4468.000000;0.695887
4467.000000;0.697519
4466.000000;0.699317
4465.000000;0.701372
4464.000000;0.703481
4463.000000;0.705524
4462.000000;0.707510
4461.000000;0.709378
4460.000000;0.711097
4459.000000;0.712891
4458.000000;0.715020
4457.000000;0.717371
4456.000000;0.719568
4455.000000;0.721466
4454.000000;0.723256
4453.000000;0.725136
4452.000000;0.727169
4451.000000;0.729418
4450.000000;0.731906
4449.000000;0.734460
4448.000000;0.736861
4447.000000;0.739125
4446.000000;0.741389
4445.000000;0.743607
4444.000000;0.745641
4443.000000;0.747594
4442.000000;0.749742
4441.000000;0.752166
4440.000000;0.754731
4439.000000;0.757367
4438.000000;0.760070
4437.000000;0.762694
4436.000000;0.765060
4435.000000;0.767271
4434.000000;0.769637
4433.000000;0.772268
4432.000000;0.775001
4431.000000;0.777676
4430.000000;0.780248
4429.000000;0.782682
4428.000000;0.785014
4427.000000;0.787492
4426.000000;0.790347
4425.000000;0.793487
4424.000000;0.796612
4423.000000;0.799601
4422.000000;0.802547
4421.000000;0.805508
4420.000000;0.808465
4419.000000;0.811438
4418.000000;0.814382
4417.000000;0.817110
4416.000000;0.819591
4415.000000;0.822141
4414.000000;0.825035
4413.000000;0.828085
4412.000000;0.830963
4411.000000;0.833756
4410.000000;0.836793
4409.000000;0.840081
4408.000000;0.843343
4407.000000;0.846530
4406.000000;0.849829
4405.000000;0.853217
4404.000000;0.856447
4403.000000;0.859474
4402.000000;0.862529
4401.000000;0.865758
4400.000000;0.869130
4399.000000;0.872617
4398.000000;0.876126
4397.000000;0.879359
4396.000000;0.882165
4395.000000;0.884938
4394.000000;0.888230
4393.000000;0.892035
4392.000000;0.895858
4391.000000;0.899430
4390.000000;0.902879
4389.000000;0.906271
4388.000000;0.909486
4387.000000;0.912627
4386.000000;0.916057
4385.000000;0.919929
4384.000000;0.924003
4383.000000;0.928000
4382.000000;0.931835
4381.000000;0.935513
4380.000000;0.939127
4379.000000;0.942920
4378.000000;0.947011
4377.000000;0.951084
4376.000000;0.954723
4375.000000;0.957990
4374.000000;0.961339
4373.000000;0.965045
4372.000000;0.969081
4371.000000;0.973412
4370.000000;0.977977
4369.000000;0.982451
4368.000000;0.986514
4367.000000;0.990304
4366.000000;0.994229
4365.000000;0.998376
4364.000000;1.002552
4363.000000;1.006789
4362.000000;1.011307
4361.000000;1.016022
4360.000000;1.020564
4359.000000;1.024798
4358.000000;1.028892
4357.000000;1.032921
4356.000000;1.036851
4355.000000;1.040881
4354.000000;1.045288
4353.000000;1.049954
4352.000000;1.054489
4351.000000;1.058822
4350.000000;1.063244
4349.000000;1.067895
4348.000000;1.072626
4347.000000;1.077339
4346.000000;1.082100
4345.000000;1.086997
4344.000000;1.092185
4343.000000;1.097869
4342.000000;1.103821
4341.000000;1.109183
4340.000000;1.113303
4339.000000;1.116636
4338.000000;1.120298
4337.000000;1.124852
4336.000000;1.130014
4335.000000;1.135339
4334.000000;1.140604
4333.000000;1.145647
4332.000000;1.150387
4331.000000;1.155018
4330.000000;1.159780
4329.000000;1.164647
4328.000000;1.169598
4327.000000;1.174886
4326.000000;1.180529
4325.000000;1.185892
4324.000000;1.190418
4323.000000;1.194510
4322.000000;1.199065
4321.000000;1.204335
4320.000000;1.209965
4319.000000;1.215850
4318.000000;1.222198
4317.000000;1.228886
4316.000000;1.235504
4315.000000;1.241974
4314.000000;1.248479
4313.000000;1.254822
4312.000000;1.260517
4311.000000;1.265500
4310.000000;1.270198
4309.000000;1.275050
4308.000000;1.280388
4307.000000;1.286470
4306.000000;1.293121
4305.000000;1.299634
4304.000000;1.305568
4303.000000;1.311285
4302.000000;1.317170
4301.000000;1.322924
4300.000000;1.328266
4299.000000;1.333722
4298.000000;1.339819
4297.000000;1.346037
4296.000000;1.351576
4295.000000;1.356738
4294.000000;1.362531
4293.000000;1.369179
4292.000000;1.375964
4291.000000;1.382293
4290.000000;1.388111
4289.000000;1.393533
4288.000000;1.398825
4287.000000;1.404469
4286.000000;1.410620
4285.000000;1.416810
4284.000000;1.422740
4283.000000;1.428800
4282.000000;1.435236
4281.000000;1.441558
4280.000000;1.447429
4279.000000;1.453384
4278.000000;1.459877
4277.000000;1.466437
4276.000000;1.472614
4275.000000;1.478882
4274.000000;1.485780
4273.000000;1.493212
4272.000000;1.501208
4271.000000;1.510023
4270.000000;1.518641
4269.000000;1.525006
4268.000000;1.529048
4267.000000;1.533584
4266.000000;1.540699
4265.000000;1.548932
4264.000000;1.555738
4263.000000;1.561168
4262.000000;1.566982
4261.000000;1.573680
4260.000000;1.580747
4259.000000;1.588503
4258.000000;1.597327
4257.000000;1.606023
4256.000000;1.613152
4255.000000;1.619126
4254.000000;1.624887
4253.000000;1.629887
4252.000000;1.633689
4251.000000;1.637976
4250.000000;1.644545
4249.000000;1.652462
4248.000000;1.659818
4247.000000;1.667102
4246.000000;1.675792
4245.000000;1.685123
4244.000000;1.693214
4243.000000;1.700452
4242.000000;1.708836
4241.000000;1.718205
4240.000000;1.726238
4239.000000;1.731877
4238.000000;1.736184
4237.000000;1.740533
4236.000000;1.746327
4235.000000;1.755390
4234.000000;1.767882
4233.000000;1.780522
4232.000000;1.789524
4231.000000;1.794837
4230.000000;1.798670
4229.000000;1.801992
4228.000000;1.805600
4227.000000;1.812218
4226.000000;1.823571
4225.000000;1.836483
4224.000000;1.845569
4223.000000;1.849723
4222.000000;1.852190
4221.000000;1.855876
4220.000000;1.862088
4219.000000;1.871714
4218.000000;1.883792
4217.000000;1.893987
4216.000000;1.898990
4215.000000;1.901052
4214.000000;1.904637
4213.000000;1.911006
4212.000000;1.918491
4211.000000;1.926486
4210.000000;1.935577
4209.000000;1.944952
4208.000000;1.953694
4207.000000;1.962736
4206.000000;1.971752
4205.000000;1.977096
4204.000000;1.977423
4203.000000;1.977962
4202.000000;1.984430
4201.000000;1.996316
4200.000000;2.009387
4199.000000;2.022699
4198.000000;2.037511
4197.000000;2.051195
4196.000000;2.059745
4195.000000;2.064121
4194.000000;2.067862
4193.000000;2.071271
4192.000000;2.072746
4191.000000;2.074652
4190.000000;2.080868
4189.000000;2.090416
4188.000000;2.099588
4187.000000;2.108835
4186.000000;2.121105
4185.000000;2.134912
4184.000000;2.145597
4183.000000;2.151394
4182.000000;2.153105
4181.000000;2.150495
4180.000000;2.145615
4179.000000;2.145609
4178.000000;2.154752
4177.000000;2.168693
4176.000000;2.181693
4175.000000;2.195396
4174.000000;2.213350
4173.000000;2.231170
4172.000000;2.240008
4171.000000;2.239769
4170.000000;2.238830
4169.000000;2.241489
4168.000000;2.248370
4167.000000;2.258689
4166.000000;2.266452
4165.000000;2.267191
4164.000000;2.263687
4163.000000;2.267282
4162.000000;2.288379
4161.000000;2.321518
4160.000000;2.350178
4159.000000;2.367042
4158.000000;2.376132
4157.000000;2.378690
4156.000000;2.374980
4155.000000;2.372396
4154.000000;2.377045
4153.000000;2.384970
4152.000000;2.390296
4151.000000;2.397813
4150.000000;2.415442
4149.000000;2.434800
4148.000000;2.437326
4147.000000;2.424718
4146.000000;2.415878
4145.000000;2.419196
4144.000000;2.426362
4143.000000;2.431724
4142.000000;2.437488
4141.000000;2.445861
4140.000000;2.458909
4139.000000;2.478717
4138.000000;2.504451
4137.000000;2.529334
4136.000000;2.542907
4135.000000;2.544434
4134.000000;2.544715
4133.000000;2.546678
4132.000000;2.544814
4131.000000;2.540077
4130.000000;2.537548
4129.000000;2.533496
4128.000000;2.522672
4127.000000;2.510624
4126.000000;2.506640
4125.000000;2.512671
4124.000000;2.524672
4123.000000;2.540012
4122.000000;2.556001
4121.000000;2.567386
4120.000000;2.575529
4119.000000;2.591477
4118.000000;2.615198
4117.000000;2.630743
4116.000000;2.630759
4115.000000;2.633769
4114.000000;2.653618
4113.000000;2.677867
4112.000000;2.676436
4111.000000;2.647859
4110.000000;2.626980
4109.000000;2.626113
4108.000000;2.632839
4107.000000;2.634529
4106.000000;2.633754
4105.000000;2.639852
4104.000000;2.652106
4103.000000;2.672054
4102.000000;2.696978
4101.000000;2.713381
4100.000000;2.715207
4099.000000;2.707133
4098.000000;2.694936
4097.000000;2.674713
4096.000000;2.648985
4095.000000;2.641444
4094.000000;2.666162
4093.000000;2.704226
4092.000000;2.723865
4091.000000;2.720843
4090.000000;2.710249
4089.000000;2.706679
4088.000000;2.714151
4087.000000;2.732555
4086.000000;2.755550
4085.000000;2.765408
4084.000000;2.764765
4083.000000;2.779520
4082.000000;2.821296
4081.000000;2.865479
4080.000000;2.870294
4079.000000;2.843412
4078.000000;2.826838
4077.000000;2.833742
4076.000000;2.854275
4075.000000;2.884159
4074.000000;2.921902
4073.000000;2.950074
4072.000000;2.922988
4071.000000;2.861522
4070.000000;2.825370
4069.000000;2.824554
4068.000000;2.845730
4067.000000;2.868205
4066.000000;2.878164
4065.000000;2.870489
4064.000000;2.846260
4063.000000;2.836053
4062.000000;2.848463
4061.000000;2.856642
4060.000000;2.841577
4059.000000;2.820716
4058.000000;2.816464
4057.000000;2.816961
4056.000000;2.811905
4055.000000;2.820923
4054.000000;2.849769
4053.000000;2.870205
4052.000000;2.854853
4051.000000;2.843228
4050.000000;2.886294
4049.000000;2.957621
4048.000000;2.984637
4047.000000;2.977800
4046.000000;2.966284
4045.000000;2.926324
4044.000000;2.865480
4043.000000;2.827012
4042.000000;2.833833
4041.000000;2.871864
4040.000000;2.896320
4039.000000;2.874578
4038.000000;2.835109
4037.000000;2.815163
4036.000000;2.827539
4035.000000;2.879917
4034.000000;2.945554
4033.000000;2.945182
4032.000000;2.873553
4031.000000;2.823196
4030.000000;2.845486
4029.000000;2.930766
4028.000000;3.011514
4027.000000;3.031143
4026.000000;3.005268
4025.000000;2.969629
4024.000000;2.948665
4023.000000;2.949270
4022.000000;2.955830
4021.000000;2.945659
4020.000000;2.923030
4019.000000;2.912115
4018.000000;2.941628
4017.000000;3.000554
4016.000000;3.030000
4015.000000;3.013528
4014.000000;3.007701
4013.000000;3.019613
4012.000000;3.003117
4011.000000;3.006768
4010.000000;3.051106
4009.000000;3.067773
4008.000000;3.042344
4007.000000;3.029897
4006.000000;3.053860
4005.000000;3.072739
4004.000000;3.044936
4003.000000;3.030927
4002.000000;3.071613
4001.000000;3.118014
4000.000000;3.106503
3999.000000;3.075483
3998.000000;3.098469
3997.000000;3.168078
3996.000000;3.206964
3995.000000;3.173208
3994.000000;3.082463
3993.000000;2.984124
3992.000000;2.915129
3991.000000;2.906023
3990.000000;2.955508
3989.000000;3.008150
3988.000000;3.059953
3987.000000;3.130145
3986.000000;3.141984
3985.000000;3.132150
3984.000000;3.124886
3983.000000;3.121335
3982.000000;3.173726
3981.000000;3.238955
3980.000000;3.189511
3979.000000;3.135393
3978.000000;3.154943
3977.000000;3.191420
3976.000000;3.187942
3975.000000;3.137354
3974.000000;3.070227
3973.000000;3.052275
3972.000000;3.084644
3971.000000;3.117699
3970.000000;3.152919
3969.000000;3.145765
3968.000000;3.061836
3967.000000;3.021132
3966.000000;3.073434
3965.000000;3.165455
3964.000000;3.176361
3963.000000;3.094126
3962.000000;3.029009
3961.000000;3.008748
3960.000000;3.016759
3959.000000;3.080487
3958.000000;3.179931
3957.000000;3.324172
3956.000000;3.533967
3955.000000;3.439028
3954.000000;3.297092
3953.000000;3.163362
3952.000000;3.042963
3951.000000;2.991749
3950.000000;3.005244
3949.000000;3.040710
3948.000000;3.057287
3947.000000;3.057098
3946.000000;3.094464
3945.000000;3.211442
3944.000000;3.207749
3943.000000;3.116776
3942.000000;3.164377
3941.000000;3.278127
3940.000000;3.318299
3939.000000;3.250217
3938.000000;3.208673
3937.000000;3.309651
3936.000000;3.476776
3935.000000;3.496340
3934.000000;3.356289
3933.000000;3.212295
3932.000000;3.063512
3931.000000;2.966129
3930.000000;2.974404
3929.000000;3.084024
3928.000000;3.274371
3927.000000;3.395078
3926.000000;3.358681
3925.000000;3.472914
3924.000000;3.483117
3923.000000;3.273537
3922.000000;3.220720
3921.000000;3.290099
3920.000000;3.485333
3919.000000;3.693464
3918.000000;3.592151
3917.000000;3.613561
3916.000000;3.561867
3915.000000;3.438977
3914.000000;3.489353
3913.000000;3.481765
3912.000000;3.344123
3911.000000;3.237266
3910.000000;3.261091
3909.000000;3.422973
3908.000000;3.577309
3907.000000;3.566912
3906.000000;3.401347
3905.000000;3.314094
3904.000000;3.282622
3903.000000;3.200301
3902.000000;3.077759
3901.000000;3.147530
3900.000000;3.415056
3899.000000;3.187274
3898.000000;3.063498
3897.000000;3.151291
3896.000000;3.324098
3895.000000;3.485281
3894.000000;3.524089
3893.000000;3.367852
3892.000000;3.178717
3891.000000;3.136350
3890.000000;3.188854
3889.000000;3.205221
3888.000000;3.155128
3887.000000;3.068593
3886.000000;3.014238
3885.000000;3.065887
3884.000000;3.237554
3883.000000;3.457273
3882.000000;3.320310
3881.000000;3.202533
3880.000000;3.269459
3879.000000;3.335723
3878.000000;3.402688
3877.000000;3.499636
3876.000000;3.504420
3875.000000;3.524956
3874.000000;3.488539
3873.000000;3.500403
3872.000000;3.499584
3871.000000;3.486515
3870.000000;3.593731
3869.000000;3.570211
3868.000000;3.515907
3867.000000;3.670103
3866.000000;3.615226
3865.000000;3.464712
3864.000000;3.499549
3863.000000;3.677150
3862.000000;4.120056
3861.000000;4.013532
3860.000000;3.936852
3859.000000;4.056786
3858.000000;4.274444
3857.000000;4.386067
3856.000000;4.097552
3855.000000;4.042491
3854.000000;4.359843
3853.000000;4.071637
3852.000000;3.963451
3851.000000;4.028928
3850.000000;4.025679
3849.000000;4.008510
3848.000000;3.645334
3847.000000;3.640545
3846.000000;3.958264
3845.000000;3.689936
3844.000000;3.396026
3843.000000;3.334291
3842.000000;3.394195
3841.000000;3.475350
3840.000000;3.640910
3839.000000;3.644712
3838.000000;3.300798
3837.000000;3.124906
3836.000000;3.086892
3835.000000;3.090793
3834.000000;3.128045
3833.000000;3.365359
3832.000000;3.496578
3831.000000;3.273462
3830.000000;3.437704
3829.000000;3.871476
3828.000000;3.446454
3827.000000;3.184463
3826.000000;3.140781
3825.000000;3.193057
3824.000000;3.267147
3823.000000;3.329466
3822.000000;3.238234
3821.000000;3.263210
3820.000000;3.522028
3819.000000;3.769931
3818.000000;3.823767
3817.000000;3.861234
3816.000000;3.779514
3815.000000;3.340284
3814.000000;3.111757
3813.000000;3.101277
3812.000000;3.225446
3811.000000;3.389736
3810.000000;3.565626
3809.000000;3.860836
3808.000000;3.935199
3807.000000;3.595235
3806.000000;3.329849
3805.000000;3.313805
3804.000000;3.520908
3803.000000;3.635618
3802.000000;3.469793
3801.000000;3.562623
3800.000000;3.907094
3799.000000;3.624738
3798.000000;3.395084
3797.000000;3.421961
3796.000000;3.612474
3795.000000;3.666743
3794.000000;3.474586
3793.000000;3.483634
3792.000000;3.624934
3791.000000;3.565773
3790.000000;3.536632
3789.000000;3.518602
3788.000000;3.384762
3787.000000;3.215621
3786.000000;3.097730
3785.000000;3.128087
3784.000000;3.400334
3783.000000;3.741168
3782.000000;3.537185
3781.000000;3.361650
3780.000000;3.333461
3779.000000;3.446467
3778.000000;3.499692
3777.000000;3.368072
3776.000000;3.264348
3775.000000;3.181396
3774.000000;3.105575
3773.000000;3.115074
3772.000000;3.202298
3771.000000;3.219517
3770.000000;3.186210
3769.000000;3.314648
3768.000000;3.711680
3767.000000;4.198427
3766.000000;3.913088
3765.000000;3.518902
3764.000000;3.306368
3763.000000;3.136195
3762.000000;3.020273
3761.000000;3.064103
3760.000000;3.249107
3759.000000;3.329170
3758.000000;3.484465
3757.000000;3.724847
3756.000000;3.609376
3755.000000;3.619350
3754.000000;3.628867
3753.000000;3.483375
3752.000000;3.328109
3751.000000;3.333959
3750.000000;3.823374
3749.000000;4.001524
3748.000000;3.701673
3747.000000;3.738423
3746.000000;3.643522
3745.000000;3.727407
3744.000000;3.770664
3743.000000;3.355397
3742.000000;3.251653
3741.000000;3.252393
3740.000000;3.190390
3739.000000;3.197383
3738.000000;3.169784
3737.000000;3.080074
3736.000000;3.206897
3735.000000;3.467091
3734.000000;3.351081
3733.000000;3.247208
3732.000000;3.277171
3731.000000;3.308442
3730.000000;3.284906
3729.000000;3.292097
3728.000000;3.355529
3727.000000;3.489145
3726.000000;3.470766
3725.000000;3.619256
3724.000000;4.006966
3723.000000;3.682270
3722.000000;3.482891
3721.000000;3.414586
3720.000000;3.644932
3719.000000;3.662659
3718.000000;3.421944
3717.000000;3.454356
3716.000000;3.416783
3715.000000;3.275466
3714.000000;3.200314
3713.000000;3.138364
3712.000000;3.389438
3711.000000;4.404896
3710.000000;3.444880
3709.000000;3.295869
3708.000000;3.325047
3707.000000;3.533381
3706.000000;4.161106
3705.000000;3.755559
3704.000000;3.633970
3703.000000;3.455194
3702.000000;3.267657
3701.000000;3.353656
3700.000000;3.682385
3699.000000;3.931362
3698.000000;3.933896
3697.000000;3.522013
3696.000000;3.214575
3695.000000;3.187907
3694.000000;3.345865
3693.000000;3.595691
3692.000000;3.947702
3691.000000;3.701496
3690.000000;3.328484
3689.000000;3.183447
3688.000000;3.209073
3687.000000;3.344544
3686.000000;3.455061
3685.000000;3.520382
3684.000000;3.647832
3683.000000;3.987565
3682.000000;4.129675
3681.000000;3.479737
3680.000000;3.229559
3679.000000;3.177287
3678.000000;3.116837
3677.000000;3.039324
3676.000000;3.074794
3675.000000;3.287499
3674.000000;3.549099
3673.000000;3.463434
3672.000000;3.308815
3671.000000;3.549127
3670.000000;3.803363
3669.000000;3.611137
3668.000000;3.784786
3667.000000;3.886114
3666.000000;3.874181
3665.000000;3.979212
3664.000000;3.975545
3663.000000;3.633418
3662.000000;3.447142
3661.000000;3.396799
3660.000000;3.511039
3659.000000;3.868816
3658.000000;3.601484
3657.000000;3.351347
3656.000000;3.225288
3655.000000;3.213517
3654.000000;3.389228
3653.000000;3.348009
3652.000000;3.142812
3651.000000;3.193474
3650.000000;3.190308
3649.000000;3.245908
3648.000000;3.553149
3647.000000;3.532435
3646.000000;3.911859
3645.000000;3.984416
3644.000000;3.407182
3643.000000;3.310789
3642.000000;3.248278
3641.000000;3.185011
3640.000000;3.149241
3639.000000;3.104087
3638.000000;3.088599
3637.000000;3.183150
3636.000000;3.360561
3635.000000;3.331248
3634.000000;3.278730
3633.000000;3.447677
3632.000000;3.574304
3631.000000;3.423439
3630.000000;3.242726
3629.000000;3.481673
3628.000000;3.880408
3627.000000;3.331686
3626.000000;3.357849
3625.000000;3.529430
3624.000000;3.636138
3623.000000;3.676789
3622.000000;3.475474
3621.000000;3.312279
3620.000000;3.228765
3619.000000;3.280213
3618.000000;3.212384
3617.000000;3.138401
3616.000000;3.190412
3615.000000;3.274089
3614.000000;3.549264
3613.000000;3.568905
3612.000000;3.481746
3611.000000;4.040364
3610.000000;3.709601
3609.000000;3.603496
3608.000000;4.110423
3607.000000;3.816020
3606.000000;3.483480
3605.000000;3.304478
3604.000000;3.236440
3603.000000;3.227812
3602.000000;3.276184
3601.000000;3.450375
3600.000000;3.771974
3599.000000;3.647813
3598.000000;3.268323
3597.000000;3.083895
3596.000000;3.046841
3595.000000;3.134778
3594.000000;3.309618
3593.000000;3.633207
3592.000000;3.826920
3591.000000;3.293457
3590.000000;3.014933
3589.000000;2.991774
3588.000000;3.172520
3587.000000;3.359938
3586.000000;3.401159
3585.000000;3.402802
3584.000000;3.555197
3583.000000;4.320365
3582.000000;3.754838
3581.000000;3.310166
3580.000000;3.162994
3579.000000;3.145013
3578.000000;3.247576
3577.000000;3.491620
3576.000000;3.687187
3575.000000;3.647926
3574.000000;3.646945
3573.000000;3.772818
3572.000000;4.236843
3571.000000;3.709650
3570.000000;3.557594
3569.000000;3.883823
3568.000000;3.575215
3567.000000;3.172531
3566.000000;2.995401
3565.000000;2.920775
3564.000000;2.981753
3563.000000;3.203668
3562.000000;3.570562
3561.000000;4.206222
3560.000000;3.670148
3559.000000;3.322762
3558.000000;3.225944
3557.000000;3.423670
3556.000000;3.770816
3555.000000;3.302922
3554.000000;3.182665
3553.000000;3.314743
3552.000000;3.526839
3551.000000;3.575318
3550.000000;3.222578
3549.000000;3.010349
3548.000000;2.968174
3547.000000;3.208940
3546.000000;3.890796
3545.000000;3.663554
3544.000000;3.490769
3543.000000;3.597206
3542.000000;3.634612
3541.000000;3.586492
3540.000000;3.407079
3539.000000;3.297723
3538.000000;3.332823
3537.000000;3.438369
3536.000000;3.363931
3535.000000;3.148793
3534.000000;2.965732
3533.000000;2.911137
3532.000000;2.942720
3531.000000;3.106733
3530.000000;3.629606
3529.000000;3.289093
3528.000000;3.007969
3527.000000;3.053862
3526.000000;3.227191
3525.000000;3.470098
3524.000000;3.417657
3523.000000;3.279777
3522.000000;3.244017
3521.000000;3.362897
3520.000000;3.625097
3519.000000;3.930946
3518.000000;4.364796
3517.000000;4.136425
3516.000000;4.203126
3515.000000;3.928826
3514.000000;3.512743
3513.000000;3.503905
3512.000000;3.523032
3511.000000;3.357678
3510.000000;3.341822
3509.000000;3.688120
3508.000000;4.042346
3507.000000;3.903551
3506.000000;3.601592
3505.000000;3.516300
3504.000000;4.012816
3503.000000;3.920604
3502.000000;3.566392
3501.000000;3.538079
3500.000000;3.542563
3499.000000;3.805454
3498.000000;4.333734
3497.000000;3.756446
3496.000000;3.606737
3495.000000;3.635506
3494.000000;3.540783
3493.000000;3.365929
3492.000000;3.254276
3491.000000;3.343467
3490.000000;3.838149
3489.000000;4.132019
3488.000000;3.539919
3487.000000;3.326199
3486.000000;3.248545
3485.000000;3.300677
3484.000000;3.462843
3483.000000;3.496761
3482.000000;3.511567
3481.000000;3.843702
3480.000000;3.914872
3479.000000;3.935779
3478.000000;3.738198
3477.000000;3.464220
3476.000000;3.493603
3475.000000;3.511964
3474.000000;3.565900
3473.000000;3.518664
3472.000000;3.297858
3471.000000;3.212331
3470.000000;3.199981
3469.000000;3.220979
3468.000000;3.321899
3467.000000;3.452364
3466.000000;3.602024
3465.000000;3.633633
3464.000000;3.456049
3463.000000;3.384054
3462.000000;3.351289
3461.000000;3.239846
3460.000000;3.157477
3459.000000;3.163950
3458.000000;3.234372
3457.000000;3.340198
3456.000000;3.403231
3455.000000;3.425639
3454.000000;3.568863
3453.000000;3.485160
3452.000000;3.398598
3451.000000;3.497420
3450.000000;3.449633
3449.000000;3.505734
3448.000000;3.484585
3447.000000;3.340088
3446.000000;3.351750
3445.000000;3.344144
3444.000000;3.352238
3443.000000;3.529094
3442.000000;3.698283
3441.000000;3.541482
3440.000000;3.380516
3439.000000;3.351893
3438.000000;3.400485
3437.000000;3.396789
3436.000000;3.364847
3435.000000;3.278518
3434.000000;3.157279
3433.000000;3.139650
3432.000000;3.250160
3431.000000;3.347207
3430.000000;3.311793
3429.000000;3.360768
3428.000000;3.569726
3427.000000;3.639676
3426.000000;3.506222
3425.000000;3.408031
3424.000000;3.411614
3423.000000;3.346175
3422.000000;3.328831
3421.000000;3.655884
3420.000000;3.759257
3419.000000;3.571720
3418.000000;3.591662
3417.000000;3.513028
3416.000000;3.612549
3415.000000;3.730366
3414.000000;3.594192
3413.000000;3.531739
3412.000000;3.380652
3411.000000;3.250947
3410.000000;3.276797
3409.000000;3.700555
3408.000000;3.785333
3407.000000;3.328464
3406.000000;3.305616
3405.000000;3.459533
3404.000000;3.830658
3403.000000;3.561342
3402.000000;3.378847
3401.000000;3.705089
3400.000000;4.370832
3399.000000;4.640752
3398.000000;4.823879
3397.000000;3.951325
3396.000000;3.759876
3395.000000;3.956053
3394.000000;4.103038
3393.000000;3.880033
3392.000000;3.529408
3391.000000;3.529858
3390.000000;3.799713
3389.000000;3.971827
3388.000000;3.972024
3387.000000;4.161288
3386.000000;4.227942
3385.000000;3.657278
3384.000000;3.421661
3383.000000;3.512134
3382.000000;3.735956
3381.000000;3.794414
3380.000000;4.046758
3379.000000;3.814429
3378.000000;3.539113
3377.000000;3.611628
3376.000000;3.611988
3375.000000;3.414868
3374.000000;3.410243
3373.000000;3.653686
3372.000000;3.735693
3371.000000;3.601497
3370.000000;3.593461
3369.000000;3.737188
3368.000000;3.729275
3367.000000;3.439351
3366.000000;3.384905
3365.000000;3.554207
3364.000000;3.471762
3363.000000;3.417904
3362.000000;3.703295
3361.000000;3.893677
3360.000000;3.485007
3359.000000;3.304919
3358.000000;3.178872
3357.000000;3.117164
3356.000000;3.240081
3355.000000;3.631795
3354.000000;4.019238
3353.000000;3.438575
3352.000000;3.217279
3351.000000;3.265711
3350.000000;3.466271
3349.000000;3.533050
3348.000000;3.479460
3347.000000;3.642988
3346.000000;3.482707
3345.000000;3.242737
3344.000000;3.254320
3343.000000;3.363593
3342.000000;3.624685
3341.000000;3.571201
3340.000000;3.557809
3339.000000;4.158281
3338.000000;3.477808
3337.000000;3.325927
3336.000000;3.384308
3335.000000;3.413557
3334.000000;3.485684
3333.000000;3.428055
3332.000000;3.688200
3331.000000;4.287871
3330.000000;3.785361
3329.000000;3.981487
3328.000000;4.594326
3327.000000;4.006183
3326.000000;3.957653
3325.000000;3.799967
3324.000000;3.813418
3323.000000;3.797292
3322.000000;3.416139
3321.000000;3.210911
3320.000000;3.154131
3319.000000;3.126815
3318.000000;3.221269
3317.000000;3.697736
3316.000000;3.856930
3315.000000;3.588839
3314.000000;3.379673
3313.000000;3.202173
3312.000000;3.263598
3311.000000;3.438896
3310.000000;3.387302
3309.000000;3.409069
3308.000000;3.568197
3307.000000;3.794012
3306.000000;3.967177
3305.000000;3.582709
3304.000000;3.498191
3303.000000;3.638960
3302.000000;3.961659
3301.000000;3.884021
3300.000000;3.528261
3299.000000;3.354542
3298.000000;3.301215
3297.000000;3.515000
3296.000000;4.114717
3295.000000;4.046474
3294.000000;3.784668
3293.000000;3.510460
3292.000000;3.351428
3291.000000;3.582918
3290.000000;3.574041
3289.000000;3.251510
3288.000000;3.137220
3287.000000;3.103575
3286.000000;3.129264
3285.000000;3.305571
3284.000000;3.575715
3283.000000;3.529382
3282.000000;3.561074
3281.000000;3.586550
3280.000000;3.497848
3279.000000;3.713530
3278.000000;3.891272
3277.000000;3.594672
3276.000000;3.547544
3275.000000;3.356303
3274.000000;3.205230
3273.000000;3.265147
3272.000000;3.397435
3271.000000;3.514122
3270.000000;3.599635
3269.000000;3.430174
3268.000000;3.266834
3267.000000;3.327733
3266.000000;3.660564
3265.000000;4.100442
3264.000000;3.693885
3263.000000;3.327929
3262.000000;3.219576
3261.000000;3.316683
3260.000000;3.518073
3259.000000;3.561960
3258.000000;3.525662
3257.000000;3.624471
3256.000000;3.846786
3255.000000;4.122124
3254.000000;3.776163
3253.000000;3.615257
3252.000000;3.627405
3251.000000;3.549863
3250.000000;3.594800
3249.000000;3.916624
3248.000000;3.824280
3247.000000;3.400815
3246.000000;3.207450
3245.000000;3.208231
3244.000000;3.302157
3243.000000;3.289255
3242.000000;3.245132
3241.000000;3.369505
3240.000000;3.499736
3239.000000;3.457358
3238.000000;3.477276
3237.000000;3.539227
3236.000000;3.700057
3235.000000;4.059913
3234.000000;4.136941
3233.000000;3.609855
3232.000000;3.397560
3231.000000;3.461557
3230.000000;3.362624
3229.000000;3.227695
3228.000000;3.251963
3227.000000;3.461717
3226.000000;3.965372
3225.000000;3.741404
3224.000000;3.436581
3223.000000;3.305385
3222.000000;3.272271
3221.000000;3.423981
3220.000000;3.783218
3219.000000;3.964715
3218.000000;3.843347
3217.000000;3.878434
3216.000000;3.624187
3215.000000;3.734678
3214.000000;3.799730
3213.000000;3.507115
3212.000000;3.539113
3211.000000;3.676186
3210.000000;4.154470
3209.000000;3.652183
3208.000000;3.424491
3207.000000;3.585274
3206.000000;3.380971
3205.000000;3.272239
3204.000000;3.447292
3203.000000;3.908659
3202.000000;3.844992
3201.000000;3.459164
3200.000000;3.290810
3199.000000;3.378319
3198.000000;3.626093
3197.000000;3.440514
3196.000000;3.325804
3195.000000;3.427846
3194.000000;3.579885
3193.000000;3.464152
3192.000000;3.291433
3191.000000;3.340035
3190.000000;3.584879
3189.000000;3.773079
3188.000000;3.984429
3187.000000;3.886138
3186.000000;3.977342
3185.000000;3.907852
3184.000000;3.559900
3183.000000;3.585353
3182.000000;3.594606
3181.000000;3.501955
3180.000000;3.514382
3179.000000;3.559442
3178.000000;3.437878
3177.000000;3.377141
3176.000000;3.439387
3175.000000;3.374065
3174.000000;3.492081
3173.000000;4.251678
3172.000000;3.470249
3171.000000;3.375138
3170.000000;3.544678
3169.000000;3.676467
3168.000000;3.608197
3167.000000;3.491700
3166.000000;3.444180
3165.000000;3.393244
3164.000000;3.333571
3163.000000;3.315077
3162.000000;3.358884
3161.000000;3.302663
3160.000000;3.230713
3159.000000;3.252857
3158.000000;3.262982
3157.000000;3.296900
3156.000000;3.553642
3155.000000;4.025530
3154.000000;3.579841
3153.000000;3.419390
3152.000000;3.412211
3151.000000;3.315151
3150.000000;3.260283
3149.000000;3.425989
3148.000000;3.662542
3147.000000;3.386111
3146.000000;3.309467
3145.000000;3.295298
3144.000000;3.273060
3143.000000;3.399429
3142.000000;3.692293
3141.000000;3.725263
3140.000000;3.545384
3139.000000;3.766398
3138.000000;4.015241
3137.000000;3.562530
3136.000000;3.377640
3135.000000;3.314009
3134.000000;3.396191
3133.000000;3.526013
3132.000000;3.531587
3131.000000;3.487417
3130.000000;3.528994
3129.000000;3.674954
3128.000000;3.482240
3127.000000;3.341897
3126.000000;3.331926
3125.000000;3.386749
3124.000000;3.544879
3123.000000;3.538810
3122.000000;3.571684
3121.000000;3.615975
3120.000000;3.704283
3119.000000;4.521285
3118.000000;3.493585
3117.000000;3.421772
3116.000000;3.426978
3115.000000;3.280945
3114.000000;3.201258
3113.000000;3.208773
3112.000000;3.386373
3111.000000;3.824557
3110.000000;3.770245
3109.000000;3.501459
3108.000000;3.346990
3107.000000;3.189779
3106.000000;3.137161
3105.000000;3.235008
3104.000000;3.552573
3103.000000;3.883565
3102.000000;3.947182
3101.000000;3.724093
3100.000000;3.514778
3099.000000;3.624292
3098.000000;4.019737
3097.000000;3.824056
3096.000000;3.421971
3095.000000;3.231079
3094.000000;3.187229
3093.000000;3.278277
3092.000000;3.454379
3091.000000;3.778910
3090.000000;3.827159
3089.000000;3.537302
3088.000000;3.478802
3087.000000;3.662587
3086.000000;4.053225
3085.000000;3.959321
3084.000000;4.278032
3083.000000;4.057823
3082.000000;3.690387
3081.000000;3.486956
3080.000000;3.424413
3079.000000;3.437086
3078.000000;3.529800
3077.000000;3.579456
3076.000000;3.388833
3075.000000;3.272597
3074.000000;3.283855
3073.000000;3.300642
3072.000000;3.368247
3071.000000;3.389684
3070.000000;3.224911
3069.000000;3.239963
3068.000000;3.446590
3067.000000;3.560617
3066.000000;3.776402
3065.000000;4.148355
3064.000000;3.921388
3063.000000;3.627692
3062.000000;3.539555
3061.000000;3.703041
3060.000000;3.758971
3059.000000;3.719252
3058.000000;3.852142
3057.000000;3.767993
3056.000000;3.570050
3055.000000;3.678339
3054.000000;4.132152
3053.000000;4.336471
3052.000000;3.830677
3051.000000;3.494998
3050.000000;3.401083
3049.000000;3.448546
3048.000000;3.417197
3047.000000;3.381911
3046.000000;3.474902
3045.000000;3.615823
3044.000000;3.796068
3043.000000;3.941173
3042.000000;3.559229
3041.000000;3.298753
3040.000000;3.294119
3039.000000;3.568422
3038.000000;3.895230
3037.000000;3.893070
3036.000000;3.677104
3035.000000;3.715037
3034.000000;3.771215
3033.000000;3.564497
3032.000000;3.507891
3031.000000;3.429595
3030.000000;3.501713
3029.000000;3.725385
3028.000000;3.675250
3027.000000;3.771722
3026.000000;3.777721
3025.000000;3.575762
3024.000000;3.551291
3023.000000;3.602655
3022.000000;3.409827
3021.000000;3.343538
3020.000000;3.494757
3019.000000;3.553592
3018.000000;3.546307
3017.000000;3.841240
3016.000000;4.040737
3015.000000;3.891315
3014.000000;3.818312
3013.000000;3.873859
3012.000000;3.825158
3011.000000;3.519531
3010.000000;3.336514
3009.000000;3.382278
3008.000000;3.598622
3007.000000;3.867082
3006.000000;4.044448
3005.000000;3.634528
3004.000000;3.377747
3003.000000;3.379220
3002.000000;3.384044
3001.000000;3.319256
3000.000000;3.330088
2999.000000;3.425916
2998.000000;3.518460
2997.000000;3.496665
2996.000000;3.512539
2995.000000;4.076010
2994.000000;3.636733
2993.000000;3.448140
2992.000000;3.666569
2991.000000;3.846194
2990.000000;3.948468
2989.000000;3.583498
2988.000000;3.254975
2987.000000;3.203618
2986.000000;3.378281
2985.000000;3.662323
2984.000000;3.931465
2983.000000;3.849211
2982.000000;3.490546
2981.000000;3.598625
2980.000000;3.913697
2979.000000;3.707987
2978.000000;3.347705
2977.000000;3.260416
2976.000000;3.315341
2975.000000;3.350240
2974.000000;3.332700
2973.000000;3.411366
2972.000000;3.573522
2971.000000;3.714756
2970.000000;3.767336
2969.000000;4.163091
2968.000000;3.639040
2967.000000;3.357933
2966.000000;3.289921
2965.000000;3.197035
2964.000000;3.184439
2963.000000;3.342034
2962.000000;3.602466
2961.000000;3.965568
2960.000000;3.854816
2959.000000;3.695315
2958.000000;3.599759
2957.000000;3.777674
2956.000000;3.773197
2955.000000;3.448112
2954.000000;3.387003
2953.000000;3.440834
2952.000000;3.525578
2951.000000;3.590706
2950.000000;3.849303
2949.000000;4.079818
2948.000000;3.778496
2947.000000;3.452102
2946.000000;3.291639
2945.000000;3.483919
2944.000000;3.671659
2943.000000;3.495104
2942.000000;3.463869
2941.000000;3.423854
2940.000000;3.395567
2939.000000;3.629093
2938.000000;3.941928
2937.000000;3.649753
2936.000000;3.728414
2935.000000;4.262092
2934.000000;3.801810
2933.000000;3.501093
2932.000000;3.309855
2931.000000;3.465079
2930.000000;4.179376
2929.000000;3.829210
2928.000000;3.635329
2927.000000;3.291202
2926.000000;3.171525
2925.000000;3.220368
2924.000000;3.427553
2923.000000;3.796749
2922.000000;3.675774
2921.000000;3.399275
2920.000000;3.688864
2919.000000;3.963626
2918.000000;3.559864
2917.000000;3.608836
2916.000000;3.524694
2915.000000;3.422984
2914.000000;3.424026
2913.000000;3.380262
2912.000000;3.343698
2911.000000;3.420603
2910.000000;3.555979
2909.000000;3.501277
2908.000000;3.367704
2907.000000;3.416595
2906.000000;3.557835
2905.000000;3.921715
2904.000000;3.937490
2903.000000;3.918339
2902.000000;4.040401
2901.000000;3.544459
2900.000000;3.305147
2899.000000;3.223804
2898.000000;3.298075
2897.000000;3.557086
2896.000000;3.840849
2895.000000;3.721532
2894.000000;3.559596
2893.000000;3.447871
2892.000000;3.434160
2891.000000;3.705254
2890.000000;3.763965
2889.000000;3.411763
2888.000000;3.362120
2887.000000;3.594106
2886.000000;3.728670
2885.000000;3.511103
2884.000000;3.401260
2883.000000;3.300068
2882.000000;3.259913
2881.000000;3.327021
2880.000000;3.380599
2879.000000;3.512501
2878.000000;3.781272
2877.000000;3.948082
2876.000000;3.656336
2875.000000;3.879395
2874.000000;4.012821
2873.000000;3.945378
2872.000000;3.715148
2871.000000;3.456465
2870.000000;3.460272
2869.000000;3.384794
2868.000000;3.334389
2867.000000;3.535259
2866.000000;4.124835
2865.000000;4.016485
2864.000000;3.598858
2863.000000;3.611414
2862.000000;3.560896
2861.000000;3.527493
2860.000000;3.750066
2859.000000;3.662177
2858.000000;3.638769
2857.000000;3.750223
2856.000000;3.678046
2855.000000;3.965197
2854.000000;4.221185
2853.000000;4.839496
2852.000000;4.323184
2851.000000;3.889072
2850.000000;3.407523
2849.000000;3.356791
2848.000000;3.431130
2847.000000;3.402018
2846.000000;3.441010
2845.000000;3.654093
2844.000000;3.941105
2843.000000;3.687754
2842.000000;3.476183
2841.000000;3.458100
2840.000000;3.507906
2839.000000;3.648515
2838.000000;3.634619
2837.000000;3.526478
2836.000000;3.615788
2835.000000;3.490502
2834.000000;3.252881
2833.000000;3.196626
2832.000000;3.312964
2831.000000;3.493969
2830.000000;3.527436
2829.000000;3.457639
2828.000000;3.432024
2827.000000;3.552299
2826.000000;3.611807
2825.000000;3.680920
2824.000000;3.891034
2823.000000;3.516213
2822.000000;3.438111
2821.000000;3.797023
2820.000000;4.028356
2819.000000;3.745863
2818.000000;3.614048
2817.000000;3.470079
2816.000000;3.573309
2815.000000;3.680570
2814.000000;3.611783
2813.000000;3.745706
2812.000000;3.974860
2811.000000;3.793470
2810.000000;3.550375
2809.000000;4.077156
2808.000000;3.716411
2807.000000;3.467660
2806.000000;3.826602
2805.000000;3.787700
2804.000000;3.515476
2803.000000;3.332617
2802.000000;3.280064
2801.000000;3.361497
2800.000000;3.503212
2799.000000;4.124814
2798.000000;3.638280
2797.000000;3.452185
2796.000000;3.453289
2795.000000;3.530139
2794.000000;3.629509
2793.000000;3.569854
2792.000000;3.616144
2791.000000;3.699188
2790.000000;3.746181
2789.000000;3.672979
2788.000000;3.333976
2787.000000;3.490816
2786.000000;3.787994
2785.000000;3.523685
2784.000000;3.443754
2783.000000;3.308372
2782.000000;3.154654
2781.000000;3.125671
2780.000000;3.265577
2779.000000;3.476150
2778.000000;3.701175
2777.000000;3.831604
2776.000000;3.453884
2775.000000;3.362334
2774.000000;3.370768
2773.000000;3.263789
2772.000000;3.109746
2771.000000;3.043337
2770.000000;3.089242
2769.000000;3.245552
2768.000000;3.430001
2767.000000;3.474367
2766.000000;3.442719
2765.000000;3.589934
2764.000000;3.905990
2763.000000;3.793321
2762.000000;3.837666
2761.000000;3.908084
2760.000000;3.425489
2759.000000;3.365621
2758.000000;3.466110
2757.000000;3.510073
2756.000000;3.624135
2755.000000;3.729880
2754.000000;3.371636
2753.000000;3.211302
2752.000000;3.190527
2751.000000;3.110449
2750.000000;3.012980
2749.000000;3.011182
2748.000000;3.141896
2747.000000;3.369022
2746.000000;3.608171
2745.000000;3.900003
2744.000000;3.529131
2743.000000;3.510833
2742.000000;3.529200
2741.000000;3.603711
2740.000000;3.483153
2739.000000;3.431573
2738.000000;3.432404
2737.000000;3.681188
2736.000000;4.255536
2735.000000;3.473489
2734.000000;3.456133
2733.000000;3.738080
2732.000000;3.653610
2731.000000;3.429090
2730.000000;3.422566
2729.000000;3.313656
2728.000000;3.232983
2727.000000;3.230872
2726.000000;3.244963
2725.000000;3.250702
2724.000000;3.339967
2723.000000;3.507753
2722.000000;3.578155
2721.000000;3.495686
2720.000000;3.417044
2719.000000;3.691499
2718.000000;3.929759
2717.000000;3.499734
2716.000000;3.387669
2715.000000;3.322048
2714.000000;3.291612
2713.000000;3.366148
2712.000000;3.490516
2711.000000;3.639743
2710.000000;3.700105
2709.000000;3.478857
2708.000000;3.333708
2707.000000;3.377115
2706.000000;3.543415
2705.000000;3.603250
2704.000000;3.535420
2703.000000;3.573420
2702.000000;3.465307
2701.000000;3.341749
2700.000000;3.447732
2699.000000;3.728442
2698.000000;4.027088
2697.000000;4.213651
2696.000000;3.823178
2695.000000;3.519643
2694.000000;3.431058
2693.000000;3.733973
2692.000000;3.717971
2691.000000;3.607401
2690.000000;3.899024
2689.000000;3.759998
2688.000000;3.396033
2687.000000;3.251102
2686.000000;3.219780
2685.000000;3.256685
2684.000000;3.319021
2683.000000;3.323711
2682.000000;3.377924
2681.000000;3.682796
2680.000000;3.696449
2679.000000;3.419688
2678.000000;3.324822
2677.000000;3.284890
2676.000000;3.343350
2675.000000;3.607043
2674.000000;3.836664
2673.000000;3.624104
2672.000000;3.417427
2671.000000;3.374554
2670.000000;3.439504
2669.000000;3.451620
2668.000000;3.571988
2667.000000;3.833170
2666.000000;3.624793
2665.000000;3.907507
2664.000000;3.542368
2663.000000;3.356138
2662.000000;3.321309
2661.000000;3.236507
2660.000000;3.189077
2659.000000;3.226493
2658.000000;3.338631
2657.000000;3.443722
2656.000000;3.713870
2655.000000;3.766833
2654.000000;3.283376
2653.000000;3.197395
2652.000000;3.228774
2651.000000;3.269306
2650.000000;3.304510
2649.000000;3.403400
2648.000000;3.548812
2647.000000;3.697380
2646.000000;3.793821
2645.000000;3.762005
2644.000000;3.491215
2643.000000;3.430992
2642.000000;3.521936
2641.000000;3.424925
2640.000000;3.345857
2639.000000;3.640076
2638.000000;3.801046
2637.000000;3.428583
2636.000000;3.360702
2635.000000;3.338191
2634.000000;3.372909
2633.000000;3.393481
2632.000000;3.286152
2631.000000;3.218206
2630.000000;3.208544
2629.000000;3.330552
2628.000000;3.609396
2627.000000;3.696737
2626.000000;3.583956
2625.000000;3.732040
2624.000000;3.983158
2623.000000;4.236459
2622.000000;4.243117
2621.000000;4.248955
2620.000000;4.148281
2619.000000;3.640174
2618.000000;3.495452
2617.000000;3.595480
2616.000000;3.614251
2615.000000;3.451718
2614.000000;3.405498
2613.000000;3.882247
2612.000000;3.667605
2611.000000;3.330481
2610.000000;3.159623
2609.000000;3.106210
2608.000000;3.210766
2607.000000;3.389200
2606.000000;3.514990
2605.000000;3.677492
2604.000000;3.411617
2603.000000;3.278286
2602.000000;3.324466
2601.000000;3.337444
2600.000000;3.369489
2599.000000;3.790106
2598.000000;3.759316
2597.000000;3.448846
2596.000000;3.460563
2595.000000;3.433791
2594.000000;3.429019
2593.000000;3.450484
2592.000000;3.592921
2591.000000;3.403314
2590.000000;3.238725
2589.000000;3.314219
2588.000000;3.402085
2587.000000;3.456298
2586.000000;3.612359
2585.000000;4.188283
2584.000000;3.788088
2583.000000;3.726198
2582.000000;4.017730
2581.000000;3.766209
2580.000000;3.590436
2579.000000;3.607420
2578.000000;3.537373
2577.000000;3.337994
2576.000000;3.264925
2575.000000;3.468544
2574.000000;3.932439
2573.000000;3.835623
2572.000000;3.651649
2571.000000;3.491366
2570.000000;3.440941
2569.000000;3.586554
2568.000000;3.698198
2567.000000;3.391357
2566.000000;3.221332
2565.000000;3.299978
2564.000000;3.463106
2563.000000;3.861030
2562.000000;3.843959
2561.000000;3.472121
2560.000000;3.368049
2559.000000;3.391234
2558.000000;3.487742
2557.000000;3.491098
2556.000000;3.438937
2555.000000;3.401381
2554.000000;3.344860
2553.000000;3.361872
2552.000000;3.338800
2551.000000;3.319604
2550.000000;3.438441
2549.000000;3.594810
2548.000000;3.924996
2547.000000;3.973330
2546.000000;3.464918
2545.000000;3.444974
2544.000000;3.943518
2543.000000;4.034974
2542.000000;3.583460
2541.000000;3.398201
2540.000000;3.203148
2539.000000;3.163239
2538.000000;3.178353
2537.000000;3.137905
2536.000000;3.119551
2535.000000;3.207673
2534.000000;3.390455
2533.000000;3.692448
2532.000000;3.865595
2531.000000;4.044768
2530.000000;3.615486
2529.000000;3.399033
2528.000000;3.534487
2527.000000;3.858250
2526.000000;3.527312
2525.000000;3.639055
2524.000000;4.151699
2523.000000;3.576226
2522.000000;3.239644
2521.000000;3.071287
2520.000000;3.031892
2519.000000;3.116676
2518.000000;3.274847
2517.000000;3.468844
2516.000000;3.951181
2515.000000;4.028710
2514.000000;3.796748
2513.000000;4.072689
2512.000000;3.830752
2511.000000;3.841109
2510.000000;4.699421
2509.000000;4.043226
2508.000000;3.584239
2507.000000;3.377188
2506.000000;3.269044
2505.000000;3.319746
2504.000000;3.525011
2503.000000;3.619497
2502.000000;3.419535
2501.000000;3.204695
2500.000000;3.116862
2499.000000;3.200179
2498.000000;3.462803
2497.000000;3.761481
2496.000000;4.072417
2495.000000;4.015288
2494.000000;3.519700
2493.000000;3.453449
2492.000000;3.497643
2491.000000;3.505226
2490.000000;3.463479
2489.000000;3.478399
2488.000000;3.891440
2487.000000;4.061729
2486.000000;3.677199
2485.000000;3.554687
2484.000000;3.466227
2483.000000;3.505573
2482.000000;3.641180
2481.000000;4.037287
2480.000000;3.915768
2479.000000;4.076221
2478.000000;3.722618
2477.000000;3.779096
2476.000000;4.088265
2475.000000;3.744235
2474.000000;3.798187
2473.000000;3.736999
2472.000000;3.574078
2471.000000;3.464636
2470.000000;3.575383
2469.000000;4.013686
2468.000000;3.706373
2467.000000;3.548084
2466.000000;3.513500
2465.000000;3.360914
2464.000000;3.303303
2463.000000;3.414849
2462.000000;3.600458
2461.000000;3.670338
2460.000000;3.733727
2459.000000;3.901443
2458.000000;3.885608
2457.000000;4.090389
2456.000000;3.757801
2455.000000;3.492478
2454.000000;3.419505
2453.000000;3.456808
2452.000000;3.670651
2451.000000;3.617407
2450.000000;3.416149
2449.000000;3.444085
2448.000000;3.649513
2447.000000;3.846623
2446.000000;3.751261
2445.000000;3.477137
2444.000000;3.375758
2443.000000;3.487031
2442.000000;3.660013
2441.000000;3.475473
2440.000000;3.276028
2439.000000;3.315560
2438.000000;3.662777
2437.000000;4.085907
2436.000000;3.789017
2435.000000;3.603311
2434.000000;3.446944
2433.000000;3.383138
2432.000000;3.398587
2431.000000;3.338304
2430.000000;3.222130
2429.000000;3.192548
2428.000000;3.296969
2427.000000;3.467116
2426.000000;3.435053
2425.000000;3.573298
2424.000000;4.024110
2423.000000;3.675927
2422.000000;3.507119
2421.000000;3.579304
2420.000000;3.861208
2419.000000;3.945595
2418.000000;3.584803
2417.000000;3.282592
2416.000000;3.114907
2415.000000;3.124849
2414.000000;3.187574
2413.000000;3.192172
2412.000000;3.254719
2411.000000;3.404291
2410.000000;3.513279
2409.000000;3.396261
2408.000000;3.240839
2407.000000;3.214658
2406.000000;3.191680
2405.000000;3.228659
2404.000000;3.523436
2403.000000;4.142351
2402.000000;4.162325
2401.000000;3.979932
2400.000000;4.122697
2399.000000;3.559148
2398.000000;3.305310
2397.000000;3.406953
2396.000000;3.601152
2395.000000;3.604921
2394.000000;3.621155
2393.000000;3.521497
2392.000000;3.351530
2391.000000;3.359677
2390.000000;3.585038
2389.000000;3.709952
2388.000000;3.983226
2387.000000;4.349690
2386.000000;3.598539
2385.000000;3.680882
2384.000000;4.094844
2383.000000;3.901109
2382.000000;3.730765
2381.000000;3.538528
2380.000000;3.434721
2379.000000;3.473740
2378.000000;3.540955
2377.000000;3.545018
2376.000000;3.563383
2375.000000;3.686132
2374.000000;3.830425
2373.000000;3.740034
2372.000000;3.743161
2371.000000;3.714999
2370.000000;3.483694
2369.000000;3.394540
2368.000000;3.404498
2367.000000;3.429825
2366.000000;3.452181
2365.000000;3.454197
2364.000000;3.535788
2363.000000;3.806648
2362.000000;3.934857
2361.000000;3.780885
2360.000000;3.756656
2359.000000;3.700079
2358.000000;3.690475
2357.000000;4.000300
2356.000000;4.117100
2355.000000;3.993090
2354.000000;4.440324
2353.000000;4.160438
2352.000000;3.838665
2351.000000;3.741915
2350.000000;3.670303
2349.000000;3.670486
2348.000000;3.710661
2347.000000;3.719336
2346.000000;3.581143
2345.000000;3.480534
2344.000000;3.481305
2343.000000;3.627624
2342.000000;4.051576
2341.000000;4.424377
2340.000000;4.230513
2339.000000;3.922050
2338.000000;3.665908
2337.000000;3.812629
2336.000000;4.319618
2335.000000;3.915922
2334.000000;3.785467
2333.000000;3.900160
2332.000000;3.879871
2331.000000;3.608494
2330.000000;3.427347
2329.000000;3.560674
2328.000000;4.134208
2327.000000;4.228405
2326.000000;4.040603
2325.000000;3.944997
2324.000000;3.821218
2323.000000;3.787557
2322.000000;3.913410
2321.000000;4.257345
2320.000000;3.939687
2319.000000;3.733898
2318.000000;3.599215
2317.000000;3.621757
2316.000000;3.802502
2315.000000;3.865129
2314.000000;3.991389
2313.000000;4.183102
2312.000000;4.145557
2311.000000;3.779470
2310.000000;3.651321
2309.000000;3.745079
2308.000000;3.839041
2307.000000;3.748931
2306.000000;3.586470
2305.000000;3.876707
2304.000000;4.287776
2303.000000;3.720149
2302.000000;3.550813
2301.000000;3.358927
2300.000000;3.295068
2299.000000;3.468370
2298.000000;4.215790
2297.000000;4.042565
2296.000000;3.477907
2295.000000;3.349266
2294.000000;3.222390
2293.000000;3.188725
2292.000000;3.335621
2291.000000;3.629060
2290.000000;3.854998
2289.000000;3.639195
2288.000000;3.432341
2287.000000;3.520659
2286.000000;3.936606
2285.000000;3.965331
2284.000000;3.610845
2283.000000;3.417583
2282.000000;3.313012
2281.000000;3.376403
2280.000000;3.558118
2279.000000;3.567531
2278.000000;3.538774
2277.000000;3.739256
2276.000000;4.138563
2275.000000;3.814234
2274.000000;3.508416
2273.000000;3.532403
2272.000000;3.727537
2271.000000;3.808281
2270.000000;3.703978
2269.000000;3.478883
2268.000000;3.328830
2267.000000;3.360846
2266.000000;3.622162
2265.000000;3.540784
2264.000000;3.231254
2263.000000;3.262467
2262.000000;3.564974
2261.000000;3.683552
2260.000000;3.739746
2259.000000;3.994876
2258.000000;4.072143
2257.000000;3.791436
2256.000000;3.804842
2255.000000;3.989181
2254.000000;3.685428
2253.000000;3.608080
2252.000000;3.756581
2251.000000;3.778907
2250.000000;3.515341
2249.000000;3.461602
2248.000000;3.678139
2247.000000;3.871389
2246.000000;4.302789
2245.000000;3.892874
2244.000000;3.506539
2243.000000;3.598265
2242.000000;3.646444
2241.000000;3.512594
2240.000000;3.545820
2239.000000;3.435763
2238.000000;3.479115
2237.000000;3.801241
2236.000000;3.651826
2235.000000;3.824571
2234.000000;3.858132
2233.000000;3.563403
2232.000000;3.524911
2231.000000;3.552710
2230.000000;3.703851
2229.000000;3.803359
2228.000000;3.955652
2227.000000;3.627918
2226.000000;3.331064
2225.000000;3.418711
2224.000000;3.710932
2223.000000;3.785426
2222.000000;3.669472
2221.000000;3.379158
2220.000000;3.282489
2219.000000;3.453489
2218.000000;3.717482
2217.000000;3.735059
2216.000000;3.549413
2215.000000;3.669782
2214.000000;3.987421
2213.000000;3.858377
2212.000000;3.949731
2211.000000;3.652866
2210.000000;3.514087
2209.000000;3.802363
2208.000000;3.931782
2207.000000;3.635082
2206.000000;3.374135
2205.000000;3.299514
2204.000000;3.334678
2203.000000;3.334944
2202.000000;3.314536
2201.000000;3.253243
2200.000000;3.230164
2199.000000;3.282063
2198.000000;3.318004
2197.000000;3.253964
2196.000000;3.233089
2195.000000;3.551035
2194.000000;4.016223
2193.000000;3.694527
2192.000000;3.676503
2191.000000;3.853637
2190.000000;4.287191
2189.000000;4.040045
2188.000000;3.772764
2187.000000;3.579928
2186.000000;3.422163
2185.000000;3.459317
2184.000000;3.637703
2183.000000;3.719719
2182.000000;3.542686
2181.000000;3.718715
2180.000000;4.257572
2179.000000;3.783355
2178.000000;3.649940
2177.000000;3.943263
2176.000000;3.870774
2175.000000;3.488855
2174.000000;3.365112
2173.000000;3.405285
2172.000000;3.587744
2171.000000;3.379013
2170.000000;3.169781
2169.000000;3.359737
2168.000000;3.837125
2167.000000;3.793508
2166.000000;3.626456
2165.000000;3.396839
2164.000000;3.263219
2163.000000;3.310487
2162.000000;3.388231
2161.000000;3.308604
2160.000000;3.224107
2159.000000;3.366796
2158.000000;3.592261
2157.000000;3.584770
2156.000000;3.687054
2155.000000;4.068870
2154.000000;4.089335
2153.000000;3.477627
2152.000000;3.269880
2151.000000;3.351256
2150.000000;3.555601
2149.000000;3.497620
2148.000000;3.359278
2147.000000;3.408789
2146.000000;3.773241
2145.000000;4.207190
2144.000000;4.012366
2143.000000;3.869231
2142.000000;3.712843
2141.000000;3.737539
2140.000000;3.615452
2139.000000;3.616778
2138.000000;3.857322
2137.000000;4.251995
2136.000000;3.999876
2135.000000;3.770004
2134.000000;3.685196
2133.000000;3.600505
2132.000000;3.451665
2131.000000;3.508588
2130.000000;4.404300
2129.000000;3.750464
2128.000000;3.456197
2127.000000;3.542361
2126.000000;3.438893
2125.000000;3.563633
2124.000000;3.919126
2123.000000;3.541877
2122.000000;3.537498
2121.000000;3.951462
2120.000000;4.051475
2119.000000;4.117367
2118.000000;4.062040
2117.000000;3.721997
2116.000000;3.495709
2115.000000;3.387567
2114.000000;3.353001
2113.000000;3.375974
2112.000000;3.410684
2111.000000;3.345111
2110.000000;3.375963
2109.000000;3.608386
2108.000000;3.765471
2107.000000;3.937866
2106.000000;3.655237
2105.000000;3.559919
2104.000000;3.839135
2103.000000;3.943624
2102.000000;4.550823
2101.000000;4.046533
2100.000000;3.906893
2099.000000;4.671209
2098.000000;3.985278
2097.000000;3.578837
2096.000000;3.319138
2095.000000;3.320721
2094.000000;3.685385
2093.000000;4.140532
2092.000000;3.868693
2091.000000;3.756956
2090.000000;3.817423
2089.000000;3.712958
2088.000000;3.413728
2087.000000;3.296112
2086.000000;3.382874
2085.000000;3.399325
2084.000000;3.276510
2083.000000;3.332000
2082.000000;3.455007
2081.000000;3.481849
2080.000000;3.927806
2079.000000;4.051131
2078.000000;3.770372
2077.000000;4.094753
2076.000000;3.816431
2075.000000;3.602513
2074.000000;3.455608
2073.000000;3.249799
2072.000000;3.150568
2071.000000;3.218532
2070.000000;3.489629
2069.000000;3.841952
2068.000000;4.009983
2067.000000;3.773320
2066.000000;3.578228
2065.000000;3.648417
2064.000000;3.775452
2063.000000;3.534306
2062.000000;3.337614
2061.000000;3.345217
2060.000000;3.491484
2059.000000;3.687100
2058.000000;4.020467
2057.000000;4.089473
2056.000000;3.906255
2055.000000;4.045453
2054.000000;3.560238
2053.000000;3.300252
2052.000000;3.305837
2051.000000;3.265969
2050.000000;3.273202
2049.000000;3.449321
2048.000000;3.517255
2047.000000;3.491601
2046.000000;3.611556
2045.000000;3.586629
2044.000000;3.727770
2043.000000;4.013885
2042.000000;3.975261
2041.000000;4.267300
2040.000000;3.746753
2039.000000;3.682245
2038.000000;3.779162
2037.000000;3.526375
2036.000000;3.366993
2035.000000;3.557891
2034.000000;4.146034
2033.000000;3.898336
2032.000000;4.164508
2031.000000;3.978699
2030.000000;3.671066
2029.000000;3.636296
2028.000000;3.444497
2027.000000;3.299454
2026.000000;3.258230
2025.000000;3.381466
2024.000000;3.678690
2023.000000;4.074738
2022.000000;3.894194
2021.000000;3.515603
2020.000000;3.434314
2019.000000;3.632853
2018.000000;3.897383
2017.000000;3.631112
2016.000000;3.380714
2015.000000;3.367547
2014.000000;3.533578
2013.000000;3.521507
2012.000000;3.668763
2011.000000;4.043105
2010.000000;3.670875
2009.000000;3.526445
2008.000000;3.342595
2007.000000;3.221853
2006.000000;3.322776
2005.000000;3.884595
2004.000000;4.124940
2003.000000;3.487164
2002.000000;3.352108
2001.000000;3.270292
2000.000000;3.367412
1999.000000;3.454781
1998.000000;3.552263
1997.000000;3.745815
1996.000000;3.755225
1995.000000;4.209524
1994.000000;3.608333
1993.000000;3.483513
1992.000000;3.893588
1991.000000;4.141264
1990.000000;4.097830
1989.000000;4.133820
1988.000000;3.954748
1987.000000;3.871661
1986.000000;3.672321
1985.000000;3.354317
1984.000000;3.228291
1983.000000;3.337771
1982.000000;3.672813
1981.000000;3.695376
1980.000000;3.465081
1979.000000;3.554702
1978.000000;3.781524
1977.000000;3.469327
1976.000000;3.361664
1975.000000;3.603414
1974.000000;3.811415
1973.000000;3.730171
1972.000000;3.569042
1971.000000;3.526842
1970.000000;3.613115
1969.000000;3.641621
1968.000000;3.824749
1967.000000;3.881316
1966.000000;3.581915
1965.000000;3.705200
1964.000000;4.273512
1963.000000;3.720821
1962.000000;3.347552
1961.000000;3.290584
1960.000000;3.413841
1959.000000;3.544332
1958.000000;3.455520
1957.000000;3.239811
1956.000000;3.131315
1955.000000;3.235995
1954.000000;3.536026
1953.000000;3.903567
1952.000000;4.274309
1951.000000;3.886213
1950.000000;4.013101
1949.000000;3.907807
1948.000000;3.405987
1947.000000;3.370783
1946.000000;3.525954
1945.000000;3.580122
1944.000000;3.561668
1943.000000;3.416444
1942.000000;3.240673
1941.000000;3.241182
1940.000000;3.391093
1939.000000;3.472905
1938.000000;3.431756
1937.000000;3.467870
1936.000000;3.570504
1935.000000;3.532979
1934.000000;3.445190
1933.000000;3.490003
1932.000000;3.552068
1931.000000;3.564964
1930.000000;3.604057
1929.000000;3.516874
1928.000000;3.391003
1927.000000;3.368847
1926.000000;3.518636
1925.000000;3.785569
1924.000000;3.748494
1923.000000;3.655758
1922.000000;3.887918
1921.000000;3.766288
1920.000000;3.482723
1919.000000;3.644548
1918.000000;3.784458
1917.000000;3.589530
1916.000000;3.706295
1915.000000;4.167028
1914.000000;4.377195
1913.000000;3.819357
1912.000000;3.608105
1911.000000;3.562236
1910.000000;3.459650
1909.000000;3.512630
1908.000000;3.755779
1907.000000;3.962769
1906.000000;3.946882
1905.000000;3.582611
1904.000000;3.301035
1903.000000;3.212489
1902.000000;3.209547
1901.000000;3.198287
1900.000000;3.176629
1899.000000;3.234426
1898.000000;3.316954
1897.000000;3.326971
1896.000000;3.307827
1895.000000;3.283756
1894.000000;3.398759
1893.000000;3.582076
1892.000000;3.494483
1891.000000;3.567213
1890.000000;3.737266
1889.000000;3.499826
1888.000000;3.354801
1887.000000;3.360791
1886.000000;3.323309
1885.000000;3.253654
1884.000000;3.251390
1883.000000;3.367879
1882.000000;3.518708
1881.000000;3.438738
1880.000000;3.322431
1879.000000;3.364056
1878.000000;3.427202
1877.000000;3.320765
1876.000000;3.241449
1875.000000;3.358164
1874.000000;3.730213
1873.000000;3.805454
1872.000000;3.702663
1871.000000;4.039138
1870.000000;4.251460
1869.000000;3.951047
1868.000000;3.633653
1867.000000;3.614763
1866.000000;3.843209
1865.000000;3.681290
1864.000000;3.537087
1863.000000;3.600422
1862.000000;3.529465
1861.000000;3.448959
1860.000000;3.451010
1859.000000;3.406193
1858.000000;3.318291
1857.000000;3.245896
1856.000000;3.263403
1855.000000;3.455750
1854.000000;3.777580
1853.000000;3.623826
1852.000000;3.517686
1851.000000;3.814905
1850.000000;3.748511
1849.000000;3.625302
1848.000000;3.708401
1847.000000;3.494242
1846.000000;3.408535
1845.000000;3.403960
1844.000000;3.272697
1843.000000;3.179445
1842.000000;3.230143
1841.000000;3.396713
1840.000000;3.670538
1839.000000;3.746053
1838.000000;3.579824
1837.000000;3.404604
1836.000000;3.314990
1835.000000;3.379392
1834.000000;3.544568
1833.000000;3.565974
1832.000000;3.442866
1831.000000;3.436281
1830.000000;3.310740
1829.000000;3.349659
1828.000000;3.851931
1827.000000;3.758972
1826.000000;3.413747
1825.000000;3.428822
1824.000000;3.650364
1823.000000;3.892373
1822.000000;4.062591
1821.000000;3.864911
1820.000000;3.847438
1819.000000;3.615395
1818.000000;3.387538
1817.000000;3.500161
1816.000000;3.778446
1815.000000;4.316791
1814.000000;4.011688
1813.000000;3.601993
1812.000000;3.554497
1811.000000;3.661994
1810.000000;3.736357
1809.000000;3.819828
1808.000000;4.276968
1807.000000;3.589892
1806.000000;3.380221
1805.000000;3.487326
1804.000000;3.378564
1803.000000;3.321136
1802.000000;3.403273
1801.000000;3.359649
1800.000000;3.372285
1799.000000;3.638244
1798.000000;3.495551
1797.000000;3.465543
1796.000000;3.674279
1795.000000;3.625609
1794.000000;3.627520
1793.000000;3.550412
1792.000000;3.379578
1791.000000;3.302554
1790.000000;3.435442
1789.000000;3.670076
1788.000000;3.654404
1787.000000;4.131526
1786.000000;4.221099
1785.000000;3.637765
1784.000000;3.376852
1783.000000;3.337949
1782.000000;3.604393
1781.000000;3.642911
1780.000000;3.459334
1779.000000;3.448956
1778.000000;3.439872
1777.000000;3.348605
1776.000000;3.229342
1775.000000;3.213698
1774.000000;3.227452
1773.000000;3.117357
1772.000000;3.009278
1771.000000;3.058041
1770.000000;3.283642
1769.000000;3.444082
1768.000000;3.372196
1767.000000;3.470813
1766.000000;3.711745
1765.000000;3.597071
1764.000000;3.453378
1763.000000;3.387580
1762.000000;3.395953
1761.000000;3.560211
1760.000000;3.622701
1759.000000;3.787491
1758.000000;4.270275
1757.000000;4.347919
1756.000000;3.809894
1755.000000;3.609114
1754.000000;3.786897
1753.000000;4.008364
1752.000000;3.684442
1751.000000;3.555480
1750.000000;3.314465
1749.000000;3.241904
1748.000000;3.447323
1747.000000;3.697376
1746.000000;3.591121
1745.000000;3.351625
1744.000000;3.140196
1743.000000;3.133670
1742.000000;3.251258
1741.000000;3.402107
1740.000000;3.407779
1739.000000;3.367492
1738.000000;3.388475
1737.000000;3.302187
1736.000000;3.364259
1735.000000;3.579189
1734.000000;3.717093
1733.000000;3.767929
1732.000000;3.819905
1731.000000;3.959300
1730.000000;4.781001
1729.000000;3.896190
1728.000000;3.491681
1727.000000;3.442251
1726.000000;3.510856
1725.000000;3.659850
1724.000000;3.770227
1723.000000;3.566398
1722.000000;3.422536
1721.000000;3.347824
1720.000000;3.289156
1719.000000;3.376170
1718.000000;3.436693
1717.000000;3.240927
1716.000000;3.003650
1715.000000;2.961129
1714.000000;3.056824
1713.000000;3.143436
1712.000000;3.236713
1711.000000;3.401796
1710.000000;3.514686
1709.000000;3.415863
1708.000000;3.217110
1707.000000;3.283523
1706.000000;3.375659
1705.000000;3.053796
1704.000000;2.930721
1703.000000;3.037470
1702.000000;3.151429
1701.000000;3.236886
1700.000000;3.340318
1699.000000;3.161120
1698.000000;2.999919
1697.000000;3.046272
1696.000000;3.120946
1695.000000;3.085344
1694.000000;3.030483
1693.000000;3.240707
1692.000000;3.453071
1691.000000;3.382264
1690.000000;3.452282
1689.000000;3.454185
1688.000000;3.398583
1687.000000;3.428629
1686.000000;3.699438
1685.000000;3.747549
1684.000000;3.397406
1683.000000;3.416579
1682.000000;3.355923
1681.000000;3.328866
1680.000000;3.623127
1679.000000;3.510262
1678.000000;3.206788
1677.000000;3.176282
1676.000000;3.253918
1675.000000;3.381320
1674.000000;3.602433
1673.000000;3.857102
1672.000000;3.411940
1671.000000;3.344926
1670.000000;3.341298
1669.000000;3.107809
1668.000000;2.983107
1667.000000;3.039151
1666.000000;3.118825
1665.000000;3.105608
1664.000000;3.193893
1663.000000;3.561457
1662.000000;3.573399
1661.000000;3.367244
1660.000000;3.325046
1659.000000;3.359250
1658.000000;3.547028
1657.000000;3.522296
1656.000000;3.528907
1655.000000;3.512105
1654.000000;3.296541
1653.000000;3.589609
1652.000000;3.629121
1651.000000;3.181676
1650.000000;3.132187
1649.000000;3.121594
1648.000000;3.281800
1647.000000;3.313955
1646.000000;3.181755
1645.000000;3.440396
1644.000000;3.868348
1643.000000;3.621510
1642.000000;3.762101
1641.000000;4.403395
1640.000000;3.977656
1639.000000;3.548845
1638.000000;3.228259
1637.000000;3.205307
1636.000000;3.276849
1635.000000;3.158568
1634.000000;3.139559
1633.000000;3.354174
1632.000000;3.333656
1631.000000;3.088367
1630.000000;3.013151
1629.000000;2.987894
1628.000000;2.975068
1627.000000;3.052675
1626.000000;3.261525
1625.000000;3.450178
1624.000000;3.424245
1623.000000;3.997326
1622.000000;3.540235
1621.000000;3.340348
1620.000000;3.566882
1619.000000;3.591267
1618.000000;3.582429
1617.000000;3.670542
1616.000000;3.257521
1615.000000;3.296121
1614.000000;3.733921
1613.000000;3.417596
1612.000000;3.315495
1611.000000;3.327951
1610.000000;3.252461
1609.000000;3.209075
1608.000000;3.319210
1607.000000;3.462827
1606.000000;3.836139
1605.000000;3.707372
1604.000000;3.330869
1603.000000;3.464261
1602.000000;3.479194
1601.000000;3.752867
1600.000000;3.960770
1599.000000;3.677428
1598.000000;3.899878
1597.000000;3.789986
1596.000000;3.682957
1595.000000;3.985909
1594.000000;3.790025
1593.000000;3.492757
1592.000000;3.388965
1591.000000;3.581235
1590.000000;4.091341
1589.000000;4.118992
1588.000000;3.859211
1587.000000;3.336878
1586.000000;3.080812
1585.000000;3.067226
1584.000000;3.194576
1583.000000;3.342720
1582.000000;3.447251
1581.000000;3.607331
1580.000000;3.882642
1579.000000;3.489098
1578.000000;3.512559
1577.000000;3.500586
1576.000000;3.176720
1575.000000;3.555062
1574.000000;3.719932
1573.000000;3.507295
1572.000000;3.616025
1571.000000;3.339437
1570.000000;3.306281
1569.000000;3.802936
1568.000000;3.796389
1567.000000;4.223528
1566.000000;3.732085
1565.000000;3.598212
1564.000000;3.446771
1563.000000;3.275365
1562.000000;3.294018
1561.000000;3.508259
1560.000000;3.411983
1559.000000;3.247696
1558.000000;3.395630
1557.000000;3.262161
1556.000000;3.537951
1555.000000;4.147759
1554.000000;3.450999
1553.000000;3.423235
1552.000000;3.307007
1551.000000;3.219040
1550.000000;3.223985
1549.000000;3.270696
1548.000000;3.308679
1547.000000;3.636274
1546.000000;3.880306
1545.000000;3.466105
1544.000000;3.318317
1543.000000;3.364541
1542.000000;3.595496
1541.000000;3.457666
1540.000000;3.424518
1539.000000;3.683848
1538.000000;3.305668
1537.000000;3.318223
1536.000000;3.457877
1535.000000;3.345602
1534.000000;3.184248
1533.000000;3.159584
1532.000000;3.255857
1531.000000;3.343328
1530.000000;3.306084
1529.000000;3.291865
1528.000000;3.250860
1527.000000;3.257731
1526.000000;3.315147
1525.000000;3.249394
1524.000000;3.308838
1523.000000;3.595417
1522.000000;3.305370
1521.000000;3.128710
1520.000000;3.217118
1519.000000;3.267190
1518.000000;3.165652
1517.000000;3.148047
1516.000000;3.165838
1515.000000;3.196213
1514.000000;3.328970
1513.000000;3.865176
1512.000000;3.612272
1511.000000;3.369216
1510.000000;3.368714
1509.000000;3.751341
1508.000000;3.698947
1507.000000;3.327107
1506.000000;3.212212
1505.000000;3.126704
1504.000000;3.120160
1503.000000;3.366633
1502.000000;3.627978
1501.000000;3.831308
1500.000000;4.060258
1499.000000;3.569978
1498.000000;3.911614
1497.000000;3.667069
1496.000000;3.493205
1495.000000;3.888520
1494.000000;3.565259
1493.000000;3.872434
1492.000000;3.713161
1491.000000;3.239524
1490.000000;3.177082
1489.000000;3.244357
1488.000000;3.414609
1487.000000;3.844126
1486.000000;3.356201
1485.000000;3.255193
1484.000000;3.379375
1483.000000;3.354743
1482.000000;3.319625
1481.000000;3.411453
1480.000000;3.503305
1479.000000;3.413018
1478.000000;3.243191
1477.000000;3.055044
1476.000000;2.969035
1475.000000;3.069400
1474.000000;3.323126
1473.000000;3.773831
1472.000000;4.010567
1471.000000;3.705729
1470.000000;3.911101
1469.000000;3.627515
1468.000000;3.459288
1467.000000;3.425740
1466.000000;3.640389
1465.000000;3.676720
1464.000000;3.478228
1463.000000;3.353593
1462.000000;3.212584
1461.000000;3.282715
1460.000000;3.485070
1459.000000;3.491571
1458.000000;3.810447
1457.000000;3.306634
1456.000000;2.990118
1455.000000;3.041270
1454.000000;3.254605
1453.000000;3.151585
1452.000000;3.127579
1451.000000;3.251107
1450.000000;3.401214
1449.000000;3.603908
1448.000000;3.780689
1447.000000;3.298393
1446.000000;3.124981
1445.000000;3.103616
1444.000000;3.099764
1443.000000;3.091948
1442.000000;3.197088
1441.000000;3.252732
1440.000000;3.157376
1439.000000;3.278740
1438.000000;3.397641
1437.000000;3.214206
1436.000000;3.047034
1435.000000;3.071662
1434.000000;3.097506
1433.000000;3.073322
1432.000000;3.110959
1431.000000;3.116892
1430.000000;3.033660
1429.000000;3.055012
1428.000000;3.198298
1427.000000;3.224291
1426.000000;3.258997
1425.000000;3.472979
1424.000000;3.448585
1423.000000;3.469274
1422.000000;3.522512
1421.000000;3.348168
1420.000000;3.257951
1419.000000;3.396845
1418.000000;3.796429
1417.000000;3.842051
1416.000000;3.618076
1415.000000;3.358998
1414.000000;3.262189
1413.000000;3.205059
1412.000000;3.239887
1411.000000;3.446831
1410.000000;3.496487
1409.000000;3.319564
1408.000000;3.191169
1407.000000;3.178393
1406.000000;3.274268
1405.000000;3.727883
1404.000000;3.567464
1403.000000;3.544245
1402.000000;3.757891
1401.000000;3.551500
1400.000000;3.382866
1399.000000;3.376731
1398.000000;3.302639
1397.000000;3.254382
1396.000000;3.321510
1395.000000;3.320966
1394.000000;3.262772
1393.000000;3.369358
1392.000000;3.601054
1391.000000;3.903256
1390.000000;3.896551
1389.000000;3.479059
1388.000000;3.354879
1387.000000;3.481477
1386.000000;3.810774
1385.000000;3.575148
1384.000000;3.378374
1383.000000;3.355840
1382.000000;3.257403
1381.000000;3.218641
1380.000000;3.260745
1379.000000;3.182896
1378.000000;3.084248
1377.000000;3.121517
1376.000000;3.247091
1375.000000;3.422334
1374.000000;3.574818
1373.000000;3.487693
1372.000000;3.304162
1371.000000;3.084965
1370.000000;2.973919
1369.000000;3.041568
1368.000000;3.231960
1367.000000;3.302808
1366.000000;3.330273
1365.000000;3.252451
1364.000000;3.174966
1363.000000;3.453614
1362.000000;3.772067
1361.000000;3.236197
1360.000000;3.154867
1359.000000;3.115867
1358.000000;3.146590
1357.000000;3.380764
1356.000000;3.610979
1355.000000;3.618871
1354.000000;3.684341
1353.000000;3.428712
1352.000000;3.408402
1351.000000;3.488163
1350.000000;3.466284
1349.000000;3.724186
1348.000000;4.035411
1347.000000;3.723070
1346.000000;3.353861
1345.000000;3.359848
1344.000000;3.854004
1343.000000;3.688461
1342.000000;3.362854
1341.000000;3.238492
1340.000000;3.255035
1339.000000;3.521226
1338.000000;4.029930
1337.000000;3.876462
1336.000000;3.412130
1335.000000;3.262164
1334.000000;3.356642
1333.000000;3.698769
1332.000000;4.087748
1331.000000;4.058064
1330.000000;3.647394
1329.000000;3.546333
1328.000000;3.616546
1327.000000;3.653729
1326.000000;3.569477
1325.000000;3.462443
1324.000000;3.461648
1323.000000;3.794856
1322.000000;3.607125
1321.000000;3.454905
1320.000000;3.428216
1319.000000;3.427629
1318.000000;3.266390
1317.000000;3.259262
1316.000000;3.447194
1315.000000;3.513581
1314.000000;3.421263
1313.000000;3.702684
1312.000000;4.383436
1311.000000;3.679197
1310.000000;3.719441
1309.000000;3.466647
1308.000000;3.268054
1307.000000;3.246921
1306.000000;3.296099
1305.000000;3.241307
1304.000000;3.414462
1303.000000;3.670282
1302.000000;3.250902
1301.000000;3.175738
1300.000000;3.543940
1299.000000;3.714531
1298.000000;3.258564
1297.000000;3.101586
1296.000000;3.100773
1295.000000;3.346226
1294.000000;3.843900
1293.000000;3.249764
1292.000000;3.036251
1291.000000;2.948751
1290.000000;2.914190
1289.000000;2.927305
1288.000000;3.000597
1287.000000;3.177662
1286.000000;3.426300
1285.000000;3.320541
1284.000000;3.081967
1283.000000;3.049824
1282.000000;3.158665
1281.000000;3.360987
1280.000000;3.817106
1279.000000;3.713050
1278.000000;3.399869
1277.000000;3.652231
1276.000000;3.535912
1275.000000;3.171121
1274.000000;3.076331
1273.000000;3.197775
1272.000000;3.457511
1271.000000;3.445038
1270.000000;3.218085
1269.000000;3.162703
1268.000000;3.261936
1267.000000;3.381351
1266.000000;3.468353
1265.000000;3.223671
1264.000000;3.077760
1263.000000;3.222132
1262.000000;3.773685
1261.000000;4.034833
1260.000000;3.800167
1259.000000;3.513925
1258.000000;3.239957
1257.000000;3.153005
1256.000000;3.135119
1255.000000;3.078911
1254.000000;3.088157
1253.000000;3.306763
1252.000000;3.894886
1251.000000;3.657270
1250.000000;3.286819
1249.000000;3.273921
1248.000000;3.540299
1247.000000;3.612744
1246.000000;3.374079
1245.000000;3.334675
1244.000000;3.251053
1243.000000;3.210074
1242.000000;3.373324
1241.000000;3.942769
1240.000000;3.387552
1239.000000;3.336232
1238.000000;3.520818
1237.000000;3.759087
1236.000000;3.630046
1235.000000;3.288783
1234.000000;3.174870
1233.000000;3.319431
1232.000000;3.435653
1231.000000;3.373578
1230.000000;3.541345
1229.000000;3.709597
1228.000000;3.997432
1227.000000;3.956481
1226.000000;3.783026
1225.000000;3.310794
1224.000000;3.035162
1223.000000;3.165237
1222.000000;3.410919
1221.000000;3.413013
1220.000000;3.543937
1219.000000;3.462524
1218.000000;3.232807
1217.000000;3.189795
1216.000000;3.164614
1215.000000;3.146662
1214.000000;3.304327
1213.000000;3.434394
1212.000000;3.283660
1211.000000;3.436976
1210.000000;3.539613
1209.000000;3.394244
1208.000000;3.267744
1207.000000;3.447545
1206.000000;3.673406
1205.000000;3.249434
1204.000000;3.252390
1203.000000;3.276801
1202.000000;3.198552
1201.000000;3.106284
1200.000000;3.023109
