Criado como novo conjunto de dados;"e2410_daniel_v2.spp","5582.3 Secs"
cm-1;Abs
10000.000000;0.151305
9999.000000;0.150920
9998.000000;0.150530
9997.000000;0.150152
9996.000000;0.149707
9995.000000;0.149163
9994.000000;0.148618
9993.000000;0.148109
9992.000000;0.147601
9991.000000;0.147043
9990.000000;0.146475
9989.000000;0.146015
9988.000000;0.145721
9987.000000;0.145502
9986.000000;0.145181
9985.000000;0.144648
9984.000000;0.143949
9983.000000;0.143236
9982.000000;0.142649
9981.000000;0.142217
9980.000000;0.141862
9979.000000;0.141484
9978.000000;0.141059
9977.000000;0.140635
9976.000000;0.140240
9975.000000;0.139841
9974.000000;0.139388
9973.000000;0.138882
9972.000000;0.138372
9971.000000;0.137893
9970.000000;0.137438
9969.000000;0.136969
9968.000000;0.136460
9967.000000;0.135916
9966.000000;0.135384
9965.000000;0.134924
9964.000000;0.134541
9963.000000;0.134168
9962.000000;0.133741
9961.000000;0.133275
9960.000000;0.132835
9959.000000;0.132428
9958.000000;0.131978
9957.000000;0.131433
9956.000000;0.130830
9955.000000;0.130233
9954.000000;0.129653
9953.000000;0.129069
9952.000000;0.128507
9951.000000;0.128029
9950.000000;0.127644
9949.000000;0.127286
9948.000000;0.126880
9947.000000;0.126402
9946.000000;0.125866
9945.000000;0.125290
9944.000000;0.124694
9943.000000;0.124102
9942.000000;0.123550
9941.000000;0.123086
9940.000000;0.122754
9939.000000;0.122524
9938.000000;0.122275
9937.000000;0.121892
9936.000000;0.121379
9935.000000;0.120822
9934.000000;0.120246
9933.000000;0.119601
9932.000000;0.118906
9931.000000;0.118288
9930.000000;0.117848
9929.000000;0.117521
9928.000000;0.117170
9927.000000;0.116745
9926.000000;0.116293
9925.000000;0.115838
9924.000000;0.115361
9923.000000;0.114871
9922.000000;0.114424
9921.000000;0.114058
9920.000000;0.113744
9919.000000;0.113414
9918.000000;0.113005
9917.000000;0.112478
9916.000000;0.111861
9915.000000;0.111256
9914.000000;0.110762
9913.000000;0.110372
9912.000000;0.110001
9911.000000;0.109603
9910.000000;0.109205
9909.000000;0.108826
9908.000000;0.108441
9907.000000;0.108025
9906.000000;0.107591
9905.000000;0.107151
9904.000000;0.106685
9903.000000;0.106178
9902.000000;0.105658
9901.000000;0.105163
9900.000000;0.104708
9899.000000;0.104285
9898.000000;0.103877
9897.000000;0.103466
9896.000000;0.103050
9895.000000;0.102651
9894.000000;0.102269
9893.000000;0.101846
9892.000000;0.101317
9891.000000;0.100715
9890.000000;0.100147
9889.000000;0.099662
9888.000000;0.099181
9887.000000;0.098621
9886.000000;0.098039
9885.000000;0.097579
9884.000000;0.097308
9883.000000;0.097135
9882.000000;0.096916
9881.000000;0.096580
9880.000000;0.096153
9879.000000;0.095675
9878.000000;0.095137
9877.000000;0.094507
9876.000000;0.093812
9875.000000;0.093159
9874.000000;0.092640
9873.000000;0.092230
9872.000000;0.091806
9871.000000;0.091287
9870.000000;0.090717
9869.000000;0.090210
9868.000000;0.089817
9867.000000;0.089468
9866.000000;0.089052
9865.000000;0.088543
9864.000000;0.088039
9863.000000;0.087649
9862.000000;0.087345
9861.000000;0.086966
9860.000000;0.086413
9859.000000;0.085789
9858.000000;0.085300
9857.000000;0.085020
9856.000000;0.084829
9855.000000;0.084553
9854.000000;0.084118
9853.000000;0.083552
9852.000000;0.082913
9851.000000;0.082259
9850.000000;0.081642
9849.000000;0.081096
9848.000000;0.080648
9847.000000;0.080306
9846.000000;0.080032
9845.000000;0.079724
9844.000000;0.079311
9843.000000;0.078855
9842.000000;0.078492
9841.000000;0.078237
9840.000000;0.077929
9839.000000;0.077419
9838.000000;0.076754
9837.000000;0.076106
9836.000000;0.075571
9835.000000;0.075099
9834.000000;0.074599
9833.000000;0.074027
9832.000000;0.073394
9831.000000;0.072756
9830.000000;0.072203
9829.000000;0.071813
9828.000000;0.071556
9827.000000;0.071283
9826.000000;0.070847
9825.000000;0.070241
9824.000000;0.069607
9823.000000;0.069096
9822.000000;0.068739
9821.000000;0.068449
9820.000000;0.068150
9819.000000;0.067848
9818.000000;0.067554
9817.000000;0.067197
9816.000000;0.066702
9815.000000;0.066125
9814.000000;0.065641
9813.000000;0.065352
9812.000000;0.065183
9811.000000;0.064971
9810.000000;0.064605
9809.000000;0.064051
9808.000000;0.063334
9807.000000;0.062556
9806.000000;0.061878
9805.000000;0.061386
9804.000000;0.061005
9803.000000;0.060589
9802.000000;0.060097
9801.000000;0.059606
9800.000000;0.059204
9799.000000;0.058907
9798.000000;0.058682
9797.000000;0.058464
9796.000000;0.058158
9795.000000;0.057708
9794.000000;0.057179
9793.000000;0.056720
9792.000000;0.056409
9791.000000;0.056174
9790.000000;0.055866
9789.000000;0.055389
9788.000000;0.054731
9787.000000;0.053964
9786.000000;0.053216
9785.000000;0.052606
9784.000000;0.052166
9783.000000;0.051814
9782.000000;0.051441
9781.000000;0.050995
9780.000000;0.050496
9779.000000;0.049993
9778.000000;0.049546
9777.000000;0.049200
9776.000000;0.048928
9775.000000;0.048627
9774.000000;0.048203
9773.000000;0.047671
9772.000000;0.047135
9771.000000;0.046676
9770.000000;0.046275
9769.000000;0.045869
9768.000000;0.045448
9767.000000;0.045047
9766.000000;0.044676
9765.000000;0.044288
9764.000000;0.043839
9763.000000;0.043355
9762.000000;0.042906
9761.000000;0.042519
9760.000000;0.042148
9759.000000;0.041739
9758.000000;0.041305
9757.000000;0.040915
9756.000000;0.040594
9755.000000;0.040278
9754.000000;0.039862
9753.000000;0.039310
9752.000000;0.038693
9751.000000;0.038120
9750.000000;0.037637
9749.000000;0.037197
9748.000000;0.036727
9747.000000;0.036211
9746.000000;0.035697
9745.000000;0.035238
9744.000000;0.034840
9743.000000;0.034456
9742.000000;0.034022
9741.000000;0.033519
9740.000000;0.032995
9739.000000;0.032533
9738.000000;0.032178
9737.000000;0.031905
9736.000000;0.031646
9735.000000;0.031328
9734.000000;0.030900
9733.000000;0.030368
9732.000000;0.029832
9731.000000;0.029424
9730.000000;0.029164
9729.000000;0.028916
9728.000000;0.028552
9727.000000;0.028097
9726.000000;0.027671
9725.000000;0.027302
9724.000000;0.026912
9723.000000;0.026473
9722.000000;0.026051
9721.000000;0.025676
9720.000000;0.025255
9719.000000;0.024710
9718.000000;0.024099
9717.000000;0.023543
9716.000000;0.023070
9715.000000;0.022632
9714.000000;0.022216
9713.000000;0.021862
9712.000000;0.021576
9711.000000;0.021302
9710.000000;0.020975
9709.000000;0.020547
9708.000000;0.019974
9707.000000;0.019259
9706.000000;0.018535
9705.000000;0.017999
9704.000000;0.017736
9703.000000;0.017630
9702.000000;0.017479
9701.000000;0.017180
9700.000000;0.016764
9699.000000;0.016316
9698.000000;0.015894
9697.000000;0.015508
9696.000000;0.015139
9695.000000;0.014754
9694.000000;0.014323
9693.000000;0.013828
9692.000000;0.013257
9691.000000;0.012624
9690.000000;0.011992
9689.000000;0.011457
9688.000000;0.011067
9687.000000;0.010766
9686.000000;0.010427
9685.000000;0.009972
9684.000000;0.009443
9683.000000;0.008971
9682.000000;0.008671
9681.000000;0.008558
9680.000000;0.008522
9679.000000;0.008388
9678.000000;0.008024
9677.000000;0.007435
9676.000000;0.006751
9675.000000;0.006129
9674.000000;0.005637
9673.000000;0.005242
9672.000000;0.004890
9671.000000;0.004575
9670.000000;0.004311
9669.000000;0.004053
9668.000000;0.003706
9667.000000;0.003224
9666.000000;0.002674
9665.000000;0.002167
9664.000000;0.001733
9663.000000;0.001308
9662.000000;0.000839
9661.000000;0.000367
9660.000000;-0.000015
9659.000000;-0.000291
9658.000000;-0.000558
9657.000000;-0.000939
9656.000000;-0.001466
9655.000000;-0.002063
9654.000000;-0.002617
9653.000000;-0.003057
9652.000000;-0.003375
9651.000000;-0.003608
9650.000000;-0.003830
9649.000000;-0.004113
9648.000000;-0.004489
9647.000000;-0.004927
9646.000000;-0.005364
9645.000000;-0.005760
9644.000000;-0.006115
9643.000000;-0.006460
9642.000000;-0.006824
9641.000000;-0.007234
9640.000000;-0.007706
9639.000000;-0.008235
9638.000000;-0.008801
9637.000000;-0.009357
9636.000000;-0.009837
9635.000000;-0.010185
9634.000000;-0.010413
9633.000000;-0.010602
9632.000000;-0.010848
9631.000000;-0.011183
9630.000000;-0.011574
9629.000000;-0.011964
9628.000000;-0.012325
9627.000000;-0.012669
9626.000000;-0.013036
9625.000000;-0.013452
9624.000000;-0.013888
9623.000000;-0.014275
9622.000000;-0.014594
9621.000000;-0.014916
9620.000000;-0.015326
9619.000000;-0.015811
9618.000000;-0.016265
9617.000000;-0.016624
9616.000000;-0.016936
9615.000000;-0.017302
9614.000000;-0.017755
9613.000000;-0.018230
9612.000000;-0.018649
9611.000000;-0.019017
9610.000000;-0.019409
9609.000000;-0.019875
9608.000000;-0.020352
9607.000000;-0.020723
9606.000000;-0.020953
9605.000000;-0.021146
9604.000000;-0.021432
9603.000000;-0.021834
9602.000000;-0.022279
9601.000000;-0.022697
9600.000000;-0.023075
9599.000000;-0.023428
9598.000000;-0.023782
9597.000000;-0.024170
9596.000000;-0.024601
9595.000000;-0.025026
9594.000000;-0.025395
9593.000000;-0.025741
9592.000000;-0.026149
9591.000000;-0.026648
9590.000000;-0.027173
9589.000000;-0.027652
9588.000000;-0.028073
9587.000000;-0.028448
9586.000000;-0.028768
9585.000000;-0.029042
9584.000000;-0.029334
9583.000000;-0.029719
9582.000000;-0.030206
9581.000000;-0.030723
9580.000000;-0.031168
9579.000000;-0.031467
9578.000000;-0.031637
9577.000000;-0.031790
9576.000000;-0.032064
9575.000000;-0.032503
9574.000000;-0.033032
9573.000000;-0.033546
9572.000000;-0.033980
9571.000000;-0.034308
9570.000000;-0.034531
9569.000000;-0.034717
9568.000000;-0.034999
9567.000000;-0.035465
9566.000000;-0.036070
9565.000000;-0.036688
9564.000000;-0.037233
9563.000000;-0.037680
9562.000000;-0.038020
9561.000000;-0.038265
9560.000000;-0.038486
9559.000000;-0.038774
9558.000000;-0.039146
9557.000000;-0.039531
9556.000000;-0.039864
9555.000000;-0.040158
9554.000000;-0.040462
9553.000000;-0.040795
9552.000000;-0.041148
9551.000000;-0.041520
9550.000000;-0.041926
9549.000000;-0.042353
9548.000000;-0.042754
9547.000000;-0.043084
9546.000000;-0.043362
9545.000000;-0.043663
9544.000000;-0.044036
9543.000000;-0.044451
9542.000000;-0.044837
9541.000000;-0.045185
9540.000000;-0.045568
9539.000000;-0.046041
9538.000000;-0.046546
9537.000000;-0.046971
9536.000000;-0.047276
9535.000000;-0.047538
9534.000000;-0.047853
9533.000000;-0.048228
9532.000000;-0.048589
9531.000000;-0.048887
9530.000000;-0.049165
9529.000000;-0.049517
9528.000000;-0.049981
9527.000000;-0.050478
9526.000000;-0.050890
9525.000000;-0.051178
9524.000000;-0.051419
9523.000000;-0.051716
9522.000000;-0.052097
9521.000000;-0.052503
9520.000000;-0.052870
9519.000000;-0.053178
9518.000000;-0.053452
9517.000000;-0.053739
9516.000000;-0.054081
9515.000000;-0.054491
9514.000000;-0.054924
9513.000000;-0.055302
9512.000000;-0.055583
9511.000000;-0.055805
9510.000000;-0.056049
9509.000000;-0.056373
9508.000000;-0.056761
9507.000000;-0.057145
9506.000000;-0.057482
9505.000000;-0.057797
9504.000000;-0.058154
9503.000000;-0.058587
9502.000000;-0.059065
9501.000000;-0.059521
9500.000000;-0.059920
9499.000000;-0.060281
9498.000000;-0.060658
9497.000000;-0.061083
9496.000000;-0.061534
9495.000000;-0.061958
9494.000000;-0.062323
9493.000000;-0.062633
9492.000000;-0.062906
9491.000000;-0.063142
9490.000000;-0.063346
9489.000000;-0.063548
9488.000000;-0.063797
9487.000000;-0.064127
9486.000000;-0.064540
9485.000000;-0.065002
9484.000000;-0.065442
9483.000000;-0.065772
9482.000000;-0.065957
9481.000000;-0.066079
9480.000000;-0.066292
9479.000000;-0.066696
9478.000000;-0.067243
9477.000000;-0.067800
9476.000000;-0.068255
9475.000000;-0.068588
9474.000000;-0.068861
9473.000000;-0.069160
9472.000000;-0.069528
9471.000000;-0.069918
9470.000000;-0.070234
9469.000000;-0.070444
9468.000000;-0.070630
9467.000000;-0.070923
9466.000000;-0.071372
9465.000000;-0.071888
9464.000000;-0.072321
9463.000000;-0.072594
9462.000000;-0.072767
9461.000000;-0.072986
9460.000000;-0.073330
9459.000000;-0.073733
9458.000000;-0.074062
9457.000000;-0.074271
9456.000000;-0.074454
9455.000000;-0.074728
9454.000000;-0.075110
9453.000000;-0.075529
9452.000000;-0.075925
9451.000000;-0.076304
9450.000000;-0.076678
9449.000000;-0.077018
9448.000000;-0.077276
9447.000000;-0.077455
9446.000000;-0.077641
9445.000000;-0.077930
9444.000000;-0.078335
9443.000000;-0.078762
9442.000000;-0.079112
9441.000000;-0.079378
9440.000000;-0.079640
9439.000000;-0.079973
9438.000000;-0.080382
9437.000000;-0.080827
9436.000000;-0.081254
9435.000000;-0.081610
9434.000000;-0.081861
9433.000000;-0.082037
9432.000000;-0.082228
9431.000000;-0.082503
9430.000000;-0.082851
9429.000000;-0.083205
9428.000000;-0.083519
9427.000000;-0.083793
9426.000000;-0.084048
9425.000000;-0.084310
9424.000000;-0.084614
9423.000000;-0.084972
9422.000000;-0.085341
9421.000000;-0.085639
9420.000000;-0.085823
9419.000000;-0.085957
9418.000000;-0.086170
9417.000000;-0.086539
9416.000000;-0.087015
9415.000000;-0.087478
9414.000000;-0.087872
9413.000000;-0.088255
9412.000000;-0.088703
9411.000000;-0.089202
9410.000000;-0.089655
9409.000000;-0.089994
9408.000000;-0.090244
9407.000000;-0.090474
9406.000000;-0.090730
9405.000000;-0.091027
9404.000000;-0.091363
9403.000000;-0.091726
9402.000000;-0.092092
9401.000000;-0.092433
9400.000000;-0.092730
9399.000000;-0.092973
9398.000000;-0.093171
9397.000000;-0.093363
9396.000000;-0.093589
9395.000000;-0.093857
9394.000000;-0.094147
9393.000000;-0.094444
9392.000000;-0.094759
9391.000000;-0.095100
9390.000000;-0.095453
9389.000000;-0.095796
9388.000000;-0.096113
9387.000000;-0.096400
9386.000000;-0.096666
9385.000000;-0.096932
9384.000000;-0.097208
9383.000000;-0.097472
9382.000000;-0.097716
9381.000000;-0.097978
9380.000000;-0.098306
9379.000000;-0.098688
9378.000000;-0.099060
9377.000000;-0.099395
9376.000000;-0.099726
9375.000000;-0.100076
9374.000000;-0.100418
9373.000000;-0.100723
9372.000000;-0.101007
9371.000000;-0.101296
9370.000000;-0.101573
9369.000000;-0.101810
9368.000000;-0.102024
9367.000000;-0.102264
9366.000000;-0.102558
9365.000000;-0.102889
9364.000000;-0.103223
9363.000000;-0.103527
9362.000000;-0.103776
9361.000000;-0.103985
9360.000000;-0.104214
9359.000000;-0.104535
9358.000000;-0.104964
9357.000000;-0.105437
9356.000000;-0.105839
9355.000000;-0.106089
9354.000000;-0.106206
9353.000000;-0.106314
9352.000000;-0.106545
9351.000000;-0.106912
9350.000000;-0.107311
9349.000000;-0.107638
9348.000000;-0.107880
9347.000000;-0.108086
9346.000000;-0.108289
9345.000000;-0.108505
9344.000000;-0.108765
9343.000000;-0.109103
9342.000000;-0.109503
9341.000000;-0.109899
9340.000000;-0.110239
9339.000000;-0.110522
9338.000000;-0.110785
9337.000000;-0.111068
9336.000000;-0.111378
9335.000000;-0.111690
9334.000000;-0.111968
9333.000000;-0.112201
9332.000000;-0.112411
9331.000000;-0.112635
9330.000000;-0.112899
9329.000000;-0.113201
9328.000000;-0.113503
9327.000000;-0.113749
9326.000000;-0.113933
9325.000000;-0.114135
9324.000000;-0.114451
9323.000000;-0.114875
9322.000000;-0.115297
9321.000000;-0.115641
9320.000000;-0.115931
9319.000000;-0.116216
9318.000000;-0.116479
9317.000000;-0.116682
9316.000000;-0.116845
9315.000000;-0.117036
9314.000000;-0.117285
9313.000000;-0.117570
9312.000000;-0.117872
9311.000000;-0.118193
9310.000000;-0.118519
9309.000000;-0.118823
9308.000000;-0.119103
9307.000000;-0.119378
9306.000000;-0.119651
9305.000000;-0.119906
9304.000000;-0.120151
9303.000000;-0.120418
9302.000000;-0.120718
9301.000000;-0.121020
9300.000000;-0.121287
9299.000000;-0.121511
9298.000000;-0.121703
9297.000000;-0.121865
9296.000000;-0.122006
9295.000000;-0.122154
9294.000000;-0.122336
9293.000000;-0.122559
9292.000000;-0.122813
9291.000000;-0.123091
9290.000000;-0.123407
9289.000000;-0.123771
9288.000000;-0.124157
9287.000000;-0.124493
9286.000000;-0.124719
9285.000000;-0.124847
9284.000000;-0.124954
9283.000000;-0.125105
9282.000000;-0.125315
9281.000000;-0.125574
9280.000000;-0.125894
9279.000000;-0.126273
9278.000000;-0.126651
9277.000000;-0.126947
9276.000000;-0.127148
9275.000000;-0.127326
9274.000000;-0.127556
9273.000000;-0.127848
9272.000000;-0.128162
9271.000000;-0.128462
9270.000000;-0.128754
9269.000000;-0.129064
9268.000000;-0.129389
9267.000000;-0.129680
9266.000000;-0.129884
9265.000000;-0.130011
9264.000000;-0.130141
9263.000000;-0.130347
9262.000000;-0.130615
9261.000000;-0.130874
9260.000000;-0.131079
9259.000000;-0.131247
9258.000000;-0.131400
9257.000000;-0.131541
9256.000000;-0.131677
9255.000000;-0.131850
9254.000000;-0.132100
9253.000000;-0.132420
9252.000000;-0.132756
9251.000000;-0.133063
9250.000000;-0.133345
9249.000000;-0.133625
9248.000000;-0.133909
9247.000000;-0.134180
9246.000000;-0.134438
9245.000000;-0.134713
9244.000000;-0.135021
9243.000000;-0.135327
9242.000000;-0.135569
9241.000000;-0.135736
9240.000000;-0.135885
9239.000000;-0.136082
9238.000000;-0.136342
9237.000000;-0.136635
9236.000000;-0.136928
9235.000000;-0.137195
9234.000000;-0.137418
9233.000000;-0.137602
9232.000000;-0.137778
9231.000000;-0.137965
9230.000000;-0.138160
9229.000000;-0.138371
9228.000000;-0.138638
9227.000000;-0.138974
9226.000000;-0.139315
9225.000000;-0.139564
9224.000000;-0.139694
9223.000000;-0.139781
9222.000000;-0.139923
9221.000000;-0.140153
9220.000000;-0.140452
9219.000000;-0.140792
9218.000000;-0.141152
9217.000000;-0.141505
9216.000000;-0.141801
9215.000000;-0.141994
9214.000000;-0.142091
9213.000000;-0.142173
9212.000000;-0.142351
9211.000000;-0.142662
9210.000000;-0.143028
9209.000000;-0.143335
9208.000000;-0.143555
9207.000000;-0.143755
9206.000000;-0.143991
9205.000000;-0.144246
9204.000000;-0.144471
9203.000000;-0.144663
9202.000000;-0.144847
9201.000000;-0.145028
9200.000000;-0.145196
9199.000000;-0.145370
9198.000000;-0.145580
9197.000000;-0.145804
9196.000000;-0.145980
9195.000000;-0.146094
9194.000000;-0.146215
9193.000000;-0.146407
9192.000000;-0.146647
9191.000000;-0.146871
9190.000000;-0.147087
9189.000000;-0.147368
9188.000000;-0.147734
9187.000000;-0.148091
9186.000000;-0.148344
9185.000000;-0.148511
9184.000000;-0.148682
9183.000000;-0.148902
9182.000000;-0.149144
9181.000000;-0.149387
9180.000000;-0.149644
9179.000000;-0.149917
9178.000000;-0.150164
9177.000000;-0.150352
9176.000000;-0.150509
9175.000000;-0.150701
9174.000000;-0.150968
9173.000000;-0.151292
9172.000000;-0.151609
9171.000000;-0.151842
9170.000000;-0.151966
9169.000000;-0.152038
9168.000000;-0.152142
9167.000000;-0.152301
9166.000000;-0.152468
9165.000000;-0.152619
9164.000000;-0.152780
9163.000000;-0.152976
9162.000000;-0.153184
9161.000000;-0.153388
9160.000000;-0.153619
9159.000000;-0.153905
9158.000000;-0.154203
9157.000000;-0.154438
9156.000000;-0.154588
9155.000000;-0.154710
9154.000000;-0.154877
9153.000000;-0.155130
9152.000000;-0.155453
9151.000000;-0.155767
9150.000000;-0.155967
9149.000000;-0.156012
9148.000000;-0.155990
9147.000000;-0.156050
9146.000000;-0.156287
9145.000000;-0.156688
9144.000000;-0.157165
9143.000000;-0.157594
9142.000000;-0.157873
9141.000000;-0.157976
9140.000000;-0.157989
9139.000000;-0.158034
9138.000000;-0.158178
9137.000000;-0.158416
9136.000000;-0.158725
9135.000000;-0.159078
9134.000000;-0.159409
9133.000000;-0.159635
9132.000000;-0.159720
9131.000000;-0.159705
9130.000000;-0.159670
9129.000000;-0.159680
9128.000000;-0.159779
9127.000000;-0.159977
9126.000000;-0.160236
9125.000000;-0.160494
9124.000000;-0.160722
9123.000000;-0.160934
9122.000000;-0.161149
9121.000000;-0.161366
9120.000000;-0.161592
9119.000000;-0.161831
9118.000000;-0.162055
9117.000000;-0.162218
9116.000000;-0.162344
9115.000000;-0.162522
9114.000000;-0.162792
9113.000000;-0.163072
9112.000000;-0.163258
9111.000000;-0.163352
9110.000000;-0.163448
9109.000000;-0.163605
9108.000000;-0.163796
9107.000000;-0.163986
9106.000000;-0.164177
9105.000000;-0.164381
9104.000000;-0.164583
9103.000000;-0.164772
9102.000000;-0.164978
9101.000000;-0.165228
9100.000000;-0.165490
9099.000000;-0.165699
9098.000000;-0.165837
9097.000000;-0.165962
9096.000000;-0.166131
9095.000000;-0.166329
9094.000000;-0.166493
9093.000000;-0.166593
9092.000000;-0.166661
9091.000000;-0.166759
9090.000000;-0.166927
9089.000000;-0.167163
9088.000000;-0.167429
9087.000000;-0.167659
9086.000000;-0.167794
9085.000000;-0.167847
9084.000000;-0.167910
9083.000000;-0.168073
9082.000000;-0.168337
9081.000000;-0.168627
9080.000000;-0.168870
9079.000000;-0.169058
9078.000000;-0.169216
9077.000000;-0.169371
9076.000000;-0.169539
9075.000000;-0.169728
9074.000000;-0.169924
9073.000000;-0.170095
9072.000000;-0.170244
9071.000000;-0.170409
9070.000000;-0.170623
9069.000000;-0.170862
9068.000000;-0.171085
9067.000000;-0.171287
9066.000000;-0.171508
9065.000000;-0.171764
9064.000000;-0.172018
9063.000000;-0.172211
9062.000000;-0.172315
9061.000000;-0.172344
9060.000000;-0.172347
9059.000000;-0.172392
9058.000000;-0.172542
9057.000000;-0.172814
9056.000000;-0.173158
9055.000000;-0.173488
9054.000000;-0.173750
9053.000000;-0.173949
9052.000000;-0.174116
9051.000000;-0.174269
9050.000000;-0.174401
9049.000000;-0.174509
9048.000000;-0.174621
9047.000000;-0.174778
9046.000000;-0.174982
9045.000000;-0.175179
9044.000000;-0.175301
9043.000000;-0.175340
9042.000000;-0.175356
9041.000000;-0.175417
9040.000000;-0.175545
9039.000000;-0.175722
9038.000000;-0.175920
9037.000000;-0.176120
9036.000000;-0.176300
9035.000000;-0.176452
9034.000000;-0.176609
9033.000000;-0.176815
9032.000000;-0.177057
9031.000000;-0.177267
9030.000000;-0.177409
9029.000000;-0.177535
9028.000000;-0.177715
9027.000000;-0.177941
9026.000000;-0.178132
9025.000000;-0.178253
9024.000000;-0.178368
9023.000000;-0.178554
9022.000000;-0.178810
9021.000000;-0.179067
9020.000000;-0.179266
9019.000000;-0.179407
9018.000000;-0.179522
9017.000000;-0.179634
9016.000000;-0.179754
9015.000000;-0.179878
9014.000000;-0.179989
9013.000000;-0.180083
9012.000000;-0.180176
9011.000000;-0.180303
9010.000000;-0.180483
9009.000000;-0.180720
9008.000000;-0.181002
9007.000000;-0.181286
9006.000000;-0.181509
9005.000000;-0.181632
9004.000000;-0.181680
9003.000000;-0.181733
9002.000000;-0.181855
9001.000000;-0.182055
9000.000000;-0.182302
8999.000000;-0.182550
8998.000000;-0.182754
8997.000000;-0.182894
8996.000000;-0.182998
8995.000000;-0.183114
8994.000000;-0.183256
8993.000000;-0.183393
8992.000000;-0.183497
8991.000000;-0.183582
8990.000000;-0.183679
8989.000000;-0.183791
8988.000000;-0.183898
8987.000000;-0.183999
8986.000000;-0.184109
8985.000000;-0.184241
8984.000000;-0.184391
8983.000000;-0.184558
8982.000000;-0.184739
8981.000000;-0.184920
8980.000000;-0.185077
8979.000000;-0.185217
8978.000000;-0.185376
8977.000000;-0.185587
8976.000000;-0.185830
8975.000000;-0.186048
8974.000000;-0.186187
8973.000000;-0.186245
8972.000000;-0.186281
8971.000000;-0.186365
8970.000000;-0.186518
8969.000000;-0.186689
8968.000000;-0.186811
8967.000000;-0.186885
8966.000000;-0.186975
8965.000000;-0.187127
8964.000000;-0.187315
8963.000000;-0.187492
8962.000000;-0.187648
8961.000000;-0.187809
8960.000000;-0.187982
8959.000000;-0.188142
8958.000000;-0.188261
8957.000000;-0.188332
8956.000000;-0.188363
8955.000000;-0.188381
8954.000000;-0.188436
8953.000000;-0.188566
8952.000000;-0.188770
8951.000000;-0.189009
8950.000000;-0.189256
8949.000000;-0.189505
8948.000000;-0.189746
8947.000000;-0.189952
8946.000000;-0.190105
8945.000000;-0.190203
8944.000000;-0.190250
8943.000000;-0.190262
8942.000000;-0.190297
8941.000000;-0.190426
8940.000000;-0.190652
8939.000000;-0.190872
8938.000000;-0.190972
8937.000000;-0.190946
8936.000000;-0.190900
8935.000000;-0.190944
8934.000000;-0.191108
8933.000000;-0.191350
8932.000000;-0.191609
8931.000000;-0.191834
8930.000000;-0.191983
8929.000000;-0.192032
8928.000000;-0.191985
8927.000000;-0.191894
8926.000000;-0.191852
8925.000000;-0.191946
8924.000000;-0.192192
8923.000000;-0.192520
8922.000000;-0.192821
8921.000000;-0.193016
8920.000000;-0.193088
8919.000000;-0.193091
8918.000000;-0.193122
8917.000000;-0.193254
8916.000000;-0.193445
8915.000000;-0.193564
8914.000000;-0.193526
8913.000000;-0.193400
8912.000000;-0.193348
8911.000000;-0.193449
8910.000000;-0.193641
8909.000000;-0.193829
8908.000000;-0.193985
8907.000000;-0.194148
8906.000000;-0.194343
8905.000000;-0.194556
8904.000000;-0.194747
8903.000000;-0.194885
8902.000000;-0.194968
8901.000000;-0.195016
8900.000000;-0.195045
8899.000000;-0.195051
8898.000000;-0.195043
8897.000000;-0.195086
8896.000000;-0.195249
8895.000000;-0.195524
8894.000000;-0.195806
8893.000000;-0.196007
8892.000000;-0.196138
8891.000000;-0.196271
8890.000000;-0.196439
8889.000000;-0.196590
8888.000000;-0.196639
8887.000000;-0.196538
8886.000000;-0.196330
8885.000000;-0.196144
8884.000000;-0.196125
8883.000000;-0.196310
8882.000000;-0.196593
8881.000000;-0.196822
8880.000000;-0.196941
8879.000000;-0.197013
8878.000000;-0.197129
8877.000000;-0.197316
8876.000000;-0.197540
8875.000000;-0.197737
8874.000000;-0.197861
8873.000000;-0.197901
8872.000000;-0.197893
8871.000000;-0.197889
8870.000000;-0.197904
8869.000000;-0.197905
8868.000000;-0.197861
8867.000000;-0.197805
8866.000000;-0.197822
8865.000000;-0.197970
8864.000000;-0.198209
8863.000000;-0.198432
8862.000000;-0.198556
8861.000000;-0.198595
8860.000000;-0.198625
8859.000000;-0.198690
8858.000000;-0.198768
8857.000000;-0.198825
8856.000000;-0.198872
8855.000000;-0.198940
8854.000000;-0.199017
8853.000000;-0.199053
8852.000000;-0.199035
8851.000000;-0.199016
8850.000000;-0.199049
8849.000000;-0.199115
8848.000000;-0.199159
8847.000000;-0.199175
8846.000000;-0.199210
8845.000000;-0.199289
8844.000000;-0.199362
8843.000000;-0.199372
8842.000000;-0.199331
8841.000000;-0.199310
8840.000000;-0.199346
8839.000000;-0.199405
8838.000000;-0.199438
8837.000000;-0.199437
8836.000000;-0.199425
8835.000000;-0.199424
8834.000000;-0.199451
8833.000000;-0.199512
8832.000000;-0.199585
8831.000000;-0.199616
8830.000000;-0.199564
8829.000000;-0.199460
8828.000000;-0.199371
8827.000000;-0.199341
8826.000000;-0.199350
8825.000000;-0.199360
8824.000000;-0.199352
8823.000000;-0.199333
8822.000000;-0.199315
8821.000000;-0.199305
8820.000000;-0.199295
8819.000000;-0.199269
8818.000000;-0.199210
8817.000000;-0.199104
8816.000000;-0.198923
8815.000000;-0.198630
8814.000000;-0.198243
8813.000000;-0.197881
8812.000000;-0.197707
8811.000000;-0.197789
8810.000000;-0.198047
8809.000000;-0.198342
8808.000000;-0.198592
8807.000000;-0.198777
8806.000000;-0.198869
8805.000000;-0.198811
8804.000000;-0.198579
8803.000000;-0.198248
8802.000000;-0.197975
8801.000000;-0.197888
8800.000000;-0.197995
8799.000000;-0.198181
8798.000000;-0.198310
8797.000000;-0.198327
8796.000000;-0.198268
8795.000000;-0.198188
8794.000000;-0.198089
8793.000000;-0.197942
8792.000000;-0.197740
8791.000000;-0.197530
8790.000000;-0.197387
8789.000000;-0.197354
8788.000000;-0.197406
8787.000000;-0.197461
8786.000000;-0.197426
8785.000000;-0.197267
8784.000000;-0.197027
8783.000000;-0.196800
8782.000000;-0.196673
8781.000000;-0.196684
8780.000000;-0.196793
8779.000000;-0.196884
8778.000000;-0.196841
8777.000000;-0.196640
8776.000000;-0.196379
8775.000000;-0.196178
8774.000000;-0.196064
8773.000000;-0.195963
8772.000000;-0.195802
8771.000000;-0.195601
8770.000000;-0.195433
8769.000000;-0.195331
8768.000000;-0.195247
8767.000000;-0.195113
8766.000000;-0.194912
8765.000000;-0.194692
8764.000000;-0.194508
8763.000000;-0.194383
8762.000000;-0.194308
8761.000000;-0.194260
8760.000000;-0.194203
8759.000000;-0.194103
8758.000000;-0.193953
8757.000000;-0.193784
8756.000000;-0.193646
8755.000000;-0.193566
8754.000000;-0.193525
8753.000000;-0.193484
8752.000000;-0.193405
8751.000000;-0.193276
8750.000000;-0.193110
8749.000000;-0.192936
8748.000000;-0.192781
8747.000000;-0.192649
8746.000000;-0.192516
8745.000000;-0.192354
8744.000000;-0.192169
8743.000000;-0.192001
8742.000000;-0.191864
8741.000000;-0.191708
8740.000000;-0.191469
8739.000000;-0.191165
8738.000000;-0.190915
8737.000000;-0.190826
8736.000000;-0.190867
8735.000000;-0.190911
8734.000000;-0.190868
8733.000000;-0.190736
8732.000000;-0.190545
8731.000000;-0.190315
8730.000000;-0.190088
8729.000000;-0.189925
8728.000000;-0.189823
8727.000000;-0.189712
8726.000000;-0.189557
8725.000000;-0.189422
8724.000000;-0.189363
8723.000000;-0.189311
8722.000000;-0.189157
8721.000000;-0.188915
8720.000000;-0.188715
8719.000000;-0.188621
8718.000000;-0.188557
8717.000000;-0.188429
8716.000000;-0.188244
8715.000000;-0.188072
8714.000000;-0.187951
8713.000000;-0.187875
8712.000000;-0.187846
8711.000000;-0.187861
8710.000000;-0.187879
8709.000000;-0.187841
8708.000000;-0.187724
8707.000000;-0.187554
8706.000000;-0.187371
8705.000000;-0.187205
8704.000000;-0.187078
8703.000000;-0.186996
8702.000000;-0.186927
8701.000000;-0.186809
8700.000000;-0.186597
8699.000000;-0.186313
8698.000000;-0.186047
8697.000000;-0.185900
8696.000000;-0.185904
8695.000000;-0.185995
8694.000000;-0.186076
8693.000000;-0.186099
8692.000000;-0.186077
8691.000000;-0.186037
8690.000000;-0.185984
8689.000000;-0.185913
8688.000000;-0.185817
8687.000000;-0.185696
8686.000000;-0.185574
8685.000000;-0.185501
8684.000000;-0.185502
8683.000000;-0.185530
8682.000000;-0.185513
8681.000000;-0.185449
8680.000000;-0.185403
8679.000000;-0.185398
8678.000000;-0.185363
8677.000000;-0.185236
8676.000000;-0.185079
8675.000000;-0.185019
8674.000000;-0.185096
8673.000000;-0.185225
8672.000000;-0.185304
8671.000000;-0.185310
8670.000000;-0.185285
8669.000000;-0.185262
8668.000000;-0.185237
8667.000000;-0.185207
8666.000000;-0.185187
8665.000000;-0.185199
8664.000000;-0.185250
8663.000000;-0.185331
8662.000000;-0.185432
8661.000000;-0.185549
8660.000000;-0.185661
8659.000000;-0.185728
8658.000000;-0.185737
8657.000000;-0.185736
8656.000000;-0.185789
8655.000000;-0.185887
8654.000000;-0.185947
8653.000000;-0.185908
8652.000000;-0.185818
8651.000000;-0.185787
8650.000000;-0.185866
8649.000000;-0.185997
8648.000000;-0.186093
8647.000000;-0.186119
8646.000000;-0.186107
8645.000000;-0.186098
8644.000000;-0.186111
8643.000000;-0.186143
8642.000000;-0.186188
8641.000000;-0.186245
8640.000000;-0.186308
8639.000000;-0.186374
8638.000000;-0.186456
8637.000000;-0.186573
8636.000000;-0.186721
8635.000000;-0.186873
8634.000000;-0.186995
8633.000000;-0.187075
8632.000000;-0.187119
8631.000000;-0.187143
8630.000000;-0.187170
8629.000000;-0.187228
8628.000000;-0.187325
8627.000000;-0.187442
8626.000000;-0.187576
8625.000000;-0.187742
8624.000000;-0.187936
8623.000000;-0.188085
8622.000000;-0.188114
8621.000000;-0.188033
8620.000000;-0.187946
8619.000000;-0.187940
8618.000000;-0.188020
8617.000000;-0.188133
8616.000000;-0.188248
8615.000000;-0.188360
8614.000000;-0.188473
8613.000000;-0.188597
8612.000000;-0.188750
8611.000000;-0.188951
8610.000000;-0.189193
8609.000000;-0.189453
8608.000000;-0.189704
8607.000000;-0.189912
8606.000000;-0.190043
8605.000000;-0.190087
8604.000000;-0.190076
8603.000000;-0.190062
8602.000000;-0.190079
8601.000000;-0.190126
8600.000000;-0.190188
8599.000000;-0.190246
8598.000000;-0.190286
8597.000000;-0.190313
8596.000000;-0.190358
8595.000000;-0.190461
8594.000000;-0.190636
8593.000000;-0.190855
8592.000000;-0.191078
8591.000000;-0.191271
8590.000000;-0.191426
8589.000000;-0.191557
8588.000000;-0.191694
8587.000000;-0.191861
8586.000000;-0.192059
8585.000000;-0.192258
8584.000000;-0.192416
8583.000000;-0.192517
8582.000000;-0.192577
8581.000000;-0.192617
8580.000000;-0.192646
8579.000000;-0.192673
8578.000000;-0.192737
8577.000000;-0.192884
8576.000000;-0.193103
8575.000000;-0.193312
8574.000000;-0.193425
8573.000000;-0.193442
8572.000000;-0.193438
8571.000000;-0.193490
8570.000000;-0.193624
8569.000000;-0.193808
8568.000000;-0.193998
8567.000000;-0.194172
8566.000000;-0.194353
8565.000000;-0.194572
8564.000000;-0.194818
8563.000000;-0.195025
8562.000000;-0.195146
8561.000000;-0.195204
8560.000000;-0.195257
8559.000000;-0.195327
8558.000000;-0.195400
8557.000000;-0.195473
8556.000000;-0.195572
8555.000000;-0.195719
8554.000000;-0.195911
8553.000000;-0.196131
8552.000000;-0.196353
8551.000000;-0.196535
8550.000000;-0.196642
8549.000000;-0.196692
8548.000000;-0.196734
8547.000000;-0.196799
8546.000000;-0.196884
8545.000000;-0.196984
8544.000000;-0.197106
8543.000000;-0.197246
8542.000000;-0.197385
8541.000000;-0.197514
8540.000000;-0.197647
8539.000000;-0.197801
8538.000000;-0.197977
8537.000000;-0.198159
8536.000000;-0.198327
8535.000000;-0.198464
8534.000000;-0.198585
8533.000000;-0.198726
8532.000000;-0.198896
8531.000000;-0.199044
8530.000000;-0.199122
8529.000000;-0.199152
8528.000000;-0.199186
8527.000000;-0.199239
8526.000000;-0.199285
8525.000000;-0.199333
8524.000000;-0.199432
8523.000000;-0.199601
8522.000000;-0.199806
8521.000000;-0.200019
8520.000000;-0.200236
8519.000000;-0.200437
8518.000000;-0.200592
8517.000000;-0.200713
8516.000000;-0.200862
8515.000000;-0.201063
8514.000000;-0.201259
8513.000000;-0.201391
8512.000000;-0.201463
8511.000000;-0.201513
8510.000000;-0.201565
8509.000000;-0.201642
8508.000000;-0.201785
8507.000000;-0.202006
8506.000000;-0.202249
8505.000000;-0.202446
8504.000000;-0.202581
8503.000000;-0.202667
8502.000000;-0.202709
8501.000000;-0.202717
8500.000000;-0.202735
8499.000000;-0.202805
8498.000000;-0.202919
8497.000000;-0.203050
8496.000000;-0.203201
8495.000000;-0.203385
8494.000000;-0.203572
8493.000000;-0.203713
8492.000000;-0.203804
8491.000000;-0.203888
8490.000000;-0.203991
8489.000000;-0.204098
8488.000000;-0.204200
8487.000000;-0.204324
8486.000000;-0.204503
8485.000000;-0.204737
8484.000000;-0.204974
8483.000000;-0.205142
8482.000000;-0.205199
8481.000000;-0.205186
8480.000000;-0.205192
8479.000000;-0.205268
8478.000000;-0.205387
8477.000000;-0.205508
8476.000000;-0.205646
8475.000000;-0.205850
8474.000000;-0.206114
8473.000000;-0.206376
8472.000000;-0.206572
8471.000000;-0.206681
8470.000000;-0.206708
8469.000000;-0.206680
8468.000000;-0.206655
8467.000000;-0.206690
8466.000000;-0.206792
8465.000000;-0.206926
8464.000000;-0.207071
8463.000000;-0.207226
8462.000000;-0.207378
8461.000000;-0.207500
8460.000000;-0.207592
8459.000000;-0.207695
8458.000000;-0.207842
8457.000000;-0.208016
8456.000000;-0.208179
8455.000000;-0.208314
8454.000000;-0.208431
8453.000000;-0.208540
8452.000000;-0.208636
8451.000000;-0.208720
8450.000000;-0.208809
8449.000000;-0.208929
8448.000000;-0.209088
8447.000000;-0.209254
8446.000000;-0.209375
8445.000000;-0.209438
8444.000000;-0.209500
8443.000000;-0.209629
8442.000000;-0.209818
8441.000000;-0.209986
8440.000000;-0.210061
8439.000000;-0.210062
8438.000000;-0.210065
8437.000000;-0.210128
8436.000000;-0.210244
8435.000000;-0.210367
8434.000000;-0.210472
8433.000000;-0.210571
8432.000000;-0.210690
8431.000000;-0.210821
8430.000000;-0.210927
8429.000000;-0.210994
8428.000000;-0.211066
8427.000000;-0.211207
8426.000000;-0.211433
8425.000000;-0.211700
8424.000000;-0.211939
8423.000000;-0.212110
8422.000000;-0.212212
8421.000000;-0.212272
8420.000000;-0.212329
8419.000000;-0.212410
8418.000000;-0.212520
8417.000000;-0.212649
8416.000000;-0.212783
8415.000000;-0.212907
8414.000000;-0.213004
8413.000000;-0.213065
8412.000000;-0.213110
8411.000000;-0.213170
8410.000000;-0.213262
8409.000000;-0.213381
8408.000000;-0.213521
8407.000000;-0.213682
8406.000000;-0.213863
8405.000000;-0.214040
8404.000000;-0.214176
8403.000000;-0.214249
8402.000000;-0.214276
8401.000000;-0.214304
8400.000000;-0.214377
8399.000000;-0.214501
8398.000000;-0.214644
8397.000000;-0.214772
8396.000000;-0.214889
8395.000000;-0.215031
8394.000000;-0.215215
8393.000000;-0.215404
8392.000000;-0.215534
8391.000000;-0.215576
8390.000000;-0.215587
8389.000000;-0.215664
8388.000000;-0.215853
8387.000000;-0.216098
8386.000000;-0.216299
8385.000000;-0.216407
8384.000000;-0.216442
8383.000000;-0.216446
8382.000000;-0.216450
8381.000000;-0.216501
8380.000000;-0.216666
8379.000000;-0.216956
8378.000000;-0.217287
8377.000000;-0.217536
8376.000000;-0.217655
8375.000000;-0.217694
8374.000000;-0.217739
8373.000000;-0.217836
8372.000000;-0.217976
8371.000000;-0.218133
8370.000000;-0.218288
8369.000000;-0.218442
8368.000000;-0.218597
8367.000000;-0.218739
8366.000000;-0.218848
8365.000000;-0.218933
8364.000000;-0.219032
8363.000000;-0.219174
8362.000000;-0.219337
8361.000000;-0.219482
8360.000000;-0.219598
8359.000000;-0.219705
8358.000000;-0.219814
8357.000000;-0.219924
8356.000000;-0.220050
8355.000000;-0.220220
8354.000000;-0.220436
8353.000000;-0.220652
8352.000000;-0.220820
8351.000000;-0.220930
8350.000000;-0.221017
8349.000000;-0.221115
8348.000000;-0.221231
8347.000000;-0.221348
8346.000000;-0.221446
8345.000000;-0.221526
8344.000000;-0.221599
8343.000000;-0.221679
8342.000000;-0.221775
8341.000000;-0.221897
8340.000000;-0.222059
8339.000000;-0.222265
8338.000000;-0.222487
8337.000000;-0.222682
8336.000000;-0.222823
8335.000000;-0.222922
8334.000000;-0.223025
8333.000000;-0.223182
8332.000000;-0.223410
8331.000000;-0.223663
8330.000000;-0.223876
8329.000000;-0.224025
8328.000000;-0.224160
8327.000000;-0.224341
8326.000000;-0.224549
8325.000000;-0.224699
8324.000000;-0.224743
8323.000000;-0.224731
8322.000000;-0.224763
8321.000000;-0.224890
8320.000000;-0.225086
8319.000000;-0.225314
8318.000000;-0.225556
8317.000000;-0.225802
8316.000000;-0.226012
8315.000000;-0.226147
8314.000000;-0.226214
8313.000000;-0.226262
8312.000000;-0.226337
8311.000000;-0.226447
8310.000000;-0.226571
8309.000000;-0.226690
8308.000000;-0.226799
8307.000000;-0.226913
8306.000000;-0.227053
8305.000000;-0.227232
8304.000000;-0.227442
8303.000000;-0.227655
8302.000000;-0.227846
8301.000000;-0.228007
8300.000000;-0.228149
8299.000000;-0.228293
8298.000000;-0.228453
8297.000000;-0.228618
8296.000000;-0.228757
8295.000000;-0.228854
8294.000000;-0.228943
8293.000000;-0.229084
8292.000000;-0.229292
8291.000000;-0.229510
8290.000000;-0.229684
8289.000000;-0.229822
8288.000000;-0.229976
8287.000000;-0.230164
8286.000000;-0.230352
8285.000000;-0.230496
8284.000000;-0.230594
8283.000000;-0.230680
8282.000000;-0.230808
8281.000000;-0.231007
8280.000000;-0.231246
8279.000000;-0.231445
8278.000000;-0.231549
8277.000000;-0.231587
8276.000000;-0.231648
8275.000000;-0.231780
8274.000000;-0.231962
8273.000000;-0.232141
8272.000000;-0.232298
8271.000000;-0.232456
8270.000000;-0.232647
8269.000000;-0.232879
8268.000000;-0.233129
8267.000000;-0.233345
8266.000000;-0.233490
8265.000000;-0.233570
8264.000000;-0.233625
8263.000000;-0.233686
8262.000000;-0.233769
8261.000000;-0.233890
8260.000000;-0.234067
8259.000000;-0.234293
8258.000000;-0.234532
8257.000000;-0.234750
8256.000000;-0.234934
8255.000000;-0.235088
8254.000000;-0.235229
8253.000000;-0.235387
8252.000000;-0.235581
8251.000000;-0.235793
8250.000000;-0.235984
8249.000000;-0.236143
8248.000000;-0.236286
8247.000000;-0.236419
8246.000000;-0.236524
8245.000000;-0.236609
8244.000000;-0.236722
8243.000000;-0.236900
8242.000000;-0.237128
8241.000000;-0.237360
8240.000000;-0.237563
8239.000000;-0.237726
8238.000000;-0.237841
8237.000000;-0.237921
8236.000000;-0.238004
8235.000000;-0.238125
8234.000000;-0.238284
8233.000000;-0.238457
8232.000000;-0.238632
8231.000000;-0.238810
8230.000000;-0.238995
8229.000000;-0.239187
8228.000000;-0.239369
8227.000000;-0.239509
8226.000000;-0.239586
8225.000000;-0.239634
8224.000000;-0.239732
8223.000000;-0.239934
8222.000000;-0.240208
8221.000000;-0.240479
8220.000000;-0.240698
8219.000000;-0.240865
8218.000000;-0.240992
8217.000000;-0.241085
8216.000000;-0.241160
8215.000000;-0.241243
8214.000000;-0.241338
8213.000000;-0.241433
8212.000000;-0.241521
8211.000000;-0.241620
8210.000000;-0.241754
8209.000000;-0.241940
8208.000000;-0.242171
8207.000000;-0.242415
8206.000000;-0.242629
8205.000000;-0.242795
8204.000000;-0.242931
8203.000000;-0.243066
8202.000000;-0.243211
8201.000000;-0.243361
8200.000000;-0.243520
8199.000000;-0.243703
8198.000000;-0.243909
8197.000000;-0.244122
8196.000000;-0.244328
8195.000000;-0.244531
8194.000000;-0.244733
8193.000000;-0.244925
8192.000000;-0.245085
8191.000000;-0.245201
8190.000000;-0.245284
8189.000000;-0.245361
8188.000000;-0.245470
8187.000000;-0.245631
8186.000000;-0.245838
8185.000000;-0.246061
8184.000000;-0.246268
8183.000000;-0.246443
8182.000000;-0.246598
8181.000000;-0.246746
8180.000000;-0.246886
8179.000000;-0.247009
8178.000000;-0.247124
8177.000000;-0.247267
8176.000000;-0.247458
8175.000000;-0.247669
8174.000000;-0.247849
8173.000000;-0.247982
8172.000000;-0.248099
8171.000000;-0.248232
8170.000000;-0.248388
8169.000000;-0.248560
8168.000000;-0.248742
8167.000000;-0.248920
8166.000000;-0.249069
8165.000000;-0.249187
8164.000000;-0.249299
8163.000000;-0.249439
8162.000000;-0.249622
8161.000000;-0.249840
8160.000000;-0.250071
8159.000000;-0.250275
8158.000000;-0.250415
8157.000000;-0.250494
8156.000000;-0.250557
8155.000000;-0.250656
8154.000000;-0.250806
8153.000000;-0.250995
8152.000000;-0.251206
8151.000000;-0.251413
8150.000000;-0.251600
8149.000000;-0.251777
8148.000000;-0.251968
8147.000000;-0.252164
8146.000000;-0.252314
8145.000000;-0.252390
8144.000000;-0.252433
8143.000000;-0.252516
8142.000000;-0.252670
8141.000000;-0.252866
8140.000000;-0.253066
8139.000000;-0.253260
8138.000000;-0.253455
8137.000000;-0.253653
8136.000000;-0.253851
8135.000000;-0.254046
8134.000000;-0.254229
8133.000000;-0.254393
8132.000000;-0.254532
8131.000000;-0.254652
8130.000000;-0.254765
8129.000000;-0.254888
8128.000000;-0.255038
8127.000000;-0.255206
8126.000000;-0.255370
8125.000000;-0.255526
8124.000000;-0.255699
8123.000000;-0.255906
8122.000000;-0.256117
8121.000000;-0.256292
8120.000000;-0.256423
8119.000000;-0.256546
8118.000000;-0.256691
8117.000000;-0.256857
8116.000000;-0.257031
8115.000000;-0.257214
8114.000000;-0.257419
8113.000000;-0.257657
8112.000000;-0.257920
8111.000000;-0.258174
8110.000000;-0.258371
8109.000000;-0.258487
8108.000000;-0.258548
8107.000000;-0.258617
8106.000000;-0.258738
8105.000000;-0.258902
8104.000000;-0.259073
8103.000000;-0.259233
8102.000000;-0.259391
8101.000000;-0.259566
8100.000000;-0.259761
8099.000000;-0.259964
8098.000000;-0.260155
8097.000000;-0.260309
8096.000000;-0.260414
8095.000000;-0.260501
8094.000000;-0.260632
8093.000000;-0.260835
8092.000000;-0.261068
8091.000000;-0.261255
8090.000000;-0.261382
8089.000000;-0.261509
8088.000000;-0.261695
8087.000000;-0.261923
8086.000000;-0.262137
8085.000000;-0.262322
8084.000000;-0.262498
8083.000000;-0.262671
8082.000000;-0.262813
8081.000000;-0.262912
8080.000000;-0.262992
8079.000000;-0.263087
8078.000000;-0.263208
8077.000000;-0.263360
8076.000000;-0.263543
8075.000000;-0.263745
8074.000000;-0.263939
8073.000000;-0.264108
8072.000000;-0.264264
8071.000000;-0.264418
8070.000000;-0.264573
8069.000000;-0.264737
8068.000000;-0.264929
8067.000000;-0.265140
8066.000000;-0.265334
8065.000000;-0.265489
8064.000000;-0.265640
8063.000000;-0.265836
8062.000000;-0.266073
8061.000000;-0.266298
8060.000000;-0.266473
8059.000000;-0.266615
8058.000000;-0.266761
8057.000000;-0.266915
8056.000000;-0.267046
8055.000000;-0.267133
8054.000000;-0.267202
8053.000000;-0.267314
8052.000000;-0.267509
8051.000000;-0.267762
8050.000000;-0.268016
8049.000000;-0.268224
8048.000000;-0.268379
8047.000000;-0.268495
8046.000000;-0.268607
8045.000000;-0.268762
8044.000000;-0.268980
8043.000000;-0.269227
8042.000000;-0.269432
8041.000000;-0.269564
8040.000000;-0.269656
8039.000000;-0.269766
8038.000000;-0.269927
8037.000000;-0.270144
8036.000000;-0.270399
8035.000000;-0.270647
8034.000000;-0.270835
8033.000000;-0.270946
8032.000000;-0.271021
8031.000000;-0.271115
8030.000000;-0.271251
8029.000000;-0.271423
8028.000000;-0.271616
8027.000000;-0.271816
8026.000000;-0.272001
8025.000000;-0.272163
8024.000000;-0.272327
8023.000000;-0.272521
8022.000000;-0.272741
8021.000000;-0.272957
8020.000000;-0.273151
8019.000000;-0.273324
8018.000000;-0.273492
8017.000000;-0.273667
8016.000000;-0.273855
8015.000000;-0.274047
8014.000000;-0.274218
8013.000000;-0.274346
8012.000000;-0.274433
8011.000000;-0.274502
8010.000000;-0.274583
8009.000000;-0.274706
8008.000000;-0.274889
8007.000000;-0.275122
8006.000000;-0.275366
8005.000000;-0.275587
8004.000000;-0.275785
8003.000000;-0.275979
8002.000000;-0.276181
8001.000000;-0.276382
8000.000000;-0.276572
7999.000000;-0.276742
7998.000000;-0.276889
7997.000000;-0.277018
7996.000000;-0.277147
7995.000000;-0.277293
7994.000000;-0.277449
7993.000000;-0.277596
7992.000000;-0.277733
7991.000000;-0.277877
7990.000000;-0.278046
7989.000000;-0.278236
7988.000000;-0.278427
7987.000000;-0.278609
7986.000000;-0.278780
7985.000000;-0.278942
7984.000000;-0.279089
7983.000000;-0.279224
7982.000000;-0.279369
7981.000000;-0.279553
7980.000000;-0.279770
7979.000000;-0.279978
7978.000000;-0.280143
7977.000000;-0.280278
7976.000000;-0.280415
7975.000000;-0.280572
7974.000000;-0.280745
7973.000000;-0.280940
7972.000000;-0.281163
7971.000000;-0.281396
7970.000000;-0.281601
7969.000000;-0.281767
7968.000000;-0.281920
7967.000000;-0.282082
7966.000000;-0.282249
7965.000000;-0.282419
7964.000000;-0.282605
7963.000000;-0.282812
7962.000000;-0.283017
7961.000000;-0.283194
7960.000000;-0.283340
7959.000000;-0.283475
7958.000000;-0.283615
7957.000000;-0.283767
7956.000000;-0.283938
7955.000000;-0.284123
7954.000000;-0.284301
7953.000000;-0.284457
7952.000000;-0.284599
7951.000000;-0.284749
7950.000000;-0.284910
7949.000000;-0.285077
7948.000000;-0.285245
7947.000000;-0.285414
7946.000000;-0.285588
7945.000000;-0.285773
7944.000000;-0.285969
7943.000000;-0.286162
7942.000000;-0.286326
7941.000000;-0.286454
7940.000000;-0.286572
7939.000000;-0.286712
7938.000000;-0.286881
7937.000000;-0.287058
7936.000000;-0.287220
7935.000000;-0.287359
7934.000000;-0.287492
7933.000000;-0.287648
7932.000000;-0.287851
7931.000000;-0.288090
7930.000000;-0.288333
7929.000000;-0.288549
7928.000000;-0.288725
7927.000000;-0.288859
7926.000000;-0.288959
7925.000000;-0.289055
7924.000000;-0.289183
7923.000000;-0.289345
7922.000000;-0.289503
7921.000000;-0.289626
7920.000000;-0.289731
7919.000000;-0.289868
7918.000000;-0.290063
7917.000000;-0.290296
7916.000000;-0.290528
7915.000000;-0.290720
7914.000000;-0.290865
7913.000000;-0.290984
7912.000000;-0.291112
7911.000000;-0.291270
7910.000000;-0.291452
7909.000000;-0.291645
7908.000000;-0.291838
7907.000000;-0.292016
7906.000000;-0.292162
7905.000000;-0.292283
7904.000000;-0.292419
7903.000000;-0.292600
7902.000000;-0.292813
7901.000000;-0.293011
7900.000000;-0.293153
7899.000000;-0.293242
7898.000000;-0.293312
7897.000000;-0.293408
7896.000000;-0.293548
7895.000000;-0.293717
7894.000000;-0.293890
7893.000000;-0.294054
7892.000000;-0.294207
7891.000000;-0.294348
7890.000000;-0.294481
7889.000000;-0.294623
7888.000000;-0.294787
7887.000000;-0.294963
7886.000000;-0.295133
7885.000000;-0.295303
7884.000000;-0.295489
7883.000000;-0.295683
7882.000000;-0.295862
7881.000000;-0.296020
7880.000000;-0.296178
7879.000000;-0.296343
7878.000000;-0.296497
7877.000000;-0.296629
7876.000000;-0.296755
7875.000000;-0.296890
7874.000000;-0.297037
7873.000000;-0.297195
7872.000000;-0.297363
7871.000000;-0.297525
7870.000000;-0.297652
7869.000000;-0.297749
7868.000000;-0.297854
7867.000000;-0.297992
7866.000000;-0.298151
7865.000000;-0.298310
7864.000000;-0.298476
7863.000000;-0.298658
7862.000000;-0.298842
7861.000000;-0.299007
7860.000000;-0.299146
7859.000000;-0.299255
7858.000000;-0.299340
7857.000000;-0.299434
7856.000000;-0.299587
7855.000000;-0.299806
7854.000000;-0.300026
7853.000000;-0.300177
7852.000000;-0.300254
7851.000000;-0.300299
7850.000000;-0.300358
7849.000000;-0.300455
7848.000000;-0.300604
7847.000000;-0.300795
7846.000000;-0.300985
7845.000000;-0.301139
7844.000000;-0.301265
7843.000000;-0.301390
7842.000000;-0.301521
7841.000000;-0.301646
7840.000000;-0.301771
7839.000000;-0.301909
7838.000000;-0.302052
7837.000000;-0.302181
7836.000000;-0.302297
7835.000000;-0.302421
7834.000000;-0.302556
7833.000000;-0.302684
7832.000000;-0.302795
7831.000000;-0.302898
7830.000000;-0.303006
7829.000000;-0.303127
7828.000000;-0.303268
7827.000000;-0.303430
7826.000000;-0.303602
7825.000000;-0.303761
7824.000000;-0.303889
7823.000000;-0.303984
7822.000000;-0.304063
7821.000000;-0.304160
7820.000000;-0.304299
7819.000000;-0.304468
7818.000000;-0.304628
7817.000000;-0.304761
7816.000000;-0.304884
7815.000000;-0.305017
7814.000000;-0.305149
7813.000000;-0.305265
7812.000000;-0.305378
7811.000000;-0.305508
7810.000000;-0.305644
7809.000000;-0.305757
7808.000000;-0.305840
7807.000000;-0.305919
7806.000000;-0.306026
7805.000000;-0.306167
7804.000000;-0.306326
7803.000000;-0.306472
7802.000000;-0.306581
7801.000000;-0.306655
7800.000000;-0.306730
7799.000000;-0.306840
7798.000000;-0.306977
7797.000000;-0.307106
7796.000000;-0.307200
7795.000000;-0.307270
7794.000000;-0.307351
7793.000000;-0.307472
7792.000000;-0.307635
7791.000000;-0.307807
7790.000000;-0.307945
7789.000000;-0.308046
7788.000000;-0.308137
7787.000000;-0.308237
7786.000000;-0.308331
7785.000000;-0.308412
7784.000000;-0.308506
7783.000000;-0.308643
7782.000000;-0.308806
7781.000000;-0.308946
7780.000000;-0.309043
7779.000000;-0.309112
7778.000000;-0.309170
7777.000000;-0.309225
7776.000000;-0.309293
7775.000000;-0.309397
7774.000000;-0.309536
7773.000000;-0.309677
7772.000000;-0.309786
7771.000000;-0.309863
7770.000000;-0.309928
7769.000000;-0.309993
7768.000000;-0.310054
7767.000000;-0.310105
7766.000000;-0.310166
7765.000000;-0.310269
7764.000000;-0.310430
7763.000000;-0.310620
7762.000000;-0.310800
7761.000000;-0.310954
7760.000000;-0.311093
7759.000000;-0.311213
7758.000000;-0.311286
7757.000000;-0.311301
7756.000000;-0.311295
7755.000000;-0.311324
7754.000000;-0.311413
7753.000000;-0.311552
7752.000000;-0.311713
7751.000000;-0.311855
7750.000000;-0.311946
7749.000000;-0.311983
7748.000000;-0.312004
7747.000000;-0.312050
7746.000000;-0.312128
7745.000000;-0.312211
7744.000000;-0.312281
7743.000000;-0.312343
7742.000000;-0.312421
7741.000000;-0.312537
7740.000000;-0.312689
7739.000000;-0.312832
7738.000000;-0.312909
7737.000000;-0.312907
7736.000000;-0.312873
7735.000000;-0.312865
7734.000000;-0.312900
7733.000000;-0.312972
7732.000000;-0.313079
7731.000000;-0.313216
7730.000000;-0.313358
7729.000000;-0.313473
7728.000000;-0.313555
7727.000000;-0.313624
7726.000000;-0.313692
7725.000000;-0.313754
7724.000000;-0.313794
7723.000000;-0.313805
7722.000000;-0.313791
7721.000000;-0.313777
7720.000000;-0.313796
7719.000000;-0.313863
7718.000000;-0.313954
7717.000000;-0.314040
7716.000000;-0.314119
7715.000000;-0.314201
7714.000000;-0.314290
7713.000000;-0.314383
7712.000000;-0.314479
7711.000000;-0.314566
7710.000000;-0.314622
7709.000000;-0.314636
7708.000000;-0.314636
7707.000000;-0.314661
7706.000000;-0.314726
7705.000000;-0.314810
7704.000000;-0.314888
7703.000000;-0.314937
7702.000000;-0.314940
7701.000000;-0.314909
7700.000000;-0.314894
7699.000000;-0.314937
7698.000000;-0.315026
7697.000000;-0.315108
7696.000000;-0.315147
7695.000000;-0.315159
7694.000000;-0.315177
7693.000000;-0.315226
7692.000000;-0.315308
7691.000000;-0.315403
7690.000000;-0.315479
7689.000000;-0.315509
7688.000000;-0.315497
7687.000000;-0.315469
7686.000000;-0.315458
7685.000000;-0.315488
7684.000000;-0.315561
7683.000000;-0.315652
7682.000000;-0.315719
7681.000000;-0.315744
7680.000000;-0.315743
7679.000000;-0.315735
7678.000000;-0.315713
7677.000000;-0.315667
7676.000000;-0.315614
7675.000000;-0.315584
7674.000000;-0.315591
7673.000000;-0.315630
7672.000000;-0.315696
7671.000000;-0.315779
7670.000000;-0.315846
7669.000000;-0.315873
7668.000000;-0.315875
7667.000000;-0.315889
7666.000000;-0.315927
7665.000000;-0.315964
7664.000000;-0.315976
7663.000000;-0.315965
7662.000000;-0.315940
7661.000000;-0.315910
7660.000000;-0.315888
7659.000000;-0.315886
7658.000000;-0.315896
7657.000000;-0.315897
7656.000000;-0.315876
7655.000000;-0.315844
7654.000000;-0.315814
7653.000000;-0.315779
7652.000000;-0.315731
7651.000000;-0.315684
7650.000000;-0.315665
7649.000000;-0.315690
7648.000000;-0.315736
7647.000000;-0.315764
7646.000000;-0.315756
7645.000000;-0.315733
7644.000000;-0.315724
7643.000000;-0.315726
7642.000000;-0.315710
7641.000000;-0.315658
7640.000000;-0.315587
7639.000000;-0.315518
7638.000000;-0.315457
7637.000000;-0.315395
7636.000000;-0.315331
7635.000000;-0.315267
7634.000000;-0.315206
7633.000000;-0.315150
7632.000000;-0.315105
7631.000000;-0.315062
7630.000000;-0.315010
7629.000000;-0.314953
7628.000000;-0.314921
7627.000000;-0.314922
7626.000000;-0.314924
7625.000000;-0.314892
7624.000000;-0.314836
7623.000000;-0.314798
7622.000000;-0.314793
7621.000000;-0.314789
7620.000000;-0.314736
7619.000000;-0.314620
7618.000000;-0.314469
7617.000000;-0.314324
7616.000000;-0.314212
7615.000000;-0.314124
7614.000000;-0.314048
7613.000000;-0.313994
7612.000000;-0.313983
7611.000000;-0.314001
7610.000000;-0.314000
7609.000000;-0.313939
7608.000000;-0.313821
7607.000000;-0.313674
7606.000000;-0.313523
7605.000000;-0.313382
7604.000000;-0.313259
7603.000000;-0.313151
7602.000000;-0.313050
7601.000000;-0.312956
7600.000000;-0.312880
7599.000000;-0.312823
7598.000000;-0.312772
7597.000000;-0.312719
7596.000000;-0.312667
7595.000000;-0.312607
7594.000000;-0.312516
7593.000000;-0.312391
7592.000000;-0.312264
7591.000000;-0.312163
7590.000000;-0.312080
7589.000000;-0.311986
7588.000000;-0.311870
7587.000000;-0.311740
7586.000000;-0.311608
7585.000000;-0.311475
7584.000000;-0.311336
7583.000000;-0.311188
7582.000000;-0.311043
7581.000000;-0.310931
7580.000000;-0.310867
7579.000000;-0.310815
7578.000000;-0.310719
7577.000000;-0.310564
7576.000000;-0.310395
7575.000000;-0.310248
7574.000000;-0.310111
7573.000000;-0.309961
7572.000000;-0.309805
7571.000000;-0.309660
7570.000000;-0.309519
7569.000000;-0.309365
7568.000000;-0.309203
7567.000000;-0.309050
7566.000000;-0.308914
7565.000000;-0.308788
7564.000000;-0.308666
7563.000000;-0.308538
7562.000000;-0.308382
7561.000000;-0.308190
7560.000000;-0.307977
7559.000000;-0.307768
7558.000000;-0.307572
7557.000000;-0.307389
7556.000000;-0.307223
7555.000000;-0.307061
7554.000000;-0.306872
7553.000000;-0.306648
7552.000000;-0.306426
7551.000000;-0.306247
7550.000000;-0.306111
7549.000000;-0.305991
7548.000000;-0.305870
7547.000000;-0.305746
7546.000000;-0.305614
7545.000000;-0.305460
7544.000000;-0.305282
7543.000000;-0.305088
7542.000000;-0.304890
7541.000000;-0.304698
7540.000000;-0.304509
7539.000000;-0.304308
7538.000000;-0.304082
7537.000000;-0.303843
7536.000000;-0.303613
7535.000000;-0.303385
7534.000000;-0.303135
7533.000000;-0.302867
7532.000000;-0.302626
7531.000000;-0.302443
7530.000000;-0.302295
7529.000000;-0.302142
7528.000000;-0.301961
7527.000000;-0.301759
7526.000000;-0.301547
7525.000000;-0.301337
7524.000000;-0.301135
7523.000000;-0.300921
7522.000000;-0.300674
7521.000000;-0.300408
7520.000000;-0.300165
7519.000000;-0.299963
7518.000000;-0.299775
7517.000000;-0.299577
7516.000000;-0.299375
7515.000000;-0.299161
7514.000000;-0.298903
7513.000000;-0.298598
7512.000000;-0.298303
7511.000000;-0.298066
7510.000000;-0.297871
7509.000000;-0.297674
7508.000000;-0.297464
7507.000000;-0.297254
7506.000000;-0.297037
7505.000000;-0.296789
7504.000000;-0.296514
7503.000000;-0.296242
7502.000000;-0.295996
7501.000000;-0.295775
7500.000000;-0.295564
7499.000000;-0.295331
7498.000000;-0.295058
7497.000000;-0.294746
7496.000000;-0.294473
7495.000000;-0.294277
7494.000000;-0.294035
7493.000000;-0.293780
7492.000000;-0.293496
7491.000000;-0.293219
7490.000000;-0.292967
7489.000000;-0.292735
7488.000000;-0.292497
7487.000000;-0.292230
7486.000000;-0.291944
7485.000000;-0.291689
7484.000000;-0.291501
7483.000000;-0.291335
7482.000000;-0.291104
7481.000000;-0.290788
7480.000000;-0.290456
7479.000000;-0.290167
7478.000000;-0.289913
7477.000000;-0.289664
7476.000000;-0.289431
7475.000000;-0.289224
7474.000000;-0.289010
7473.000000;-0.288759
7472.000000;-0.288483
7471.000000;-0.288210
7470.000000;-0.287944
7469.000000;-0.287679
7468.000000;-0.287418
7467.000000;-0.287155
7466.000000;-0.286867
7465.000000;-0.286565
7464.000000;-0.286289
7463.000000;-0.286049
7462.000000;-0.285804
7461.000000;-0.285530
7460.000000;-0.285256
7459.000000;-0.285009
7458.000000;-0.284767
7457.000000;-0.284509
7456.000000;-0.284255
7455.000000;-0.284021
7454.000000;-0.283778
7453.000000;-0.283501
7452.000000;-0.283210
7451.000000;-0.282941
7450.000000;-0.282693
7449.000000;-0.282443
7448.000000;-0.282181
7447.000000;-0.281898
7446.000000;-0.281581
7445.000000;-0.281248
7444.000000;-0.280943
7443.000000;-0.280675
7442.000000;-0.280411
7441.000000;-0.280147
7440.000000;-0.279924
7439.000000;-0.279738
7438.000000;-0.279520
7437.000000;-0.279231
7436.000000;-0.278931
7435.000000;-0.278689
7434.000000;-0.278488
7433.000000;-0.278273
7432.000000;-0.278041
7431.000000;-0.277820
7430.000000;-0.277609
7429.000000;-0.277388
7428.000000;-0.277151
7427.000000;-0.276902
7426.000000;-0.276636
7425.000000;-0.276374
7424.000000;-0.276154
7423.000000;-0.275954
7422.000000;-0.275686
7421.000000;-0.275327
7420.000000;-0.275000
7419.000000;-0.274834
7418.000000;-0.274789
7417.000000;-0.274704
7416.000000;-0.274484
7415.000000;-0.274171
7414.000000;-0.273845
7413.000000;-0.273543
7412.000000;-0.273259
7411.000000;-0.272978
7410.000000;-0.272705
7409.000000;-0.272475
7408.000000;-0.272311
7407.000000;-0.272170
7406.000000;-0.272001
7405.000000;-0.271842
7404.000000;-0.271756
7403.000000;-0.271679
7402.000000;-0.271429
7401.000000;-0.270923
7400.000000;-0.270291
7399.000000;-0.269760
7398.000000;-0.269484
7397.000000;-0.269467
7396.000000;-0.269555
7395.000000;-0.269534
7394.000000;-0.269375
7393.000000;-0.269286
7392.000000;-0.269392
7391.000000;-0.269511
7390.000000;-0.269390
7389.000000;-0.269041
7388.000000;-0.268641
7387.000000;-0.268208
7386.000000;-0.267666
7385.000000;-0.267154
7384.000000;-0.266913
7383.000000;-0.266859
7382.000000;-0.266670
7381.000000;-0.266349
7380.000000;-0.266294
7379.000000;-0.266568
7378.000000;-0.266518
7377.000000;-0.265582
7376.000000;-0.264199
7375.000000;-0.263407
7374.000000;-0.263608
7373.000000;-0.264160
7372.000000;-0.264207
7371.000000;-0.263548
7370.000000;-0.262653
7369.000000;-0.262164
7368.000000;-0.262383
7367.000000;-0.262998
7366.000000;-0.263306
7365.000000;-0.262905
7364.000000;-0.262070
7363.000000;-0.261332
7362.000000;-0.260918
7361.000000;-0.260758
7360.000000;-0.260804
7359.000000;-0.260932
7358.000000;-0.260679
7357.000000;-0.259704
7356.000000;-0.258500
7355.000000;-0.258025
7354.000000;-0.258487
7353.000000;-0.259043
7352.000000;-0.258855
7351.000000;-0.257930
7350.000000;-0.256831
7349.000000;-0.256114
7348.000000;-0.256138
7347.000000;-0.256814
7346.000000;-0.257404
7345.000000;-0.257154
7344.000000;-0.256194
7343.000000;-0.255239
7342.000000;-0.254390
7341.000000;-0.253112
7340.000000;-0.251543
7339.000000;-0.250779
7338.000000;-0.251307
7337.000000;-0.252047
7336.000000;-0.251776
7335.000000;-0.250717
7334.000000;-0.249986
7333.000000;-0.250041
7332.000000;-0.250439
7331.000000;-0.250629
7330.000000;-0.250263
7329.000000;-0.249229
7328.000000;-0.248077
7327.000000;-0.247781
7326.000000;-0.248371
7325.000000;-0.248497
7324.000000;-0.247213
7323.000000;-0.245420
7322.000000;-0.244609
7321.000000;-0.244825
7320.000000;-0.244854
7319.000000;-0.244043
7318.000000;-0.242927
7317.000000;-0.242160
7316.000000;-0.241790
7315.000000;-0.241605
7314.000000;-0.241397
7313.000000;-0.240817
7312.000000;-0.239712
7311.000000;-0.238643
7310.000000;-0.238207
7309.000000;-0.237947
7308.000000;-0.236958
7307.000000;-0.235471
7306.000000;-0.234707
7305.000000;-0.235008
7304.000000;-0.235205
7303.000000;-0.234258
7302.000000;-0.232555
7301.000000;-0.231144
7300.000000;-0.230492
7299.000000;-0.230435
7298.000000;-0.230622
7297.000000;-0.230426
7296.000000;-0.229082
7295.000000;-0.226726
7294.000000;-0.224739
7293.000000;-0.224238
7292.000000;-0.224550
7291.000000;-0.224023
7290.000000;-0.222106
7289.000000;-0.219793
7288.000000;-0.218235
7287.000000;-0.217632
7286.000000;-0.217443
7285.000000;-0.217086
7284.000000;-0.216290
7283.000000;-0.215117
7282.000000;-0.213850
7281.000000;-0.212739
7280.000000;-0.211770
7279.000000;-0.210729
7278.000000;-0.209507
7277.000000;-0.208180
7276.000000;-0.206802
7275.000000;-0.205357
7274.000000;-0.203888
7273.000000;-0.202492
7272.000000;-0.201196
7271.000000;-0.199908
7270.000000;-0.198489
7269.000000;-0.196889
7268.000000;-0.195226
7267.000000;-0.193711
7266.000000;-0.192395
7265.000000;-0.190988
7264.000000;-0.189129
7263.000000;-0.186875
7262.000000;-0.184757
7261.000000;-0.183189
7260.000000;-0.181978
7259.000000;-0.180609
7258.000000;-0.178860
7257.000000;-0.176930
7256.000000;-0.174994
7255.000000;-0.172957
7254.000000;-0.170729
7253.000000;-0.168515
7252.000000;-0.166599
7251.000000;-0.164945
7250.000000;-0.163187
7249.000000;-0.161061
7248.000000;-0.158702
7247.000000;-0.156458
7246.000000;-0.154360
7245.000000;-0.151904
7244.000000;-0.148752
7243.000000;-0.145458
7242.000000;-0.143004
7241.000000;-0.141486
7240.000000;-0.139817
7239.000000;-0.137065
7238.000000;-0.133642
7237.000000;-0.130712
7236.000000;-0.128684
7235.000000;-0.126738
7234.000000;-0.123896
7233.000000;-0.120293
7232.000000;-0.117083
7231.000000;-0.115072
7230.000000;-0.113656
7229.000000;-0.111359
7228.000000;-0.107431
7227.000000;-0.102720
7226.000000;-0.098781
7225.000000;-0.096233
7224.000000;-0.094336
7223.000000;-0.091991
7222.000000;-0.088762
7221.000000;-0.085012
7220.000000;-0.081414
7219.000000;-0.078374
7218.000000;-0.075655
7217.000000;-0.072561
7216.000000;-0.068681
7215.000000;-0.064360
7214.000000;-0.060288
7213.000000;-0.056697
7212.000000;-0.053191
7211.000000;-0.049337
7210.000000;-0.045147
7209.000000;-0.040875
7208.000000;-0.036579
7207.000000;-0.032140
7206.000000;-0.027571
7205.000000;-0.023063
7204.000000;-0.018809
7203.000000;-0.014832
7202.000000;-0.010909
7201.000000;-0.006685
7200.000000;-0.002007
7199.000000;0.002874
7198.000000;0.007595
7197.000000;0.012144
7196.000000;0.016809
7195.000000;0.021681
7194.000000;0.026486
7193.000000;0.031063
7192.000000;0.035699
7191.000000;0.040730
7190.000000;0.046031
7189.000000;0.051226
7188.000000;0.056247
7187.000000;0.061315
7186.000000;0.066476
7185.000000;0.071587
7184.000000;0.076750
7183.000000;0.082280
7182.000000;0.088096
7181.000000;0.093659
7180.000000;0.098787
7179.000000;0.104107
7178.000000;0.110282
7177.000000;0.117082
7176.000000;0.123634
7175.000000;0.129392
7174.000000;0.134557
7173.000000;0.139663
7172.000000;0.145088
7171.000000;0.150986
7170.000000;0.157306
7169.000000;0.163731
7168.000000;0.169882
7167.000000;0.175667
7166.000000;0.181299
7165.000000;0.186970
7164.000000;0.192808
7163.000000;0.199021
7162.000000;0.205618
7161.000000;0.212126
7160.000000;0.218053
7159.000000;0.223681
7158.000000;0.229903
7157.000000;0.237069
7156.000000;0.244448
7155.000000;0.251115
7154.000000;0.257014
7153.000000;0.262797
7152.000000;0.268863
7151.000000;0.275029
7150.000000;0.281054
7149.000000;0.287032
7148.000000;0.293234
7147.000000;0.299748
7146.000000;0.306391
7145.000000;0.312911
7144.000000;0.319223
7143.000000;0.325486
7142.000000;0.332006
7141.000000;0.338938
7140.000000;0.345924
7139.000000;0.352293
7138.000000;0.357879
7137.000000;0.363453
7136.000000;0.369898
7135.000000;0.377063
7134.000000;0.383931
7133.000000;0.389913
7132.000000;0.395468
7131.000000;0.401334
7130.000000;0.407649
7129.000000;0.414083
7128.000000;0.420426
7127.000000;0.426647
7126.000000;0.432633
7125.000000;0.438373
7124.000000;0.444165
7123.000000;0.450218
7122.000000;0.456242
7121.000000;0.461886
7120.000000;0.467396
7119.000000;0.473277
7118.000000;0.479353
7117.000000;0.484880
7116.000000;0.489734
7115.000000;0.494856
7114.000000;0.501074
7113.000000;0.507971
7112.000000;0.514414
7111.000000;0.519890
7110.000000;0.524876
7109.000000;0.530015
7108.000000;0.535395
7107.000000;0.540695
7106.000000;0.545680
7105.000000;0.550381
7104.000000;0.555021
7103.000000;0.559918
7102.000000;0.565277
7101.000000;0.570920
7100.000000;0.576354
7099.000000;0.581177
7098.000000;0.585468
7097.000000;0.589727
7096.000000;0.594318
7095.000000;0.599062
7094.000000;0.603571
7093.000000;0.607861
7092.000000;0.612330
7091.000000;0.617113
7090.000000;0.621842
7089.000000;0.626156
7088.000000;0.630173
7087.000000;0.634241
7086.000000;0.638463
7085.000000;0.642682
7084.000000;0.646781
7083.000000;0.650759
7082.000000;0.654596
7081.000000;0.658258
7080.000000;0.661771
7079.000000;0.665178
7078.000000;0.668516
7077.000000;0.671934
7076.000000;0.675607
7075.000000;0.679425
7074.000000;0.682991
7073.000000;0.686050
7072.000000;0.688754
7071.000000;0.691407
7070.000000;0.694141
7069.000000;0.696991
7068.000000;0.700098
7067.000000;0.703575
7066.000000;0.707278
7065.000000;0.710853
7064.000000;0.714011
7063.000000;0.716690
7062.000000;0.719065
7061.000000;0.721460
7060.000000;0.724122
7059.000000;0.726971
7058.000000;0.729672
7057.000000;0.732025
7056.000000;0.734123
7055.000000;0.736116
7054.000000;0.738056
7053.000000;0.740049
7052.000000;0.742264
7051.000000;0.744711
7050.000000;0.747175
7049.000000;0.749465
7048.000000;0.751572
7047.000000;0.753572
7046.000000;0.755587
7045.000000;0.757846
7044.000000;0.760489
7043.000000;0.763204
7042.000000;0.765392
7041.000000;0.766834
7040.000000;0.767954
7039.000000;0.769300
7038.000000;0.771011
7037.000000;0.772918
7036.000000;0.774836
7035.000000;0.776550
7034.000000;0.777840
7033.000000;0.778756
7032.000000;0.779665
7031.000000;0.780836
7030.000000;0.782145
7029.000000;0.783320
7028.000000;0.784260
7027.000000;0.785032
7026.000000;0.785811
7025.000000;0.786921
7024.000000;0.788599
7023.000000;0.790570
7022.000000;0.792212
7021.000000;0.793312
7020.000000;0.794301
7019.000000;0.795526
7018.000000;0.796675
7017.000000;0.797264
7016.000000;0.797373
7015.000000;0.797527
7014.000000;0.798070
7013.000000;0.798992
7012.000000;0.800162
7011.000000;0.801387
7010.000000;0.802420
7009.000000;0.803223
7008.000000;0.804099
7007.000000;0.805266
7006.000000;0.806456
7005.000000;0.807243
7004.000000;0.807604
7003.000000;0.807851
7002.000000;0.808138
7001.000000;0.808367
7000.000000;0.808505
6999.000000;0.808661
6998.000000;0.808896
6997.000000;0.809192
6996.000000;0.809632
6995.000000;0.810347
6994.000000;0.811236
6993.000000;0.811950
6992.000000;0.812208
6991.000000;0.812095
6990.000000;0.812012
6989.000000;0.812333
6988.000000;0.813017
6987.000000;0.813591
6986.000000;0.813640
6985.000000;0.813326
6984.000000;0.813233
6983.000000;0.813683
6982.000000;0.814406
6981.000000;0.814914
6980.000000;0.814952
6979.000000;0.814516
6978.000000;0.813765
6977.000000;0.813086
6976.000000;0.812929
6975.000000;0.813353
6974.000000;0.813934
6973.000000;0.814287
6972.000000;0.814446
6971.000000;0.814583
6970.000000;0.814627
6969.000000;0.814408
6968.000000;0.813945
6967.000000;0.813377
6966.000000;0.812772
6965.000000;0.812196
6964.000000;0.811794
6963.000000;0.811588
6962.000000;0.811374
6961.000000;0.811019
6960.000000;0.810653
6959.000000;0.810369
6958.000000;0.809994
6957.000000;0.809400
6956.000000;0.808810
6955.000000;0.808486
6954.000000;0.808309
6953.000000;0.807964
6952.000000;0.807413
6951.000000;0.806880
6950.000000;0.806467
6949.000000;0.806060
6948.000000;0.805581
6947.000000;0.805102
6946.000000;0.804718
6945.000000;0.804475
6944.000000;0.804348
6943.000000;0.804158
6942.000000;0.803604
6941.000000;0.802573
6940.000000;0.801325
6939.000000;0.800226
6938.000000;0.799362
6937.000000;0.798601
6936.000000;0.797881
6935.000000;0.797240
6934.000000;0.796663
6933.000000;0.796124
6932.000000;0.795733
6931.000000;0.795617
6930.000000;0.795641
6929.000000;0.795447
6928.000000;0.794799
6927.000000;0.793775
6926.000000;0.792629
6925.000000;0.791575
6924.000000;0.790702
6923.000000;0.789989
6922.000000;0.789352
6921.000000;0.788694
6920.000000;0.787953
6919.000000;0.787112
6918.000000;0.786220
6917.000000;0.785407
6916.000000;0.784803
6915.000000;0.784417
6914.000000;0.784145
6913.000000;0.783877
6912.000000;0.783507
6911.000000;0.782867
6910.000000;0.781835
6909.000000;0.780522
6908.000000;0.779219
6907.000000;0.778113
6906.000000;0.777154
6905.000000;0.776177
6904.000000;0.775035
6903.000000;0.773662
6902.000000;0.772210
6901.000000;0.771086
6900.000000;0.770573
6899.000000;0.770397
6898.000000;0.769938
6897.000000;0.768941
6896.000000;0.767753
6895.000000;0.766757
6894.000000;0.765908
6893.000000;0.765011
6892.000000;0.764125
6891.000000;0.763393
6890.000000;0.762731
6889.000000;0.761986
6888.000000;0.761264
6887.000000;0.760787
6886.000000;0.760500
6885.000000;0.760085
6884.000000;0.759324
6883.000000;0.758258
6882.000000;0.757038
6881.000000;0.755821
6880.000000;0.754736
6879.000000;0.753797
6878.000000;0.752879
6877.000000;0.751910
6876.000000;0.751018
6875.000000;0.750358
6874.000000;0.749861
6873.000000;0.749291
6872.000000;0.748456
6871.000000;0.747292
6870.000000;0.745844
6869.000000;0.744308
6868.000000;0.742943
6867.000000;0.741793
6866.000000;0.740629
6865.000000;0.739306
6864.000000;0.738051
6863.000000;0.737169
6862.000000;0.736557
6861.000000;0.735757
6860.000000;0.734500
6859.000000;0.733006
6858.000000;0.731698
6857.000000;0.730749
6856.000000;0.729944
6855.000000;0.728921
6854.000000;0.727506
6853.000000;0.725881
6852.000000;0.724422
6851.000000;0.723344
6850.000000;0.722498
6849.000000;0.721515
6848.000000;0.720142
6847.000000;0.718430
6846.000000;0.716664
6845.000000;0.715095
6844.000000;0.713712
6843.000000;0.712274
6842.000000;0.710579
6841.000000;0.708660
6840.000000;0.706651
6839.000000;0.704578
6838.000000;0.702431
6837.000000;0.700342
6836.000000;0.698458
6835.000000;0.696667
6834.000000;0.694696
6833.000000;0.692528
6832.000000;0.690455
6831.000000;0.688638
6830.000000;0.686849
6829.000000;0.684805
6828.000000;0.682549
6827.000000;0.680325
6826.000000;0.678217
6825.000000;0.676102
6824.000000;0.673868
6823.000000;0.671493
6822.000000;0.668983
6821.000000;0.666384
6820.000000;0.663851
6819.000000;0.661554
6818.000000;0.659529
6817.000000;0.657650
6816.000000;0.655723
6815.000000;0.653564
6814.000000;0.651090
6813.000000;0.648410
6812.000000;0.645772
6811.000000;0.643340
6810.000000;0.641045
6809.000000;0.638679
6808.000000;0.636075
6807.000000;0.633193
6806.000000;0.630133
6805.000000;0.627120
6804.000000;0.624377
6803.000000;0.621939
6802.000000;0.619634
6801.000000;0.617287
6800.000000;0.614844
6799.000000;0.612285
6798.000000;0.609544
6797.000000;0.606577
6796.000000;0.603451
6795.000000;0.600287
6794.000000;0.597195
6793.000000;0.594274
6792.000000;0.591561
6791.000000;0.588926
6790.000000;0.586140
6789.000000;0.583104
6788.000000;0.579963
6787.000000;0.576919
6786.000000;0.574032
6785.000000;0.571258
6784.000000;0.568548
6783.000000;0.565831
6782.000000;0.562992
6781.000000;0.559993
6780.000000;0.556966
6779.000000;0.554083
6778.000000;0.551357
6777.000000;0.548647
6776.000000;0.545821
6775.000000;0.542878
6774.000000;0.539907
6773.000000;0.536985
6772.000000;0.534079
6771.000000;0.531063
6770.000000;0.527877
6769.000000;0.524650
6768.000000;0.521578
6767.000000;0.518662
6766.000000;0.515707
6765.000000;0.512629
6764.000000;0.509613
6763.000000;0.506882
6762.000000;0.504415
6761.000000;0.501976
6760.000000;0.499346
6759.000000;0.496436
6758.000000;0.493270
6757.000000;0.489972
6756.000000;0.486706
6755.000000;0.483532
6754.000000;0.480363
6753.000000;0.477141
6752.000000;0.473985
6751.000000;0.471055
6750.000000;0.468321
6749.000000;0.465577
6748.000000;0.462675
6747.000000;0.459642
6746.000000;0.456607
6745.000000;0.453683
6744.000000;0.450902
6743.000000;0.448168
6742.000000;0.445302
6741.000000;0.442214
6740.000000;0.439042
6739.000000;0.436017
6738.000000;0.433197
6737.000000;0.430410
6736.000000;0.427477
6735.000000;0.424412
6734.000000;0.421372
6733.000000;0.418445
6732.000000;0.415573
6731.000000;0.412651
6730.000000;0.409670
6729.000000;0.406728
6728.000000;0.403917
6727.000000;0.401231
6726.000000;0.398583
6725.000000;0.395896
6724.000000;0.393134
6723.000000;0.390288
6722.000000;0.387372
6721.000000;0.384430
6720.000000;0.381507
6719.000000;0.378597
6718.000000;0.375673
6717.000000;0.372751
6716.000000;0.369861
6715.000000;0.366978
6714.000000;0.364025
6713.000000;0.361006
6712.000000;0.358039
6711.000000;0.355230
6710.000000;0.352560
6709.000000;0.349914
6708.000000;0.347210
6707.000000;0.344447
6706.000000;0.341681
6705.000000;0.338900
6704.000000;0.336118
6703.000000;0.333275
6702.000000;0.330460
6701.000000;0.327611
6700.000000;0.324684
6699.000000;0.321898
6698.000000;0.319174
6697.000000;0.316451
6696.000000;0.313664
6695.000000;0.310858
6694.000000;0.308081
6693.000000;0.305351
6692.000000;0.302662
6691.000000;0.300020
6690.000000;0.297414
6689.000000;0.294784
6688.000000;0.292073
6687.000000;0.289308
6686.000000;0.286590
6685.000000;0.283964
6684.000000;0.281356
6683.000000;0.278667
6682.000000;0.275903
6681.000000;0.273140
6680.000000;0.270414
6679.000000;0.267705
6678.000000;0.265043
6677.000000;0.262499
6676.000000;0.260038
6675.000000;0.257511
6674.000000;0.254844
6673.000000;0.252162
6672.000000;0.249611
6671.000000;0.247149
6670.000000;0.244615
6669.000000;0.241951
6668.000000;0.239248
6667.000000;0.236604
6666.000000;0.234040
6665.000000;0.231550
6664.000000;0.229114
6663.000000;0.226660
6662.000000;0.224115
6661.000000;0.221510
6660.000000;0.218943
6659.000000;0.216438
6658.000000;0.213919
6657.000000;0.211351
6656.000000;0.208789
6655.000000;0.206282
6654.000000;0.203805
6653.000000;0.201335
6652.000000;0.198893
6651.000000;0.196478
6650.000000;0.194032
6649.000000;0.191515
6648.000000;0.188969
6647.000000;0.186476
6646.000000;0.184076
6645.000000;0.181755
6644.000000;0.179452
6643.000000;0.177078
6642.000000;0.174584
6641.000000;0.172033
6640.000000;0.169542
6639.000000;0.167151
6638.000000;0.164807
6637.000000;0.162474
6636.000000;0.160171
6635.000000;0.157889
6634.000000;0.155563
6633.000000;0.153170
6632.000000;0.150770
6631.000000;0.148412
6630.000000;0.146073
6629.000000;0.143735
6628.000000;0.141431
6627.000000;0.139183
6626.000000;0.136947
6625.000000;0.134676
6624.000000;0.132378
6623.000000;0.130064
6622.000000;0.127719
6621.000000;0.125369
6620.000000;0.123118
6619.000000;0.121013
6618.000000;0.118950
6617.000000;0.116778
6616.000000;0.114471
6615.000000;0.112132
6614.000000;0.109864
6613.000000;0.107700
6612.000000;0.105620
6611.000000;0.103553
6610.000000;0.101411
6609.000000;0.099172
6608.000000;0.096923
6607.000000;0.094758
6606.000000;0.092651
6605.000000;0.090497
6604.000000;0.088254
6603.000000;0.085985
6602.000000;0.083766
6601.000000;0.081632
6600.000000;0.079590
6599.000000;0.077626
6598.000000;0.075681
6597.000000;0.073682
6596.000000;0.071603
6595.000000;0.069475
6594.000000;0.067327
6593.000000;0.065170
6592.000000;0.063026
6591.000000;0.060941
6590.000000;0.058937
6589.000000;0.056983
6588.000000;0.055012
6587.000000;0.052980
6586.000000;0.050897
6585.000000;0.048815
6584.000000;0.046780
6583.000000;0.044782
6582.000000;0.042774
6581.000000;0.040741
6580.000000;0.038724
6579.000000;0.036755
6578.000000;0.034807
6577.000000;0.032836
6576.000000;0.030849
6575.000000;0.028894
6574.000000;0.026997
6573.000000;0.025137
6572.000000;0.023263
6571.000000;0.021330
6570.000000;0.019323
6569.000000;0.017284
6568.000000;0.015294
6567.000000;0.013401
6566.000000;0.011576
6565.000000;0.009754
6564.000000;0.007908
6563.000000;0.006049
6562.000000;0.004187
6561.000000;0.002326
6560.000000;0.000475
6559.000000;-0.001360
6558.000000;-0.003198
6557.000000;-0.005066
6556.000000;-0.006961
6555.000000;-0.008854
6554.000000;-0.010709
6553.000000;-0.012515
6552.000000;-0.014281
6551.000000;-0.016047
6550.000000;-0.017849
6549.000000;-0.019675
6548.000000;-0.021473
6547.000000;-0.023210
6546.000000;-0.024912
6545.000000;-0.026612
6544.000000;-0.028308
6543.000000;-0.029999
6542.000000;-0.031728
6541.000000;-0.033536
6540.000000;-0.035396
6539.000000;-0.037235
6538.000000;-0.039023
6537.000000;-0.040784
6536.000000;-0.042533
6535.000000;-0.044239
6534.000000;-0.045876
6533.000000;-0.047457
6532.000000;-0.049024
6531.000000;-0.050620
6530.000000;-0.052275
6529.000000;-0.053989
6528.000000;-0.055725
6527.000000;-0.057439
6526.000000;-0.059127
6525.000000;-0.060818
6524.000000;-0.062514
6523.000000;-0.064177
6522.000000;-0.065772
6521.000000;-0.067318
6520.000000;-0.068863
6519.000000;-0.070431
6518.000000;-0.072011
6517.000000;-0.073585
6516.000000;-0.075154
6515.000000;-0.076741
6514.000000;-0.078354
6513.000000;-0.079978
6512.000000;-0.081586
6511.000000;-0.083177
6510.000000;-0.084775
6509.000000;-0.086397
6508.000000;-0.088018
6507.000000;-0.089597
6506.000000;-0.091109
6505.000000;-0.092568
6504.000000;-0.094015
6503.000000;-0.095494
6502.000000;-0.097028
6501.000000;-0.098597
6500.000000;-0.100148
6499.000000;-0.101638
6498.000000;-0.103075
6497.000000;-0.104510
6496.000000;-0.105993
6495.000000;-0.107527
6494.000000;-0.109061
6493.000000;-0.110547
6492.000000;-0.111986
6491.000000;-0.113429
6490.000000;-0.114907
6489.000000;-0.116388
6488.000000;-0.117819
6487.000000;-0.119195
6486.000000;-0.120570
6485.000000;-0.121998
6484.000000;-0.123491
6483.000000;-0.125022
6482.000000;-0.126550
6481.000000;-0.128021
6480.000000;-0.129400
6479.000000;-0.130713
6478.000000;-0.132029
6477.000000;-0.133387
6476.000000;-0.134763
6475.000000;-0.136118
6474.000000;-0.137455
6473.000000;-0.138813
6472.000000;-0.140219
6471.000000;-0.141665
6470.000000;-0.143108
6469.000000;-0.144494
6468.000000;-0.145799
6467.000000;-0.147062
6466.000000;-0.148357
6465.000000;-0.149716
6464.000000;-0.151110
6463.000000;-0.152492
6462.000000;-0.153844
6461.000000;-0.155168
6460.000000;-0.156465
6459.000000;-0.157749
6458.000000;-0.159048
6457.000000;-0.160357
6456.000000;-0.161638
6455.000000;-0.162868
6454.000000;-0.164081
6453.000000;-0.165326
6452.000000;-0.166617
6451.000000;-0.167925
6450.000000;-0.169220
6449.000000;-0.170479
6448.000000;-0.171692
6447.000000;-0.172883
6446.000000;-0.174095
6445.000000;-0.175347
6444.000000;-0.176604
6443.000000;-0.177835
6442.000000;-0.179054
6441.000000;-0.180290
6440.000000;-0.181536
6439.000000;-0.182762
6438.000000;-0.183965
6437.000000;-0.185164
6436.000000;-0.186367
6435.000000;-0.187575
6434.000000;-0.188802
6433.000000;-0.190058
6432.000000;-0.191309
6431.000000;-0.192510
6430.000000;-0.193655
6429.000000;-0.194778
6428.000000;-0.195907
6427.000000;-0.197041
6426.000000;-0.198177
6425.000000;-0.199317
6424.000000;-0.200458
6423.000000;-0.201599
6422.000000;-0.202758
6421.000000;-0.203946
6420.000000;-0.205136
6419.000000;-0.206288
6418.000000;-0.207397
6417.000000;-0.208496
6416.000000;-0.209606
6415.000000;-0.210716
6414.000000;-0.211812
6413.000000;-0.212888
6412.000000;-0.213939
6411.000000;-0.214968
6410.000000;-0.215999
6409.000000;-0.217063
6408.000000;-0.218162
6407.000000;-0.219260
6406.000000;-0.220332
6405.000000;-0.221388
6404.000000;-0.222457
6403.000000;-0.223551
6402.000000;-0.224664
6401.000000;-0.225783
6400.000000;-0.226884
6399.000000;-0.227949
6398.000000;-0.228990
6397.000000;-0.230037
6396.000000;-0.231096
6395.000000;-0.232142
6394.000000;-0.233144
6393.000000;-0.234107
6392.000000;-0.235057
6391.000000;-0.236023
6390.000000;-0.237022
6389.000000;-0.238060
6388.000000;-0.239123
6387.000000;-0.240187
6386.000000;-0.241231
6385.000000;-0.242245
6384.000000;-0.243228
6383.000000;-0.244176
6382.000000;-0.245098
6381.000000;-0.246016
6380.000000;-0.246962
6379.000000;-0.247951
6378.000000;-0.248971
6377.000000;-0.249988
6376.000000;-0.250971
6375.000000;-0.251912
6374.000000;-0.252823
6373.000000;-0.253722
6372.000000;-0.254611
6371.000000;-0.255492
6370.000000;-0.256386
6369.000000;-0.257320
6368.000000;-0.258302
6367.000000;-0.259305
6366.000000;-0.260294
6365.000000;-0.261247
6364.000000;-0.262168
6363.000000;-0.263073
6362.000000;-0.263972
6361.000000;-0.264860
6360.000000;-0.265722
6359.000000;-0.266569
6358.000000;-0.267427
6357.000000;-0.268316
6356.000000;-0.269228
6355.000000;-0.270141
6354.000000;-0.271043
6353.000000;-0.271936
6352.000000;-0.272828
6351.000000;-0.273723
6350.000000;-0.274618
6349.000000;-0.275500
6348.000000;-0.276353
6347.000000;-0.277181
6346.000000;-0.278008
6345.000000;-0.278847
6344.000000;-0.279684
6343.000000;-0.280506
6342.000000;-0.281315
6341.000000;-0.282126
6340.000000;-0.282943
6339.000000;-0.283781
6338.000000;-0.284665
6337.000000;-0.285595
6336.000000;-0.286527
6335.000000;-0.287404
6334.000000;-0.288209
6333.000000;-0.288960
6332.000000;-0.289688
6331.000000;-0.290420
6330.000000;-0.291183
6329.000000;-0.291989
6328.000000;-0.292819
6327.000000;-0.293649
6326.000000;-0.294484
6325.000000;-0.295339
6324.000000;-0.296194
6323.000000;-0.297004
6322.000000;-0.297753
6321.000000;-0.298479
6320.000000;-0.299231
6319.000000;-0.300019
6318.000000;-0.300823
6317.000000;-0.301616
6316.000000;-0.302384
6315.000000;-0.303121
6314.000000;-0.303844
6313.000000;-0.304580
6312.000000;-0.305339
6311.000000;-0.306100
6310.000000;-0.306830
6309.000000;-0.307525
6308.000000;-0.308212
6307.000000;-0.308922
6306.000000;-0.309662
6305.000000;-0.310419
6304.000000;-0.311175
6303.000000;-0.311924
6302.000000;-0.312665
6301.000000;-0.313391
6300.000000;-0.314099
6299.000000;-0.314802
6298.000000;-0.315524
6297.000000;-0.316264
6296.000000;-0.316995
6295.000000;-0.317696
6294.000000;-0.318384
6293.000000;-0.319083
6292.000000;-0.319788
6291.000000;-0.320476
6290.000000;-0.321145
6289.000000;-0.321825
6288.000000;-0.322532
6287.000000;-0.323252
6286.000000;-0.323960
6285.000000;-0.324645
6284.000000;-0.325318
6283.000000;-0.325993
6282.000000;-0.326678
6281.000000;-0.327369
6280.000000;-0.328055
6279.000000;-0.328724
6278.000000;-0.329372
6277.000000;-0.330007
6276.000000;-0.330645
6275.000000;-0.331308
6274.000000;-0.332005
6273.000000;-0.332711
6272.000000;-0.333384
6271.000000;-0.334006
6270.000000;-0.334604
6269.000000;-0.335218
6268.000000;-0.335862
6267.000000;-0.336530
6266.000000;-0.337214
6265.000000;-0.337896
6264.000000;-0.338544
6263.000000;-0.339138
6262.000000;-0.339700
6261.000000;-0.340278
6260.000000;-0.340898
6259.000000;-0.341544
6258.000000;-0.342193
6257.000000;-0.342837
6256.000000;-0.343480
6255.000000;-0.344124
6254.000000;-0.344768
6253.000000;-0.345404
6252.000000;-0.346010
6251.000000;-0.346575
6250.000000;-0.347116
6249.000000;-0.347671
6248.000000;-0.348259
6247.000000;-0.348867
6246.000000;-0.349469
6245.000000;-0.350052
6244.000000;-0.350619
6243.000000;-0.351180
6242.000000;-0.351751
6241.000000;-0.352338
6240.000000;-0.352936
6239.000000;-0.353536
6238.000000;-0.354139
6237.000000;-0.354744
6236.000000;-0.355338
6235.000000;-0.355908
6234.000000;-0.356461
6233.000000;-0.357019
6232.000000;-0.357589
6231.000000;-0.358163
6230.000000;-0.358728
6229.000000;-0.359286
6228.000000;-0.359839
6227.000000;-0.360383
6226.000000;-0.360922
6225.000000;-0.361467
6224.000000;-0.362029
6223.000000;-0.362608
6222.000000;-0.363187
6221.000000;-0.363751
6220.000000;-0.364287
6219.000000;-0.364805
6218.000000;-0.365325
6217.000000;-0.365860
6216.000000;-0.366393
6215.000000;-0.366902
6214.000000;-0.367386
6213.000000;-0.367875
6212.000000;-0.368401
6211.000000;-0.368968
6210.000000;-0.369554
6209.000000;-0.370131
6208.000000;-0.370687
6207.000000;-0.371237
6206.000000;-0.371798
6205.000000;-0.372355
6204.000000;-0.372869
6203.000000;-0.373323
6202.000000;-0.373761
6201.000000;-0.374242
6200.000000;-0.374779
6199.000000;-0.375331
6198.000000;-0.375854
6197.000000;-0.376348
6196.000000;-0.376836
6195.000000;-0.377332
6194.000000;-0.377826
6193.000000;-0.378306
6192.000000;-0.378774
6191.000000;-0.379246
6190.000000;-0.379743
6189.000000;-0.380271
6188.000000;-0.380804
6187.000000;-0.381312
6186.000000;-0.381787
6185.000000;-0.382249
6184.000000;-0.382719
6183.000000;-0.383197
6182.000000;-0.383672
6181.000000;-0.384139
6180.000000;-0.384610
6179.000000;-0.385101
6178.000000;-0.385621
6177.000000;-0.386157
6176.000000;-0.386682
6175.000000;-0.387170
6174.000000;-0.387621
6173.000000;-0.388050
6172.000000;-0.388472
6171.000000;-0.388894
6170.000000;-0.389324
6169.000000;-0.389766
6168.000000;-0.390221
6167.000000;-0.390679
6166.000000;-0.391141
6165.000000;-0.391613
6164.000000;-0.392106
6163.000000;-0.392612
6162.000000;-0.393103
6161.000000;-0.393551
6160.000000;-0.393955
6159.000000;-0.394346
6158.000000;-0.394759
6157.000000;-0.395201
6156.000000;-0.395647
6155.000000;-0.396083
6154.000000;-0.396523
6153.000000;-0.396984
6152.000000;-0.397462
6151.000000;-0.397933
6150.000000;-0.398389
6149.000000;-0.398829
6148.000000;-0.399251
6147.000000;-0.399649
6146.000000;-0.400033
6145.000000;-0.400422
6144.000000;-0.400831
6143.000000;-0.401259
6142.000000;-0.401693
6141.000000;-0.402114
6140.000000;-0.402512
6139.000000;-0.402901
6138.000000;-0.403307
6137.000000;-0.403738
6136.000000;-0.404170
6135.000000;-0.404581
6134.000000;-0.404979
6133.000000;-0.405393
6132.000000;-0.405831
6131.000000;-0.406278
6130.000000;-0.406716
6129.000000;-0.407133
6128.000000;-0.407525
6127.000000;-0.407898
6126.000000;-0.408277
6125.000000;-0.408679
6124.000000;-0.409100
6123.000000;-0.409519
6122.000000;-0.409928
6121.000000;-0.410329
6120.000000;-0.410722
6119.000000;-0.411102
6118.000000;-0.411476
6117.000000;-0.411849
6116.000000;-0.412212
6115.000000;-0.412564
6114.000000;-0.412923
6113.000000;-0.413312
6112.000000;-0.413716
6111.000000;-0.414103
6110.000000;-0.414459
6109.000000;-0.414802
6108.000000;-0.415155
6107.000000;-0.415523
6106.000000;-0.415903
6105.000000;-0.416286
6104.000000;-0.416663
6103.000000;-0.417024
6102.000000;-0.417377
6101.000000;-0.417732
6100.000000;-0.418087
6099.000000;-0.418435
6098.000000;-0.418787
6097.000000;-0.419160
6096.000000;-0.419557
6095.000000;-0.419962
6094.000000;-0.420361
6093.000000;-0.420741
6092.000000;-0.421088
6091.000000;-0.421398
6090.000000;-0.421691
6089.000000;-0.421997
6088.000000;-0.422318
6087.000000;-0.422644
6086.000000;-0.422983
6085.000000;-0.423352
6084.000000;-0.423743
6083.000000;-0.424121
6082.000000;-0.424471
6081.000000;-0.424813
6080.000000;-0.425166
6079.000000;-0.425522
6078.000000;-0.425861
6077.000000;-0.426178
6076.000000;-0.426478
6075.000000;-0.426769
6074.000000;-0.427061
6073.000000;-0.427364
6072.000000;-0.427678
6071.000000;-0.428002
6070.000000;-0.428344
6069.000000;-0.428706
6068.000000;-0.429067
6067.000000;-0.429399
6066.000000;-0.429701
6065.000000;-0.430002
6064.000000;-0.430315
6063.000000;-0.430625
6062.000000;-0.430925
6061.000000;-0.431230
6060.000000;-0.431552
6059.000000;-0.431873
6058.000000;-0.432176
6057.000000;-0.432467
6056.000000;-0.432764
6055.000000;-0.433070
6054.000000;-0.433379
6053.000000;-0.433689
6052.000000;-0.433994
6051.000000;-0.434283
6050.000000;-0.434552
6049.000000;-0.434813
6048.000000;-0.435083
6047.000000;-0.435368
6046.000000;-0.435660
6045.000000;-0.435952
6044.000000;-0.436236
6043.000000;-0.436508
6042.000000;-0.436781
6041.000000;-0.437075
6040.000000;-0.437394
6039.000000;-0.437713
6038.000000;-0.438003
6037.000000;-0.438264
6036.000000;-0.438509
6035.000000;-0.438753
6034.000000;-0.439008
6033.000000;-0.439287
6032.000000;-0.439589
6031.000000;-0.439892
6030.000000;-0.440169
6029.000000;-0.440416
6028.000000;-0.440649
6027.000000;-0.440877
6026.000000;-0.441100
6025.000000;-0.441318
6024.000000;-0.441545
6023.000000;-0.441790
6022.000000;-0.442055
6021.000000;-0.442331
6020.000000;-0.442610
6019.000000;-0.442882
6018.000000;-0.443137
6017.000000;-0.443366
6016.000000;-0.443575
6015.000000;-0.443785
6014.000000;-0.444015
6013.000000;-0.444264
6012.000000;-0.444505
6011.000000;-0.444725
6010.000000;-0.444938
6009.000000;-0.445167
6008.000000;-0.445415
6007.000000;-0.445665
6006.000000;-0.445910
6005.000000;-0.446153
6004.000000;-0.446381
6003.000000;-0.446575
6002.000000;-0.446740
6001.000000;-0.446910
6000.000000;-0.447115
5999.000000;-0.447345
5998.000000;-0.447573
5997.000000;-0.447787
5996.000000;-0.447997
5995.000000;-0.448211
5994.000000;-0.448424
5993.000000;-0.448629
5992.000000;-0.448827
5991.000000;-0.449025
5990.000000;-0.449225
5989.000000;-0.449423
5988.000000;-0.449614
5987.000000;-0.449803
5986.000000;-0.449993
5985.000000;-0.450180
5984.000000;-0.450348
5983.000000;-0.450492
5982.000000;-0.450629
5981.000000;-0.450783
5980.000000;-0.450956
5979.000000;-0.451132
5978.000000;-0.451306
5977.000000;-0.451493
5976.000000;-0.451704
5975.000000;-0.451925
5974.000000;-0.452129
5973.000000;-0.452305
5972.000000;-0.452456
5971.000000;-0.452593
5970.000000;-0.452724
5969.000000;-0.452853
5968.000000;-0.452982
5967.000000;-0.453118
5966.000000;-0.453268
5965.000000;-0.453433
5964.000000;-0.453602
5963.000000;-0.453764
5962.000000;-0.453924
5961.000000;-0.454085
5960.000000;-0.454238
5959.000000;-0.454375
5958.000000;-0.454501
5957.000000;-0.454630
5956.000000;-0.454760
5955.000000;-0.454879
5954.000000;-0.454990
5953.000000;-0.455107
5952.000000;-0.455232
5951.000000;-0.455350
5950.000000;-0.455457
5949.000000;-0.455569
5948.000000;-0.455695
5947.000000;-0.455825
5946.000000;-0.455942
5945.000000;-0.456050
5944.000000;-0.456162
5943.000000;-0.456282
5942.000000;-0.456396
5941.000000;-0.456486
5940.000000;-0.456548
5939.000000;-0.456603
5938.000000;-0.456686
5937.000000;-0.456815
5936.000000;-0.456967
5935.000000;-0.457094
5934.000000;-0.457169
5933.000000;-0.457214
5932.000000;-0.457276
5931.000000;-0.457373
5930.000000;-0.457488
5929.000000;-0.457595
5928.000000;-0.457691
5927.000000;-0.457788
5926.000000;-0.457883
5925.000000;-0.457959
5924.000000;-0.458010
5923.000000;-0.458059
5922.000000;-0.458144
5921.000000;-0.458266
5920.000000;-0.458387
5919.000000;-0.458468
5918.000000;-0.458510
5917.000000;-0.458542
5916.000000;-0.458580
5915.000000;-0.458625
5914.000000;-0.458670
5913.000000;-0.458719
5912.000000;-0.458772
5911.000000;-0.458831
5910.000000;-0.458902
5909.000000;-0.458992
5908.000000;-0.459088
5907.000000;-0.459165
5906.000000;-0.459211
5905.000000;-0.459241
5904.000000;-0.459282
5903.000000;-0.459340
5902.000000;-0.459405
5901.000000;-0.459465
5900.000000;-0.459514
5899.000000;-0.459554
5898.000000;-0.459597
5897.000000;-0.459648
5896.000000;-0.459705
5895.000000;-0.459754
5894.000000;-0.459790
5893.000000;-0.459810
5892.000000;-0.459820
5891.000000;-0.459828
5890.000000;-0.459844
5889.000000;-0.459872
5888.000000;-0.459904
5887.000000;-0.459931
5886.000000;-0.459953
5885.000000;-0.459969
5884.000000;-0.459971
5883.000000;-0.459956
5882.000000;-0.459938
5881.000000;-0.459936
5880.000000;-0.459952
5879.000000;-0.459969
5878.000000;-0.459980
5877.000000;-0.459992
5876.000000;-0.460008
5875.000000;-0.460023
5874.000000;-0.460031
5873.000000;-0.460029
5872.000000;-0.460006
5871.000000;-0.459945
5870.000000;-0.459844
5869.000000;-0.459732
5868.000000;-0.459644
5867.000000;-0.459597
5866.000000;-0.459581
5865.000000;-0.459572
5864.000000;-0.459548
5863.000000;-0.459495
5862.000000;-0.459416
5861.000000;-0.459328
5860.000000;-0.459255
5859.000000;-0.459216
5858.000000;-0.459200
5857.000000;-0.459179
5856.000000;-0.459129
5855.000000;-0.459058
5854.000000;-0.458989
5853.000000;-0.458924
5852.000000;-0.458841
5851.000000;-0.458726
5850.000000;-0.458597
5849.000000;-0.458487
5848.000000;-0.458407
5847.000000;-0.458338
5846.000000;-0.458257
5845.000000;-0.458149
5844.000000;-0.458012
5843.000000;-0.457858
5842.000000;-0.457707
5841.000000;-0.457569
5840.000000;-0.457436
5839.000000;-0.457297
5838.000000;-0.457157
5837.000000;-0.457024
5836.000000;-0.456895
5835.000000;-0.456755
5834.000000;-0.456607
5833.000000;-0.456461
5832.000000;-0.456326
5831.000000;-0.456198
5830.000000;-0.456074
5829.000000;-0.455943
5828.000000;-0.455799
5827.000000;-0.455643
5826.000000;-0.455490
5825.000000;-0.455345
5824.000000;-0.455195
5823.000000;-0.455018
5822.000000;-0.454819
5821.000000;-0.454618
5820.000000;-0.454432
5819.000000;-0.454266
5818.000000;-0.454119
5817.000000;-0.453970
5816.000000;-0.453787
5815.000000;-0.453549
5814.000000;-0.453276
5813.000000;-0.453015
5812.000000;-0.452793
5811.000000;-0.452602
5810.000000;-0.452422
5809.000000;-0.452238
5808.000000;-0.452045
5807.000000;-0.451841
5806.000000;-0.451625
5805.000000;-0.451391
5804.000000;-0.451129
5803.000000;-0.450843
5802.000000;-0.450560
5801.000000;-0.450303
5800.000000;-0.450065
5799.000000;-0.449819
5798.000000;-0.449556
5797.000000;-0.449280
5796.000000;-0.448994
5795.000000;-0.448697
5794.000000;-0.448399
5793.000000;-0.448114
5792.000000;-0.447845
5791.000000;-0.447585
5790.000000;-0.447331
5789.000000;-0.447083
5788.000000;-0.446824
5787.000000;-0.446534
5786.000000;-0.446213
5785.000000;-0.445880
5784.000000;-0.445551
5783.000000;-0.445222
5782.000000;-0.444887
5781.000000;-0.444545
5780.000000;-0.444204
5779.000000;-0.443877
5778.000000;-0.443572
5777.000000;-0.443279
5776.000000;-0.442970
5775.000000;-0.442632
5774.000000;-0.442280
5773.000000;-0.441927
5772.000000;-0.441564
5771.000000;-0.441176
5770.000000;-0.440767
5769.000000;-0.440353
5768.000000;-0.439942
5767.000000;-0.439541
5766.000000;-0.439174
5765.000000;-0.438844
5764.000000;-0.438515
5763.000000;-0.438142
5762.000000;-0.437721
5761.000000;-0.437285
5760.000000;-0.436851
5759.000000;-0.436415
5758.000000;-0.435984
5757.000000;-0.435574
5756.000000;-0.435178
5755.000000;-0.434754
5754.000000;-0.434280
5753.000000;-0.433781
5752.000000;-0.433296
5751.000000;-0.432847
5750.000000;-0.432430
5749.000000;-0.432023
5748.000000;-0.431593
5747.000000;-0.431115
5746.000000;-0.430600
5745.000000;-0.430083
5744.000000;-0.429585
5743.000000;-0.429094
5742.000000;-0.428599
5741.000000;-0.428100
5740.000000;-0.427601
5739.000000;-0.427095
5738.000000;-0.426581
5737.000000;-0.426075
5736.000000;-0.425586
5735.000000;-0.425102
5734.000000;-0.424593
5733.000000;-0.424043
5732.000000;-0.423465
5731.000000;-0.422885
5730.000000;-0.422320
5729.000000;-0.421759
5728.000000;-0.421181
5727.000000;-0.420585
5726.000000;-0.419995
5725.000000;-0.419429
5724.000000;-0.418868
5723.000000;-0.418281
5722.000000;-0.417666
5721.000000;-0.417052
5720.000000;-0.416465
5719.000000;-0.415909
5718.000000;-0.415370
5717.000000;-0.414824
5716.000000;-0.414239
5715.000000;-0.413607
5714.000000;-0.412956
5713.000000;-0.412325
5712.000000;-0.411713
5711.000000;-0.411094
5710.000000;-0.410459
5709.000000;-0.409823
5708.000000;-0.409203
5707.000000;-0.408594
5706.000000;-0.407984
5705.000000;-0.407357
5704.000000;-0.406692
5703.000000;-0.405988
5702.000000;-0.405273
5701.000000;-0.404583
5700.000000;-0.403908
5699.000000;-0.403234
5698.000000;-0.402543
5697.000000;-0.401913
5696.000000;-0.401282
5695.000000;-0.400610
5694.000000;-0.399920
5693.000000;-0.399207
5692.000000;-0.398499
5691.000000;-0.397801
5690.000000;-0.397131
5689.000000;-0.396495
5688.000000;-0.395865
5687.000000;-0.395188
5686.000000;-0.394450
5685.000000;-0.393695
5684.000000;-0.392976
5683.000000;-0.392304
5682.000000;-0.391657
5681.000000;-0.391003
5680.000000;-0.390320
5679.000000;-0.389597
5678.000000;-0.388853
5677.000000;-0.388126
5676.000000;-0.387439
5675.000000;-0.386776
5674.000000;-0.386108
5673.000000;-0.385421
5672.000000;-0.384726
5671.000000;-0.384041
5670.000000;-0.383381
5669.000000;-0.382740
5668.000000;-0.382097
5667.000000;-0.381436
5666.000000;-0.380758
5665.000000;-0.380075
5664.000000;-0.379399
5663.000000;-0.378734
5662.000000;-0.378086
5661.000000;-0.377446
5660.000000;-0.376793
5659.000000;-0.376115
5658.000000;-0.375430
5657.000000;-0.374769
5656.000000;-0.374141
5655.000000;-0.373532
5654.000000;-0.372930
5653.000000;-0.372320
5652.000000;-0.371691
5651.000000;-0.371043
5650.000000;-0.370399
5649.000000;-0.369776
5648.000000;-0.369155
5647.000000;-0.368511
5646.000000;-0.367852
5645.000000;-0.367215
5644.000000;-0.366628
5643.000000;-0.366085
5642.000000;-0.365563
5641.000000;-0.365037
5640.000000;-0.364489
5639.000000;-0.363917
5638.000000;-0.363347
5637.000000;-0.362795
5636.000000;-0.362252
5635.000000;-0.361703
5634.000000;-0.361161
5633.000000;-0.360652
5632.000000;-0.360179
5631.000000;-0.359730
5630.000000;-0.359302
5629.000000;-0.358879
5628.000000;-0.358425
5627.000000;-0.357905
5626.000000;-0.357338
5625.000000;-0.356776
5624.000000;-0.356263
5623.000000;-0.355812
5622.000000;-0.355423
5621.000000;-0.355079
5620.000000;-0.354739
5619.000000;-0.354370
5618.000000;-0.353976
5617.000000;-0.353577
5616.000000;-0.353172
5615.000000;-0.352763
5614.000000;-0.352382
5613.000000;-0.352057
5612.000000;-0.351766
5611.000000;-0.351461
5610.000000;-0.351136
5609.000000;-0.350817
5608.000000;-0.350510
5607.000000;-0.350201
5606.000000;-0.349892
5605.000000;-0.349604
5604.000000;-0.349341
5603.000000;-0.349091
5602.000000;-0.348850
5601.000000;-0.348632
5600.000000;-0.348436
5599.000000;-0.348244
5598.000000;-0.348046
5597.000000;-0.347832
5596.000000;-0.347585
5595.000000;-0.347314
5594.000000;-0.347059
5593.000000;-0.346850
5592.000000;-0.346670
5591.000000;-0.346494
5590.000000;-0.346335
5589.000000;-0.346209
5588.000000;-0.346088
5587.000000;-0.345938
5586.000000;-0.345783
5585.000000;-0.345674
5584.000000;-0.345605
5583.000000;-0.345524
5582.000000;-0.345410
5581.000000;-0.345289
5580.000000;-0.345178
5579.000000;-0.345075
5578.000000;-0.344990
5577.000000;-0.344932
5576.000000;-0.344871
5575.000000;-0.344776
5574.000000;-0.344678
5573.000000;-0.344629
5572.000000;-0.344622
5571.000000;-0.344604
5570.000000;-0.344578
5569.000000;-0.344594
5568.000000;-0.344653
5567.000000;-0.344683
5566.000000;-0.344657
5565.000000;-0.344630
5564.000000;-0.344640
5563.000000;-0.344654
5562.000000;-0.344631
5561.000000;-0.344591
5560.000000;-0.344569
5559.000000;-0.344568
5558.000000;-0.344586
5557.000000;-0.344649
5556.000000;-0.344772
5555.000000;-0.344908
5554.000000;-0.345009
5553.000000;-0.345085
5552.000000;-0.345173
5551.000000;-0.345267
5550.000000;-0.345318
5549.000000;-0.345307
5548.000000;-0.345276
5547.000000;-0.345285
5546.000000;-0.345354
5545.000000;-0.345440
5544.000000;-0.345476
5543.000000;-0.345450
5542.000000;-0.345437
5541.000000;-0.345529
5540.000000;-0.345716
5539.000000;-0.345898
5538.000000;-0.346012
5537.000000;-0.346111
5536.000000;-0.346247
5535.000000;-0.346365
5534.000000;-0.346368
5533.000000;-0.346260
5532.000000;-0.346151
5531.000000;-0.346121
5530.000000;-0.346158
5529.000000;-0.346208
5528.000000;-0.346250
5527.000000;-0.346309
5526.000000;-0.346419
5525.000000;-0.346575
5524.000000;-0.346730
5523.000000;-0.346859
5522.000000;-0.346992
5521.000000;-0.347156
5520.000000;-0.347283
5519.000000;-0.347245
5518.000000;-0.347049
5517.000000;-0.346882
5516.000000;-0.346892
5515.000000;-0.347011
5514.000000;-0.347051
5513.000000;-0.346966
5512.000000;-0.346900
5511.000000;-0.346955
5510.000000;-0.347079
5509.000000;-0.347204
5508.000000;-0.347365
5507.000000;-0.347583
5506.000000;-0.347719
5505.000000;-0.347572
5504.000000;-0.347168
5503.000000;-0.346808
5502.000000;-0.346714
5501.000000;-0.346784
5500.000000;-0.346772
5499.000000;-0.346636
5498.000000;-0.346598
5497.000000;-0.346771
5496.000000;-0.346900
5495.000000;-0.346728
5494.000000;-0.346445
5493.000000;-0.346487
5492.000000;-0.346885
5491.000000;-0.347084
5490.000000;-0.346649
5489.000000;-0.345868
5488.000000;-0.345365
5487.000000;-0.345317
5486.000000;-0.345346
5485.000000;-0.345107
5484.000000;-0.344677
5483.000000;-0.344315
5482.000000;-0.344078
5481.000000;-0.343913
5480.000000;-0.343891
5479.000000;-0.343989
5478.000000;-0.343883
5477.000000;-0.343338
5476.000000;-0.342652
5475.000000;-0.342391
5474.000000;-0.342583
5473.000000;-0.342552
5472.000000;-0.341837
5471.000000;-0.340846
5470.000000;-0.340320
5469.000000;-0.340429
5468.000000;-0.340676
5467.000000;-0.340555
5466.000000;-0.340077
5465.000000;-0.339523
5464.000000;-0.338943
5463.000000;-0.338246
5462.000000;-0.337517
5461.000000;-0.336968
5460.000000;-0.336649
5459.000000;-0.336323
5458.000000;-0.335721
5457.000000;-0.334886
5456.000000;-0.334126
5455.000000;-0.333680
5454.000000;-0.333473
5453.000000;-0.333123
5452.000000;-0.332314
5451.000000;-0.331249
5450.000000;-0.330477
5449.000000;-0.330138
5448.000000;-0.329682
5447.000000;-0.328617
5446.000000;-0.327318
5445.000000;-0.326511
5444.000000;-0.326053
5443.000000;-0.325110
5442.000000;-0.323481
5441.000000;-0.321979
5440.000000;-0.321325
5439.000000;-0.321152
5438.000000;-0.320449
5437.000000;-0.318865
5436.000000;-0.317078
5435.000000;-0.315947
5434.000000;-0.315609
5433.000000;-0.315324
5432.000000;-0.314208
5431.000000;-0.312198
5430.000000;-0.310137
5429.000000;-0.308863
5428.000000;-0.308302
5427.000000;-0.307601
5426.000000;-0.306146
5425.000000;-0.304165
5424.000000;-0.302304
5423.000000;-0.300927
5422.000000;-0.299853
5421.000000;-0.298605
5420.000000;-0.296948
5419.000000;-0.295174
5418.000000;-0.293608
5417.000000;-0.291992
5416.000000;-0.289806
5415.000000;-0.287125
5414.000000;-0.284666
5413.000000;-0.282750
5412.000000;-0.280738
5411.000000;-0.278015
5410.000000;-0.274987
5409.000000;-0.272496
5408.000000;-0.270605
5407.000000;-0.268645
5406.000000;-0.266261
5405.000000;-0.263762
5404.000000;-0.261450
5403.000000;-0.259117
5402.000000;-0.256478
5401.000000;-0.253611
5400.000000;-0.250603
5399.000000;-0.247393
5398.000000;-0.244076
5397.000000;-0.240755
5396.000000;-0.237264
5395.000000;-0.233352
5394.000000;-0.229196
5393.000000;-0.225311
5392.000000;-0.221780
5391.000000;-0.218134
5390.000000;-0.214081
5389.000000;-0.209834
5388.000000;-0.205633
5387.000000;-0.201364
5386.000000;-0.196890
5385.000000;-0.192347
5384.000000;-0.187767
5383.000000;-0.182822
5382.000000;-0.177449
5381.000000;-0.172135
5380.000000;-0.167069
5379.000000;-0.161722
5378.000000;-0.155688
5377.000000;-0.149394
5376.000000;-0.143431
5375.000000;-0.137553
5374.000000;-0.131093
5373.000000;-0.124098
5372.000000;-0.117208
5371.000000;-0.110634
5370.000000;-0.103954
5369.000000;-0.096872
5368.000000;-0.089568
5367.000000;-0.082126
5366.000000;-0.074232
5365.000000;-0.065771
5364.000000;-0.057103
5363.000000;-0.048420
5362.000000;-0.039412
5361.000000;-0.029794
5360.000000;-0.019728
5359.000000;-0.009574
5358.000000;0.000564
5357.000000;0.010868
5356.000000;0.021572
5355.000000;0.032824
5354.000000;0.044581
5353.000000;0.056575
5352.000000;0.068694
5351.000000;0.081332
5350.000000;0.094815
5349.000000;0.108665
5348.000000;0.122232
5347.000000;0.135862
5346.000000;0.150556
5345.000000;0.166403
5344.000000;0.182253
5343.000000;0.197484
5342.000000;0.213153
5341.000000;0.230424
5340.000000;0.248858
5339.000000;0.267196
5338.000000;0.285113
5337.000000;0.303361
5336.000000;0.322471
5335.000000;0.342288
5334.000000;0.362664
5333.000000;0.383570
5332.000000;0.404668
5331.000000;0.425849
5330.000000;0.447914
5329.000000;0.471685
5328.000000;0.496752
5327.000000;0.521932
5326.000000;0.546883
5325.000000;0.572321
5324.000000;0.598576
5323.000000;0.625162
5322.000000;0.651955
5321.000000;0.679560
5320.000000;0.708322
5319.000000;0.737967
5318.000000;0.768266
5317.000000;0.799171
5316.000000;0.830304
5315.000000;0.861300
5314.000000;0.892663
5313.000000;0.925215
5312.000000;0.958780
5311.000000;0.992644
5310.000000;1.026954
5309.000000;1.062201
5308.000000;1.097717
5307.000000;1.132356
5306.000000;1.166342
5305.000000;1.200550
5304.000000;1.234449
5303.000000;1.267025
5302.000000;1.299066
5301.000000;1.331896
5300.000000;1.364478
5299.000000;1.394670
5298.000000;1.422852
5297.000000;1.451219
5296.000000;1.480187
5295.000000;1.508699
5294.000000;1.536844
5293.000000;1.564472
5292.000000;1.588837
5291.000000;1.608003
5290.000000;1.624651
5289.000000;1.641791
5288.000000;1.657490
5287.000000;1.668995
5286.000000;1.678777
5285.000000;1.690672
5284.000000;1.703602
5283.000000;1.714492
5282.000000;1.723986
5281.000000;1.733460
5280.000000;1.740285
5279.000000;1.742524
5278.000000;1.744196
5277.000000;1.749431
5276.000000;1.755938
5275.000000;1.759818
5274.000000;1.762479
5273.000000;1.766727
5272.000000;1.770570
5271.000000;1.771344
5270.000000;1.771822
5269.000000;1.775572
5268.000000;1.780254
5267.000000;1.781737
5266.000000;1.781099
5265.000000;1.781383
5264.000000;1.781622
5263.000000;1.780007
5262.000000;1.778903
5261.000000;1.780805
5260.000000;1.783506
5259.000000;1.784517
5258.000000;1.785692
5257.000000;1.788342
5256.000000;1.788594
5255.000000;1.783463
5254.000000;1.777171
5253.000000;1.775086
5252.000000;1.776353
5251.000000;1.778016
5250.000000;1.781243
5249.000000;1.787418
5248.000000;1.792299
5247.000000;1.790974
5246.000000;1.785837
5245.000000;1.782443
5244.000000;1.781470
5243.000000;1.780872
5242.000000;1.781418
5241.000000;1.784089
5240.000000;1.785666
5239.000000;1.783007
5238.000000;1.778812
5237.000000;1.777447
5236.000000;1.778437
5235.000000;1.779289
5234.000000;1.780954
5233.000000;1.784666
5232.000000;1.787085
5231.000000;1.784857
5230.000000;1.780904
5229.000000;1.779873
5228.000000;1.780742
5227.000000;1.779779
5226.000000;1.777860
5225.000000;1.778926
5224.000000;1.783239
5223.000000;1.787703
5222.000000;1.790811
5221.000000;1.791888
5220.000000;1.788135
5219.000000;1.778725
5218.000000;1.769424
5217.000000;1.766987
5216.000000;1.771142
5215.000000;1.776539
5214.000000;1.780393
5213.000000;1.783134
5212.000000;1.783474
5211.000000;1.779740
5210.000000;1.775509
5209.000000;1.777124
5208.000000;1.785010
5207.000000;1.791963
5206.000000;1.791771
5205.000000;1.786436
5204.000000;1.782289
5203.000000;1.782808
5202.000000;1.786912
5201.000000;1.791311
5200.000000;1.793582
5199.000000;1.794117
5198.000000;1.794822
5197.000000;1.795608
5196.000000;1.794154
5195.000000;1.790261
5194.000000;1.787109
5193.000000;1.786512
5192.000000;1.786591
5191.000000;1.785792
5190.000000;1.785889
5189.000000;1.788478
5188.000000;1.791440
5187.000000;1.791878
5186.000000;1.790305
5185.000000;1.788948
5184.000000;1.788370
5183.000000;1.788420
5182.000000;1.789538
5181.000000;1.790732
5180.000000;1.789540
5179.000000;1.786335
5178.000000;1.785061
5177.000000;1.787216
5176.000000;1.788737
5175.000000;1.785830
5174.000000;1.780693
5173.000000;1.777638
5172.000000;1.777104
5171.000000;1.777192
5170.000000;1.777815
5169.000000;1.779513
5168.000000;1.780643
5167.000000;1.779547
5166.000000;1.777421
5165.000000;1.775745
5164.000000;1.773680
5163.000000;1.771012
5162.000000;1.770475
5161.000000;1.773665
5160.000000;1.777554
5159.000000;1.778886
5158.000000;1.779474
5157.000000;1.782738
5156.000000;1.787378
5155.000000;1.788932
5154.000000;1.786475
5153.000000;1.783441
5152.000000;1.782443
5151.000000;1.783100
5150.000000;1.784437
5149.000000;1.786555
5148.000000;1.789780
5147.000000;1.793827
5146.000000;1.797640
5145.000000;1.799166
5144.000000;1.796572
5143.000000;1.791128
5142.000000;1.786497
5141.000000;1.783983
5140.000000;1.781358
5139.000000;1.777572
5138.000000;1.775261
5137.000000;1.776635
5136.000000;1.780104
5135.000000;1.782956
5134.000000;1.784725
5133.000000;1.785589
5132.000000;1.784367
5131.000000;1.781101
5130.000000;1.778823
5129.000000;1.779761
5128.000000;1.781919
5127.000000;1.782067
5126.000000;1.780389
5125.000000;1.779389
5124.000000;1.780444
5123.000000;1.783957
5122.000000;1.789969
5121.000000;1.796023
5120.000000;1.797176
5119.000000;1.791546
5118.000000;1.783675
5117.000000;1.779279
5116.000000;1.779541
5115.000000;1.782495
5114.000000;1.786499
5113.000000;1.789986
5112.000000;1.791015
5111.000000;1.789765
5110.000000;1.788641
5109.000000;1.788037
5108.000000;1.785436
5107.000000;1.780716
5106.000000;1.778298
5105.000000;1.781038
5104.000000;1.785492
5103.000000;1.786415
5102.000000;1.783562
5101.000000;1.780282
5100.000000;1.778080
5099.000000;1.776682
5098.000000;1.777034
5097.000000;1.780164
5096.000000;1.784268
5095.000000;1.786127
5094.000000;1.784849
5093.000000;1.782014
5092.000000;1.779489
5091.000000;1.779032
5090.000000;1.781823
5089.000000;1.786262
5088.000000;1.788220
5087.000000;1.786159
5086.000000;1.784201
5085.000000;1.787012
5084.000000;1.794074
5083.000000;1.801302
5082.000000;1.805096
5081.000000;1.803101
5080.000000;1.795278
5079.000000;1.786058
5078.000000;1.781590
5077.000000;1.783304
5076.000000;1.786784
5075.000000;1.788152
5074.000000;1.788385
5073.000000;1.788820
5072.000000;1.786892
5071.000000;1.780713
5070.000000;1.773880
5069.000000;1.770996
5068.000000;1.771734
5067.000000;1.772733
5066.000000;1.772485
5065.000000;1.771011
5064.000000;1.767513
5063.000000;1.762384
5062.000000;1.758949
5061.000000;1.759210
5060.000000;1.760128
5059.000000;1.757685
5058.000000;1.752735
5057.000000;1.748907
5056.000000;1.746935
5055.000000;1.745032
5054.000000;1.743203
5053.000000;1.743248
5052.000000;1.745244
5051.000000;1.747511
5050.000000;1.749330
5049.000000;1.750647
5048.000000;1.750166
5047.000000;1.746897
5046.000000;1.742453
5045.000000;1.738970
5044.000000;1.736068
5043.000000;1.732382
5042.000000;1.728557
5041.000000;1.726086
5040.000000;1.724601
5039.000000;1.722928
5038.000000;1.721466
5037.000000;1.721019
5036.000000;1.720689
5035.000000;1.719604
5034.000000;1.719117
5033.000000;1.720357
5032.000000;1.721569
5031.000000;1.720492
5030.000000;1.717441
5029.000000;1.713948
5028.000000;1.710125
5027.000000;1.705499
5026.000000;1.700868
5025.000000;1.696950
5024.000000;1.692849
5023.000000;1.688278
5022.000000;1.685418
5021.000000;1.685845
5020.000000;1.687125
5019.000000;1.685187
5018.000000;1.679328
5017.000000;1.672355
5016.000000;1.666745
5015.000000;1.663052
5014.000000;1.660812
5013.000000;1.658660
5012.000000;1.654586
5011.000000;1.648249
5010.000000;1.642060
5009.000000;1.638178
5008.000000;1.635894
5007.000000;1.633560
5006.000000;1.631144
5005.000000;1.628815
5004.000000;1.625030
5003.000000;1.618884
5002.000000;1.612825
5001.000000;1.610082
5000.000000;1.610244
4999.000000;1.610084
4998.000000;1.607715
4997.000000;1.603688
4996.000000;1.598516
4995.000000;1.591956
4994.000000;1.584600
4993.000000;1.577706
4992.000000;1.571408
4991.000000;1.564859
4990.000000;1.557936
4989.000000;1.551287
4988.000000;1.545175
4987.000000;1.539653
4986.000000;1.535247
4985.000000;1.531947
4984.000000;1.528220
4983.000000;1.522679
4982.000000;1.516200
4981.000000;1.510838
4980.000000;1.507140
4979.000000;1.504003
4978.000000;1.500539
4977.000000;1.496555
4976.000000;1.491728
4975.000000;1.485874
4974.000000;1.479744
4973.000000;1.474106
4972.000000;1.468539
4971.000000;1.462354
4970.000000;1.456053
4969.000000;1.450570
4968.000000;1.445645
4967.000000;1.440296
4966.000000;1.434423
4965.000000;1.428649
4964.000000;1.422837
4963.000000;1.416226
4962.000000;1.408908
4961.000000;1.401959
4960.000000;1.396065
4959.000000;1.391044
4958.000000;1.386537
4957.000000;1.382223
4956.000000;1.377533
4955.000000;1.371985
4954.000000;1.365750
4953.000000;1.359294
4952.000000;1.352760
4951.000000;1.346261
4950.000000;1.340285
4949.000000;1.335082
4948.000000;1.330014
4947.000000;1.324313
4946.000000;1.318123
4945.000000;1.312086
4944.000000;1.306227
4943.000000;1.300111
4942.000000;1.293736
4941.000000;1.287455
4940.000000;1.281227
4939.000000;1.274744
4938.000000;1.268109
4937.000000;1.261728
4936.000000;1.255670
4935.000000;1.249766
4934.000000;1.244054
4933.000000;1.238521
4932.000000;1.232650
4931.000000;1.225903
4930.000000;1.218517
4929.000000;1.211299
4928.000000;1.204865
4927.000000;1.199543
4926.000000;1.195570
4925.000000;1.192647
4924.000000;1.189516
4923.000000;1.184796
4922.000000;1.178318
4921.000000;1.171058
4920.000000;1.163884
4919.000000;1.156918
4918.000000;1.149989
4917.000000;1.143097
4916.000000;1.136402
4915.000000;1.130174
4914.000000;1.124720
4913.000000;1.119982
4912.000000;1.115340
4911.000000;1.110218
4910.000000;1.104725
4909.000000;1.099297
4908.000000;1.093926
4907.000000;1.088249
4906.000000;1.082284
4905.000000;1.076512
4904.000000;1.071155
4903.000000;1.065817
4902.000000;1.059984
4901.000000;1.053624
4900.000000;1.047205
4899.000000;1.041300
4898.000000;1.036202
4897.000000;1.031714
4896.000000;1.027249
4895.000000;1.022214
4894.000000;1.016330
4893.000000;1.009695
4892.000000;1.002778
4891.000000;0.996361
4890.000000;0.991090
4889.000000;0.986829
4888.000000;0.982691
4887.000000;0.977939
4886.000000;0.972654
4885.000000;0.967309
4884.000000;0.962049
4883.000000;0.956733
4882.000000;0.951427
4881.000000;0.946430
4880.000000;0.941855
4879.000000;0.937494
4878.000000;0.933016
4877.000000;0.928115
4876.000000;0.922624
4875.000000;0.916727
4874.000000;0.910970
4873.000000;0.905783
4872.000000;0.901039
4871.000000;0.896253
4870.000000;0.891120
4869.000000;0.885695
4868.000000;0.880185
4867.000000;0.874817
4866.000000;0.869783
4865.000000;0.865080
4864.000000;0.860431
4863.000000;0.855587
4862.000000;0.850615
4861.000000;0.845755
4860.000000;0.841077
4859.000000;0.836447
4858.000000;0.831740
4857.000000;0.826915
4856.000000;0.821956
4855.000000;0.816901
4854.000000;0.811866
4853.000000;0.806910
4852.000000;0.801992
4851.000000;0.797128
4850.000000;0.792446
4849.000000;0.787932
4848.000000;0.783332
4847.000000;0.778504
4846.000000;0.773686
4845.000000;0.769204
4844.000000;0.765021
4843.000000;0.760829
4842.000000;0.756504
4841.000000;0.752185
4840.000000;0.747958
4839.000000;0.743721
4838.000000;0.739388
4837.000000;0.735017
4836.000000;0.730683
4835.000000;0.726344
4834.000000;0.721910
4833.000000;0.717374
4832.000000;0.712845
4831.000000;0.708465
4830.000000;0.704252
4829.000000;0.700027
4828.000000;0.695593
4827.000000;0.691027
4826.000000;0.686660
4825.000000;0.682699
4824.000000;0.678993
4823.000000;0.675268
4822.000000;0.671458
4821.000000;0.667646
4820.000000;0.663809
4819.000000;0.659782
4818.000000;0.655470
4817.000000;0.650963
4816.000000;0.646468
4815.000000;0.642193
4814.000000;0.638221
4813.000000;0.634427
4812.000000;0.630572
4811.000000;0.626550
4810.000000;0.622441
4809.000000;0.618357
4808.000000;0.614304
4807.000000;0.610334
4806.000000;0.606598
4805.000000;0.603133
4804.000000;0.599707
4803.000000;0.596050
4802.000000;0.592167
4801.000000;0.588253
4800.000000;0.584396
4799.000000;0.580514
4798.000000;0.576567
4797.000000;0.572638
4796.000000;0.568829
4795.000000;0.565183
4794.000000;0.561687
4793.000000;0.558270
4792.000000;0.554823
4791.000000;0.551329
4790.000000;0.547905
4789.000000;0.544625
4788.000000;0.541363
4787.000000;0.537918
4786.000000;0.534250
4785.000000;0.530481
4784.000000;0.526733
4783.000000;0.523083
4782.000000;0.519635
4781.000000;0.516473
4780.000000;0.513531
4779.000000;0.510617
4778.000000;0.507579
4777.000000;0.504373
4776.000000;0.500990
4775.000000;0.497452
4774.000000;0.493884
4773.000000;0.490468
4772.000000;0.487275
4771.000000;0.484181
4770.000000;0.480997
4769.000000;0.477639
4768.000000;0.474178
4767.000000;0.470753
4766.000000;0.467464
4765.000000;0.464315
4764.000000;0.461269
4763.000000;0.458302
4762.000000;0.455391
4761.000000;0.452442
4760.000000;0.449349
4759.000000;0.446145
4758.000000;0.443018
4757.000000;0.440110
4756.000000;0.437359
4755.000000;0.434616
4754.000000;0.431835
4753.000000;0.429089
4752.000000;0.426406
4751.000000;0.423703
4750.000000;0.420892
4749.000000;0.417999
4748.000000;0.415161
4747.000000;0.412491
4746.000000;0.409937
4745.000000;0.407278
4744.000000;0.404335
4743.000000;0.401211
4742.000000;0.398222
4741.000000;0.395579
4740.000000;0.393180
4739.000000;0.390776
4738.000000;0.388240
4737.000000;0.385603
4736.000000;0.382921
4735.000000;0.380228
4734.000000;0.377589
4733.000000;0.375094
4732.000000;0.372763
4731.000000;0.370518
4730.000000;0.368236
4729.000000;0.365823
4728.000000;0.363285
4727.000000;0.360752
4726.000000;0.358382
4725.000000;0.356188
4724.000000;0.353993
4723.000000;0.351622
4722.000000;0.349097
4721.000000;0.346592
4720.000000;0.344245
4719.000000;0.342075
4718.000000;0.340036
4717.000000;0.338052
4716.000000;0.336044
4715.000000;0.333985
4714.000000;0.331948
4713.000000;0.330007
4712.000000;0.328106
4711.000000;0.326082
4710.000000;0.323846
4709.000000;0.321485
4708.000000;0.319186
4707.000000;0.317080
4706.000000;0.315157
4705.000000;0.313302
4704.000000;0.311418
4703.000000;0.309521
4702.000000;0.307691
4701.000000;0.305923
4700.000000;0.304092
4699.000000;0.302112
4698.000000;0.300091
4697.000000;0.298237
4696.000000;0.296622
4695.000000;0.295112
4694.000000;0.293525
4693.000000;0.291798
4692.000000;0.289997
4691.000000;0.288208
4690.000000;0.286473
4689.000000;0.284810
4688.000000;0.283230
4687.000000;0.281721
4686.000000;0.280223
4685.000000;0.278660
4684.000000;0.277015
4683.000000;0.275353
4682.000000;0.273742
4681.000000;0.272196
4680.000000;0.270708
4679.000000;0.269317
4678.000000;0.268038
4677.000000;0.266765
4676.000000;0.265331
4675.000000;0.263718
4674.000000;0.262113
4673.000000;0.260713
4672.000000;0.259526
4671.000000;0.258393
4670.000000;0.257159
4669.000000;0.255774
4668.000000;0.254289
4667.000000;0.252823
4666.000000;0.251498
4665.000000;0.250336
4664.000000;0.249233
4663.000000;0.248069
4662.000000;0.246824
4661.000000;0.245564
4660.000000;0.244364
4659.000000;0.243260
4658.000000;0.242257
4657.000000;0.241320
4656.000000;0.240392
4655.000000;0.239433
4654.000000;0.238432
4653.000000;0.237373
4652.000000;0.236237
4651.000000;0.235075
4650.000000;0.234011
4649.000000;0.233125
4648.000000;0.232372
4647.000000;0.231651
4646.000000;0.230902
4645.000000;0.230099
4644.000000;0.229198
4643.000000;0.228169
4642.000000;0.227078
4641.000000;0.226049
4640.000000;0.225148
4639.000000;0.224326
4638.000000;0.223498
4637.000000;0.222626
4636.000000;0.221752
4635.000000;0.220948
4634.000000;0.220249
4633.000000;0.219620
4632.000000;0.219007
4631.000000;0.218397
4630.000000;0.217794
4629.000000;0.217150
4628.000000;0.216395
4627.000000;0.215549
4626.000000;0.214748
4625.000000;0.214116
4624.000000;0.213648
4623.000000;0.213243
4622.000000;0.212783
4621.000000;0.212178
4620.000000;0.211407
4619.000000;0.210582
4618.000000;0.209896
4617.000000;0.209442
4616.000000;0.209129
4615.000000;0.208813
4614.000000;0.208455
4613.000000;0.208083
4612.000000;0.207688
4611.000000;0.207243
4610.000000;0.206794
4609.000000;0.206408
4608.000000;0.206061
4607.000000;0.205673
4606.000000;0.205249
4605.000000;0.204891
4604.000000;0.204647
4603.000000;0.204440
4602.000000;0.204157
4601.000000;0.203770
4600.000000;0.203334
4599.000000;0.202948
4598.000000;0.202706
4597.000000;0.202637
4596.000000;0.202661
4595.000000;0.202652
4594.000000;0.202569
4593.000000;0.202475
4592.000000;0.202431
4591.000000;0.202412
4590.000000;0.202366
4589.000000;0.202301
4588.000000;0.202276
4587.000000;0.202331
4586.000000;0.202448
4585.000000;0.202576
4584.000000;0.202669
4583.000000;0.202702
4582.000000;0.202679
4581.000000;0.202630
4580.000000;0.202595
4579.000000;0.202612
4578.000000;0.202713
4577.000000;0.202905
4576.000000;0.203162
4575.000000;0.203437
4574.000000;0.203700
4573.000000;0.203966
4572.000000;0.204287
4571.000000;0.204697
4570.000000;0.205161
4569.000000;0.205583
4568.000000;0.205908
4567.000000;0.206192
4566.000000;0.206549
4565.000000;0.207034
4564.000000;0.207592
4563.000000;0.208115
4562.000000;0.208536
4561.000000;0.208867
4560.000000;0.209203
4559.000000;0.209681
4558.000000;0.210376
4557.000000;0.211206
4556.000000;0.211999
4555.000000;0.212666
4554.000000;0.213282
4553.000000;0.213953
4552.000000;0.214690
4551.000000;0.215434
4550.000000;0.216178
4549.000000;0.216974
4548.000000;0.217843
4547.000000;0.218742
4546.000000;0.219611
4545.000000;0.220433
4544.000000;0.221232
4543.000000;0.222058
4542.000000;0.222959
4541.000000;0.223933
4540.000000;0.224914
4539.000000;0.225840
4538.000000;0.226720
4537.000000;0.227630
4536.000000;0.228624
4535.000000;0.229689
4534.000000;0.230759
4533.000000;0.231770
4532.000000;0.232680
4531.000000;0.233475
4530.000000;0.234157
4529.000000;0.234769
4528.000000;0.235404
4527.000000;0.236179
4526.000000;0.237138
4525.000000;0.238196
4524.000000;0.239228
4523.000000;0.240191
4522.000000;0.241149
4521.000000;0.242169
4520.000000;0.243247
4519.000000;0.244338
4518.000000;0.245384
4517.000000;0.246341
4516.000000;0.247214
4515.000000;0.248088
4514.000000;0.249048
4513.000000;0.250059
4512.000000;0.251003
4511.000000;0.251856
4510.000000;0.252745
4509.000000;0.253797
4508.000000;0.254993
4507.000000;0.256226
4506.000000;0.257419
4505.000000;0.258534
4504.000000;0.259534
4503.000000;0.260439
4502.000000;0.261373
4501.000000;0.262469
4500.000000;0.263721
4499.000000;0.264987
4498.000000;0.266158
4497.000000;0.267271
4496.000000;0.268469
4495.000000;0.269857
4494.000000;0.271393
4493.000000;0.272904
4492.000000;0.274243
4491.000000;0.275434
4490.000000;0.276634
4489.000000;0.277951
4488.000000;0.279362
4487.000000;0.280820
4486.000000;0.282342
4485.000000;0.283936
4484.000000;0.285536
4483.000000;0.287072
4482.000000;0.288571
4481.000000;0.290103
4480.000000;0.291675
4479.000000;0.293249
4478.000000;0.294824
4477.000000;0.296429
4476.000000;0.298086
4475.000000;0.299820
4474.000000;0.301678
4473.000000;0.303653
4472.000000;0.305637
4471.000000;0.307515
4470.000000;0.309285
4469.000000;0.311027
4468.000000;0.312788
4467.000000;0.314566
4466.000000;0.316396
4465.000000;0.318346
4464.000000;0.320431
4463.000000;0.322588
4462.000000;0.324725
4461.000000;0.326783
4460.000000;0.328770
4459.000000;0.330770
4458.000000;0.332892
4457.000000;0.335158
4456.000000;0.337482
4455.000000;0.339785
4454.000000;0.342071
4453.000000;0.344342
4452.000000;0.346529
4451.000000;0.348609
4450.000000;0.350700
4449.000000;0.352939
4448.000000;0.355302
4447.000000;0.357667
4446.000000;0.360002
4445.000000;0.362376
4444.000000;0.364792
4443.000000;0.367185
4442.000000;0.369569
4441.000000;0.372050
4440.000000;0.374657
4439.000000;0.377292
4438.000000;0.379885
4437.000000;0.382473
4436.000000;0.385083
4435.000000;0.387656
4434.000000;0.390170
4433.000000;0.392733
4432.000000;0.395443
4431.000000;0.398237
4430.000000;0.400979
4429.000000;0.403640
4428.000000;0.406307
4427.000000;0.409039
4426.000000;0.411830
4425.000000;0.414685
4424.000000;0.417654
4423.000000;0.420742
4422.000000;0.423859
4421.000000;0.426887
4420.000000;0.429761
4419.000000;0.432480
4418.000000;0.435095
4417.000000;0.437739
4416.000000;0.440618
4415.000000;0.443881
4414.000000;0.447456
4413.000000;0.451052
4412.000000;0.454389
4411.000000;0.457414
4410.000000;0.460289
4409.000000;0.463190
4408.000000;0.466189
4407.000000;0.469296
4406.000000;0.472544
4405.000000;0.475979
4404.000000;0.479589
4403.000000;0.483271
4402.000000;0.486880
4401.000000;0.490318
4400.000000;0.493596
4399.000000;0.496796
4398.000000;0.499964
4397.000000;0.503108
4396.000000;0.506316
4395.000000;0.509795
4394.000000;0.513662
4393.000000;0.517747
4392.000000;0.521729
4391.000000;0.525469
4390.000000;0.529055
4389.000000;0.532546
4388.000000;0.535889
4387.000000;0.539165
4386.000000;0.542684
4385.000000;0.546652
4384.000000;0.550865
4383.000000;0.554932
4382.000000;0.558727
4381.000000;0.562447
4380.000000;0.566285
4379.000000;0.570216
4378.000000;0.574123
4377.000000;0.577957
4376.000000;0.581754
4375.000000;0.585572
4374.000000;0.589474
4373.000000;0.593489
4372.000000;0.597602
4371.000000;0.601811
4370.000000;0.606159
4369.000000;0.610636
4368.000000;0.615098
4367.000000;0.619392
4366.000000;0.623535
4365.000000;0.627706
4364.000000;0.632059
4363.000000;0.636605
4362.000000;0.641249
4361.000000;0.645868
4360.000000;0.650374
4359.000000;0.654796
4358.000000;0.659254
4357.000000;0.663821
4356.000000;0.668446
4355.000000;0.673067
4354.000000;0.677720
4353.000000;0.682460
4352.000000;0.687238
4351.000000;0.691975
4350.000000;0.696641
4349.000000;0.701188
4348.000000;0.705500
4347.000000;0.709612
4346.000000;0.713901
4345.000000;0.718834
4344.000000;0.724476
4343.000000;0.730354
4342.000000;0.735867
4341.000000;0.740764
4340.000000;0.745267
4339.000000;0.749833
4338.000000;0.754802
4337.000000;0.760170
4336.000000;0.765664
4335.000000;0.771053
4334.000000;0.776363
4333.000000;0.781764
4332.000000;0.787352
4331.000000;0.793081
4330.000000;0.798813
4329.000000;0.804338
4328.000000;0.809499
4327.000000;0.814433
4326.000000;0.819558
4325.000000;0.825137
4324.000000;0.830964
4323.000000;0.836667
4322.000000;0.842211
4321.000000;0.847860
4320.000000;0.853718
4319.000000;0.859615
4318.000000;0.865447
4317.000000;0.871363
4316.000000;0.877495
4315.000000;0.883704
4314.000000;0.889696
4313.000000;0.895309
4312.000000;0.900658
4311.000000;0.906106
4310.000000;0.912041
4309.000000;0.918553
4308.000000;0.925311
4307.000000;0.931896
4306.000000;0.938196
4305.000000;0.944350
4304.000000;0.950401
4303.000000;0.956242
4302.000000;0.961886
4301.000000;0.967559
4300.000000;0.973466
4299.000000;0.979634
4298.000000;0.985972
4297.000000;0.992330
4296.000000;0.998528
4295.000000;1.004565
4294.000000;1.010799
4293.000000;1.017693
4292.000000;1.025317
4291.000000;1.033220
4290.000000;1.040834
4289.000000;1.047874
4288.000000;1.054344
4287.000000;1.060376
4286.000000;1.066180
4285.000000;1.072069
4284.000000;1.078385
4283.000000;1.085328
4282.000000;1.092768
4281.000000;1.100212
4280.000000;1.107114
4279.000000;1.113350
4278.000000;1.119330
4277.000000;1.125613
4276.000000;1.132546
4275.000000;1.140230
4274.000000;1.148500
4273.000000;1.156765
4272.000000;1.164238
4271.000000;1.170749
4270.000000;1.177128
4269.000000;1.184375
4268.000000;1.192552
4267.000000;1.200764
4266.000000;1.208128
4265.000000;1.214542
4264.000000;1.220703
4263.000000;1.227575
4262.000000;1.235616
4261.000000;1.244155
4260.000000;1.251825
4259.000000;1.258070
4258.000000;1.263923
4257.000000;1.270797
4256.000000;1.278833
4255.000000;1.287031
4254.000000;1.294715
4253.000000;1.302080
4252.000000;1.309399
4251.000000;1.316619
4250.000000;1.323857
4249.000000;1.331455
4248.000000;1.339315
4247.000000;1.346845
4246.000000;1.353921
4245.000000;1.360988
4244.000000;1.368285
4243.000000;1.375489
4242.000000;1.382627
4241.000000;1.390544
4240.000000;1.399859
4239.000000;1.410091
4238.000000;1.420305
4237.000000;1.430087
4236.000000;1.439409
4235.000000;1.448012
4234.000000;1.455800
4233.000000;1.463622
4232.000000;1.472628
4231.000000;1.482525
4230.000000;1.491275
4229.000000;1.497265
4228.000000;1.501428
4227.000000;1.506401
4226.000000;1.513780
4225.000000;1.522946
4224.000000;1.532510
4223.000000;1.542043
4222.000000;1.551729
4221.000000;1.561094
4220.000000;1.569402
4219.000000;1.577077
4218.000000;1.585316
4217.000000;1.594122
4216.000000;1.602147
4215.000000;1.609068
4214.000000;1.616571
4213.000000;1.625826
4212.000000;1.635327
4211.000000;1.642950
4210.000000;1.649356
4209.000000;1.657365
4208.000000;1.668286
4207.000000;1.680621
4206.000000;1.692378
4205.000000;1.703167
4204.000000;1.713527
4203.000000;1.723690
4202.000000;1.733988
4201.000000;1.745398
4200.000000;1.758581
4199.000000;1.772641
4198.000000;1.784991
4197.000000;1.792538
4196.000000;1.794483
4195.000000;1.794192
4194.000000;1.796971
4193.000000;1.805834
4192.000000;1.819464
4191.000000;1.834285
4190.000000;1.847962
4189.000000;1.859848
4188.000000;1.869087
4187.000000;1.874643
4186.000000;1.876944
4185.000000;1.877872
4184.000000;1.879615
4183.000000;1.884672
4182.000000;1.895705
4181.000000;1.913028
4180.000000;1.932299
4179.000000;1.947131
4178.000000;1.955057
4177.000000;1.958964
4176.000000;1.962681
4175.000000;1.968349
4174.000000;1.977716
4173.000000;1.991850
4172.000000;2.008221
4171.000000;2.021566
4170.000000;2.030669
4169.000000;2.040402
4168.000000;2.053225
4167.000000;2.063596
4166.000000;2.065079
4165.000000;2.060621
4164.000000;2.060513
4163.000000;2.069783
4162.000000;2.082806
4161.000000;2.091862
4160.000000;2.098493
4159.000000;2.111588
4158.000000;2.134072
4157.000000;2.156629
4156.000000;2.166556
4155.000000;2.162314
4154.000000;2.155547
4153.000000;2.158559
4152.000000;2.174201
4151.000000;2.196196
4150.000000;2.215260
4149.000000;2.225394
4148.000000;2.228601
4147.000000;2.233036
4146.000000;2.243379
4145.000000;2.255989
4144.000000;2.265479
4143.000000;2.273322
4142.000000;2.285013
4141.000000;2.299185
4140.000000;2.306508
4139.000000;2.303701
4138.000000;2.300928
4137.000000;2.308379
4136.000000;2.322433
4135.000000;2.330948
4134.000000;2.330463
4133.000000;2.329797
4132.000000;2.340102
4131.000000;2.363815
4130.000000;2.389822
4129.000000;2.405354
4128.000000;2.407308
4127.000000;2.400357
4126.000000;2.393321
4125.000000;2.395335
4124.000000;2.413650
4123.000000;2.452616
4122.000000;2.507594
4121.000000;2.555531
4120.000000;2.566461
4119.000000;2.539297
4118.000000;2.505795
4117.000000;2.493573
4116.000000;2.503874
4115.000000;2.520380
4114.000000;2.529268
4113.000000;2.529633
4112.000000;2.527670
4111.000000;2.530894
4110.000000;2.545386
4109.000000;2.570872
4108.000000;2.601683
4107.000000;2.626286
4106.000000;2.628660
4105.000000;2.606376
4104.000000;2.578173
4103.000000;2.572728
4102.000000;2.606538
4101.000000;2.668759
4100.000000;2.726530
4099.000000;2.742878
4098.000000;2.707791
4097.000000;2.656457
4096.000000;2.617016
4095.000000;2.593604
4094.000000;2.585117
4093.000000;2.593706
4092.000000;2.619535
4091.000000;2.652775
4090.000000;2.681879
4089.000000;2.706577
4088.000000;2.736533
4087.000000;2.767202
4086.000000;2.777056
4085.000000;2.781788
4084.000000;2.801814
4083.000000;2.818122
4082.000000;2.808392
4081.000000;2.762093
4080.000000;2.694361
4079.000000;2.645509
4078.000000;2.643011
4077.000000;2.684901
4076.000000;2.743829
4075.000000;2.787331
4074.000000;2.805812
4073.000000;2.808815
4072.000000;2.798720
4071.000000;2.780168
4070.000000;2.773434
4069.000000;2.786797
4068.000000;2.802059
4067.000000;2.812233
4066.000000;2.819679
4065.000000;2.809536
4064.000000;2.786728
4063.000000;2.780484
4062.000000;2.810339
4061.000000;2.866137
4060.000000;2.901145
4059.000000;2.873223
4058.000000;2.816261
4057.000000;2.796746
4056.000000;2.830462
4055.000000;2.880441
4054.000000;2.897284
4053.000000;2.873431
4052.000000;2.830338
4051.000000;2.793277
4050.000000;2.788999
4049.000000;2.831626
4048.000000;2.911934
4047.000000;3.004109
4046.000000;3.058803
4045.000000;3.006499
4044.000000;2.894306
4043.000000;2.814829
4042.000000;2.794004
4041.000000;2.805755
4040.000000;2.807915
4039.000000;2.792789
4038.000000;2.783524
4037.000000;2.811605
4036.000000;2.890436
4035.000000;3.010360
4034.000000;3.146144
4033.000000;3.216965
4032.000000;3.127885
4031.000000;2.967625
4030.000000;2.859096
4029.000000;2.830789
4028.000000;2.845048
4027.000000;2.857368
4026.000000;2.870981
4025.000000;2.895361
4024.000000;2.934899
4023.000000;3.009841
4022.000000;3.155470
4021.000000;3.397103
4020.000000;3.658991
4019.000000;3.610056
4018.000000;3.259426
4017.000000;2.966929
4016.000000;2.781036
4015.000000;2.675804
4014.000000;2.635089
4013.000000;2.652608
4012.000000;2.723872
4011.000000;2.835338
4010.000000;2.975037
4009.000000;3.163435
4008.000000;3.398550
4007.000000;3.408308
4006.000000;3.265369
4005.000000;3.159976
4004.000000;3.075428
4003.000000;2.983050
4002.000000;2.890016
4001.000000;2.836041
4000.000000;2.841707
3999.000000;2.896585
3998.000000;2.971395
3997.000000;3.007456
3996.000000;2.943352
3995.000000;2.843747
3994.000000;2.793494
3993.000000;2.806930
3992.000000;2.871630
3991.000000;2.975138
3990.000000;3.049611
3989.000000;3.012996
3988.000000;2.925837
3987.000000;2.881145
3986.000000;2.922797
3985.000000;2.980247
3984.000000;2.918537
3983.000000;2.865654
3982.000000;2.897380
3981.000000;2.979823
3980.000000;3.085814
3979.000000;3.226042
3978.000000;3.454107
3977.000000;3.599167
3976.000000;3.341569
3975.000000;3.244321
3974.000000;3.202749
3973.000000;3.117711
3972.000000;3.019750
3971.000000;2.982165
3970.000000;3.028169
3969.000000;3.177467
3968.000000;3.443906
3967.000000;3.627747
3966.000000;3.458537
3965.000000;3.294300
3964.000000;3.238737
3963.000000;3.263329
3962.000000;3.330579
3961.000000;3.408207
3960.000000;3.400040
3959.000000;3.280353
3958.000000;3.214100
3957.000000;3.196852
3956.000000;3.147205
3955.000000;3.065449
3954.000000;3.008166
3953.000000;2.990142
3952.000000;2.980139
3951.000000;2.986846
3950.000000;2.997718
3949.000000;2.917222
3948.000000;2.806481
3947.000000;2.767234
3946.000000;2.805024
3945.000000;2.868145
3944.000000;2.876382
3943.000000;2.802381
3942.000000;2.709783
3941.000000;2.708236
3940.000000;2.830737
3939.000000;2.983748
3938.000000;3.042431
3937.000000;3.068431
3936.000000;3.213859
3935.000000;3.441726
3934.000000;3.106695
3933.000000;2.916912
3932.000000;3.061644
3931.000000;3.324522
3930.000000;2.956657
3929.000000;2.945139
3928.000000;3.201615
3927.000000;3.374508
3926.000000;3.124437
3925.000000;3.052619
3924.000000;3.116441
3923.000000;3.156691
3922.000000;3.067966
3921.000000;2.994645
3920.000000;2.930472
3919.000000;2.880914
3918.000000;2.855003
3917.000000;2.847692
3916.000000;2.849962
3915.000000;2.887656
3914.000000;2.987978
3913.000000;3.093631
3912.000000;3.185605
3911.000000;3.339664
3910.000000;3.811050
3909.000000;4.095956
3908.000000;3.650826
3907.000000;3.359803
3906.000000;3.133347
3905.000000;3.010346
3904.000000;3.008204
3903.000000;3.123478
3902.000000;3.138101
3901.000000;3.043045
3900.000000;2.992924
3899.000000;3.026273
3898.000000;3.223785
3897.000000;3.714253
3896.000000;3.590825
3895.000000;3.452537
3894.000000;3.564544
3893.000000;3.428987
3892.000000;3.296317
3891.000000;3.282035
3890.000000;3.301120
3889.000000;3.324594
3888.000000;3.336938
3887.000000;3.377323
3886.000000;3.504564
3885.000000;3.873280
3884.000000;3.902152
3883.000000;3.514323
3882.000000;3.317136
3881.000000;3.199952
3880.000000;3.186337
3879.000000;3.321133
3878.000000;3.850157
3877.000000;3.510039
3876.000000;3.192488
3875.000000;3.030911
3874.000000;2.980837
3873.000000;3.080236
3872.000000;3.405740
3871.000000;4.005642
3870.000000;3.724890
3869.000000;3.309486
3868.000000;3.186870
3867.000000;3.164841
3866.000000;3.133154
3865.000000;3.087829
3864.000000;3.069080
3863.000000;3.095895
3862.000000;3.141872
3861.000000;3.157065
3860.000000;3.135157
3859.000000;3.121094
3858.000000;3.170538
3857.000000;3.241166
3856.000000;3.223746
3855.000000;3.270390
3854.000000;3.438130
3853.000000;3.617762
3852.000000;3.758731
3851.000000;3.854549
3850.000000;3.926284
3849.000000;4.022437
3848.000000;4.270881
3847.000000;4.325394
3846.000000;3.632795
3845.000000;3.420032
3844.000000;3.468729
3843.000000;3.552008
3842.000000;3.340580
3841.000000;3.251071
3840.000000;3.298855
3839.000000;3.360211
3838.000000;3.419280
3837.000000;3.596828
3836.000000;4.173192
3835.000000;4.026884
3834.000000;3.552581
3833.000000;3.411162
3832.000000;3.394037
3831.000000;3.528253
3830.000000;3.671168
3829.000000;3.613977
3828.000000;3.656329
3827.000000;3.945493
3826.000000;3.511958
3825.000000;3.311072
3824.000000;3.334481
3823.000000;3.411039
3822.000000;3.509285
3821.000000;3.683157
3820.000000;4.007809
3819.000000;4.508328
3818.000000;4.425444
3817.000000;3.931178
3816.000000;3.682067
3815.000000;3.604445
3814.000000;3.573083
3813.000000;3.484533
3812.000000;3.354378
3811.000000;3.253677
3810.000000;3.229129
3809.000000;3.311969
3808.000000;3.553589
3807.000000;4.094996
3806.000000;4.173323
3805.000000;4.107377
3804.000000;4.101619
3803.000000;3.884909
3802.000000;3.957874
3801.000000;4.483527
3800.000000;4.014239
3799.000000;3.808178
3798.000000;3.713222
3797.000000;3.618559
3796.000000;3.576523
3795.000000;3.490385
3794.000000;3.449217
3793.000000;3.359131
3792.000000;3.155755
3791.000000;3.031729
3790.000000;2.996775
3789.000000;2.999684
3788.000000;3.048019
3787.000000;3.194400
3786.000000;3.551904
3785.000000;3.455222
3784.000000;3.095052
3783.000000;3.018569
3782.000000;3.057691
3781.000000;3.199890
3780.000000;3.415287
3779.000000;3.589946
3778.000000;3.502925
3777.000000;3.383876
3776.000000;3.383199
3775.000000;3.523475
3774.000000;4.012526
3773.000000;3.683818
3772.000000;3.408277
3771.000000;3.399656
3770.000000;3.484384
3769.000000;3.557400
3768.000000;3.618675
3767.000000;3.605627
3766.000000;3.418366
3765.000000;3.326102
3764.000000;3.406878
3763.000000;3.757737
3762.000000;4.204214
3761.000000;3.779938
3760.000000;3.713515
3759.000000;3.443236
3758.000000;3.298909
3757.000000;3.276638
3756.000000;3.337530
3755.000000;3.330045
3754.000000;3.223778
3753.000000;3.189562
3752.000000;3.167955
3751.000000;3.180048
3750.000000;3.296450
3749.000000;3.448096
3748.000000;3.576362
3747.000000;3.720979
3746.000000;4.245469
3745.000000;4.295664
3744.000000;4.039500
3743.000000;3.926038
3742.000000;3.698444
3741.000000;3.444840
3740.000000;3.229009
3739.000000;3.113724
3738.000000;3.086120
3737.000000;3.086018
3736.000000;3.143536
3735.000000;3.238397
3734.000000;3.269652
3733.000000;3.465944
3732.000000;3.540958
3731.000000;3.444904
3730.000000;3.357943
3729.000000;3.230527
3728.000000;3.077538
3727.000000;2.945949
3726.000000;2.863844
3725.000000;2.785152
3724.000000;2.765765
3723.000000;2.885537
3722.000000;2.972535
3721.000000;2.926209
3720.000000;2.904719
3719.000000;2.937231
3718.000000;3.030411
3717.000000;3.223615
3716.000000;3.570693
3715.000000;3.722347
3714.000000;3.473515
3713.000000;3.308622
3712.000000;3.309740
3711.000000;3.496198
3710.000000;3.630764
3709.000000;3.532481
3708.000000;3.494480
3707.000000;3.502926
3706.000000;3.501673
3705.000000;3.423085
3704.000000;3.363226
3703.000000;3.482770
3702.000000;3.669619
3701.000000;3.463102
3700.000000;3.292295
3699.000000;3.237838
3698.000000;3.209551
3697.000000;3.149782
3696.000000;3.033360
3695.000000;2.935785
3694.000000;2.923194
3693.000000;3.008753
3692.000000;3.178915
3691.000000;3.304370
3690.000000;3.269009
3689.000000;3.262098
3688.000000;3.389939
3687.000000;3.658577
3686.000000;4.148393
3685.000000;3.713844
3684.000000;3.453206
3683.000000;3.429471
3682.000000;3.613002
3681.000000;3.938652
3680.000000;3.667068
3679.000000;3.438170
3678.000000;3.399772
3677.000000;3.398261
3676.000000;3.450113
3675.000000;3.756604
3674.000000;4.336760
3673.000000;3.917354
3672.000000;3.484161
3671.000000;3.264084
3670.000000;3.242307
3669.000000;3.550717
3668.000000;3.580410
3667.000000;3.312416
3666.000000;3.190387
3665.000000;3.170791
3664.000000;3.286880
3663.000000;3.637988
3662.000000;3.788879
3661.000000;3.352143
3660.000000;3.176293
3659.000000;3.182727
3658.000000;3.385010
3657.000000;3.794756
3656.000000;3.763535
3655.000000;3.360854
3654.000000;3.125313
3653.000000;3.002548
3652.000000;2.952757
3651.000000;2.952134
3650.000000;2.976413
3649.000000;3.048568
3648.000000;3.222817
3647.000000;3.619026
3646.000000;4.061382
3645.000000;3.776403
3644.000000;3.643878
3643.000000;3.503621
3642.000000;3.296360
3641.000000;3.127972
3640.000000;3.037492
3639.000000;3.042669
3638.000000;3.133904
3637.000000;3.302672
3636.000000;3.610870
3635.000000;3.635222
3634.000000;3.380569
3633.000000;3.300445
3632.000000;3.290115
3631.000000;3.332087
3630.000000;3.375030
3629.000000;3.249260
3628.000000;3.187032
3627.000000;3.214416
3626.000000;3.232085
3625.000000;3.212998
3624.000000;3.202360
3623.000000;3.197775
3622.000000;3.151567
3621.000000;3.072188
3620.000000;3.003570
3619.000000;2.994440
3618.000000;3.049141
3617.000000;3.123441
3616.000000;3.418402
3615.000000;3.798244
3614.000000;3.527716
3613.000000;3.497147
3612.000000;3.267565
3611.000000;3.206674
3610.000000;3.343353
3609.000000;3.410101
3608.000000;3.452264
3607.000000;3.708482
3606.000000;3.437304
3605.000000;3.297506
3604.000000;3.397604
3603.000000;3.457245
3602.000000;3.278616
3601.000000;3.113656
3600.000000;3.014803
3599.000000;2.984523
3598.000000;3.007482
3597.000000;3.128695
3596.000000;3.462499
3595.000000;3.225287
3594.000000;2.886672
3593.000000;2.867752
3592.000000;3.001794
3591.000000;3.223392
3590.000000;3.279345
3589.000000;3.084245
3588.000000;2.891916
3587.000000;2.826300
3586.000000;2.955301
3585.000000;3.340589
3584.000000;3.442497
3583.000000;3.222380
3582.000000;3.125213
3581.000000;3.078858
3580.000000;2.965948
3579.000000;2.866559
3578.000000;2.865178
3577.000000;2.982390
3576.000000;3.244901
3575.000000;3.440403
3574.000000;3.236853
3573.000000;3.038772
3572.000000;2.882938
3571.000000;2.777212
3570.000000;2.729521
3569.000000;2.756117
3568.000000;2.999324
3567.000000;3.506894
3566.000000;2.991404
3565.000000;2.775498
3564.000000;3.007077
3563.000000;3.304960
3562.000000;3.055595
3561.000000;2.971975
3560.000000;3.078000
3559.000000;3.290007
3558.000000;3.636939
3557.000000;4.287223
3556.000000;3.913317
3555.000000;3.857111
3554.000000;3.558191
3553.000000;3.251553
3552.000000;3.163992
3551.000000;3.272434
3550.000000;3.656535
3549.000000;4.092012
3548.000000;3.533579
3547.000000;3.266667
3546.000000;3.064567
3545.000000;3.027598
3544.000000;3.049985
3543.000000;2.951506
3542.000000;2.841872
3541.000000;2.765426
3540.000000;2.733358
3539.000000;2.750385
3538.000000;2.832157
3537.000000;3.032661
3536.000000;3.423178
3535.000000;3.405533
3534.000000;3.282012
3533.000000;3.314102
3532.000000;3.224034
3531.000000;3.146175
3530.000000;3.168324
3529.000000;3.316460
3528.000000;3.485433
3527.000000;3.290391
3526.000000;3.056190
3525.000000;3.035609
3524.000000;3.302819
3523.000000;3.555274
3522.000000;3.368209
3521.000000;3.416294
3520.000000;3.432606
3519.000000;3.353480
3518.000000;3.271858
3517.000000;3.260799
3516.000000;3.388434
3515.000000;3.769642
3514.000000;3.503209
3513.000000;3.098723
3512.000000;2.948289
3511.000000;2.914489
3510.000000;3.267729
3509.000000;3.437915
3508.000000;2.984557
3507.000000;2.970680
3506.000000;3.141943
3505.000000;3.583071
3504.000000;3.959509
3503.000000;3.373788
3502.000000;3.104714
3501.000000;3.095538
3500.000000;3.281928
3499.000000;3.342634
3498.000000;3.280322
3497.000000;3.287002
3496.000000;3.321132
3495.000000;3.326295
3494.000000;3.238683
3493.000000;3.125987
3492.000000;3.073257
3491.000000;3.085398
3490.000000;3.105122
3489.000000;3.045791
3488.000000;2.942956
3487.000000;2.875102
3486.000000;2.865064
3485.000000;2.911312
3484.000000;3.003869
3483.000000;3.138438
3482.000000;3.184041
3481.000000;3.072019
3480.000000;2.998597
3479.000000;2.997841
3478.000000;3.004945
3477.000000;3.008948
3476.000000;3.064569
3475.000000;3.253878
3474.000000;3.826869
3473.000000;3.712285
3472.000000;3.486323
3471.000000;3.635684
3470.000000;4.244874
3469.000000;3.451161
3468.000000;3.160726
3467.000000;3.038589
3466.000000;3.006976
3465.000000;3.043718
3464.000000;3.163600
3463.000000;3.365885
3462.000000;3.409826
3461.000000;3.409406
3460.000000;3.467547
3459.000000;3.470478
3458.000000;3.596955
3457.000000;3.760058
3456.000000;3.572397
3455.000000;3.370675
3454.000000;3.336549
3453.000000;3.439493
3452.000000;3.707030
3451.000000;3.621114
3450.000000;3.403975
3449.000000;3.381243
3448.000000;3.584525
3447.000000;4.181499
3446.000000;3.714138
3445.000000;3.620722
3444.000000;3.540895
3443.000000;3.335259
3442.000000;3.277755
3441.000000;3.372827
3440.000000;3.746092
3439.000000;4.588200
3438.000000;3.803175
3437.000000;3.443797
3436.000000;3.141556
3435.000000;3.011496
3434.000000;3.019936
3433.000000;3.135543
3432.000000;3.488499
3431.000000;3.795275
3430.000000;3.387960
3429.000000;3.276066
3428.000000;3.352495
3427.000000;3.613247
3426.000000;4.041227
3425.000000;3.632512
3424.000000;3.350929
3423.000000;3.306803
3422.000000;3.372653
3421.000000;3.445586
3420.000000;3.575433
3419.000000;3.652975
3418.000000;3.517593
3417.000000;3.368915
3416.000000;3.153576
3415.000000;3.036387
3414.000000;3.081505
3413.000000;3.325617
3412.000000;3.553234
3411.000000;3.484409
3410.000000;3.609095
3409.000000;3.434211
3408.000000;3.151639
3407.000000;3.016615
3406.000000;2.962591
3405.000000;2.971215
3404.000000;3.017495
3403.000000;3.058214
3402.000000;3.068246
3401.000000;3.088051
3400.000000;3.164699
3399.000000;3.274556
3398.000000;3.259472
3397.000000;3.145878
3396.000000;3.094196
3395.000000;3.132839
3394.000000;3.154859
3393.000000;3.099424
3392.000000;3.136371
3391.000000;3.488747
3390.000000;3.585973
3389.000000;3.197473
3388.000000;3.165284
3387.000000;3.310812
3386.000000;3.334305
3385.000000;3.198811
3384.000000;3.214090
3383.000000;3.498832
3382.000000;4.014277
3381.000000;4.198547
3380.000000;4.002506
3379.000000;3.443856
3378.000000;3.292918
3377.000000;3.366005
3376.000000;3.416743
3375.000000;3.205271
3374.000000;3.098161
3373.000000;3.185349
3372.000000;3.516423
3371.000000;3.606189
3370.000000;3.420751
3369.000000;3.438468
3368.000000;3.524629
3367.000000;3.431701
3366.000000;3.182755
3365.000000;2.998116
3364.000000;2.918426
3363.000000;2.946173
3362.000000;3.099877
3361.000000;3.421294
3360.000000;3.573840
3359.000000;3.348326
3358.000000;3.222263
3357.000000;3.097960
3356.000000;2.958539
3355.000000;2.856836
3354.000000;2.833832
3353.000000;2.882932
3352.000000;2.951106
3351.000000;3.000043
3350.000000;3.059488
3349.000000;3.160819
3348.000000;3.300060
3347.000000;3.354007
3346.000000;3.171650
3345.000000;2.971636
3344.000000;2.880902
3343.000000;2.915364
3342.000000;3.089428
3341.000000;3.379271
3340.000000;3.541206
3339.000000;3.568176
3338.000000;3.557946
3337.000000;3.583120
3336.000000;3.927371
3335.000000;3.642971
3334.000000;3.330028
3333.000000;3.337316
3332.000000;3.448255
3331.000000;3.473713
3330.000000;3.381690
3329.000000;3.267888
3328.000000;3.177111
3327.000000;3.134685
3326.000000;3.194956
3325.000000;3.391312
3324.000000;3.880383
3323.000000;3.734268
3322.000000;3.298753
3321.000000;3.102607
3320.000000;2.962033
3319.000000;2.899979
3318.000000;2.936287
3317.000000;3.089614
3316.000000;3.414988
3315.000000;3.918898
3314.000000;3.630940
3313.000000;3.449114
3312.000000;3.442730
3311.000000;3.373964
3310.000000;3.317501
3309.000000;3.309379
3308.000000;3.241297
3307.000000;3.227580
3306.000000;3.275009
3305.000000;3.217427
3304.000000;3.179327
3303.000000;3.267240
3302.000000;3.431666
3301.000000;3.530115
3300.000000;3.612031
3299.000000;3.686834
3298.000000;3.638313
3297.000000;3.573759
3296.000000;3.424000
3295.000000;3.212771
3294.000000;3.099109
3293.000000;3.124594
3292.000000;3.345478
3291.000000;4.106102
3290.000000;4.092434
3289.000000;4.014879
3288.000000;3.829883
3287.000000;3.539971
3286.000000;3.408439
3285.000000;3.323824
3284.000000;3.311685
3283.000000;3.345125
3282.000000;3.421873
3281.000000;3.464304
3280.000000;3.425344
3279.000000;3.289117
3278.000000;3.062715
3277.000000;2.934566
3276.000000;2.940437
3275.000000;3.182074
3274.000000;3.647576
3273.000000;3.279894
3272.000000;3.123232
3271.000000;3.204115
3270.000000;3.204214
3269.000000;3.049247
3268.000000;2.960128
3267.000000;2.958643
3266.000000;3.039109
3265.000000;3.336784
3264.000000;3.440535
3263.000000;3.208453
3262.000000;3.415930
3261.000000;3.445991
3260.000000;3.032379
3259.000000;2.914560
3258.000000;2.963639
3257.000000;3.030185
3256.000000;3.037794
3255.000000;3.063832
3254.000000;3.169087
3253.000000;3.455882
3252.000000;3.436710
3251.000000;3.069075
3250.000000;2.923680
3249.000000;2.842418
3248.000000;2.780853
3247.000000;2.738211
3246.000000;2.714097
3245.000000;2.724603
3244.000000;2.793572
3243.000000;2.922402
3242.000000;3.047994
3241.000000;3.152154
3240.000000;3.394581
3239.000000;3.882430
3238.000000;3.592891
3237.000000;3.510482
3236.000000;3.936881
3235.000000;3.397253
3234.000000;3.081778
3233.000000;2.985995
3232.000000;2.981874
3231.000000;3.052415
3230.000000;3.114760
3229.000000;3.089241
3228.000000;3.060349
3227.000000;3.115926
3226.000000;3.215282
3225.000000;3.246887
3224.000000;3.215938
3223.000000;3.196314
3222.000000;3.440438
3221.000000;3.622033
3220.000000;3.158852
3219.000000;3.037870
3218.000000;3.047205
3217.000000;3.087200
3216.000000;3.104349
3215.000000;3.126900
3214.000000;3.205829
3213.000000;3.300183
3212.000000;3.361287
3211.000000;3.442796
3210.000000;3.509429
3209.000000;3.299536
3208.000000;3.056989
3207.000000;2.922651
3206.000000;2.880229
3205.000000;2.899298
3204.000000;2.961188
3203.000000;3.084467
3202.000000;3.327099
3201.000000;3.662875
3200.000000;3.623520
3199.000000;3.465815
3198.000000;3.391117
3197.000000;3.373302
3196.000000;3.331763
3195.000000;3.253451
3194.000000;3.254419
3193.000000;3.340629
3192.000000;3.383143
3191.000000;3.311931
3190.000000;3.324615
3189.000000;3.547484
3188.000000;3.415014
3187.000000;3.141236
3186.000000;3.122007
3185.000000;3.329240
3184.000000;3.424336
3183.000000;3.270024
3182.000000;3.236553
3181.000000;3.180248
3180.000000;3.049315
3179.000000;2.938115
3178.000000;2.889746
3177.000000;2.930228
3176.000000;3.032109
3175.000000;3.088693
3174.000000;3.073757
3173.000000;3.053885
3172.000000;3.054808
3171.000000;3.136406
3170.000000;3.475359
3169.000000;3.535422
3168.000000;3.130861
3167.000000;3.026758
3166.000000;3.010852
3165.000000;3.052526
3164.000000;3.122359
3163.000000;3.141516
3162.000000;3.138568
3161.000000;3.167875
3160.000000;3.305210
3159.000000;3.640431
3158.000000;3.721944
3157.000000;3.913833
3156.000000;3.862261
3155.000000;3.396578
3154.000000;3.318062
3153.000000;3.399428
3152.000000;3.340264
3151.000000;3.206769
3150.000000;3.151112
3149.000000;3.164254
3148.000000;3.205825
3147.000000;3.260998
3146.000000;3.366449
3145.000000;3.579426
3144.000000;3.745045
3143.000000;3.731580
3142.000000;3.554534
3141.000000;3.347944
3140.000000;3.325130
3139.000000;3.479828
3138.000000;3.588687
3137.000000;3.334190
3136.000000;3.159242
3135.000000;3.159035
3134.000000;3.242184
3133.000000;3.275286
3132.000000;3.250555
3131.000000;3.244764
3130.000000;3.270249
3129.000000;3.361719
3128.000000;3.532952
3127.000000;3.536028
3126.000000;3.435228
3125.000000;3.472905
3124.000000;3.580162
3123.000000;3.552952
3122.000000;3.414496
3121.000000;3.261674
3120.000000;3.149726
3119.000000;3.099632
3118.000000;3.065450
3117.000000;3.035609
3116.000000;3.041839
3115.000000;3.231360
3114.000000;3.733209
3113.000000;3.441245
3112.000000;3.246229
3111.000000;3.305108
3110.000000;3.266289
3109.000000;3.171601
3108.000000;3.196505
3107.000000;3.583018
3106.000000;3.762925
3105.000000;3.330075
3104.000000;3.253801
3103.000000;3.277857
3102.000000;3.335237
3101.000000;3.393549
3100.000000;3.224246
3099.000000;3.024531
3098.000000;2.966700
3097.000000;3.082525
3096.000000;3.400147
3095.000000;3.421751
3094.000000;3.143482
3093.000000;3.005346
3092.000000;2.992715
3091.000000;3.143181
3090.000000;3.466769
3089.000000;3.468117
3088.000000;3.317841
3087.000000;3.290720
3086.000000;3.208083
3085.000000;3.092003
3084.000000;3.052941
3083.000000;3.144151
3082.000000;3.486977
3081.000000;3.994107
3080.000000;3.603943
3079.000000;3.361622
3078.000000;3.278588
3077.000000;3.294346
3076.000000;3.248474
3075.000000;3.087023
3074.000000;2.975367
3073.000000;2.964293
3072.000000;3.055776
3071.000000;3.284259
3070.000000;3.607244
3069.000000;3.466068
3068.000000;3.426427
3067.000000;3.770300
3066.000000;3.747254
3065.000000;3.332653
3064.000000;3.130959
3063.000000;3.010683
3062.000000;2.941650
3061.000000;2.922911
3060.000000;2.944342
3059.000000;2.978717
3058.000000;3.013889
3057.000000;3.081513
3056.000000;3.300717
3055.000000;3.672128
3054.000000;3.371441
3053.000000;3.105425
3052.000000;3.031110
3051.000000;3.011370
3050.000000;3.007854
3049.000000;2.998279
3048.000000;2.991650
3047.000000;3.033917
3046.000000;3.165404
3045.000000;3.465599
3044.000000;3.798373
3043.000000;3.460125
3042.000000;3.239183
3041.000000;3.143247
3040.000000;3.118688
3039.000000;3.182149
3038.000000;3.312007
3037.000000;3.367388
3036.000000;3.279087
3035.000000;3.211154
3034.000000;3.169515
3033.000000;3.107692
3032.000000;3.042317
3031.000000;3.009656
3030.000000;3.014500
3029.000000;3.055263
3028.000000;3.124842
3027.000000;3.183196
3026.000000;3.194702
3025.000000;3.185350
3024.000000;3.217334
3023.000000;3.299596
3022.000000;3.327469
3021.000000;3.210913
3020.000000;3.097131
3019.000000;3.079539
3018.000000;3.082805
3017.000000;3.055423
3016.000000;3.063747
3015.000000;3.116704
3014.000000;3.155007
3013.000000;3.163777
3012.000000;3.111489
3011.000000;3.012276
3010.000000;2.996851
3009.000000;3.121990
3008.000000;3.355738
3007.000000;3.477396
3006.000000;3.399856
3005.000000;3.399408
3004.000000;3.465220
3003.000000;3.459751
3002.000000;3.495650
3001.000000;3.484526
3000.000000;3.345349
2999.000000;3.306090
2998.000000;3.345186
2997.000000;3.327005
2996.000000;3.230194
2995.000000;3.158277
2994.000000;3.143561
2993.000000;3.179070
2992.000000;3.259738
2991.000000;3.499658
2990.000000;3.843769
2989.000000;3.438416
2988.000000;3.235015
2987.000000;3.202929
2986.000000;3.238385
2985.000000;3.379174
2984.000000;3.512651
2983.000000;3.354470
2982.000000;3.246184
2981.000000;3.300656
2980.000000;3.710956
2979.000000;4.379404
2978.000000;3.528207
2977.000000;3.348644
2976.000000;3.275171
2975.000000;3.273343
2974.000000;3.332346
2973.000000;3.332261
2972.000000;3.234116
2971.000000;3.194017
2970.000000;3.311311
2969.000000;3.381509
2968.000000;3.271618
2967.000000;3.214094
2966.000000;3.327905
2965.000000;3.791356
2964.000000;3.718580
2963.000000;3.494244
2962.000000;3.632322
2961.000000;3.464640
2960.000000;3.206566
2959.000000;3.071985
2958.000000;2.989322
2957.000000;2.974111
2956.000000;3.058047
2955.000000;3.202418
2954.000000;3.316120
2953.000000;3.410755
2952.000000;3.557526
2951.000000;3.788056
2950.000000;3.559627
2949.000000;3.185016
2948.000000;3.032057
2947.000000;3.025156
2946.000000;3.145208
2945.000000;3.389547
2944.000000;3.566959
2943.000000;3.746396
2942.000000;3.905561
2941.000000;3.594976
2940.000000;3.382633
2939.000000;3.306838
2938.000000;3.448424
2937.000000;3.628694
2936.000000;3.396300
2935.000000;3.347203
2934.000000;3.481810
2933.000000;3.512709
2932.000000;3.312736
2931.000000;3.100849
2930.000000;2.999001
2929.000000;3.104119
2928.000000;3.552617
2927.000000;3.436918
2926.000000;3.138012
2925.000000;3.150026
2924.000000;3.248466
2923.000000;3.367577
2922.000000;3.444065
2921.000000;3.469947
2920.000000;3.483837
2919.000000;3.470995
2918.000000;3.444298
2917.000000;3.324878
2916.000000;3.152646
2915.000000;3.027000
2914.000000;2.962156
2913.000000;2.945517
2912.000000;2.972226
2911.000000;3.044928
2910.000000;3.176934
2909.000000;3.380743
2908.000000;3.658605
2907.000000;4.109782
2906.000000;4.157077
2905.000000;3.646466
2904.000000;3.412496
2903.000000;3.375271
2902.000000;3.361696
2901.000000;3.257626
2900.000000;3.210695
2899.000000;3.256648
2898.000000;3.454178
2897.000000;3.648963
2896.000000;3.615571
2895.000000;3.678282
2894.000000;3.472468
2893.000000;3.282721
2892.000000;3.286917
2891.000000;3.379538
2890.000000;3.504516
2889.000000;3.788120
2888.000000;3.702476
2887.000000;3.418109
2886.000000;3.357306
2885.000000;3.357612
2884.000000;3.357948
2883.000000;3.524943
2882.000000;3.790060
2881.000000;3.432319
2880.000000;3.242514
2879.000000;3.215303
2878.000000;3.165150
2877.000000;3.040271
2876.000000;2.923988
2875.000000;2.883746
2874.000000;2.922615
2873.000000;3.024477
2872.000000;3.151384
2871.000000;3.262152
2870.000000;3.349024
2869.000000;3.454030
2868.000000;3.600433
2867.000000;3.774006
2866.000000;3.821980
2865.000000;3.718957
2864.000000;3.551168
2863.000000;3.417439
2862.000000;3.386091
2861.000000;3.532239
2860.000000;4.229951
2859.000000;4.235919
2858.000000;4.039837
2857.000000;4.240431
2856.000000;3.514958
2855.000000;3.187756
2854.000000;3.093676
2853.000000;3.128927
2852.000000;3.168926
2851.000000;3.199459
2850.000000;3.323135
2849.000000;3.479596
2848.000000;3.539695
2847.000000;3.721549
2846.000000;3.899183
2845.000000;3.714816
2844.000000;3.815141
2843.000000;3.520394
2842.000000;3.150646
2841.000000;3.024281
2840.000000;3.036335
2839.000000;3.193037
2838.000000;3.582638
2837.000000;3.609268
2836.000000;3.265363
2835.000000;3.129860
2834.000000;3.120405
2833.000000;3.244154
2832.000000;3.611316
2831.000000;4.036501
2830.000000;3.633238
2829.000000;3.448771
2828.000000;3.402162
2827.000000;3.343114
2826.000000;3.258253
2825.000000;3.186679
2824.000000;3.204601
2823.000000;3.332620
2822.000000;3.646672
2821.000000;4.147015
2820.000000;3.732888
2819.000000;3.373935
2818.000000;3.180222
2817.000000;3.102830
2816.000000;3.131500
2815.000000;3.281947
2814.000000;3.446033
2813.000000;3.350338
2812.000000;3.284578
2811.000000;3.405236
2810.000000;3.761110
2809.000000;4.537599
2808.000000;4.240670
2807.000000;3.604812
2806.000000;3.246698
2805.000000;3.039822
2804.000000;2.925259
2803.000000;2.874800
2802.000000;2.876613
2801.000000;2.931339
2800.000000;3.044243
2799.000000;3.230378
2798.000000;3.445717
2797.000000;3.450979
2796.000000;3.477805
2795.000000;3.457090
2794.000000;3.225504
2793.000000;3.162186
2792.000000;3.248125
2791.000000;3.430519
2790.000000;3.516443
2789.000000;3.484250
2788.000000;3.629319
2787.000000;3.374744
2786.000000;3.079128
2785.000000;2.999446
2784.000000;3.038832
2783.000000;3.208368
2782.000000;3.614170
2781.000000;3.928341
2780.000000;3.520528
2779.000000;3.207217
2778.000000;3.046332
2777.000000;3.034232
2776.000000;3.148410
2775.000000;3.398767
2774.000000;3.804980
2773.000000;3.844162
2772.000000;3.758389
2771.000000;4.066207
2770.000000;4.112138
2769.000000;3.610814
2768.000000;3.397594
2767.000000;3.311376
2766.000000;3.346986
2765.000000;3.416697
2764.000000;3.350063
2763.000000;3.270576
2762.000000;3.248584
2761.000000;3.283554
2760.000000;3.321804
2759.000000;3.301667
2758.000000;3.174436
2757.000000;2.986503
2756.000000;2.863109
2755.000000;2.842985
2754.000000;2.919026
2753.000000;3.058973
2752.000000;3.206410
2751.000000;3.254864
2750.000000;3.174840
2749.000000;3.125690
2748.000000;3.177025
2747.000000;3.238051
2746.000000;3.194206
2745.000000;3.153574
2744.000000;3.163078
2743.000000;3.155373
2742.000000;3.120681
2741.000000;3.106005
2740.000000;3.140080
2739.000000;3.232181
2738.000000;3.391547
2737.000000;3.601199
2736.000000;3.859690
2735.000000;3.920068
2734.000000;3.612734
2733.000000;3.423953
2732.000000;3.437971
2731.000000;3.523843
2730.000000;3.414383
2729.000000;3.271614
2728.000000;3.185164
2727.000000;3.064519
2726.000000;2.969682
2725.000000;2.968443
2724.000000;3.124901
2723.000000;3.435234
2722.000000;3.397923
2721.000000;3.249953
2720.000000;3.187532
2719.000000;3.113600
2718.000000;3.071459
2717.000000;3.071650
2716.000000;3.084926
2715.000000;3.109498
2714.000000;3.209108
2713.000000;3.522144
2712.000000;4.163023
2711.000000;4.030097
2710.000000;3.638172
2709.000000;3.353276
2708.000000;3.246972
2707.000000;3.263997
2706.000000;3.309150
2705.000000;3.277223
2704.000000;3.224185
2703.000000;3.267232
2702.000000;3.413465
2701.000000;3.921507
2700.000000;4.120564
2699.000000;3.629309
2698.000000;3.422446
2697.000000;3.439467
2696.000000;3.956463
2695.000000;3.563165
2694.000000;3.212763
2693.000000;3.141386
2692.000000;3.155332
2691.000000;3.272876
2690.000000;3.385118
2689.000000;3.262186
2688.000000;3.076999
2687.000000;2.999962
2686.000000;3.039089
2685.000000;3.194501
2684.000000;3.453357
2683.000000;3.544111
2682.000000;3.315124
2681.000000;3.123792
2680.000000;3.001633
2679.000000;2.948526
2678.000000;2.976241
2677.000000;3.118208
2676.000000;3.422191
2675.000000;3.603223
2674.000000;3.452896
2673.000000;3.315830
2672.000000;3.266826
2671.000000;3.369367
2670.000000;3.530089
2669.000000;3.514443
2668.000000;3.488130
2667.000000;3.751234
2666.000000;4.151624
2665.000000;3.789724
2664.000000;3.547057
2663.000000;3.333264
2662.000000;3.203329
2661.000000;3.166783
2660.000000;3.167858
2659.000000;3.178197
2658.000000;3.197596
2657.000000;3.267623
2656.000000;3.393544
2655.000000;3.457249
2654.000000;3.453286
2653.000000;3.513101
2652.000000;3.452162
2651.000000;3.291809
2650.000000;3.276180
2649.000000;3.381253
2648.000000;3.388916
2647.000000;3.288548
2646.000000;3.296837
2645.000000;3.600805
2644.000000;3.740514
2643.000000;3.353869
2642.000000;3.219948
2641.000000;3.215944
2640.000000;3.233941
2639.000000;3.228073
2638.000000;3.188749
2637.000000;3.144329
2636.000000;3.105982
2635.000000;3.111950
2634.000000;3.186663
2633.000000;3.309321
2632.000000;3.423302
2631.000000;3.469084
2630.000000;3.484435
2629.000000;3.459117
2628.000000;3.393064
2627.000000;3.374924
2626.000000;3.430211
2625.000000;3.564265
2624.000000;3.549992
2623.000000;3.337317
2622.000000;3.201976
2621.000000;3.146995
2620.000000;3.175584
2619.000000;3.314651
2618.000000;3.315654
2617.000000;3.129714
2616.000000;3.037458
2615.000000;3.065844
2614.000000;3.196542
2613.000000;3.333458
2612.000000;3.298737
2611.000000;3.317239
2610.000000;3.375573
2609.000000;3.240086
2608.000000;3.171727
2607.000000;3.299817
2606.000000;3.561595
2605.000000;3.519634
2604.000000;3.687522
2603.000000;3.820820
2602.000000;3.284495
2601.000000;3.161062
2600.000000;3.200333
2599.000000;3.266730
2598.000000;3.261920
2597.000000;3.168423
2596.000000;3.054199
2595.000000;2.920529
2594.000000;2.849344
2593.000000;2.891247
2592.000000;3.049596
2591.000000;3.136808
2590.000000;3.013840
2589.000000;2.910046
2588.000000;2.906745
2587.000000;2.985913
2586.000000;3.087833
2585.000000;3.142816
2584.000000;3.206352
2583.000000;3.427662
2582.000000;3.438366
2581.000000;3.161388
2580.000000;3.091275
2579.000000;3.162491
2578.000000;3.336973
2577.000000;3.484065
2576.000000;3.362864
2575.000000;3.248265
2574.000000;3.158077
2573.000000;3.046026
2572.000000;2.949019
2571.000000;2.898514
2570.000000;2.921872
2569.000000;3.033494
2568.000000;3.327695
2567.000000;3.866494
2566.000000;3.712261
2565.000000;3.499684
2564.000000;3.350730
2563.000000;3.189639
2562.000000;3.109037
2561.000000;3.075330
2560.000000;3.065960
2559.000000;3.019828
2558.000000;2.954347
2557.000000;2.943757
2556.000000;3.074831
2555.000000;3.387373
2554.000000;3.452973
2553.000000;3.387841
2552.000000;3.388859
2551.000000;3.271555
2550.000000;3.378593
2549.000000;3.404121
2548.000000;3.070643
2547.000000;2.914402
2546.000000;2.870744
2545.000000;2.891742
2544.000000;2.980975
2543.000000;3.126825
2542.000000;3.272073
2541.000000;3.316390
2540.000000;3.300061
2539.000000;3.287421
2538.000000;3.365310
2537.000000;3.503830
2536.000000;3.725358
2535.000000;3.737576
2534.000000;3.259795
2533.000000;3.068692
2532.000000;3.078539
2531.000000;3.255789
2530.000000;3.685522
2529.000000;3.549108
2528.000000;3.346844
2527.000000;3.355403
2526.000000;3.266805
2525.000000;3.115722
2524.000000;3.046298
2523.000000;3.108893
2522.000000;3.263421
2521.000000;3.311925
2520.000000;3.237405
2519.000000;3.238275
2518.000000;3.353509
2517.000000;3.496118
2516.000000;3.508567
2515.000000;3.416994
2514.000000;3.340726
2513.000000;3.307128
2512.000000;3.391138
2511.000000;3.638696
2510.000000;3.557632
2509.000000;3.555211
2508.000000;3.813272
2507.000000;3.545164
2506.000000;3.357689
2505.000000;3.262720
2504.000000;3.168788
2503.000000;3.099639
2502.000000;3.045221
2501.000000;3.070924
2500.000000;3.183048
2499.000000;3.171856
2498.000000;3.079025
2497.000000;3.096695
2496.000000;3.155426
2495.000000;3.179473
2494.000000;3.262267
2493.000000;3.686656
2492.000000;3.647964
2491.000000;3.194222
2490.000000;3.131064
2489.000000;3.218357
2488.000000;3.368026
2487.000000;3.380642
2486.000000;3.270064
2485.000000;3.207775
2484.000000;3.192200
2483.000000;3.210847
2482.000000;3.190939
2481.000000;3.130967
2480.000000;3.105323
2479.000000;3.162698
2478.000000;3.318902
2477.000000;3.742465
2476.000000;3.956469
2475.000000;3.634388
2474.000000;3.538815
2473.000000;3.748048
2472.000000;3.984258
2471.000000;3.417919
2470.000000;3.271460
2469.000000;3.330881
2468.000000;3.490288
2467.000000;3.731897
2466.000000;3.931591
2465.000000;4.289148
2464.000000;3.998043
2463.000000;3.524345
2462.000000;3.244165
2461.000000;3.111568
2460.000000;3.082048
2459.000000;3.127937
2458.000000;3.230226
2457.000000;3.295575
2456.000000;3.263402
2455.000000;3.248550
2454.000000;3.306622
2453.000000;3.391017
2452.000000;3.502189
2451.000000;3.710208
2450.000000;3.833404
2449.000000;3.783147
2448.000000;3.642770
2447.000000;3.560691
2446.000000;3.613071
2445.000000;3.794629
2444.000000;4.039111
2443.000000;3.673660
2442.000000;3.340055
2441.000000;3.185983
2440.000000;3.138556
2439.000000;3.149062
2438.000000;3.164850
2437.000000;3.200609
2436.000000;3.306024
2435.000000;3.466531
2434.000000;3.521165
2433.000000;3.320063
2432.000000;3.192975
2431.000000;3.194602
2430.000000;3.328827
2429.000000;3.662021
2428.000000;3.414040
2427.000000;3.158872
2426.000000;3.131912
2425.000000;3.169520
2424.000000;3.236903
2423.000000;3.323882
2422.000000;3.301983
2421.000000;3.139109
2420.000000;3.036492
2419.000000;3.012856
2418.000000;3.016338
2417.000000;3.024014
2416.000000;3.053856
2415.000000;3.120893
2414.000000;3.212599
2413.000000;3.330223
2412.000000;3.500435
2411.000000;3.578588
2410.000000;3.346351
2409.000000;3.073971
2408.000000;2.922200
2407.000000;2.865300
2406.000000;2.906867
2405.000000;3.030423
2404.000000;3.289017
2403.000000;3.967047
2402.000000;3.977289
2401.000000;3.963383
2400.000000;3.726442
2399.000000;3.245150
2398.000000;3.050745
2397.000000;2.985354
2396.000000;3.025967
2395.000000;3.137082
2394.000000;3.290825
2393.000000;3.454742
2392.000000;3.409104
2391.000000;3.274004
2390.000000;3.275524
2389.000000;3.454726
2388.000000;3.630466
2387.000000;3.618493
2386.000000;3.681080
2385.000000;3.798078
2384.000000;3.754232
2383.000000;3.677635
2382.000000;3.986902
2381.000000;3.822800
2380.000000;3.417938
2379.000000;3.360203
2378.000000;3.422608
2377.000000;3.473650
2376.000000;3.416533
2375.000000;3.368631
2374.000000;3.401533
2373.000000;3.457254
2372.000000;3.509039
2371.000000;3.585700
2370.000000;3.615928
2369.000000;3.450497
2368.000000;3.334042
2367.000000;3.358392
2366.000000;3.660210
2365.000000;4.068872
2364.000000;4.109115
2363.000000;4.343260
2362.000000;3.629303
2361.000000;3.390779
2360.000000;3.297903
2359.000000;3.309771
2358.000000;3.548619
2357.000000;3.814355
2356.000000;3.851602
2355.000000;4.116417
2354.000000;4.122703
2353.000000;3.584921
2352.000000;3.345029
2351.000000;3.297817
2350.000000;3.395771
2349.000000;3.438463
2348.000000;3.342371
2347.000000;3.231008
2346.000000;3.182274
2345.000000;3.239749
2344.000000;3.397300
2343.000000;3.513253
2342.000000;3.433604
2341.000000;3.299146
2340.000000;3.222215
2339.000000;3.218339
2338.000000;3.255238
2337.000000;3.400788
2336.000000;3.418572
2335.000000;3.215859
2334.000000;3.142091
2333.000000;3.152584
2332.000000;3.205049
2331.000000;3.279222
2330.000000;3.320721
2329.000000;3.362947
2328.000000;3.479851
2327.000000;3.851375
2326.000000;4.278266
2325.000000;3.759004
2324.000000;3.480636
2323.000000;3.331868
2322.000000;3.248143
2321.000000;3.213548
2320.000000;3.219700
2319.000000;3.290931
2318.000000;3.392925
2317.000000;3.427434
2316.000000;3.372014
2315.000000;3.308905
2314.000000;3.284314
2313.000000;3.343541
2312.000000;3.535561
2311.000000;3.886289
2310.000000;4.083543
2309.000000;3.769230
2308.000000;3.580842
2307.000000;3.605143
2306.000000;4.024301
2305.000000;4.054283
2304.000000;3.639154
2303.000000;3.681898
2302.000000;3.732816
2301.000000;3.571120
2300.000000;3.439288
2299.000000;3.417872
2298.000000;3.547722
2297.000000;3.761191
2296.000000;3.778262
2295.000000;3.625636
2294.000000;3.463889
2293.000000;3.316712
2292.000000;3.246271
2291.000000;3.202128
2290.000000;3.078074
2289.000000;2.996978
2288.000000;3.021952
2287.000000;3.209033
2286.000000;3.724736
2285.000000;3.580905
2284.000000;3.226370
2283.000000;3.155011
2282.000000;3.215255
2281.000000;3.340558
2280.000000;3.426621
2279.000000;3.508889
2278.000000;3.527227
2277.000000;3.400549
2276.000000;3.259493
2275.000000;3.171098
2274.000000;3.096541
2273.000000;3.030164
2272.000000;3.000344
2271.000000;2.995389
2270.000000;3.025449
2269.000000;3.101225
2268.000000;3.159212
2267.000000;3.154343
2266.000000;3.142751
2265.000000;3.176356
2264.000000;3.268999
2263.000000;3.357235
2262.000000;3.407047
2261.000000;3.495253
2260.000000;3.631373
2259.000000;3.670581
2258.000000;3.458633
2257.000000;3.267689
2256.000000;3.221405
2255.000000;3.289866
2254.000000;3.410976
2253.000000;3.505787
2252.000000;3.647738
2251.000000;3.698470
2250.000000;3.469413
2249.000000;3.318207
2248.000000;3.342092
2247.000000;3.500668
2246.000000;3.454381
2245.000000;3.338138
2244.000000;3.463152
2243.000000;3.685727
2242.000000;3.454631
2241.000000;3.295998
2240.000000;3.300163
2239.000000;3.478746
2238.000000;4.044527
2237.000000;3.638103
2236.000000;3.334935
2235.000000;3.255144
2234.000000;3.201908
2233.000000;3.197886
2232.000000;3.239237
2231.000000;3.414701
2230.000000;3.430058
2229.000000;3.145622
2228.000000;3.009919
2227.000000;3.002249
2226.000000;3.046798
2225.000000;3.092572
2224.000000;3.171882
2223.000000;3.446650
2222.000000;3.555461
2221.000000;3.252163
2220.000000;3.123459
2219.000000;3.133225
2218.000000;3.262311
2217.000000;3.476553
2216.000000;3.601111
2215.000000;3.575959
2214.000000;3.527703
2213.000000;3.488819
2212.000000;3.514100
2211.000000;3.656357
2210.000000;3.742344
2209.000000;3.874707
2208.000000;3.972585
2207.000000;3.802986
2206.000000;3.655383
2205.000000;3.424266
2204.000000;3.192405
2203.000000;3.050863
2202.000000;3.028452
2201.000000;3.120089
2200.000000;3.424984
2199.000000;4.006039
2198.000000;3.749859
2197.000000;3.521502
2196.000000;3.378662
2195.000000;3.249097
2194.000000;3.152579
2193.000000;3.120989
2192.000000;3.225630
2191.000000;3.363615
2190.000000;3.320358
2189.000000;3.255857
2188.000000;3.241147
2187.000000;3.155354
2186.000000;3.048391
2185.000000;2.990677
2184.000000;2.992335
2183.000000;3.043658
2182.000000;3.125278
2181.000000;3.175910
2180.000000;3.202847
2179.000000;3.244440
2178.000000;3.390753
2177.000000;3.663060
2176.000000;3.377962
2175.000000;3.119289
2174.000000;3.073135
2173.000000;3.232593
2172.000000;3.684127
2171.000000;3.579689
2170.000000;3.322780
2169.000000;3.313812
2168.000000;3.344002
2167.000000;3.400638
2166.000000;3.486770
2165.000000;3.581278
2164.000000;3.629245
2163.000000;3.664549
2162.000000;3.586257
2161.000000;3.326185
2160.000000;3.155618
2159.000000;3.091853
2158.000000;3.105061
2157.000000;3.195288
2156.000000;3.391966
2155.000000;3.721244
2154.000000;3.754475
2153.000000;3.574329
2152.000000;3.576966
2151.000000;3.644477
2150.000000;3.623220
2149.000000;3.607295
2148.000000;3.549744
2147.000000;3.411580
2146.000000;3.337203
2145.000000;3.346749
2144.000000;3.413903
2143.000000;3.525645
2142.000000;3.605421
2141.000000;3.497832
2140.000000;3.314936
2139.000000;3.221459
2138.000000;3.224624
2137.000000;3.310041
2136.000000;3.492760
2135.000000;3.524721
2134.000000;3.324584
2133.000000;3.244321
2132.000000;3.306635
2131.000000;3.544132
2130.000000;3.883243
2129.000000;3.767250
2128.000000;3.726408
2127.000000;3.728478
2126.000000;3.591956
2125.000000;3.478260
2124.000000;3.420929
2123.000000;3.467269
2122.000000;3.529493
2121.000000;3.508541
2120.000000;3.522764
2119.000000;3.570146
2118.000000;3.705842
2117.000000;4.175245
2116.000000;4.035836
2115.000000;3.668443
2114.000000;3.566001
2113.000000;3.491131
2112.000000;3.468715
2111.000000;3.430624
2110.000000;3.317536
2109.000000;3.202891
2108.000000;3.132682
2107.000000;3.124190
2106.000000;3.160892
2105.000000;3.192672
2104.000000;3.198131
2103.000000;3.223635
2102.000000;3.300810
2101.000000;3.486032
2100.000000;3.520126
2099.000000;3.297023
2098.000000;3.216974
2097.000000;3.321508
2096.000000;3.414508
2095.000000;3.270025
2094.000000;3.184298
2093.000000;3.257295
2092.000000;3.551369
2091.000000;3.805026
2090.000000;3.630073
2089.000000;3.658250
2088.000000;3.606228
2087.000000;3.530422
2086.000000;3.533660
2085.000000;3.549047
2084.000000;3.820311
2083.000000;4.069285
2082.000000;3.632191
2081.000000;3.439210
2080.000000;3.428301
2079.000000;3.518554
2078.000000;3.556881
2077.000000;3.485780
2076.000000;3.484295
2075.000000;3.534711
2074.000000;3.551253
2073.000000;3.477246
2072.000000;3.367022
2071.000000;3.259686
2070.000000;3.149418
2069.000000;3.088931
2068.000000;3.135410
2067.000000;3.253835
2066.000000;3.264798
2065.000000;3.180149
2064.000000;3.153986
2063.000000;3.227215
2062.000000;3.378826
2061.000000;3.615163
2060.000000;3.841084
2059.000000;3.432238
2058.000000;3.159346
2057.000000;3.122211
2056.000000;3.303244
2055.000000;3.760538
2054.000000;3.637393
2053.000000;3.470216
2052.000000;3.614439
2051.000000;3.593634
2050.000000;3.540550
2049.000000;3.848197
2048.000000;3.993932
2047.000000;3.557875
2046.000000;3.426970
2045.000000;3.428303
2044.000000;3.554655
2043.000000;3.894367
2042.000000;3.764863
2041.000000;3.470455
2040.000000;3.474587
2039.000000;3.725166
2038.000000;3.945346
2037.000000;3.875151
2036.000000;3.860399
2035.000000;4.229360
2034.000000;4.136648
2033.000000;3.605740
2032.000000;3.468766
2031.000000;3.453029
2030.000000;3.488288
2029.000000;3.571579
2028.000000;3.534872
2027.000000;3.323651
2026.000000;3.144846
2025.000000;3.074575
2024.000000;3.110221
2023.000000;3.203909
2022.000000;3.251289
2021.000000;3.270741
2020.000000;3.235408
2019.000000;3.175196
2018.000000;3.218411
2017.000000;3.335100
2016.000000;3.438872
2015.000000;3.428112
2014.000000;3.645261
2013.000000;3.936741
2012.000000;3.361950
2011.000000;3.201539
2010.000000;3.274556
2009.000000;3.602197
2008.000000;3.828914
2007.000000;3.535433
2006.000000;3.720394
2005.000000;3.793780
2004.000000;3.356389
2003.000000;3.177395
2002.000000;3.193991
2001.000000;3.449059
2000.000000;4.071769
1999.000000;3.783387
1998.000000;3.713245
1997.000000;3.786217
1996.000000;3.345043
1995.000000;3.120267
1994.000000;3.071270
1993.000000;3.090747
1992.000000;3.147107
1991.000000;3.264951
1990.000000;3.615732
1989.000000;4.019353
1988.000000;3.652502
1987.000000;3.758203
1986.000000;3.706463
1985.000000;3.275167
1984.000000;3.086481
1983.000000;3.039513
1982.000000;3.110667
1981.000000;3.216122
1980.000000;3.239683
1979.000000;3.192047
1978.000000;3.210299
1977.000000;3.500641
1976.000000;3.929295
1975.000000;3.544586
1974.000000;3.491008
1973.000000;3.949084
1972.000000;3.718168
1971.000000;3.393699
1970.000000;3.336279
1969.000000;3.284624
1968.000000;3.230747
1967.000000;3.207726
1966.000000;3.229941
1965.000000;3.298780
1964.000000;3.401963
1963.000000;3.483456
1962.000000;3.503302
1961.000000;3.421223
1960.000000;3.226126
1959.000000;3.065431
1958.000000;2.984895
1957.000000;2.989499
1956.000000;3.087459
1955.000000;3.286983
1954.000000;3.743274
1953.000000;4.045995
1952.000000;3.654371
1951.000000;3.695050
1950.000000;3.963307
1949.000000;3.681935
1948.000000;3.407839
1947.000000;3.344202
1946.000000;3.496366
1945.000000;3.990174
1944.000000;3.676505
1943.000000;3.474856
1942.000000;3.636994
1941.000000;3.385433
1940.000000;3.034294
1939.000000;2.842861
1938.000000;2.767049
1937.000000;2.775554
1936.000000;2.848738
1935.000000;2.965758
1934.000000;3.072324
1933.000000;3.159598
1932.000000;3.345452
1931.000000;3.734757
1930.000000;3.838839
1929.000000;3.601869
1928.000000;3.568715
1927.000000;3.686721
1926.000000;3.972607
1925.000000;4.231224
1924.000000;3.960410
1923.000000;3.572653
1922.000000;3.384165
1921.000000;3.383977
1920.000000;3.584142
1919.000000;4.005367
1918.000000;3.772641
1917.000000;3.570024
1916.000000;3.760706
1915.000000;3.734401
1914.000000;3.307674
1913.000000;3.107073
1912.000000;3.082479
1911.000000;3.227695
1910.000000;3.504266
1909.000000;3.504101
1908.000000;3.400213
1907.000000;3.289140
1906.000000;3.157114
1905.000000;3.109160
1904.000000;3.162792
1903.000000;3.447999
1902.000000;3.616922
1901.000000;3.296882
1900.000000;3.242335
1899.000000;3.301600
1898.000000;3.416108
1897.000000;3.774183
1896.000000;3.844793
1895.000000;3.697732
1894.000000;3.845720
1893.000000;3.702724
1892.000000;3.548988
1891.000000;3.553100
1890.000000;3.432741
1889.000000;3.245091
1888.000000;3.122844
1887.000000;3.088590
1886.000000;3.119911
1885.000000;3.192166
1884.000000;3.265214
1883.000000;3.286660
1882.000000;3.305127
1881.000000;3.376856
1880.000000;3.403210
1879.000000;3.391034
1878.000000;3.574569
1877.000000;3.762981
1876.000000;3.536469
1875.000000;3.435894
1874.000000;3.435684
1873.000000;3.483835
1872.000000;3.555838
1871.000000;3.573908
1870.000000;3.563285
1869.000000;3.505810
1868.000000;3.393431
1867.000000;3.287598
1866.000000;3.242067
1865.000000;3.248466
1864.000000;3.283706
1863.000000;3.328656
1862.000000;3.348895
1861.000000;3.325000
1860.000000;3.252642
1859.000000;3.165614
1858.000000;3.144494
1857.000000;3.241896
1856.000000;3.467397
1855.000000;3.725260
1854.000000;3.772986
1853.000000;3.480655
1852.000000;3.204013
1851.000000;3.088427
1850.000000;3.108866
1849.000000;3.187615
1848.000000;3.200174
1847.000000;3.176627
1846.000000;3.181649
1845.000000;3.195624
1844.000000;3.241742
1843.000000;3.339859
1842.000000;3.479965
1841.000000;3.595282
1840.000000;3.441153
1839.000000;3.210911
1838.000000;3.118949
1837.000000;3.173675
1836.000000;3.355075
1835.000000;3.571898
1834.000000;3.714662
1833.000000;3.806384
1832.000000;3.782536
1831.000000;3.615243
1830.000000;3.389986
1829.000000;3.203352
1828.000000;3.107826
1827.000000;3.109680
1826.000000;3.204480
1825.000000;3.264487
1824.000000;3.196985
1823.000000;3.237704
1822.000000;3.318261
1821.000000;3.213021
1820.000000;3.164854
1819.000000;3.279585
1818.000000;3.506368
1817.000000;3.514495
1816.000000;3.351892
1815.000000;3.319475
1814.000000;3.354066
1813.000000;3.368731
1812.000000;3.360037
1811.000000;3.388361
1810.000000;3.452580
1809.000000;3.526240
1808.000000;3.610223
1807.000000;3.739853
1806.000000;3.782205
1805.000000;3.941046
1804.000000;4.613357
1803.000000;4.075064
1802.000000;3.765654
1801.000000;3.537731
1800.000000;3.325920
1799.000000;3.222224
1798.000000;3.173085
1797.000000;3.124399
1796.000000;3.088581
1795.000000;3.114359
1794.000000;3.201790
1793.000000;3.238946
1792.000000;3.179138
1791.000000;3.164902
1790.000000;3.272892
1789.000000;3.614184
1788.000000;3.806196
1787.000000;3.457168
1786.000000;3.292197
1785.000000;3.203023
1784.000000;3.153652
1783.000000;3.172296
1782.000000;3.267720
1781.000000;3.451007
1780.000000;3.758919
1779.000000;3.984611
1778.000000;3.736934
1777.000000;3.533483
1776.000000;3.426825
1775.000000;3.404071
1774.000000;3.410352
1773.000000;3.284870
1772.000000;3.163525
1771.000000;3.184661
1770.000000;3.252311
1769.000000;3.257322
1768.000000;3.254152
1767.000000;3.325300
1766.000000;3.525816
1765.000000;3.637907
1764.000000;3.662434
1763.000000;3.592217
1762.000000;3.348671
1761.000000;3.209194
1760.000000;3.301007
1759.000000;3.618236
1758.000000;3.597142
1757.000000;3.682568
1756.000000;3.661870
1755.000000;3.268775
1754.000000;3.146246
1753.000000;3.154621
1752.000000;3.204356
1751.000000;3.282705
1750.000000;3.361619
1749.000000;3.421639
1748.000000;3.502925
1747.000000;3.505929
1746.000000;3.392066
1745.000000;3.332234
1744.000000;3.254926
1743.000000;3.182859
1742.000000;3.204498
1741.000000;3.306634
1740.000000;3.443615
1739.000000;3.511472
1738.000000;3.478692
1737.000000;3.478341
1736.000000;3.525825
1735.000000;3.607379
1734.000000;3.553820
1733.000000;3.304203
1732.000000;3.204925
1731.000000;3.292278
1730.000000;3.481425
1729.000000;3.588597
1728.000000;3.515643
1727.000000;3.523866
1726.000000;3.650832
1725.000000;3.648312
1724.000000;3.360909
1723.000000;3.196633
1722.000000;3.181972
1721.000000;3.401206
1720.000000;4.040779
1719.000000;3.576107
1718.000000;3.241267
1717.000000;3.144337
1716.000000;3.159985
1715.000000;3.196317
1714.000000;3.168267
1713.000000;3.161776
1712.000000;3.229522
1711.000000;3.328207
1710.000000;3.367324
1709.000000;3.391711
1708.000000;3.386793
1707.000000;3.424552
1706.000000;3.514161
1705.000000;3.408347
1704.000000;3.270250
1703.000000;3.235009
1702.000000;3.235576
1701.000000;3.240307
1700.000000;3.251701
1699.000000;3.319562
1698.000000;3.462109
1697.000000;3.564909
1696.000000;3.742648
1695.000000;3.668578
1694.000000;3.429807
1693.000000;3.371383
1692.000000;3.284379
1691.000000;3.164278
1690.000000;3.091359
1689.000000;3.059990
1688.000000;3.082828
1687.000000;3.156795
1686.000000;3.277360
1685.000000;3.434618
1684.000000;3.655842
1683.000000;3.988079
1682.000000;3.847841
1681.000000;3.487361
1680.000000;3.254744
1679.000000;3.147432
1678.000000;3.176028
1677.000000;3.304257
1676.000000;3.458203
1675.000000;3.522565
1674.000000;3.487610
1673.000000;3.549150
1672.000000;3.700772
1671.000000;3.657785
1670.000000;3.576223
1669.000000;3.571463
1668.000000;3.591200
1667.000000;3.524854
1666.000000;3.378830
1665.000000;3.286893
1664.000000;3.233100
1663.000000;3.194047
1662.000000;3.176394
1661.000000;3.168339
1660.000000;3.173502
1659.000000;3.276915
1658.000000;3.412058
1657.000000;3.305547
1656.000000;3.188868
1655.000000;3.163796
1654.000000;3.274663
1653.000000;3.426881
1652.000000;3.152524
1651.000000;3.143881
1650.000000;3.367476
1649.000000;3.419173
1648.000000;3.405903
1647.000000;3.377567
1646.000000;3.525102
1645.000000;3.660842
1644.000000;3.648874
1643.000000;3.673973
1642.000000;3.478858
1641.000000;3.280859
1640.000000;3.173626
1639.000000;3.129166
1638.000000;3.122210
1637.000000;3.113708
1636.000000;3.112620
1635.000000;3.120149
1634.000000;3.127626
1633.000000;3.147574
1632.000000;3.219048
1631.000000;3.391570
1630.000000;3.612296
1629.000000;3.742400
1628.000000;3.513715
1627.000000;3.272699
1626.000000;3.218401
1625.000000;3.367574
1624.000000;3.677993
1623.000000;3.429003
1622.000000;3.240522
1621.000000;3.318496
1620.000000;3.519406
1619.000000;3.675440
1618.000000;3.440378
1617.000000;3.215228
1616.000000;3.155376
1615.000000;3.332356
1614.000000;3.870503
1613.000000;3.935745
1612.000000;3.608284
1611.000000;3.559049
1610.000000;3.516239
1609.000000;3.449037
1608.000000;3.437705
1607.000000;3.570698
1606.000000;3.899242
1605.000000;3.755774
1604.000000;3.530688
1603.000000;3.544883
1602.000000;3.750372
1601.000000;3.961537
1600.000000;3.660751
1599.000000;3.435888
1598.000000;3.407567
1597.000000;3.614911
1596.000000;3.608185
1595.000000;3.289135
1594.000000;3.186000
1593.000000;3.257300
1592.000000;3.406336
1591.000000;3.534883
1590.000000;3.608239
1589.000000;3.653755
1588.000000;3.687322
1587.000000;3.563226
1586.000000;3.553081
1585.000000;3.571699
1584.000000;3.319183
1583.000000;3.154375
1582.000000;3.100341
1581.000000;3.094876
1580.000000;3.106631
1579.000000;3.113489
1578.000000;3.132074
1577.000000;3.221535
1576.000000;3.369931
1575.000000;3.340915
1574.000000;3.373014
1573.000000;3.524216
1572.000000;3.693380
1571.000000;4.225949
1570.000000;3.726679
1569.000000;3.307119
1568.000000;3.207557
1567.000000;3.246771
1566.000000;3.326251
1565.000000;3.282989
1564.000000;3.182027
1563.000000;3.117711
1562.000000;3.116523
1561.000000;3.208961
1560.000000;3.443332
1559.000000;3.624810
1558.000000;3.321907
1557.000000;3.142440
1556.000000;3.077402
1555.000000;3.058308
1554.000000;3.085322
1553.000000;3.137700
1552.000000;3.228699
1551.000000;3.363345
1550.000000;3.568813
1549.000000;3.780389
1548.000000;3.578454
1547.000000;3.295209
1546.000000;3.183125
1545.000000;3.182061
1544.000000;3.229731
1543.000000;3.264618
1542.000000;3.212145
1541.000000;3.097313
1540.000000;3.043327
1539.000000;3.115044
1538.000000;3.163546
1537.000000;3.122604
1536.000000;3.116141
1535.000000;3.169184
1534.000000;3.247873
1533.000000;3.215261
1532.000000;3.115138
1531.000000;3.066510
1530.000000;3.064161
1529.000000;3.108494
1528.000000;3.194310
1527.000000;3.318220
1526.000000;3.523742
1525.000000;3.481963
1524.000000;3.243684
1523.000000;3.139278
1522.000000;3.083601
1521.000000;3.085142
1520.000000;3.196207
1519.000000;3.536508
1518.000000;4.074851
1517.000000;3.950248
1516.000000;3.920673
1515.000000;3.418699
1514.000000;3.096312
1513.000000;2.991023
1512.000000;3.009812
1511.000000;3.125113
1510.000000;3.224755
1509.000000;3.192469
1508.000000;3.068267
1507.000000;2.922937
1506.000000;2.882541
1505.000000;2.966450
1504.000000;3.034247
1503.000000;2.977242
1502.000000;2.934704
1501.000000;2.990466
1500.000000;3.203687
1499.000000;3.501914
1498.000000;3.416408
1497.000000;3.320252
1496.000000;3.500228
1495.000000;3.972931
1494.000000;3.637854
1493.000000;3.213761
1492.000000;3.036300
1491.000000;3.008827
1490.000000;3.081434
1489.000000;3.173566
1488.000000;3.218860
1487.000000;3.228722
1486.000000;3.373076
1485.000000;3.624491
1484.000000;3.432073
1483.000000;3.201126
1482.000000;3.012713
1481.000000;2.893546
1480.000000;2.892336
1479.000000;2.976175
1478.000000;3.054714
1477.000000;3.084147
1476.000000;3.133117
1475.000000;3.222107
1474.000000;3.282148
1473.000000;3.219046
1472.000000;3.279906
1471.000000;3.530998
1470.000000;3.360990
1469.000000;3.146641
1468.000000;3.080919
1467.000000;3.034215
1466.000000;3.011013
1465.000000;3.021146
1464.000000;3.079639
1463.000000;3.168996
1462.000000;3.202124
1461.000000;3.188697
1460.000000;3.199513
1459.000000;3.233024
1458.000000;3.258117
1457.000000;3.207141
1456.000000;3.098461
1455.000000;3.042979
1454.000000;3.061573
1453.000000;3.112452
1452.000000;3.156394
1451.000000;3.195720
1450.000000;3.250140
1449.000000;3.337504
1448.000000;3.416196
1447.000000;3.411083
1446.000000;3.451190
1445.000000;3.867593
1444.000000;3.734305
1443.000000;3.161943
1442.000000;2.963700
1441.000000;2.927583
1440.000000;3.028055
1439.000000;3.222218
1438.000000;3.402895
1437.000000;3.445457
1436.000000;3.417771
1435.000000;3.476685
1434.000000;3.644941
1433.000000;3.884080
1432.000000;3.427956
1431.000000;3.097733
1430.000000;2.982081
1429.000000;2.979914
1428.000000;3.034094
1427.000000;3.086297
1426.000000;3.139761
1425.000000;3.249043
1424.000000;3.381578
1423.000000;3.344198
1422.000000;3.270633
1421.000000;3.228819
1420.000000;3.145804
1419.000000;3.081128
1418.000000;3.074264
1417.000000;3.083519
1416.000000;3.071282
1415.000000;3.066364
1414.000000;3.122065
1413.000000;3.280661
1412.000000;3.353772
1411.000000;3.166703
1410.000000;3.018441
1409.000000;2.973993
1408.000000;3.037356
1407.000000;3.329815
1406.000000;3.567140
1405.000000;3.262008
1404.000000;3.154689
1403.000000;3.171468
1402.000000;3.269511
1401.000000;3.467337
1400.000000;3.432525
1399.000000;3.349277
1398.000000;3.320977
1397.000000;3.225861
1396.000000;3.148843
1395.000000;3.145837
1394.000000;3.183702
1393.000000;3.209722
1392.000000;3.227967
1391.000000;3.293678
1390.000000;3.405973
1389.000000;3.344991
1388.000000;3.145992
1387.000000;3.002156
1386.000000;2.925204
1385.000000;2.928103
1384.000000;3.005277
1383.000000;3.114753
1382.000000;3.188752
1381.000000;3.309779
1380.000000;3.749040
1379.000000;3.813807
1378.000000;3.438447
1377.000000;3.247812
1376.000000;3.074756
1375.000000;2.947009
1374.000000;2.885797
1373.000000;2.892821
1372.000000;2.964314
1371.000000;3.087704
1370.000000;3.334354
1369.000000;3.917550
1368.000000;3.815628
1367.000000;3.788346
1366.000000;4.206450
1365.000000;3.593882
1364.000000;3.343778
1363.000000;3.331242
1362.000000;3.370884
1361.000000;3.290384
1360.000000;3.169883
1359.000000;3.200321
1358.000000;3.383199
1357.000000;3.283273
1356.000000;3.105838
1355.000000;3.152020
1354.000000;3.227597
1353.000000;3.053661
1352.000000;2.888260
1351.000000;2.841952
1350.000000;2.880610
1349.000000;3.026692
1348.000000;3.347654
1347.000000;3.493208
1346.000000;3.321479
1345.000000;3.292418
1344.000000;3.328672
1343.000000;3.364356
1342.000000;3.452104
1341.000000;3.438836
1340.000000;3.207441
1339.000000;3.056325
1338.000000;3.040672
1337.000000;3.160945
1336.000000;3.321260
1335.000000;3.229019
1334.000000;3.114453
1333.000000;3.111153
1332.000000;3.255432
1331.000000;3.564004
1330.000000;3.272156
1329.000000;3.011433
1328.000000;2.988482
1327.000000;3.144274
1326.000000;3.630139
1325.000000;3.645374
1324.000000;3.341480
1323.000000;3.205316
1322.000000;3.096336
1321.000000;3.092330
1320.000000;3.287080
1319.000000;3.317892
1318.000000;2.985858
1317.000000;2.845172
1316.000000;2.841261
1315.000000;2.908777
1314.000000;3.006855
1313.000000;3.097521
1312.000000;3.204412
1311.000000;3.382398
1310.000000;3.582202
1309.000000;3.520889
1308.000000;3.360609
1307.000000;3.245940
1306.000000;3.230009
1305.000000;3.350381
1304.000000;3.470866
1303.000000;3.445486
1302.000000;3.433849
1301.000000;3.427998
1300.000000;3.377314
1299.000000;3.303888
1298.000000;3.199042
1297.000000;3.104014
1296.000000;3.055180
1295.000000;3.055620
1294.000000;3.101963
1293.000000;3.200991
1292.000000;3.374125
1291.000000;3.612434
1290.000000;3.609557
1289.000000;3.331612
1288.000000;3.143919
1287.000000;3.107571
1286.000000;3.226567
1285.000000;3.654142
1284.000000;4.529305
1283.000000;3.698219
1282.000000;3.360457
1281.000000;3.159422
1280.000000;3.108089
1279.000000;3.214169
1278.000000;3.322751
1277.000000;3.218234
1276.000000;3.132493
1275.000000;3.160484
1274.000000;3.237040
1273.000000;3.243043
1272.000000;3.076749
1271.000000;2.870020
1270.000000;2.760470
1269.000000;2.770033
1268.000000;2.942413
1267.000000;3.452946
1266.000000;3.549385
1265.000000;3.289742
1264.000000;3.295971
1263.000000;3.195192
1262.000000;2.999230
1261.000000;2.882756
1260.000000;2.891723
1259.000000;2.997492
1258.000000;3.125659
1257.000000;3.315812
1256.000000;3.760753
1255.000000;4.194789
1254.000000;3.677420
1253.000000;3.261790
1252.000000;2.969175
1251.000000;2.788660
1250.000000;2.737542
1249.000000;2.819117
1248.000000;2.962774
1247.000000;3.038844
1246.000000;3.107492
1245.000000;3.234729
1244.000000;3.176736
1243.000000;3.104608
1242.000000;3.209879
1241.000000;3.062023
1240.000000;2.821750
1239.000000;2.753012
1238.000000;2.828274
1237.000000;3.027776
1236.000000;3.306251
1235.000000;3.384707
1234.000000;3.342296
1233.000000;3.382916
1232.000000;3.726645
1231.000000;3.734996
1230.000000;3.032904
1229.000000;2.804242
1228.000000;2.765925
1227.000000;2.901364
1226.000000;3.228645
1225.000000;3.301812
1224.000000;3.168715
1223.000000;3.174081
1222.000000;3.170462
1221.000000;3.106573
1220.000000;3.021857
1219.000000;2.971658
1218.000000;2.957365
1217.000000;2.977956
1216.000000;3.017882
1215.000000;3.031270
1214.000000;3.072983
1213.000000;3.182720
1212.000000;3.262047
1211.000000;3.427406
1210.000000;3.798290
1209.000000;3.454941
1208.000000;3.231374
1207.000000;3.178312
1206.000000;3.119395
1205.000000;3.043039
1204.000000;3.036569
1203.000000;3.107287
1202.000000;3.166091
1201.000000;3.176712
1200.000000;3.192137
