Criado como novo conjunto de dados;"e2410_daniel_v2.spp","57964.8 Secs"
cm-1;Abs
10000.000000;1.230467
9999.000000;1.229157
9998.000000;1.227808
9997.000000;1.226555
9996.000000;1.224872
9995.000000;1.222929
9994.000000;1.221678
9993.000000;1.221570
9992.000000;1.222388
9991.000000;1.223240
9990.000000;1.223360
9989.000000;1.222607
9988.000000;1.221422
9987.000000;1.220313
9986.000000;1.219406
9985.000000;1.218534
9984.000000;1.217712
9983.000000;1.217308
9982.000000;1.217516
9981.000000;1.217834
9980.000000;1.217492
9979.000000;1.216423
9978.000000;1.215446
9977.000000;1.215348
9976.000000;1.216077
9975.000000;1.216957
9974.000000;1.217389
9973.000000;1.217194
9972.000000;1.216537
9971.000000;1.215714
9970.000000;1.214913
9969.000000;1.214061
9968.000000;1.212983
9967.000000;1.211694
9966.000000;1.210379
9965.000000;1.209194
9964.000000;1.208347
9963.000000;1.208232
9962.000000;1.209050
9961.000000;1.210295
9960.000000;1.211055
9959.000000;1.210938
9958.000000;1.210288
9957.000000;1.209385
9956.000000;1.207978
9955.000000;1.205930
9954.000000;1.203844
9953.000000;1.202571
9952.000000;1.202338
9951.000000;1.202692
9950.000000;1.203151
9949.000000;1.203601
9948.000000;1.204160
9947.000000;1.204795
9946.000000;1.205073
9945.000000;1.204347
9944.000000;1.202429
9943.000000;1.200118
9942.000000;1.198683
9941.000000;1.198669
9940.000000;1.199450
9939.000000;1.200025
9938.000000;1.199902
9937.000000;1.199098
9936.000000;1.197802
9935.000000;1.196449
9934.000000;1.195705
9933.000000;1.195837
9932.000000;1.196284
9931.000000;1.196247
9930.000000;1.195594
9929.000000;1.194773
9928.000000;1.193998
9927.000000;1.193036
9926.000000;1.191779
9925.000000;1.190581
9924.000000;1.189851
9923.000000;1.189592
9922.000000;1.189483
9921.000000;1.189256
9920.000000;1.188876
9919.000000;1.188428
9918.000000;1.187914
9917.000000;1.187194
9916.000000;1.186172
9915.000000;1.184990
9914.000000;1.183887
9913.000000;1.182855
9912.000000;1.181674
9911.000000;1.180361
9910.000000;1.179329
9909.000000;1.178912
9908.000000;1.178959
9907.000000;1.179089
9906.000000;1.179172
9905.000000;1.179302
9904.000000;1.179437
9903.000000;1.179336
9902.000000;1.178802
9901.000000;1.177821
9900.000000;1.176540
9899.000000;1.175358
9898.000000;1.174920
9897.000000;1.175694
9896.000000;1.177412
9895.000000;1.179055
9894.000000;1.179524
9893.000000;1.178412
9892.000000;1.176203
9891.000000;1.173843
9890.000000;1.172084
9889.000000;1.171103
9888.000000;1.170638
9887.000000;1.170463
9886.000000;1.170591
9885.000000;1.170997
9884.000000;1.171324
9883.000000;1.171103
9882.000000;1.170258
9881.000000;1.169219
9880.000000;1.168498
9879.000000;1.168252
9878.000000;1.168231
9877.000000;1.168083
9876.000000;1.167646
9875.000000;1.166967
9874.000000;1.166094
9873.000000;1.164997
9872.000000;1.163793
9871.000000;1.162908
9870.000000;1.162750
9869.000000;1.163165
9868.000000;1.163449
9867.000000;1.163027
9866.000000;1.161981
9865.000000;1.160781
9864.000000;1.159692
9863.000000;1.158653
9862.000000;1.157630
9861.000000;1.156773
9860.000000;1.156201
9859.000000;1.155841
9858.000000;1.155580
9857.000000;1.155471
9856.000000;1.155660
9855.000000;1.156111
9854.000000;1.156458
9853.000000;1.156215
9852.000000;1.155135
9851.000000;1.153391
9850.000000;1.151480
9849.000000;1.149984
9848.000000;1.149348
9847.000000;1.149654
9846.000000;1.150503
9845.000000;1.151193
9844.000000;1.151177
9843.000000;1.150384
9842.000000;1.149110
9841.000000;1.147727
9840.000000;1.146552
9839.000000;1.145805
9838.000000;1.145512
9837.000000;1.145514
9836.000000;1.145651
9835.000000;1.145834
9834.000000;1.145880
9833.000000;1.145515
9832.000000;1.144754
9831.000000;1.144047
9830.000000;1.143762
9829.000000;1.143680
9828.000000;1.143305
9827.000000;1.142561
9826.000000;1.141807
9825.000000;1.141231
9824.000000;1.140637
9823.000000;1.139910
9822.000000;1.139313
9821.000000;1.139131
9820.000000;1.139246
9819.000000;1.139244
9818.000000;1.138818
9817.000000;1.138006
9816.000000;1.137150
9815.000000;1.136615
9814.000000;1.136409
9813.000000;1.136120
9812.000000;1.135406
9811.000000;1.134472
9810.000000;1.133822
9809.000000;1.133602
9808.000000;1.133490
9807.000000;1.133193
9806.000000;1.132726
9805.000000;1.132151
9804.000000;1.131438
9803.000000;1.130709
9802.000000;1.130305
9801.000000;1.130380
9800.000000;1.130620
9799.000000;1.130535
9798.000000;1.129891
9797.000000;1.128782
9796.000000;1.127465
9795.000000;1.126285
9794.000000;1.125588
9793.000000;1.125502
9792.000000;1.125806
9791.000000;1.126063
9790.000000;1.125873
9789.000000;1.125084
9788.000000;1.123934
9787.000000;1.122931
9786.000000;1.122415
9785.000000;1.122187
9784.000000;1.121737
9783.000000;1.120819
9782.000000;1.119661
9781.000000;1.118669
9780.000000;1.118134
9779.000000;1.118148
9778.000000;1.118505
9777.000000;1.118652
9776.000000;1.118088
9775.000000;1.116911
9774.000000;1.115746
9773.000000;1.115084
9772.000000;1.114950
9771.000000;1.115176
9770.000000;1.115633
9769.000000;1.116100
9768.000000;1.116269
9767.000000;1.116064
9766.000000;1.115703
9765.000000;1.115279
9764.000000;1.114571
9763.000000;1.113422
9762.000000;1.112089
9761.000000;1.110996
9760.000000;1.110341
9759.000000;1.110075
9758.000000;1.110088
9757.000000;1.110241
9756.000000;1.110364
9755.000000;1.110319
9754.000000;1.109997
9753.000000;1.109255
9752.000000;1.108110
9751.000000;1.106994
9750.000000;1.106430
9749.000000;1.106341
9748.000000;1.106018
9747.000000;1.104995
9746.000000;1.103639
9745.000000;1.102607
9744.000000;1.102003
9743.000000;1.101435
9742.000000;1.100685
9741.000000;1.099951
9740.000000;1.099445
9739.000000;1.099103
9738.000000;1.098733
9737.000000;1.098299
9736.000000;1.097972
9735.000000;1.097970
9734.000000;1.098287
9733.000000;1.098531
9732.000000;1.098155
9731.000000;1.096993
9730.000000;1.095489
9729.000000;1.094282
9728.000000;1.093631
9727.000000;1.093322
9726.000000;1.093026
9725.000000;1.092618
9724.000000;1.092195
9723.000000;1.091921
9722.000000;1.091850
9721.000000;1.091846
9720.000000;1.091696
9719.000000;1.091334
9718.000000;1.090899
9717.000000;1.090565
9716.000000;1.090375
9715.000000;1.090213
9714.000000;1.089867
9713.000000;1.089158
9712.000000;1.088133
9711.000000;1.087106
9710.000000;1.086381
9709.000000;1.085929
9708.000000;1.085480
9707.000000;1.084889
9706.000000;1.084255
9705.000000;1.083741
9704.000000;1.083450
9703.000000;1.083428
9702.000000;1.083543
9701.000000;1.083436
9700.000000;1.082878
9699.000000;1.082170
9698.000000;1.081849
9697.000000;1.081973
9696.000000;1.082018
9695.000000;1.081577
9694.000000;1.080815
9693.000000;1.080074
9692.000000;1.079408
9691.000000;1.078750
9690.000000;1.078242
9689.000000;1.078078
9688.000000;1.078146
9687.000000;1.078095
9686.000000;1.077712
9685.000000;1.077047
9684.000000;1.076275
9683.000000;1.075592
9682.000000;1.075166
9681.000000;1.074998
9680.000000;1.074866
9679.000000;1.074510
9678.000000;1.073853
9677.000000;1.072995
9676.000000;1.072106
9675.000000;1.071355
9674.000000;1.070827
9673.000000;1.070446
9672.000000;1.070093
9671.000000;1.069823
9670.000000;1.069779
9669.000000;1.069874
9668.000000;1.069750
9667.000000;1.069179
9666.000000;1.068332
9665.000000;1.067533
9664.000000;1.066926
9663.000000;1.066518
9662.000000;1.066341
9661.000000;1.066375
9660.000000;1.066417
9659.000000;1.066211
9658.000000;1.065699
9657.000000;1.065040
9656.000000;1.064430
9655.000000;1.063934
9654.000000;1.063405
9653.000000;1.062565
9652.000000;1.061316
9651.000000;1.060020
9650.000000;1.059260
9649.000000;1.059213
9648.000000;1.059394
9647.000000;1.059177
9646.000000;1.058455
9645.000000;1.057674
9644.000000;1.057312
9643.000000;1.057430
9642.000000;1.057642
9641.000000;1.057436
9640.000000;1.056611
9639.000000;1.055478
9638.000000;1.054564
9637.000000;1.054092
9636.000000;1.053847
9635.000000;1.053545
9634.000000;1.053160
9633.000000;1.052840
9632.000000;1.052656
9631.000000;1.052530
9630.000000;1.052311
9629.000000;1.051871
9628.000000;1.051225
9627.000000;1.050576
9626.000000;1.050137
9625.000000;1.049904
9624.000000;1.049730
9623.000000;1.049563
9622.000000;1.049418
9621.000000;1.049132
9620.000000;1.048455
9619.000000;1.047429
9618.000000;1.046421
9617.000000;1.045711
9616.000000;1.045302
9615.000000;1.045183
9614.000000;1.045438
9613.000000;1.045919
9612.000000;1.046152
9611.000000;1.045814
9610.000000;1.045086
9609.000000;1.044306
9608.000000;1.043510
9607.000000;1.042586
9606.000000;1.041652
9605.000000;1.040944
9604.000000;1.040460
9603.000000;1.040013
9602.000000;1.039552
9601.000000;1.039163
9600.000000;1.038793
9599.000000;1.038274
9598.000000;1.037615
9597.000000;1.037018
9596.000000;1.036546
9595.000000;1.036004
9594.000000;1.035255
9593.000000;1.034488
9592.000000;1.034055
9591.000000;1.034102
9590.000000;1.034445
9589.000000;1.034742
9588.000000;1.034720
9587.000000;1.034255
9586.000000;1.033334
9585.000000;1.032052
9584.000000;1.030713
9583.000000;1.029803
9582.000000;1.029648
9581.000000;1.030048
9580.000000;1.030396
9579.000000;1.030263
9578.000000;1.029786
9577.000000;1.029391
9576.000000;1.029265
9575.000000;1.029228
9574.000000;1.029035
9573.000000;1.028617
9572.000000;1.028025
9571.000000;1.027272
9570.000000;1.026363
9569.000000;1.025469
9568.000000;1.024936
9567.000000;1.024983
9566.000000;1.025369
9565.000000;1.025522
9564.000000;1.025132
9563.000000;1.024467
9562.000000;1.023931
9561.000000;1.023455
9560.000000;1.022658
9559.000000;1.021546
9558.000000;1.020678
9557.000000;1.020488
9556.000000;1.020754
9555.000000;1.020914
9554.000000;1.020671
9553.000000;1.020106
9552.000000;1.019403
9551.000000;1.018738
9550.000000;1.018322
9549.000000;1.018262
9548.000000;1.018385
9547.000000;1.018360
9546.000000;1.018017
9545.000000;1.017429
9544.000000;1.016741
9543.000000;1.016094
9542.000000;1.015635
9541.000000;1.015418
9540.000000;1.015254
9539.000000;1.014815
9538.000000;1.013986
9537.000000;1.013013
9536.000000;1.012258
9535.000000;1.011862
9534.000000;1.011690
9533.000000;1.011555
9532.000000;1.011403
9531.000000;1.011263
9530.000000;1.011107
9529.000000;1.010818
9528.000000;1.010312
9527.000000;1.009644
9526.000000;1.008962
9525.000000;1.008411
9524.000000;1.008066
9523.000000;1.007906
9522.000000;1.007829
9521.000000;1.007736
9520.000000;1.007623
9519.000000;1.007521
9518.000000;1.007349
9517.000000;1.006946
9516.000000;1.006285
9515.000000;1.005499
9514.000000;1.004638
9513.000000;1.003573
9512.000000;1.002312
9511.000000;1.001249
9510.000000;1.000832
9509.000000;1.001040
9508.000000;1.001358
9507.000000;1.001293
9506.000000;1.000778
9505.000000;1.000121
9504.000000;0.999699
9503.000000;0.999686
9502.000000;0.999922
9501.000000;1.000103
9500.000000;1.000130
9499.000000;1.000182
9498.000000;1.000283
9497.000000;1.000041
9496.000000;0.999123
9495.000000;0.997852
9494.000000;0.996962
9493.000000;0.996767
9492.000000;0.996874
9491.000000;0.996731
9490.000000;0.996141
9489.000000;0.995210
9488.000000;0.994128
9487.000000;0.993155
9486.000000;0.992542
9485.000000;0.992288
9484.000000;0.992113
9483.000000;0.991801
9482.000000;0.991410
9481.000000;0.991103
9480.000000;0.990939
9479.000000;0.990887
9478.000000;0.990849
9477.000000;0.990612
9476.000000;0.989976
9475.000000;0.989007
9474.000000;0.987987
9473.000000;0.987104
9472.000000;0.986396
9471.000000;0.985996
9470.000000;0.986078
9469.000000;0.986438
9468.000000;0.986475
9467.000000;0.985847
9466.000000;0.984941
9465.000000;0.984434
9464.000000;0.984545
9463.000000;0.984921
9462.000000;0.985107
9461.000000;0.984900
9460.000000;0.984358
9459.000000;0.983699
9458.000000;0.983191
9457.000000;0.982957
9456.000000;0.982848
9455.000000;0.982607
9454.000000;0.982139
9453.000000;0.981550
9452.000000;0.981016
9451.000000;0.980654
9450.000000;0.980482
9449.000000;0.980356
9448.000000;0.980017
9447.000000;0.979274
9446.000000;0.978196
9445.000000;0.977108
9444.000000;0.976407
9443.000000;0.976301
9442.000000;0.976614
9441.000000;0.976867
9440.000000;0.976721
9439.000000;0.976311
9438.000000;0.976018
9437.000000;0.975945
9436.000000;0.975839
9435.000000;0.975540
9434.000000;0.975215
9433.000000;0.975062
9432.000000;0.974987
9431.000000;0.974736
9430.000000;0.974189
9429.000000;0.973388
9428.000000;0.972448
9427.000000;0.971562
9426.000000;0.970968
9425.000000;0.970726
9424.000000;0.970632
9423.000000;0.970475
9422.000000;0.970289
9421.000000;0.970209
9420.000000;0.970149
9419.000000;0.969790
9418.000000;0.968923
9417.000000;0.967717
9416.000000;0.966649
9415.000000;0.966148
9414.000000;0.966233
9413.000000;0.966471
9412.000000;0.966353
9411.000000;0.965742
9410.000000;0.964895
9409.000000;0.964116
9408.000000;0.963562
9407.000000;0.963360
9406.000000;0.963618
9405.000000;0.964198
9404.000000;0.964664
9403.000000;0.964623
9402.000000;0.964068
9401.000000;0.963273
9400.000000;0.962488
9399.000000;0.961830
9398.000000;0.961354
9397.000000;0.961064
9396.000000;0.960879
9395.000000;0.960668
9394.000000;0.960308
9393.000000;0.959722
9392.000000;0.958945
9391.000000;0.958200
9390.000000;0.957780
9389.000000;0.957786
9388.000000;0.958023
9387.000000;0.958191
9386.000000;0.958100
9385.000000;0.957711
9384.000000;0.957132
9383.000000;0.956602
9382.000000;0.956333
9381.000000;0.956289
9380.000000;0.956220
9379.000000;0.955986
9378.000000;0.955712
9377.000000;0.955546
9376.000000;0.955392
9375.000000;0.955015
9374.000000;0.954334
9373.000000;0.953492
9372.000000;0.952703
9371.000000;0.952103
9370.000000;0.951701
9369.000000;0.951397
9368.000000;0.951054
9367.000000;0.950594
9366.000000;0.950039
9365.000000;0.949508
9364.000000;0.949197
9363.000000;0.949259
9362.000000;0.949570
9361.000000;0.949705
9360.000000;0.949348
9359.000000;0.948707
9358.000000;0.948303
9357.000000;0.948327
9356.000000;0.948444
9355.000000;0.948239
9354.000000;0.947639
9353.000000;0.946803
9352.000000;0.945877
9351.000000;0.945026
9350.000000;0.944465
9349.000000;0.944239
9348.000000;0.944072
9347.000000;0.943671
9346.000000;0.943114
9345.000000;0.942783
9344.000000;0.942929
9343.000000;0.943396
9342.000000;0.943731
9341.000000;0.943517
9340.000000;0.942701
9339.000000;0.941687
9338.000000;0.941033
9337.000000;0.940958
9336.000000;0.941198
9335.000000;0.941371
9334.000000;0.941354
9333.000000;0.941233
9332.000000;0.941052
9331.000000;0.940778
9330.000000;0.940422
9329.000000;0.940019
9328.000000;0.939516
9327.000000;0.938826
9326.000000;0.938006
9325.000000;0.937265
9324.000000;0.936764
9323.000000;0.936462
9322.000000;0.936173
9321.000000;0.935735
9320.000000;0.935124
9319.000000;0.934430
9318.000000;0.933756
9317.000000;0.933188
9316.000000;0.932849
9315.000000;0.932880
9314.000000;0.933237
9313.000000;0.933581
9312.000000;0.933513
9311.000000;0.932947
9310.000000;0.932144
9309.000000;0.931394
9308.000000;0.930805
9307.000000;0.930415
9306.000000;0.930262
9305.000000;0.930242
9304.000000;0.930039
9303.000000;0.929402
9302.000000;0.928482
9301.000000;0.927788
9300.000000;0.927761
9299.000000;0.928386
9298.000000;0.929175
9297.000000;0.929564
9296.000000;0.929388
9295.000000;0.928980
9294.000000;0.928751
9293.000000;0.928708
9292.000000;0.928498
9291.000000;0.927878
9290.000000;0.926979
9289.000000;0.926100
9288.000000;0.925407
9287.000000;0.924926
9286.000000;0.924692
9285.000000;0.924736
9284.000000;0.924954
9283.000000;0.925082
9282.000000;0.924854
9281.000000;0.924219
9280.000000;0.923433
9279.000000;0.922895
9278.000000;0.922810
9277.000000;0.923018
9276.000000;0.923198
9275.000000;0.923181
9274.000000;0.922996
9273.000000;0.922677
9272.000000;0.922202
9271.000000;0.921607
9270.000000;0.921001
9269.000000;0.920448
9268.000000;0.919927
9267.000000;0.919417
9266.000000;0.918942
9265.000000;0.918564
9264.000000;0.918395
9263.000000;0.918545
9262.000000;0.918913
9261.000000;0.919104
9260.000000;0.918775
9259.000000;0.918067
9258.000000;0.917489
9257.000000;0.917331
9256.000000;0.917403
9255.000000;0.917396
9254.000000;0.917259
9253.000000;0.917098
9252.000000;0.916879
9251.000000;0.916443
9250.000000;0.915745
9249.000000;0.914946
9248.000000;0.914269
9247.000000;0.913844
9246.000000;0.913660
9245.000000;0.913630
9244.000000;0.913689
9243.000000;0.913822
9242.000000;0.913985
9241.000000;0.914042
9240.000000;0.913858
9239.000000;0.913416
9238.000000;0.912780
9237.000000;0.912016
9236.000000;0.911257
9235.000000;0.910753
9234.000000;0.910677
9233.000000;0.910892
9232.000000;0.911041
9231.000000;0.910868
9230.000000;0.910347
9229.000000;0.909592
9228.000000;0.908796
9227.000000;0.908210
9226.000000;0.907947
9225.000000;0.907842
9224.000000;0.907677
9223.000000;0.907474
9222.000000;0.907340
9221.000000;0.907109
9220.000000;0.906510
9219.000000;0.905704
9218.000000;0.905278
9217.000000;0.905542
9216.000000;0.906112
9215.000000;0.906377
9214.000000;0.906166
9213.000000;0.905743
9212.000000;0.905338
9211.000000;0.904926
9210.000000;0.904387
9209.000000;0.903660
9208.000000;0.902788
9207.000000;0.901967
9206.000000;0.901504
9205.000000;0.901581
9204.000000;0.902057
9203.000000;0.902568
9202.000000;0.902818
9201.000000;0.902736
9200.000000;0.902408
9199.000000;0.901942
9198.000000;0.901402
9197.000000;0.900858
9196.000000;0.900477
9195.000000;0.900439
9194.000000;0.900667
9193.000000;0.900759
9192.000000;0.900354
9191.000000;0.899520
9190.000000;0.898636
9189.000000;0.897951
9188.000000;0.897473
9187.000000;0.897221
9186.000000;0.897267
9185.000000;0.897505
9184.000000;0.897644
9183.000000;0.897558
9182.000000;0.897423
9181.000000;0.897395
9180.000000;0.897345
9179.000000;0.897045
9178.000000;0.896443
9177.000000;0.895671
9176.000000;0.894942
9175.000000;0.894497
9174.000000;0.894451
9173.000000;0.894589
9172.000000;0.894512
9171.000000;0.894096
9170.000000;0.893605
9169.000000;0.893266
9168.000000;0.892959
9167.000000;0.892508
9166.000000;0.892033
9165.000000;0.891801
9164.000000;0.891872
9163.000000;0.892103
9162.000000;0.892369
9161.000000;0.892558
9160.000000;0.892482
9159.000000;0.892022
9158.000000;0.891336
9157.000000;0.890748
9156.000000;0.890437
9155.000000;0.890359
9154.000000;0.890395
9153.000000;0.890433
9152.000000;0.890374
9151.000000;0.890191
9150.000000;0.889982
9149.000000;0.889841
9148.000000;0.889722
9147.000000;0.889509
9146.000000;0.889140
9145.000000;0.888594
9144.000000;0.887876
9143.000000;0.887149
9142.000000;0.886750
9141.000000;0.886870
9140.000000;0.887259
9139.000000;0.887413
9138.000000;0.887073
9137.000000;0.886412
9136.000000;0.885776
9135.000000;0.885365
9134.000000;0.885171
9133.000000;0.885082
9132.000000;0.885004
9131.000000;0.884941
9130.000000;0.884964
9129.000000;0.885055
9128.000000;0.885028
9127.000000;0.884692
9126.000000;0.884093
9125.000000;0.883496
9124.000000;0.883121
9123.000000;0.882944
9122.000000;0.882766
9121.000000;0.882444
9120.000000;0.882019
9119.000000;0.881652
9118.000000;0.881431
9117.000000;0.881258
9116.000000;0.880951
9115.000000;0.880440
9114.000000;0.879829
9113.000000;0.879295
9112.000000;0.878996
9111.000000;0.879044
9110.000000;0.879430
9109.000000;0.879944
9108.000000;0.880271
9107.000000;0.880238
9106.000000;0.879917
9105.000000;0.879478
9104.000000;0.879047
9103.000000;0.878737
9102.000000;0.878669
9101.000000;0.878859
9100.000000;0.879142
9099.000000;0.879304
9098.000000;0.879248
9097.000000;0.878976
9096.000000;0.878507
9095.000000;0.877883
9094.000000;0.877213
9093.000000;0.876628
9092.000000;0.876205
9091.000000;0.875971
9090.000000;0.875913
9089.000000;0.875940
9088.000000;0.875886
9087.000000;0.875621
9086.000000;0.875183
9085.000000;0.874762
9084.000000;0.874552
9083.000000;0.874599
9082.000000;0.874747
9081.000000;0.874768
9080.000000;0.874598
9079.000000;0.874385
9078.000000;0.874223
9077.000000;0.873910
9076.000000;0.873151
9075.000000;0.872024
9074.000000;0.871050
9073.000000;0.870696
9072.000000;0.870918
9071.000000;0.871277
9070.000000;0.871397
9069.000000;0.871231
9068.000000;0.870969
9067.000000;0.870785
9066.000000;0.870691
9065.000000;0.870555
9064.000000;0.870267
9063.000000;0.869867
9062.000000;0.869487
9061.000000;0.869203
9060.000000;0.869037
9059.000000;0.869062
9058.000000;0.869356
9057.000000;0.869785
9056.000000;0.870002
9055.000000;0.869752
9054.000000;0.869125
9053.000000;0.868437
9052.000000;0.867946
9051.000000;0.867721
9050.000000;0.867683
9049.000000;0.867668
9048.000000;0.867495
9047.000000;0.867084
9046.000000;0.866532
9045.000000;0.866044
9044.000000;0.865792
9043.000000;0.865824
9042.000000;0.866040
9041.000000;0.866240
9040.000000;0.866234
9039.000000;0.865942
9038.000000;0.865387
9037.000000;0.864669
9036.000000;0.863980
9035.000000;0.863595
9034.000000;0.863674
9033.000000;0.864078
9032.000000;0.864466
9031.000000;0.864609
9030.000000;0.864503
9029.000000;0.864232
9028.000000;0.863874
9027.000000;0.863566
9026.000000;0.863476
9025.000000;0.863580
9024.000000;0.863597
9023.000000;0.863284
9022.000000;0.862723
9021.000000;0.862214
9020.000000;0.861918
9019.000000;0.861696
9018.000000;0.861311
9017.000000;0.860711
9016.000000;0.860116
9015.000000;0.859842
9014.000000;0.860046
9013.000000;0.860605
9012.000000;0.861194
9011.000000;0.861474
9010.000000;0.861263
9009.000000;0.860660
9008.000000;0.860042
9007.000000;0.859791
9006.000000;0.859906
9005.000000;0.859972
9004.000000;0.859640
9003.000000;0.859056
9002.000000;0.858637
9001.000000;0.858530
9000.000000;0.858505
8999.000000;0.858352
8998.000000;0.858133
8997.000000;0.857978
8996.000000;0.857841
8995.000000;0.857576
8994.000000;0.857133
8993.000000;0.856585
8992.000000;0.856093
8991.000000;0.855856
8990.000000;0.855965
8989.000000;0.856232
8988.000000;0.856305
8987.000000;0.856040
8986.000000;0.855653
8985.000000;0.855426
8984.000000;0.855420
8983.000000;0.855516
8982.000000;0.855604
8981.000000;0.855611
8980.000000;0.855454
8979.000000;0.855110
8978.000000;0.854688
8977.000000;0.854354
8976.000000;0.854207
8975.000000;0.854240
8974.000000;0.854331
8973.000000;0.854258
8972.000000;0.853845
8971.000000;0.853165
8970.000000;0.852481
8969.000000;0.851948
8968.000000;0.851498
8967.000000;0.851085
8966.000000;0.850886
8965.000000;0.851079
8964.000000;0.851531
8963.000000;0.851861
8962.000000;0.851813
8961.000000;0.851442
8960.000000;0.850972
8959.000000;0.850570
8958.000000;0.850281
8957.000000;0.850079
8956.000000;0.849936
8955.000000;0.849856
8954.000000;0.849851
8953.000000;0.849884
8952.000000;0.849860
8951.000000;0.849697
8950.000000;0.849368
8949.000000;0.848896
8948.000000;0.848365
8947.000000;0.847925
8946.000000;0.847730
8945.000000;0.847804
8944.000000;0.848017
8943.000000;0.848187
8942.000000;0.848176
8941.000000;0.847926
8940.000000;0.847492
8939.000000;0.847065
8938.000000;0.846844
8937.000000;0.846844
8936.000000;0.846879
8935.000000;0.846765
8934.000000;0.846486
8933.000000;0.846150
8932.000000;0.845865
8931.000000;0.845689
8930.000000;0.845621
8929.000000;0.845600
8928.000000;0.845581
8927.000000;0.845614
8926.000000;0.845784
8925.000000;0.846022
8924.000000;0.846095
8923.000000;0.845838
8922.000000;0.845369
8921.000000;0.844985
8920.000000;0.844865
8919.000000;0.844886
8918.000000;0.844747
8917.000000;0.844268
8916.000000;0.843595
8915.000000;0.843084
8914.000000;0.842968
8913.000000;0.843164
8912.000000;0.843447
8911.000000;0.843693
8910.000000;0.843858
8909.000000;0.843824
8908.000000;0.843471
8907.000000;0.842879
8906.000000;0.842291
8905.000000;0.841821
8904.000000;0.841390
8903.000000;0.840982
8902.000000;0.840778
8901.000000;0.840926
8900.000000;0.841288
8899.000000;0.841551
8898.000000;0.841518
8897.000000;0.841216
8896.000000;0.840807
8895.000000;0.840494
8894.000000;0.840435
8893.000000;0.840606
8892.000000;0.840758
8891.000000;0.840615
8890.000000;0.840134
8889.000000;0.839544
8888.000000;0.839118
8887.000000;0.838985
8886.000000;0.839122
8885.000000;0.839424
8884.000000;0.839717
8883.000000;0.839756
8882.000000;0.839350
8881.000000;0.838582
8880.000000;0.837843
8879.000000;0.837531
8878.000000;0.837707
8877.000000;0.838076
8876.000000;0.838311
8875.000000;0.838306
8874.000000;0.838125
8873.000000;0.837859
8872.000000;0.837614
8871.000000;0.837497
8870.000000;0.837509
8869.000000;0.837531
8868.000000;0.837514
8867.000000;0.837567
8866.000000;0.837739
8865.000000;0.837860
8864.000000;0.837754
8863.000000;0.837517
8862.000000;0.837385
8861.000000;0.837381
8860.000000;0.837296
8859.000000;0.837007
8858.000000;0.836620
8857.000000;0.836290
8856.000000;0.836064
8855.000000;0.835941
8854.000000;0.835909
8853.000000;0.835919
8852.000000;0.835920
8851.000000;0.835932
8850.000000;0.835954
8849.000000;0.835841
8848.000000;0.835434
8847.000000;0.834840
8846.000000;0.834388
8845.000000;0.834285
8844.000000;0.834435
8843.000000;0.834621
8842.000000;0.834712
8841.000000;0.834656
8840.000000;0.834465
8839.000000;0.834262
8838.000000;0.834220
8837.000000;0.834362
8836.000000;0.834521
8835.000000;0.834522
8834.000000;0.834342
8833.000000;0.834066
8832.000000;0.833834
8831.000000;0.833816
8830.000000;0.834117
8829.000000;0.834614
8828.000000;0.835007
8827.000000;0.835067
8826.000000;0.834807
8825.000000;0.834418
8824.000000;0.834165
8823.000000;0.834300
8822.000000;0.834877
8821.000000;0.835599
8820.000000;0.835988
8819.000000;0.835784
8818.000000;0.835122
8817.000000;0.834338
8816.000000;0.833759
8815.000000;0.833643
8814.000000;0.834066
8813.000000;0.834762
8812.000000;0.835258
8811.000000;0.835321
8810.000000;0.835164
8809.000000;0.835084
8808.000000;0.835041
8807.000000;0.834755
8806.000000;0.834158
8805.000000;0.833561
8804.000000;0.833345
8803.000000;0.833577
8802.000000;0.833964
8801.000000;0.834137
8800.000000;0.833983
8799.000000;0.833682
8798.000000;0.833489
8797.000000;0.833509
8796.000000;0.833696
8795.000000;0.833953
8794.000000;0.834152
8793.000000;0.834162
8792.000000;0.833999
8791.000000;0.833891
8790.000000;0.834059
8789.000000;0.834440
8788.000000;0.834774
8787.000000;0.834915
8786.000000;0.834897
8785.000000;0.834745
8784.000000;0.834419
8783.000000;0.833996
8782.000000;0.833715
8781.000000;0.833746
8780.000000;0.834026
8779.000000;0.834380
8778.000000;0.834704
8777.000000;0.834998
8776.000000;0.835306
8775.000000;0.835645
8774.000000;0.835905
8773.000000;0.835864
8772.000000;0.835450
8771.000000;0.834956
8770.000000;0.834816
8769.000000;0.835152
8768.000000;0.835692
8767.000000;0.836157
8766.000000;0.836527
8765.000000;0.836868
8764.000000;0.837110
8763.000000;0.837115
8762.000000;0.836855
8761.000000;0.836450
8760.000000;0.836113
8759.000000;0.836086
8758.000000;0.836459
8757.000000;0.837000
8756.000000;0.837311
8755.000000;0.837248
8754.000000;0.837061
8753.000000;0.837080
8752.000000;0.837396
8751.000000;0.837884
8750.000000;0.838374
8749.000000;0.838691
8748.000000;0.838715
8747.000000;0.838531
8746.000000;0.838386
8745.000000;0.838385
8744.000000;0.838340
8743.000000;0.838041
8742.000000;0.837580
8741.000000;0.837274
8740.000000;0.837357
8739.000000;0.837821
8738.000000;0.838495
8737.000000;0.839149
8736.000000;0.839585
8735.000000;0.839732
8734.000000;0.839654
8733.000000;0.839457
8732.000000;0.839249
8731.000000;0.839159
8730.000000;0.839263
8729.000000;0.839448
8728.000000;0.839476
8727.000000;0.839276
8726.000000;0.839060
8725.000000;0.839076
8724.000000;0.839333
8723.000000;0.839645
8722.000000;0.839860
8721.000000;0.839971
8720.000000;0.840073
8719.000000;0.840293
8718.000000;0.840658
8717.000000;0.840986
8716.000000;0.840994
8715.000000;0.840595
8714.000000;0.840045
8713.000000;0.839722
8712.000000;0.839820
8711.000000;0.840266
8710.000000;0.840836
8709.000000;0.841299
8708.000000;0.841528
8707.000000;0.841558
8706.000000;0.841500
8705.000000;0.841389
8704.000000;0.841176
8703.000000;0.840902
8702.000000;0.840763
8701.000000;0.840957
8700.000000;0.841494
8699.000000;0.842170
8698.000000;0.842660
8697.000000;0.842705
8696.000000;0.842333
8695.000000;0.841903
8694.000000;0.841773
8693.000000;0.841911
8692.000000;0.841976
8691.000000;0.841784
8690.000000;0.841523
8689.000000;0.841435
8688.000000;0.841504
8687.000000;0.841555
8686.000000;0.841526
8685.000000;0.841483
8684.000000;0.841476
8683.000000;0.841513
8682.000000;0.841601
8681.000000;0.841706
8680.000000;0.841738
8679.000000;0.841654
8678.000000;0.841540
8677.000000;0.841500
8676.000000;0.841539
8675.000000;0.841577
8674.000000;0.841515
8673.000000;0.841270
8672.000000;0.840878
8671.000000;0.840571
8670.000000;0.840619
8669.000000;0.841001
8668.000000;0.841379
8667.000000;0.841481
8666.000000;0.841374
8665.000000;0.841267
8664.000000;0.841198
8663.000000;0.841076
8662.000000;0.840914
8661.000000;0.840816
8660.000000;0.840803
8659.000000;0.840806
8658.000000;0.840827
8657.000000;0.840923
8656.000000;0.841041
8655.000000;0.841000
8654.000000;0.840710
8653.000000;0.840312
8652.000000;0.840065
8651.000000;0.840097
8650.000000;0.840299
8649.000000;0.840422
8648.000000;0.840292
8647.000000;0.839954
8646.000000;0.839605
8645.000000;0.839395
8644.000000;0.839324
8643.000000;0.839328
8642.000000;0.839378
8641.000000;0.839463
8640.000000;0.839517
8639.000000;0.839450
8638.000000;0.839236
8637.000000;0.838961
8636.000000;0.838772
8635.000000;0.838769
8634.000000;0.838891
8633.000000;0.838937
8632.000000;0.838740
8631.000000;0.838327
8630.000000;0.837873
8629.000000;0.837510
8628.000000;0.837228
8627.000000;0.836971
8626.000000;0.836733
8625.000000;0.836574
8624.000000;0.836574
8623.000000;0.836762
8622.000000;0.837045
8621.000000;0.837243
8620.000000;0.837257
8619.000000;0.837166
8618.000000;0.837071
8617.000000;0.836909
8616.000000;0.836558
8615.000000;0.836063
8614.000000;0.835617
8613.000000;0.835300
8612.000000;0.835017
8611.000000;0.834714
8610.000000;0.834491
8609.000000;0.834445
8608.000000;0.834530
8607.000000;0.834640
8606.000000;0.834711
8605.000000;0.834703
8604.000000;0.834565
8603.000000;0.834303
8602.000000;0.834001
8601.000000;0.833732
8600.000000;0.833517
8599.000000;0.833377
8598.000000;0.833317
8597.000000;0.833243
8596.000000;0.833025
8595.000000;0.832686
8594.000000;0.832407
8593.000000;0.832312
8592.000000;0.832339
8591.000000;0.832359
8590.000000;0.832320
8589.000000;0.832226
8588.000000;0.832087
8587.000000;0.831943
8586.000000;0.831846
8585.000000;0.831757
8584.000000;0.831586
8583.000000;0.831337
8582.000000;0.831117
8581.000000;0.830947
8580.000000;0.830704
8579.000000;0.830331
8578.000000;0.829953
8577.000000;0.829706
8576.000000;0.829565
8575.000000;0.829431
8574.000000;0.829295
8573.000000;0.829206
8572.000000;0.829157
8571.000000;0.829117
8570.000000;0.829098
8569.000000;0.829112
8568.000000;0.829099
8567.000000;0.828988
8566.000000;0.828776
8565.000000;0.828490
8564.000000;0.828133
8563.000000;0.827726
8562.000000;0.827321
8561.000000;0.826955
8560.000000;0.826645
8559.000000;0.826475
8558.000000;0.826564
8557.000000;0.826872
8556.000000;0.827134
8555.000000;0.827102
8554.000000;0.826801
8553.000000;0.826445
8552.000000;0.826188
8551.000000;0.826013
8550.000000;0.825815
8549.000000;0.825472
8548.000000;0.824915
8547.000000;0.824235
8546.000000;0.823710
8545.000000;0.823592
8544.000000;0.823831
8543.000000;0.824090
8542.000000;0.824044
8541.000000;0.823674
8540.000000;0.823269
8539.000000;0.823174
8538.000000;0.823496
8537.000000;0.824017
8536.000000;0.824383
8535.000000;0.824371
8534.000000;0.823998
8533.000000;0.823433
8532.000000;0.822898
8531.000000;0.822615
8530.000000;0.822693
8529.000000;0.822995
8528.000000;0.823219
8527.000000;0.823149
8526.000000;0.822779
8525.000000;0.822224
8524.000000;0.821655
8523.000000;0.821323
8522.000000;0.821435
8521.000000;0.821845
8520.000000;0.822013
8519.000000;0.821491
8518.000000;0.820425
8517.000000;0.819431
8516.000000;0.818988
8515.000000;0.819090
8514.000000;0.819434
8513.000000;0.819766
8512.000000;0.819966
8511.000000;0.819950
8510.000000;0.819640
8509.000000;0.819054
8508.000000;0.818350
8507.000000;0.817774
8506.000000;0.817532
8505.000000;0.817663
8504.000000;0.817980
8503.000000;0.818168
8502.000000;0.818021
8501.000000;0.817617
8500.000000;0.817254
8499.000000;0.817168
8498.000000;0.817334
8497.000000;0.817510
8496.000000;0.817453
8495.000000;0.817075
8494.000000;0.816484
8493.000000;0.815921
8492.000000;0.815640
8491.000000;0.815712
8490.000000;0.815909
8489.000000;0.815900
8488.000000;0.815574
8487.000000;0.815136
8486.000000;0.814855
8485.000000;0.814811
8484.000000;0.814921
8483.000000;0.815076
8482.000000;0.815145
8481.000000;0.814962
8480.000000;0.814482
8479.000000;0.813890
8478.000000;0.813441
8477.000000;0.813220
8476.000000;0.813164
8475.000000;0.813224
8474.000000;0.813380
8473.000000;0.813522
8472.000000;0.813506
8471.000000;0.813338
8470.000000;0.813150
8469.000000;0.812990
8468.000000;0.812777
8467.000000;0.812467
8466.000000;0.812146
8465.000000;0.811915
8464.000000;0.811810
8463.000000;0.811839
8462.000000;0.811976
8461.000000;0.812084
8460.000000;0.811991
8459.000000;0.811694
8458.000000;0.811378
8457.000000;0.811187
8456.000000;0.811079
8455.000000;0.810960
8454.000000;0.810844
8453.000000;0.810799
8452.000000;0.810795
8451.000000;0.810712
8450.000000;0.810457
8449.000000;0.810046
8448.000000;0.809591
8447.000000;0.809246
8446.000000;0.809110
8445.000000;0.809150
8444.000000;0.809240
8443.000000;0.809261
8442.000000;0.809159
8441.000000;0.808918
8440.000000;0.808575
8439.000000;0.808242
8438.000000;0.808041
8437.000000;0.807972
8436.000000;0.807891
8435.000000;0.807639
8434.000000;0.807153
8433.000000;0.806516
8432.000000;0.805942
8431.000000;0.805658
8430.000000;0.805701
8429.000000;0.805834
8428.000000;0.805784
8427.000000;0.805532
8426.000000;0.805283
8425.000000;0.805196
8424.000000;0.805250
8423.000000;0.805359
8422.000000;0.805445
8421.000000;0.805390
8420.000000;0.805117
8419.000000;0.804755
8418.000000;0.804568
8417.000000;0.804632
8416.000000;0.804719
8415.000000;0.804587
8414.000000;0.804258
8413.000000;0.803923
8412.000000;0.803673
8411.000000;0.803468
8410.000000;0.803292
8409.000000;0.803185
8408.000000;0.803150
8407.000000;0.803127
8406.000000;0.803067
8405.000000;0.802963
8404.000000;0.802800
8403.000000;0.802559
8402.000000;0.802246
8401.000000;0.801892
8400.000000;0.801521
8399.000000;0.801179
8398.000000;0.800976
8397.000000;0.801005
8396.000000;0.801202
8395.000000;0.801354
8394.000000;0.801308
8393.000000;0.801130
8392.000000;0.801012
8391.000000;0.801028
8390.000000;0.801068
8389.000000;0.801015
8388.000000;0.800892
8387.000000;0.800758
8386.000000;0.800572
8385.000000;0.800260
8384.000000;0.799882
8383.000000;0.799576
8382.000000;0.799351
8381.000000;0.799074
8380.000000;0.798693
8379.000000;0.798336
8378.000000;0.798149
8377.000000;0.798160
8376.000000;0.798328
8375.000000;0.798572
8374.000000;0.798692
8373.000000;0.798460
8372.000000;0.797923
8371.000000;0.797450
8370.000000;0.797316
8369.000000;0.797377
8368.000000;0.797300
8367.000000;0.797012
8366.000000;0.796704
8365.000000;0.796498
8364.000000;0.796328
8363.000000;0.796125
8362.000000;0.795913
8361.000000;0.795734
8360.000000;0.795613
8359.000000;0.795580
8358.000000;0.795582
8357.000000;0.795430
8356.000000;0.794999
8355.000000;0.794466
8354.000000;0.794165
8353.000000;0.794201
8352.000000;0.794359
8351.000000;0.794383
8350.000000;0.794199
8349.000000;0.793884
8348.000000;0.793575
8347.000000;0.793409
8346.000000;0.793412
8345.000000;0.793425
8344.000000;0.793272
8343.000000;0.792972
8342.000000;0.792677
8341.000000;0.792440
8340.000000;0.792205
8339.000000;0.791974
8338.000000;0.791791
8337.000000;0.791585
8336.000000;0.791234
8335.000000;0.790816
8334.000000;0.790573
8333.000000;0.790585
8332.000000;0.790644
8331.000000;0.790527
8330.000000;0.790225
8329.000000;0.789861
8328.000000;0.789542
8327.000000;0.789344
8326.000000;0.789284
8325.000000;0.789243
8324.000000;0.789070
8323.000000;0.788804
8322.000000;0.788663
8321.000000;0.788741
8320.000000;0.788863
8319.000000;0.788826
8318.000000;0.788645
8317.000000;0.788452
8316.000000;0.788289
8315.000000;0.788086
8314.000000;0.787772
8313.000000;0.787333
8312.000000;0.786841
8311.000000;0.786456
8310.000000;0.786312
8309.000000;0.786353
8308.000000;0.786364
8307.000000;0.786207
8306.000000;0.785922
8305.000000;0.785598
8304.000000;0.785265
8303.000000;0.784969
8302.000000;0.784798
8301.000000;0.784771
8300.000000;0.784777
8299.000000;0.784710
8298.000000;0.784572
8297.000000;0.784410
8296.000000;0.784234
8295.000000;0.784048
8294.000000;0.783874
8293.000000;0.783688
8292.000000;0.783422
8291.000000;0.783069
8290.000000;0.782702
8289.000000;0.782372
8288.000000;0.782072
8287.000000;0.781833
8286.000000;0.781727
8285.000000;0.781727
8284.000000;0.781684
8283.000000;0.781493
8282.000000;0.781226
8281.000000;0.781014
8280.000000;0.780892
8279.000000;0.780785
8278.000000;0.780581
8277.000000;0.780191
8276.000000;0.779659
8275.000000;0.779196
8274.000000;0.779019
8273.000000;0.779106
8272.000000;0.779217
8271.000000;0.779157
8270.000000;0.778931
8269.000000;0.778629
8268.000000;0.778318
8267.000000;0.778087
8266.000000;0.778012
8265.000000;0.778011
8264.000000;0.777860
8263.000000;0.777471
8262.000000;0.777021
8261.000000;0.776731
8260.000000;0.776616
8259.000000;0.776542
8258.000000;0.776424
8257.000000;0.776260
8256.000000;0.776065
8255.000000;0.775876
8254.000000;0.775765
8253.000000;0.775756
8252.000000;0.775774
8251.000000;0.775727
8250.000000;0.775583
8249.000000;0.775312
8248.000000;0.774856
8247.000000;0.774256
8246.000000;0.773715
8245.000000;0.773441
8244.000000;0.773439
8243.000000;0.773532
8242.000000;0.773560
8241.000000;0.773483
8240.000000;0.773339
8239.000000;0.773180
8238.000000;0.773022
8237.000000;0.772834
8236.000000;0.772559
8235.000000;0.772184
8234.000000;0.771779
8233.000000;0.771457
8232.000000;0.771315
8231.000000;0.771365
8230.000000;0.771491
8229.000000;0.771482
8228.000000;0.771232
8227.000000;0.770868
8226.000000;0.770599
8225.000000;0.770452
8224.000000;0.770253
8223.000000;0.769906
8222.000000;0.769537
8221.000000;0.769328
8220.000000;0.769299
8219.000000;0.769318
8218.000000;0.769237
8217.000000;0.768975
8216.000000;0.768548
8215.000000;0.768076
8214.000000;0.767719
8213.000000;0.767545
8212.000000;0.767520
8211.000000;0.767599
8210.000000;0.767743
8209.000000;0.767835
8208.000000;0.767708
8207.000000;0.767318
8206.000000;0.766801
8205.000000;0.766319
8204.000000;0.765934
8203.000000;0.765665
8202.000000;0.765552
8201.000000;0.765569
8200.000000;0.765567
8199.000000;0.765410
8198.000000;0.765113
8197.000000;0.764780
8196.000000;0.764454
8195.000000;0.764095
8194.000000;0.763701
8193.000000;0.763373
8192.000000;0.763253
8191.000000;0.763378
8190.000000;0.763605
8189.000000;0.763700
8188.000000;0.763558
8187.000000;0.763316
8186.000000;0.763162
8185.000000;0.763067
8184.000000;0.762820
8183.000000;0.762330
8182.000000;0.761775
8181.000000;0.761405
8180.000000;0.761281
8179.000000;0.761266
8178.000000;0.761203
8177.000000;0.761040
8176.000000;0.760826
8175.000000;0.760634
8174.000000;0.760466
8173.000000;0.760234
8172.000000;0.759894
8171.000000;0.759574
8170.000000;0.759471
8169.000000;0.759611
8168.000000;0.759788
8167.000000;0.759763
8166.000000;0.759461
8165.000000;0.758949
8164.000000;0.758344
8163.000000;0.757772
8162.000000;0.757353
8161.000000;0.757138
8160.000000;0.757099
8159.000000;0.757150
8158.000000;0.757166
8157.000000;0.757007
8156.000000;0.756630
8155.000000;0.756160
8154.000000;0.755783
8153.000000;0.755573
8152.000000;0.755482
8151.000000;0.755476
8150.000000;0.755544
8149.000000;0.755602
8148.000000;0.755524
8147.000000;0.755291
8146.000000;0.754989
8145.000000;0.754666
8144.000000;0.754316
8143.000000;0.753994
8142.000000;0.753793
8141.000000;0.753673
8140.000000;0.753478
8139.000000;0.753166
8138.000000;0.752875
8137.000000;0.752697
8136.000000;0.752549
8135.000000;0.752356
8134.000000;0.752206
8133.000000;0.752182
8132.000000;0.752170
8131.000000;0.751994
8130.000000;0.751665
8129.000000;0.751360
8128.000000;0.751163
8127.000000;0.750981
8126.000000;0.750704
8125.000000;0.750347
8124.000000;0.750023
8123.000000;0.749838
8122.000000;0.749812
8121.000000;0.749865
8120.000000;0.749866
8119.000000;0.749727
8118.000000;0.749449
8117.000000;0.749106
8116.000000;0.748794
8115.000000;0.748572
8114.000000;0.748414
8113.000000;0.748215
8112.000000;0.747911
8111.000000;0.747581
8110.000000;0.747360
8109.000000;0.747270
8108.000000;0.747215
8107.000000;0.747132
8106.000000;0.747050
8105.000000;0.746979
8104.000000;0.746853
8103.000000;0.746615
8102.000000;0.746266
8101.000000;0.745830
8100.000000;0.745360
8099.000000;0.744985
8098.000000;0.744839
8097.000000;0.744889
8096.000000;0.744940
8095.000000;0.744854
8094.000000;0.744665
8093.000000;0.744453
8092.000000;0.744194
8091.000000;0.743823
8090.000000;0.743372
8089.000000;0.742964
8088.000000;0.742714
8087.000000;0.742643
8086.000000;0.742647
8085.000000;0.742544
8084.000000;0.742239
8083.000000;0.741866
8082.000000;0.741661
8081.000000;0.741661
8080.000000;0.741648
8079.000000;0.741428
8078.000000;0.741062
8077.000000;0.740746
8076.000000;0.740559
8075.000000;0.740419
8074.000000;0.740240
8073.000000;0.740018
8072.000000;0.739796
8071.000000;0.739604
8070.000000;0.739433
8069.000000;0.739243
8068.000000;0.739034
8067.000000;0.738885
8066.000000;0.738853
8065.000000;0.738832
8064.000000;0.738623
8063.000000;0.738166
8062.000000;0.737636
8061.000000;0.737250
8060.000000;0.737080
8059.000000;0.737074
8058.000000;0.737148
8057.000000;0.737185
8056.000000;0.737062
8055.000000;0.736769
8054.000000;0.736453
8053.000000;0.736249
8052.000000;0.736134
8051.000000;0.735996
8050.000000;0.735775
8049.000000;0.735472
8048.000000;0.735095
8047.000000;0.734689
8046.000000;0.734368
8045.000000;0.734212
8044.000000;0.734164
8043.000000;0.734116
8042.000000;0.734051
8041.000000;0.734017
8040.000000;0.733986
8039.000000;0.733828
8038.000000;0.733460
8037.000000;0.732965
8036.000000;0.732519
8035.000000;0.732260
8034.000000;0.732207
8033.000000;0.732273
8032.000000;0.732324
8031.000000;0.732225
8030.000000;0.731887
8029.000000;0.731322
8028.000000;0.730691
8027.000000;0.730247
8026.000000;0.730155
8025.000000;0.730339
8024.000000;0.730548
8023.000000;0.730587
8022.000000;0.730443
8021.000000;0.730195
8020.000000;0.729876
8019.000000;0.729470
8018.000000;0.728983
8017.000000;0.728466
8016.000000;0.728006
8015.000000;0.727679
8014.000000;0.727495
8013.000000;0.727362
8012.000000;0.727169
8011.000000;0.726909
8010.000000;0.726689
8009.000000;0.726594
8008.000000;0.726611
8007.000000;0.726689
8006.000000;0.726794
8005.000000;0.726855
8004.000000;0.726732
8003.000000;0.726321
8002.000000;0.725702
8001.000000;0.725102
8000.000000;0.724707
7999.000000;0.724536
7998.000000;0.724493
7997.000000;0.724495
7996.000000;0.724526
7995.000000;0.724571
7994.000000;0.724562
7993.000000;0.724424
7992.000000;0.724162
7991.000000;0.723859
7990.000000;0.723581
7989.000000;0.723325
7988.000000;0.723080
7987.000000;0.722859
7986.000000;0.722650
7985.000000;0.722417
7984.000000;0.722172
7983.000000;0.721973
7982.000000;0.721818
7981.000000;0.721602
7980.000000;0.721253
7979.000000;0.720826
7978.000000;0.720415
7977.000000;0.720030
7976.000000;0.719667
7975.000000;0.719392
7974.000000;0.719254
7973.000000;0.719171
7972.000000;0.719020
7971.000000;0.718806
7970.000000;0.718618
7969.000000;0.718462
7968.000000;0.718274
7967.000000;0.718076
7966.000000;0.717973
7965.000000;0.717980
7964.000000;0.717968
7963.000000;0.717811
7962.000000;0.717506
7961.000000;0.717147
7960.000000;0.716860
7959.000000;0.716734
7958.000000;0.716716
7957.000000;0.716595
7956.000000;0.716208
7955.000000;0.715645
7954.000000;0.715155
7953.000000;0.714862
7952.000000;0.714694
7951.000000;0.714549
7950.000000;0.714387
7949.000000;0.714179
7948.000000;0.713906
7947.000000;0.713654
7946.000000;0.713541
7945.000000;0.713544
7944.000000;0.713500
7943.000000;0.713316
7942.000000;0.713054
7941.000000;0.712785
7940.000000;0.712525
7939.000000;0.712316
7938.000000;0.712224
7937.000000;0.712183
7936.000000;0.712018
7935.000000;0.711681
7934.000000;0.711352
7933.000000;0.711199
7932.000000;0.711162
7931.000000;0.711055
7930.000000;0.710793
7929.000000;0.710423
7928.000000;0.710028
7927.000000;0.709677
7926.000000;0.709421
7925.000000;0.709255
7924.000000;0.709132
7923.000000;0.709052
7922.000000;0.709056
7921.000000;0.709091
7920.000000;0.708993
7919.000000;0.708664
7918.000000;0.708191
7917.000000;0.707730
7916.000000;0.707342
7915.000000;0.707016
7914.000000;0.706761
7913.000000;0.706599
7912.000000;0.706493
7911.000000;0.706365
7910.000000;0.706153
7909.000000;0.705830
7908.000000;0.705414
7907.000000;0.704995
7906.000000;0.704686
7905.000000;0.704520
7904.000000;0.704435
7903.000000;0.704381
7902.000000;0.704378
7901.000000;0.704424
7900.000000;0.704430
7899.000000;0.704294
7898.000000;0.704008
7897.000000;0.703657
7896.000000;0.703352
7895.000000;0.703169
7894.000000;0.703088
7893.000000;0.702984
7892.000000;0.702739
7891.000000;0.702392
7890.000000;0.702105
7889.000000;0.701977
7888.000000;0.701963
7887.000000;0.701986
7886.000000;0.702025
7885.000000;0.702056
7884.000000;0.702014
7883.000000;0.701851
7882.000000;0.701590
7881.000000;0.701259
7880.000000;0.700858
7879.000000;0.700409
7878.000000;0.700001
7877.000000;0.699728
7876.000000;0.699627
7875.000000;0.699665
7874.000000;0.699732
7873.000000;0.699677
7872.000000;0.699418
7871.000000;0.699035
7870.000000;0.698671
7869.000000;0.698368
7868.000000;0.698089
7867.000000;0.697867
7866.000000;0.697784
7865.000000;0.697792
7864.000000;0.697717
7863.000000;0.697493
7862.000000;0.697244
7861.000000;0.697083
7860.000000;0.696954
7859.000000;0.696756
7858.000000;0.696505
7857.000000;0.696268
7856.000000;0.696043
7855.000000;0.695817
7854.000000;0.695633
7853.000000;0.695522
7852.000000;0.695426
7851.000000;0.695279
7850.000000;0.695100
7849.000000;0.694926
7848.000000;0.694726
7847.000000;0.694472
7846.000000;0.694209
7845.000000;0.693990
7844.000000;0.693787
7843.000000;0.693558
7842.000000;0.693340
7841.000000;0.693180
7840.000000;0.693032
7839.000000;0.692825
7838.000000;0.692590
7837.000000;0.692427
7836.000000;0.692349
7835.000000;0.692271
7834.000000;0.692127
7833.000000;0.691936
7832.000000;0.691736
7831.000000;0.691531
7830.000000;0.691317
7829.000000;0.691118
7828.000000;0.690968
7827.000000;0.690862
7826.000000;0.690760
7825.000000;0.690623
7824.000000;0.690452
7823.000000;0.690265
7822.000000;0.690036
7821.000000;0.689710
7820.000000;0.689308
7819.000000;0.688979
7818.000000;0.688855
7817.000000;0.688886
7816.000000;0.688900
7815.000000;0.688821
7814.000000;0.688730
7813.000000;0.688692
7812.000000;0.688647
7811.000000;0.688526
7810.000000;0.688358
7809.000000;0.688195
7808.000000;0.688015
7807.000000;0.687783
7806.000000;0.687544
7805.000000;0.687359
7804.000000;0.687214
7803.000000;0.687061
7802.000000;0.686918
7801.000000;0.686851
7800.000000;0.686854
7799.000000;0.686819
7798.000000;0.686650
7797.000000;0.686361
7796.000000;0.686066
7795.000000;0.685867
7794.000000;0.685770
7793.000000;0.685692
7792.000000;0.685553
7791.000000;0.685355
7790.000000;0.685152
7789.000000;0.684975
7788.000000;0.684827
7787.000000;0.684721
7786.000000;0.684652
7785.000000;0.684551
7784.000000;0.684337
7783.000000;0.684010
7782.000000;0.683656
7781.000000;0.683354
7780.000000;0.683153
7779.000000;0.683095
7778.000000;0.683176
7777.000000;0.683278
7776.000000;0.683228
7775.000000;0.682967
7774.000000;0.682596
7773.000000;0.682245
7772.000000;0.681980
7771.000000;0.681815
7770.000000;0.681724
7769.000000;0.681615
7768.000000;0.681404
7767.000000;0.681143
7766.000000;0.680997
7765.000000;0.681044
7764.000000;0.681180
7763.000000;0.681244
7762.000000;0.681159
7761.000000;0.680935
7760.000000;0.680630
7759.000000;0.680352
7758.000000;0.680210
7757.000000;0.680190
7756.000000;0.680156
7755.000000;0.680025
7754.000000;0.679870
7753.000000;0.679800
7752.000000;0.679806
7751.000000;0.679786
7750.000000;0.679667
7749.000000;0.679448
7748.000000;0.679169
7747.000000;0.678900
7746.000000;0.678700
7745.000000;0.678568
7744.000000;0.678468
7743.000000;0.678413
7742.000000;0.678443
7741.000000;0.678513
7740.000000;0.678495
7739.000000;0.678342
7738.000000;0.678154
7737.000000;0.678034
7736.000000;0.677957
7735.000000;0.677856
7734.000000;0.677734
7733.000000;0.677616
7732.000000;0.677465
7731.000000;0.677253
7730.000000;0.677046
7729.000000;0.676940
7728.000000;0.676941
7727.000000;0.676989
7726.000000;0.677039
7725.000000;0.677046
7724.000000;0.676911
7723.000000;0.676559
7722.000000;0.676068
7721.000000;0.675643
7720.000000;0.675443
7719.000000;0.675465
7718.000000;0.675587
7717.000000;0.675675
7716.000000;0.675659
7715.000000;0.675562
7714.000000;0.675452
7713.000000;0.675357
7712.000000;0.675244
7711.000000;0.675101
7710.000000;0.674998
7709.000000;0.675023
7708.000000;0.675165
7707.000000;0.675310
7706.000000;0.675356
7705.000000;0.675285
7704.000000;0.675147
7703.000000;0.674987
7702.000000;0.674818
7701.000000;0.674648
7700.000000;0.674514
7699.000000;0.674441
7698.000000;0.674376
7697.000000;0.674220
7696.000000;0.673970
7695.000000;0.673771
7694.000000;0.673728
7693.000000;0.673734
7692.000000;0.673586
7691.000000;0.673277
7690.000000;0.673038
7689.000000;0.673049
7688.000000;0.673226
7687.000000;0.673353
7686.000000;0.673329
7685.000000;0.673205
7684.000000;0.673050
7683.000000;0.672893
7682.000000;0.672758
7681.000000;0.672675
7680.000000;0.672651
7679.000000;0.672680
7678.000000;0.672767
7677.000000;0.672886
7676.000000;0.672954
7675.000000;0.672883
7674.000000;0.672676
7673.000000;0.672429
7672.000000;0.672237
7671.000000;0.672127
7670.000000;0.672063
7669.000000;0.671984
7668.000000;0.671849
7667.000000;0.671669
7666.000000;0.671508
7665.000000;0.671435
7664.000000;0.671457
7663.000000;0.671498
7662.000000;0.671456
7661.000000;0.671312
7660.000000;0.671183
7659.000000;0.671217
7658.000000;0.671425
7657.000000;0.671639
7656.000000;0.671689
7655.000000;0.671569
7654.000000;0.671411
7653.000000;0.671313
7652.000000;0.671278
7651.000000;0.671273
7650.000000;0.671262
7649.000000;0.671179
7648.000000;0.670970
7647.000000;0.670666
7646.000000;0.670394
7645.000000;0.670263
7644.000000;0.670289
7643.000000;0.670408
7642.000000;0.670535
7641.000000;0.670612
7640.000000;0.670652
7639.000000;0.670715
7638.000000;0.670825
7637.000000;0.670915
7636.000000;0.670920
7635.000000;0.670867
7634.000000;0.670819
7633.000000;0.670779
7632.000000;0.670716
7631.000000;0.670670
7630.000000;0.670701
7629.000000;0.670784
7628.000000;0.670816
7627.000000;0.670762
7626.000000;0.670688
7625.000000;0.670658
7624.000000;0.670683
7623.000000;0.670764
7622.000000;0.670904
7621.000000;0.671054
7620.000000;0.671129
7619.000000;0.671107
7618.000000;0.671038
7617.000000;0.670975
7616.000000;0.670960
7615.000000;0.671045
7614.000000;0.671242
7613.000000;0.671452
7612.000000;0.671529
7611.000000;0.671442
7610.000000;0.671283
7609.000000;0.671125
7608.000000;0.670964
7607.000000;0.670811
7606.000000;0.670727
7605.000000;0.670767
7604.000000;0.670931
7603.000000;0.671206
7602.000000;0.671545
7601.000000;0.671825
7600.000000;0.671923
7599.000000;0.671856
7598.000000;0.671745
7597.000000;0.671651
7596.000000;0.671545
7595.000000;0.671454
7594.000000;0.671486
7593.000000;0.671659
7592.000000;0.671834
7591.000000;0.671879
7590.000000;0.671832
7589.000000;0.671824
7588.000000;0.671931
7587.000000;0.672131
7586.000000;0.672346
7585.000000;0.672480
7584.000000;0.672489
7583.000000;0.672458
7582.000000;0.672537
7581.000000;0.672757
7580.000000;0.672980
7579.000000;0.673057
7578.000000;0.672973
7577.000000;0.672818
7576.000000;0.672699
7575.000000;0.672704
7574.000000;0.672878
7573.000000;0.673171
7572.000000;0.673463
7571.000000;0.673667
7570.000000;0.673772
7569.000000;0.673779
7568.000000;0.673704
7567.000000;0.673645
7566.000000;0.673728
7565.000000;0.673955
7564.000000;0.674178
7563.000000;0.674268
7562.000000;0.674246
7561.000000;0.674208
7560.000000;0.674215
7559.000000;0.674313
7558.000000;0.674533
7557.000000;0.674823
7556.000000;0.675039
7555.000000;0.675090
7554.000000;0.675039
7553.000000;0.675022
7552.000000;0.675122
7551.000000;0.675349
7550.000000;0.675681
7549.000000;0.676052
7548.000000;0.676368
7547.000000;0.676572
7546.000000;0.676661
7545.000000;0.676653
7544.000000;0.676578
7543.000000;0.676514
7542.000000;0.676539
7541.000000;0.676641
7540.000000;0.676747
7539.000000;0.676858
7538.000000;0.677050
7537.000000;0.677336
7536.000000;0.677626
7535.000000;0.677867
7534.000000;0.678115
7533.000000;0.678419
7532.000000;0.678726
7531.000000;0.678953
7530.000000;0.679075
7529.000000;0.679111
7528.000000;0.679097
7527.000000;0.679125
7526.000000;0.679311
7525.000000;0.679653
7524.000000;0.679995
7523.000000;0.680190
7522.000000;0.680245
7521.000000;0.680257
7520.000000;0.680290
7519.000000;0.680359
7518.000000;0.680464
7517.000000;0.680588
7516.000000;0.680711
7515.000000;0.680863
7514.000000;0.681103
7513.000000;0.681408
7512.000000;0.681658
7511.000000;0.681782
7510.000000;0.681858
7509.000000;0.682021
7508.000000;0.682318
7507.000000;0.682670
7506.000000;0.682938
7505.000000;0.683019
7504.000000;0.682950
7503.000000;0.682914
7502.000000;0.683063
7501.000000;0.683337
7500.000000;0.683555
7499.000000;0.683681
7498.000000;0.683864
7497.000000;0.684223
7496.000000;0.684633
7495.000000;0.684929
7494.000000;0.685151
7493.000000;0.685304
7492.000000;0.685453
7491.000000;0.685611
7490.000000;0.685791
7489.000000;0.685967
7488.000000;0.686114
7487.000000;0.686273
7486.000000;0.686516
7485.000000;0.686811
7484.000000;0.687053
7483.000000;0.687242
7482.000000;0.687510
7481.000000;0.687909
7480.000000;0.688304
7479.000000;0.688553
7478.000000;0.688677
7477.000000;0.688775
7476.000000;0.688877
7475.000000;0.688977
7474.000000;0.689113
7473.000000;0.689322
7472.000000;0.689564
7471.000000;0.689784
7470.000000;0.689981
7469.000000;0.690163
7468.000000;0.690300
7467.000000;0.690392
7466.000000;0.690524
7465.000000;0.690774
7464.000000;0.691123
7463.000000;0.691487
7462.000000;0.691789
7461.000000;0.691973
7460.000000;0.692032
7459.000000;0.692061
7458.000000;0.692206
7457.000000;0.692515
7456.000000;0.692908
7455.000000;0.693310
7454.000000;0.693714
7453.000000;0.694095
7452.000000;0.694377
7451.000000;0.694536
7450.000000;0.694634
7449.000000;0.694714
7448.000000;0.694755
7447.000000;0.694775
7446.000000;0.694862
7445.000000;0.695065
7444.000000;0.695341
7443.000000;0.695648
7442.000000;0.695983
7441.000000;0.696283
7440.000000;0.696440
7439.000000;0.696486
7438.000000;0.696625
7437.000000;0.696972
7436.000000;0.697391
7435.000000;0.697676
7434.000000;0.697809
7433.000000;0.697926
7432.000000;0.698116
7431.000000;0.698367
7430.000000;0.698636
7429.000000;0.698883
7428.000000;0.699064
7427.000000;0.699157
7426.000000;0.699176
7425.000000;0.699151
7424.000000;0.699157
7423.000000;0.699347
7422.000000;0.699834
7421.000000;0.700502
7420.000000;0.701038
7419.000000;0.701240
7418.000000;0.701208
7417.000000;0.701182
7416.000000;0.701292
7415.000000;0.701526
7414.000000;0.701787
7413.000000;0.701935
7412.000000;0.701892
7411.000000;0.701775
7410.000000;0.701797
7409.000000;0.702003
7408.000000;0.702242
7407.000000;0.702435
7406.000000;0.702670
7405.000000;0.702985
7404.000000;0.703255
7403.000000;0.703407
7402.000000;0.703571
7401.000000;0.703885
7400.000000;0.704280
7399.000000;0.704566
7398.000000;0.704619
7397.000000;0.704460
7396.000000;0.704267
7395.000000;0.704287
7394.000000;0.704548
7393.000000;0.704746
7392.000000;0.704642
7391.000000;0.704434
7390.000000;0.704491
7389.000000;0.704843
7388.000000;0.705243
7387.000000;0.705659
7386.000000;0.706266
7385.000000;0.706956
7384.000000;0.707332
7383.000000;0.707310
7382.000000;0.707245
7381.000000;0.707298
7380.000000;0.707164
7379.000000;0.706755
7378.000000;0.706698
7377.000000;0.707563
7376.000000;0.708896
7375.000000;0.709636
7374.000000;0.709396
7373.000000;0.708835
7372.000000;0.708763
7371.000000;0.709325
7370.000000;0.710098
7369.000000;0.710570
7368.000000;0.710472
7367.000000;0.710015
7366.000000;0.709783
7365.000000;0.710151
7364.000000;0.710893
7363.000000;0.711541
7362.000000;0.711909
7361.000000;0.712025
7360.000000;0.711841
7359.000000;0.711459
7358.000000;0.711487
7357.000000;0.712434
7356.000000;0.713749
7355.000000;0.714224
7354.000000;0.713529
7353.000000;0.712683
7352.000000;0.712766
7351.000000;0.713806
7350.000000;0.715095
7349.000000;0.715928
7348.000000;0.715850
7347.000000;0.714894
7346.000000;0.713877
7345.000000;0.713771
7344.000000;0.714587
7343.000000;0.715522
7342.000000;0.716317
7341.000000;0.717502
7340.000000;0.718998
7339.000000;0.719645
7338.000000;0.718887
7337.000000;0.717976
7336.000000;0.718414
7335.000000;0.719954
7334.000000;0.721095
7333.000000;0.721077
7332.000000;0.720459
7331.000000;0.720114
7330.000000;0.720547
7329.000000;0.721770
7328.000000;0.723020
7327.000000;0.723132
7326.000000;0.722087
7325.000000;0.721500
7324.000000;0.722629
7323.000000;0.724603
7322.000000;0.725674
7321.000000;0.725576
7320.000000;0.725564
7319.000000;0.726437
7318.000000;0.727642
7317.000000;0.728372
7316.000000;0.728510
7315.000000;0.728365
7314.000000;0.728285
7313.000000;0.728690
7312.000000;0.729752
7311.000000;0.730851
7310.000000;0.731232
7309.000000;0.731245
7308.000000;0.731901
7307.000000;0.733175
7306.000000;0.733877
7305.000000;0.733499
7304.000000;0.733113
7303.000000;0.733849
7302.000000;0.735419
7301.000000;0.736741
7300.000000;0.737260
7299.000000;0.737104
7298.000000;0.736609
7297.000000;0.736411
7296.000000;0.737423
7295.000000;0.739732
7294.000000;0.741985
7293.000000;0.742791
7292.000000;0.742585
7291.000000;0.743133
7290.000000;0.745240
7289.000000;0.747913
7288.000000;0.749767
7287.000000;0.750452
7286.000000;0.750594
7285.000000;0.750890
7284.000000;0.751586
7283.000000;0.752520
7282.000000;0.753396
7281.000000;0.754075
7280.000000;0.754706
7279.000000;0.755571
7278.000000;0.756756
7277.000000;0.758102
7276.000000;0.759493
7275.000000;0.760950
7274.000000;0.762456
7273.000000;0.763876
7272.000000;0.765124
7271.000000;0.766300
7270.000000;0.767608
7269.000000;0.769127
7268.000000;0.770679
7267.000000;0.771970
7266.000000;0.772948
7265.000000;0.774008
7264.000000;0.775671
7263.000000;0.777963
7262.000000;0.780261
7261.000000;0.781935
7260.000000;0.783050
7259.000000;0.784212
7258.000000;0.785806
7257.000000;0.787689
7256.000000;0.789644
7255.000000;0.791762
7254.000000;0.794123
7253.000000;0.796389
7252.000000;0.798114
7251.000000;0.799366
7250.000000;0.800699
7249.000000;0.802469
7248.000000;0.804438
7247.000000;0.806149
7246.000000;0.807641
7245.000000;0.809609
7244.000000;0.812553
7243.000000;0.815901
7242.000000;0.818488
7241.000000;0.820044
7240.000000;0.821663
7239.000000;0.824404
7238.000000;0.827883
7237.000000;0.830770
7236.000000;0.832500
7235.000000;0.833987
7234.000000;0.836479
7233.000000;0.839944
7232.000000;0.843008
7231.000000;0.844628
7230.000000;0.845518
7229.000000;0.847495
7228.000000;0.851487
7227.000000;0.856487
7226.000000;0.860593
7225.000000;0.862955
7224.000000;0.864400
7223.000000;0.866338
7222.000000;0.869451
7221.000000;0.873338
7220.000000;0.877069
7219.000000;0.880030
7218.000000;0.882491
7217.000000;0.885330
7216.000000;0.889060
7215.000000;0.893282
7214.000000;0.897178
7213.000000;0.900412
7212.000000;0.903334
7211.000000;0.906418
7210.000000;0.909759
7209.000000;0.913238
7208.000000;0.916941
7207.000000;0.921112
7206.000000;0.925757
7205.000000;0.930480
7204.000000;0.934753
7203.000000;0.938377
7202.000000;0.941730
7201.000000;0.945461
7200.000000;0.949824
7199.000000;0.954388
7198.000000;0.958578
7197.000000;0.962390
7196.000000;0.966329
7195.000000;0.970671
7194.000000;0.975133
7193.000000;0.979423
7192.000000;0.983789
7191.000000;0.988644
7190.000000;0.993889
7189.000000;0.999007
7188.000000;1.003732
7187.000000;1.008190
7186.000000;1.012437
7185.000000;1.016436
7184.000000;1.020543
7183.000000;1.025417
7182.000000;1.031058
7181.000000;1.036518
7180.000000;1.041110
7179.000000;1.045487
7178.000000;1.050838
7177.000000;1.057284
7176.000000;1.063714
7175.000000;1.069113
7174.000000;1.073519
7173.000000;1.077692
7172.000000;1.082350
7171.000000;1.087866
7170.000000;1.094185
7169.000000;1.100722
7168.000000;1.106702
7167.000000;1.111814
7166.000000;1.116387
7165.000000;1.120909
7164.000000;1.125732
7163.000000;1.131157
7162.000000;1.137146
7161.000000;1.143012
7160.000000;1.148046
7159.000000;1.152589
7158.000000;1.157855
7157.000000;1.164431
7156.000000;1.171499
7155.000000;1.177879
7154.000000;1.183342
7153.000000;1.188500
7152.000000;1.193807
7151.000000;1.199191
7150.000000;1.204488
7149.000000;1.209751
7148.000000;1.215221
7147.000000;1.221173
7146.000000;1.227638
7145.000000;1.234138
7144.000000;1.239940
7143.000000;1.244826
7142.000000;1.249513
7141.000000;1.254968
7140.000000;1.261221
7139.000000;1.267202
7138.000000;1.271975
7137.000000;1.275907
7136.000000;1.280210
7135.000000;1.285469
7134.000000;1.291119
7133.000000;1.296393
7132.000000;1.301294
7131.000000;1.306416
7130.000000;1.312101
7129.000000;1.318140
7128.000000;1.324136
7127.000000;1.329837
7126.000000;1.335126
7125.000000;1.340089
7124.000000;1.345011
7123.000000;1.349938
7122.000000;1.354397
7121.000000;1.358008
7120.000000;1.361311
7119.000000;1.365318
7118.000000;1.370167
7117.000000;1.374964
7116.000000;1.379273
7115.000000;1.383977
7114.000000;1.389942
7113.000000;1.396433
7112.000000;1.401763
7111.000000;1.405292
7110.000000;1.408006
7109.000000;1.411137
7108.000000;1.414989
7107.000000;1.419222
7106.000000;1.423582
7105.000000;1.428002
7104.000000;1.432438
7103.000000;1.436983
7102.000000;1.441782
7101.000000;1.446595
7100.000000;1.450764
7099.000000;1.453844
7098.000000;1.456159
7097.000000;1.458612
7096.000000;1.461877
7095.000000;1.465855
7094.000000;1.469947
7093.000000;1.473807
7092.000000;1.477690
7091.000000;1.481981
7090.000000;1.486529
7089.000000;1.490660
7088.000000;1.493848
7087.000000;1.496189
7086.000000;1.498231
7085.000000;1.500567
7084.000000;1.503594
7083.000000;1.507261
7082.000000;1.510917
7081.000000;1.513811
7080.000000;1.515995
7079.000000;1.518356
7078.000000;1.521446
7077.000000;1.524652
7076.000000;1.526950
7075.000000;1.528271
7074.000000;1.529642
7073.000000;1.531957
7072.000000;1.535090
7071.000000;1.538342
7070.000000;1.541376
7069.000000;1.544336
7068.000000;1.547289
7067.000000;1.549949
7066.000000;1.552090
7065.000000;1.553989
7064.000000;1.556150
7063.000000;1.558553
7062.000000;1.560416
7061.000000;1.561014
7060.000000;1.560698
7059.000000;1.560724
7058.000000;1.562030
7057.000000;1.564483
7056.000000;1.567291
7055.000000;1.569766
7054.000000;1.571577
7053.000000;1.572682
7052.000000;1.573384
7051.000000;1.574356
7050.000000;1.576182
7049.000000;1.578758
7048.000000;1.581299
7047.000000;1.582990
7046.000000;1.583633
7045.000000;1.583771
7044.000000;1.584240
7043.000000;1.585464
7042.000000;1.587120
7041.000000;1.588557
7040.000000;1.589567
7039.000000;1.590603
7038.000000;1.592226
7037.000000;1.594550
7036.000000;1.597153
7035.000000;1.599296
7034.000000;1.600365
7033.000000;1.600481
7032.000000;1.600619
7031.000000;1.601659
7030.000000;1.603319
7029.000000;1.604508
7028.000000;1.604775
7027.000000;1.604796
7026.000000;1.605293
7025.000000;1.606191
7024.000000;1.607143
7023.000000;1.608184
7022.000000;1.609370
7021.000000;1.610318
7020.000000;1.610682
7019.000000;1.610699
7018.000000;1.610782
7017.000000;1.610981
7016.000000;1.611277
7015.000000;1.611921
7014.000000;1.612894
7013.000000;1.613491
7012.000000;1.613136
7011.000000;1.612312
7010.000000;1.611959
7009.000000;1.612221
7008.000000;1.612536
7007.000000;1.612753
7006.000000;1.613389
7005.000000;1.614687
7004.000000;1.616098
7003.000000;1.616907
7002.000000;1.616991
7001.000000;1.616839
7000.000000;1.617097
6999.000000;1.618103
6998.000000;1.619521
6997.000000;1.620430
6996.000000;1.620097
6995.000000;1.618748
6994.000000;1.617341
6993.000000;1.616663
6992.000000;1.616842
6991.000000;1.617516
6990.000000;1.618146
6989.000000;1.618353
6988.000000;1.618331
6987.000000;1.618781
6986.000000;1.620082
6985.000000;1.621708
6984.000000;1.622804
6983.000000;1.623146
6982.000000;1.623104
6981.000000;1.622922
6980.000000;1.622612
6979.000000;1.622350
6978.000000;1.622340
6977.000000;1.622353
6976.000000;1.622000
6975.000000;1.621455
6974.000000;1.621302
6973.000000;1.621569
6972.000000;1.621517
6971.000000;1.620650
6970.000000;1.619433
6969.000000;1.618691
6968.000000;1.618595
6967.000000;1.618577
6966.000000;1.618079
6965.000000;1.617107
6964.000000;1.616109
6963.000000;1.615497
6962.000000;1.615282
6961.000000;1.615094
6960.000000;1.614515
6959.000000;1.613408
6958.000000;1.612036
6957.000000;1.611000
6956.000000;1.610948
6955.000000;1.612060
6954.000000;1.613727
6953.000000;1.614994
6952.000000;1.615444
6951.000000;1.615415
6950.000000;1.615265
6949.000000;1.614886
6948.000000;1.614132
6947.000000;1.613275
6946.000000;1.612691
6945.000000;1.612292
6944.000000;1.611637
6943.000000;1.610476
6942.000000;1.608949
6941.000000;1.607513
6940.000000;1.606870
6939.000000;1.607505
6938.000000;1.608909
6937.000000;1.609672
6936.000000;1.608863
6935.000000;1.607098
6934.000000;1.605743
6933.000000;1.605346
6932.000000;1.605344
6931.000000;1.604999
6930.000000;1.604106
6929.000000;1.602889
6928.000000;1.601706
6927.000000;1.600913
6926.000000;1.600692
6925.000000;1.600909
6924.000000;1.601212
6923.000000;1.601144
6922.000000;1.600185
6921.000000;1.598192
6920.000000;1.596018
6919.000000;1.595093
6918.000000;1.595831
6917.000000;1.596909
6916.000000;1.596750
6915.000000;1.595370
6914.000000;1.593926
6913.000000;1.592793
6912.000000;1.591184
6911.000000;1.588676
6910.000000;1.586162
6909.000000;1.584899
6908.000000;1.585220
6907.000000;1.586424
6906.000000;1.587494
6905.000000;1.587693
6904.000000;1.586903
6903.000000;1.585695
6902.000000;1.584847
6901.000000;1.584586
6900.000000;1.584518
6899.000000;1.584342
6898.000000;1.584251
6897.000000;1.584436
6896.000000;1.584510
6895.000000;1.583768
6894.000000;1.582025
6893.000000;1.579998
6892.000000;1.578758
6891.000000;1.578792
6890.000000;1.579561
6889.000000;1.580028
6888.000000;1.579657
6887.000000;1.578767
6886.000000;1.577909
6885.000000;1.577175
6884.000000;1.576280
6883.000000;1.575090
6882.000000;1.573785
6881.000000;1.572597
6880.000000;1.571532
6879.000000;1.570264
6878.000000;1.568335
6877.000000;1.565739
6876.000000;1.563361
6875.000000;1.562390
6874.000000;1.563033
6873.000000;1.564180
6872.000000;1.564588
6871.000000;1.564108
6870.000000;1.563403
6869.000000;1.562876
6868.000000;1.562371
6867.000000;1.561643
6866.000000;1.560582
6865.000000;1.559106
6864.000000;1.557249
6863.000000;1.555341
6862.000000;1.553811
6861.000000;1.552861
6860.000000;1.552471
6859.000000;1.552408
6858.000000;1.552110
6857.000000;1.551036
6856.000000;1.549444
6855.000000;1.548364
6854.000000;1.548334
6853.000000;1.548576
6852.000000;1.547939
6851.000000;1.546343
6850.000000;1.544717
6849.000000;1.543795
6848.000000;1.543568
6847.000000;1.543627
6846.000000;1.543330
6845.000000;1.541825
6844.000000;1.538749
6843.000000;1.534976
6842.000000;1.532001
6841.000000;1.530432
6840.000000;1.529577
6839.000000;1.528585
6838.000000;1.527456
6837.000000;1.526691
6836.000000;1.526353
6835.000000;1.525842
6834.000000;1.524512
6833.000000;1.522321
6832.000000;1.519868
6831.000000;1.517764
6830.000000;1.516027
6829.000000;1.514290
6828.000000;1.512555
6827.000000;1.511292
6826.000000;1.510592
6825.000000;1.509734
6824.000000;1.508051
6823.000000;1.505854
6822.000000;1.503903
6821.000000;1.502260
6820.000000;1.500364
6819.000000;1.498042
6818.000000;1.495745
6817.000000;1.493771
6816.000000;1.491909
6815.000000;1.489951
6814.000000;1.488027
6813.000000;1.486284
6812.000000;1.484676
6811.000000;1.483218
6810.000000;1.482043
6809.000000;1.481045
6808.000000;1.479730
6807.000000;1.477584
6806.000000;1.474472
6805.000000;1.470797
6804.000000;1.467465
6803.000000;1.465418
6802.000000;1.464720
6801.000000;1.464202
6800.000000;1.462510
6799.000000;1.459485
6798.000000;1.456077
6797.000000;1.453029
6796.000000;1.450291
6795.000000;1.447700
6794.000000;1.445471
6793.000000;1.443722
6792.000000;1.442047
6791.000000;1.439978
6790.000000;1.437566
6789.000000;1.435201
6788.000000;1.433113
6787.000000;1.431309
6786.000000;1.429711
6785.000000;1.428072
6784.000000;1.425981
6783.000000;1.423236
6782.000000;1.420175
6781.000000;1.417392
6780.000000;1.415149
6779.000000;1.413185
6778.000000;1.411062
6777.000000;1.408595
6776.000000;1.405967
6775.000000;1.403453
6774.000000;1.401085
6773.000000;1.398653
6772.000000;1.396055
6771.000000;1.393478
6770.000000;1.391122
6769.000000;1.388936
6768.000000;1.386771
6767.000000;1.384618
6766.000000;1.382443
6765.000000;1.379964
6764.000000;1.376917
6763.000000;1.373485
6762.000000;1.370173
6761.000000;1.367257
6760.000000;1.364631
6759.000000;1.362185
6758.000000;1.360014
6757.000000;1.358164
6756.000000;1.356416
6755.000000;1.354434
6754.000000;1.352010
6753.000000;1.349127
6752.000000;1.345971
6751.000000;1.342883
6750.000000;1.340113
6749.000000;1.337573
6748.000000;1.334954
6747.000000;1.332127
6746.000000;1.329290
6745.000000;1.326707
6744.000000;1.324422
6743.000000;1.322255
6742.000000;1.319980
6741.000000;1.317551
6740.000000;1.315206
6739.000000;1.313230
6738.000000;1.311512
6737.000000;1.309509
6736.000000;1.306879
6735.000000;1.304010
6734.000000;1.301557
6733.000000;1.299529
6732.000000;1.297244
6731.000000;1.294268
6730.000000;1.291029
6729.000000;1.288275
6728.000000;1.286174
6727.000000;1.284233
6726.000000;1.281972
6725.000000;1.279426
6724.000000;1.276936
6723.000000;1.274691
6722.000000;1.272577
6721.000000;1.270379
6720.000000;1.267979
6719.000000;1.265336
6718.000000;1.262434
6717.000000;1.259382
6716.000000;1.256466
6715.000000;1.253947
6714.000000;1.251761
6713.000000;1.249573
6712.000000;1.247132
6711.000000;1.244430
6710.000000;1.241576
6709.000000;1.238721
6708.000000;1.236124
6707.000000;1.234021
6706.000000;1.232289
6705.000000;1.230401
6704.000000;1.228075
6703.000000;1.225524
6702.000000;1.223196
6701.000000;1.221042
6700.000000;1.218778
6699.000000;1.216454
6698.000000;1.214017
6697.000000;1.211337
6696.000000;1.208362
6695.000000;1.205442
6694.000000;1.202957
6693.000000;1.200789
6692.000000;1.198486
6691.000000;1.195934
6690.000000;1.193456
6689.000000;1.191221
6688.000000;1.188938
6687.000000;1.186299
6686.000000;1.183439
6685.000000;1.180743
6684.000000;1.178379
6683.000000;1.176189
6682.000000;1.173934
6681.000000;1.171542
6680.000000;1.169138
6679.000000;1.166910
6678.000000;1.164904
6677.000000;1.162956
6676.000000;1.160845
6675.000000;1.158490
6674.000000;1.155928
6673.000000;1.153221
6672.000000;1.150479
6671.000000;1.147898
6670.000000;1.145577
6669.000000;1.143362
6668.000000;1.141028
6667.000000;1.138573
6666.000000;1.136152
6665.000000;1.133780
6664.000000;1.131323
6663.000000;1.128775
6662.000000;1.126320
6661.000000;1.124054
6660.000000;1.121862
6659.000000;1.119638
6658.000000;1.117440
6657.000000;1.115345
6656.000000;1.113296
6655.000000;1.111212
6654.000000;1.109126
6653.000000;1.107123
6652.000000;1.105201
6651.000000;1.103294
6650.000000;1.101335
6649.000000;1.099255
6648.000000;1.096966
6647.000000;1.094462
6646.000000;1.091891
6645.000000;1.089458
6644.000000;1.087251
6643.000000;1.085174
6642.000000;1.083030
6641.000000;1.080682
6640.000000;1.078175
6639.000000;1.075728
6638.000000;1.073556
6637.000000;1.071669
6636.000000;1.069839
6635.000000;1.067775
6634.000000;1.065361
6633.000000;1.062746
6632.000000;1.060228
6631.000000;1.058007
6630.000000;1.056039
6629.000000;1.054116
6628.000000;1.052071
6627.000000;1.049879
6626.000000;1.047590
6625.000000;1.045274
6624.000000;1.043036
6623.000000;1.040991
6622.000000;1.039154
6621.000000;1.037415
6620.000000;1.035654
6619.000000;1.033836
6618.000000;1.031960
6617.000000;1.030009
6616.000000;1.027989
6615.000000;1.025917
6614.000000;1.023757
6613.000000;1.021435
6612.000000;1.018985
6611.000000;1.016556
6610.000000;1.014236
6609.000000;1.011982
6608.000000;1.009776
6607.000000;1.007702
6606.000000;1.005800
6605.000000;1.003962
6604.000000;1.002089
6603.000000;1.000225
6602.000000;0.998428
6601.000000;0.996636
6600.000000;0.994774
6599.000000;0.992896
6598.000000;0.991084
6597.000000;0.989274
6596.000000;0.987333
6595.000000;0.985232
6594.000000;0.983022
6593.000000;0.980723
6592.000000;0.978379
6591.000000;0.976152
6590.000000;0.974187
6589.000000;0.972434
6588.000000;0.970734
6587.000000;0.969030
6586.000000;0.967347
6585.000000;0.965624
6584.000000;0.963741
6583.000000;0.961713
6582.000000;0.959704
6581.000000;0.957825
6580.000000;0.956047
6579.000000;0.954303
6578.000000;0.952577
6577.000000;0.950845
6576.000000;0.949047
6575.000000;0.947145
6574.000000;0.945153
6573.000000;0.943110
6572.000000;0.941084
6571.000000;0.939162
6570.000000;0.937382
6569.000000;0.935667
6568.000000;0.933911
6567.000000;0.932091
6566.000000;0.930244
6565.000000;0.928373
6564.000000;0.926472
6563.000000;0.924599
6562.000000;0.922834
6561.000000;0.921169
6560.000000;0.919521
6559.000000;0.917839
6558.000000;0.916126
6557.000000;0.914392
6556.000000;0.912647
6555.000000;0.910920
6554.000000;0.909226
6553.000000;0.907527
6552.000000;0.905809
6551.000000;0.904119
6550.000000;0.902484
6549.000000;0.900823
6548.000000;0.899036
6547.000000;0.897139
6546.000000;0.895235
6545.000000;0.893418
6544.000000;0.891763
6543.000000;0.890339
6542.000000;0.889105
6541.000000;0.887821
6540.000000;0.886213
6539.000000;0.884239
6538.000000;0.882126
6537.000000;0.880150
6536.000000;0.878440
6535.000000;0.876939
6534.000000;0.875475
6533.000000;0.873877
6532.000000;0.872131
6531.000000;0.870403
6530.000000;0.868850
6529.000000;0.867436
6528.000000;0.866003
6527.000000;0.864470
6526.000000;0.862883
6525.000000;0.861297
6524.000000;0.859727
6523.000000;0.858194
6522.000000;0.856722
6521.000000;0.855292
6520.000000;0.853851
6519.000000;0.852365
6518.000000;0.850796
6517.000000;0.849097
6516.000000;0.847287
6515.000000;0.845511
6514.000000;0.843919
6513.000000;0.842509
6512.000000;0.841151
6511.000000;0.839738
6510.000000;0.838253
6509.000000;0.836715
6508.000000;0.835155
6507.000000;0.833607
6506.000000;0.832081
6505.000000;0.830547
6504.000000;0.829013
6503.000000;0.827551
6502.000000;0.826163
6501.000000;0.824723
6500.000000;0.823136
6499.000000;0.821501
6498.000000;0.819988
6497.000000;0.818611
6496.000000;0.817254
6495.000000;0.815864
6494.000000;0.814494
6493.000000;0.813143
6492.000000;0.811718
6491.000000;0.810181
6490.000000;0.808621
6489.000000;0.807148
6488.000000;0.805796
6487.000000;0.804543
6486.000000;0.803347
6485.000000;0.802140
6484.000000;0.800863
6483.000000;0.799513
6482.000000;0.798105
6481.000000;0.796608
6480.000000;0.795007
6479.000000;0.793401
6478.000000;0.791949
6477.000000;0.790683
6476.000000;0.789483
6475.000000;0.788220
6474.000000;0.786859
6473.000000;0.785429
6472.000000;0.783993
6471.000000;0.782655
6470.000000;0.781497
6469.000000;0.780455
6468.000000;0.779341
6467.000000;0.778033
6466.000000;0.776587
6465.000000;0.775149
6464.000000;0.773793
6463.000000;0.772485
6462.000000;0.771143
6461.000000;0.769720
6460.000000;0.768254
6459.000000;0.766833
6458.000000;0.765496
6457.000000;0.764180
6456.000000;0.762826
6455.000000;0.761489
6454.000000;0.760285
6453.000000;0.759217
6452.000000;0.758150
6451.000000;0.756956
6450.000000;0.755623
6449.000000;0.754225
6448.000000;0.752847
6447.000000;0.751571
6446.000000;0.750455
6445.000000;0.749463
6444.000000;0.748464
6443.000000;0.747346
6442.000000;0.746121
6441.000000;0.744894
6440.000000;0.743746
6439.000000;0.742657
6438.000000;0.741551
6437.000000;0.740392
6436.000000;0.739217
6435.000000;0.738070
6434.000000;0.736934
6433.000000;0.735734
6432.000000;0.734433
6431.000000;0.733066
6430.000000;0.731702
6429.000000;0.730400
6428.000000;0.729207
6427.000000;0.728120
6426.000000;0.727060
6425.000000;0.725931
6424.000000;0.724735
6423.000000;0.723554
6422.000000;0.722412
6421.000000;0.721240
6420.000000;0.720009
6419.000000;0.718816
6418.000000;0.717756
6417.000000;0.716798
6416.000000;0.715850
6415.000000;0.714888
6414.000000;0.713925
6413.000000;0.712917
6412.000000;0.711800
6411.000000;0.710590
6410.000000;0.709375
6409.000000;0.708210
6408.000000;0.707098
6407.000000;0.706018
6406.000000;0.704944
6405.000000;0.703853
6404.000000;0.702779
6403.000000;0.701793
6402.000000;0.700876
6401.000000;0.699881
6400.000000;0.698704
6399.000000;0.697437
6398.000000;0.696255
6397.000000;0.695208
6396.000000;0.694220
6395.000000;0.693256
6394.000000;0.692355
6393.000000;0.691510
6392.000000;0.690643
6391.000000;0.689699
6390.000000;0.688705
6389.000000;0.687704
6388.000000;0.686713
6387.000000;0.685734
6386.000000;0.684755
6385.000000;0.683729
6384.000000;0.682634
6383.000000;0.681525
6382.000000;0.680484
6381.000000;0.679513
6380.000000;0.678548
6379.000000;0.677544
6378.000000;0.676510
6377.000000;0.675461
6376.000000;0.674419
6375.000000;0.673431
6374.000000;0.672509
6373.000000;0.671597
6372.000000;0.670647
6371.000000;0.669696
6370.000000;0.668807
6369.000000;0.667948
6368.000000;0.667034
6367.000000;0.666049
6366.000000;0.665035
6365.000000;0.663998
6364.000000;0.662919
6363.000000;0.661853
6362.000000;0.660915
6361.000000;0.660137
6360.000000;0.659431
6359.000000;0.658696
6358.000000;0.657892
6357.000000;0.657024
6356.000000;0.656111
6355.000000;0.655199
6354.000000;0.654311
6353.000000;0.653409
6352.000000;0.652453
6351.000000;0.651500
6350.000000;0.650638
6349.000000;0.649845
6348.000000;0.649014
6347.000000;0.648108
6346.000000;0.647204
6345.000000;0.646353
6344.000000;0.645514
6343.000000;0.644643
6342.000000;0.643764
6341.000000;0.642917
6340.000000;0.642097
6339.000000;0.641297
6338.000000;0.640527
6337.000000;0.639757
6336.000000;0.638915
6335.000000;0.637990
6334.000000;0.637080
6333.000000;0.636276
6332.000000;0.635549
6331.000000;0.634781
6330.000000;0.633896
6329.000000;0.632920
6328.000000;0.631939
6327.000000;0.631030
6326.000000;0.630204
6325.000000;0.629410
6324.000000;0.628597
6323.000000;0.627778
6322.000000;0.626998
6321.000000;0.626259
6320.000000;0.625507
6319.000000;0.624701
6318.000000;0.623854
6317.000000;0.623006
6316.000000;0.622212
6315.000000;0.621526
6314.000000;0.620935
6313.000000;0.620332
6312.000000;0.619601
6311.000000;0.618753
6310.000000;0.617902
6309.000000;0.617112
6308.000000;0.616322
6307.000000;0.615465
6306.000000;0.614577
6305.000000;0.613761
6304.000000;0.613070
6303.000000;0.612471
6302.000000;0.611886
6301.000000;0.611251
6300.000000;0.610537
6299.000000;0.609754
6298.000000;0.608951
6297.000000;0.608180
6296.000000;0.607482
6295.000000;0.606854
6294.000000;0.606233
6293.000000;0.605539
6292.000000;0.604755
6291.000000;0.603957
6290.000000;0.603224
6289.000000;0.602554
6288.000000;0.601905
6287.000000;0.601277
6286.000000;0.600686
6285.000000;0.600077
6284.000000;0.599355
6283.000000;0.598502
6282.000000;0.597599
6281.000000;0.596748
6280.000000;0.596009
6279.000000;0.595410
6278.000000;0.594930
6277.000000;0.594448
6276.000000;0.593802
6275.000000;0.592953
6274.000000;0.592043
6273.000000;0.591244
6272.000000;0.590595
6271.000000;0.590011
6270.000000;0.589423
6269.000000;0.588834
6268.000000;0.588270
6267.000000;0.587715
6266.000000;0.587133
6265.000000;0.586510
6264.000000;0.585868
6263.000000;0.585235
6262.000000;0.584609
6261.000000;0.583957
6260.000000;0.583260
6259.000000;0.582518
6258.000000;0.581744
6257.000000;0.580956
6256.000000;0.580199
6255.000000;0.579530
6254.000000;0.578944
6253.000000;0.578366
6252.000000;0.577725
6251.000000;0.577034
6250.000000;0.576348
6249.000000;0.575691
6248.000000;0.575048
6247.000000;0.574417
6246.000000;0.573810
6245.000000;0.573229
6244.000000;0.572672
6243.000000;0.572150
6242.000000;0.571657
6241.000000;0.571150
6240.000000;0.570587
6239.000000;0.569976
6238.000000;0.569343
6237.000000;0.568685
6236.000000;0.568002
6235.000000;0.567339
6234.000000;0.566756
6233.000000;0.566235
6232.000000;0.565703
6231.000000;0.565103
6230.000000;0.564430
6229.000000;0.563698
6228.000000;0.562940
6227.000000;0.562225
6226.000000;0.561621
6225.000000;0.561119
6224.000000;0.560634
6223.000000;0.560103
6222.000000;0.559533
6221.000000;0.558962
6220.000000;0.558415
6219.000000;0.557903
6218.000000;0.557414
6217.000000;0.556914
6216.000000;0.556368
6215.000000;0.555785
6214.000000;0.555191
6213.000000;0.554587
6212.000000;0.553951
6211.000000;0.553299
6210.000000;0.552693
6209.000000;0.552179
6208.000000;0.551745
6207.000000;0.551340
6206.000000;0.550909
6205.000000;0.550428
6204.000000;0.549902
6203.000000;0.549348
6202.000000;0.548759
6201.000000;0.548123
6200.000000;0.547473
6199.000000;0.546882
6198.000000;0.546367
6197.000000;0.545840
6196.000000;0.545211
6195.000000;0.544503
6194.000000;0.543822
6193.000000;0.543237
6192.000000;0.542737
6191.000000;0.542283
6190.000000;0.541847
6189.000000;0.541392
6188.000000;0.540891
6187.000000;0.540361
6186.000000;0.539851
6185.000000;0.539375
6184.000000;0.538907
6183.000000;0.538421
6182.000000;0.537913
6181.000000;0.537376
6180.000000;0.536829
6179.000000;0.536330
6178.000000;0.535927
6177.000000;0.535575
6176.000000;0.535168
6175.000000;0.534660
6174.000000;0.534107
6173.000000;0.533578
6172.000000;0.533073
6171.000000;0.532559
6170.000000;0.532029
6169.000000;0.531518
6168.000000;0.531056
6167.000000;0.530639
6166.000000;0.530233
6165.000000;0.529783
6164.000000;0.529251
6163.000000;0.528651
6162.000000;0.528035
6161.000000;0.527448
6160.000000;0.526909
6159.000000;0.526419
6158.000000;0.525977
6157.000000;0.525574
6156.000000;0.525185
6155.000000;0.524774
6154.000000;0.524306
6153.000000;0.523767
6152.000000;0.523193
6151.000000;0.522638
6150.000000;0.522118
6149.000000;0.521599
6148.000000;0.521061
6147.000000;0.520537
6146.000000;0.520057
6145.000000;0.519596
6144.000000;0.519110
6143.000000;0.518611
6142.000000;0.518148
6141.000000;0.517753
6140.000000;0.517418
6139.000000;0.517109
6138.000000;0.516777
6137.000000;0.516359
6136.000000;0.515845
6135.000000;0.515314
6134.000000;0.514862
6133.000000;0.514503
6132.000000;0.514161
6131.000000;0.513766
6130.000000;0.513312
6129.000000;0.512837
6128.000000;0.512390
6127.000000;0.511997
6126.000000;0.511644
6125.000000;0.511278
6124.000000;0.510871
6123.000000;0.510461
6122.000000;0.510113
6121.000000;0.509829
6120.000000;0.509528
6119.000000;0.509114
6118.000000;0.508552
6117.000000;0.507897
6116.000000;0.507261
6115.000000;0.506736
6114.000000;0.506314
6113.000000;0.505896
6112.000000;0.505415
6111.000000;0.504911
6110.000000;0.504468
6109.000000;0.504106
6108.000000;0.503778
6107.000000;0.503438
6106.000000;0.503072
6105.000000;0.502681
6104.000000;0.502285
6103.000000;0.501928
6102.000000;0.501623
6101.000000;0.501302
6100.000000;0.500887
6099.000000;0.500383
6098.000000;0.499869
6097.000000;0.499391
6096.000000;0.498929
6095.000000;0.498461
6094.000000;0.498016
6093.000000;0.497628
6092.000000;0.497291
6091.000000;0.496982
6090.000000;0.496694
6089.000000;0.496434
6088.000000;0.496190
6087.000000;0.495928
6086.000000;0.495605
6085.000000;0.495196
6084.000000;0.494723
6083.000000;0.494254
6082.000000;0.493849
6081.000000;0.493509
6080.000000;0.493183
6079.000000;0.492816
6078.000000;0.492393
6077.000000;0.491942
6076.000000;0.491514
6075.000000;0.491140
6074.000000;0.490795
6073.000000;0.490429
6072.000000;0.490034
6071.000000;0.489655
6070.000000;0.489323
6069.000000;0.489019
6068.000000;0.488719
6067.000000;0.488440
6066.000000;0.488176
6065.000000;0.487858
6064.000000;0.487415
6063.000000;0.486871
6062.000000;0.486325
6061.000000;0.485848
6060.000000;0.485444
6059.000000;0.485091
6058.000000;0.484775
6057.000000;0.484491
6056.000000;0.484247
6055.000000;0.484053
6054.000000;0.483886
6053.000000;0.483677
6052.000000;0.483372
6051.000000;0.482986
6050.000000;0.482580
6049.000000;0.482196
6048.000000;0.481857
6047.000000;0.481596
6046.000000;0.481425
6045.000000;0.481285
6044.000000;0.481087
6043.000000;0.480794
6042.000000;0.480436
6041.000000;0.480056
6040.000000;0.479670
6039.000000;0.479285
6038.000000;0.478899
6037.000000;0.478496
6036.000000;0.478072
6035.000000;0.477658
6034.000000;0.477301
6033.000000;0.477020
6032.000000;0.476793
6031.000000;0.476584
6030.000000;0.476348
6029.000000;0.476040
6028.000000;0.475659
6027.000000;0.475260
6026.000000;0.474905
6025.000000;0.474605
6024.000000;0.474341
6023.000000;0.474100
6022.000000;0.473876
6021.000000;0.473649
6020.000000;0.473430
6019.000000;0.473266
6018.000000;0.473176
6017.000000;0.473083
6016.000000;0.472871
6015.000000;0.472500
6014.000000;0.472033
6013.000000;0.471574
6012.000000;0.471205
6011.000000;0.470954
6010.000000;0.470771
6009.000000;0.470548
6008.000000;0.470224
6007.000000;0.469853
6006.000000;0.469528
6005.000000;0.469266
6004.000000;0.469009
6003.000000;0.468735
6002.000000;0.468476
6001.000000;0.468248
6000.000000;0.468015
5999.000000;0.467746
5998.000000;0.467458
5997.000000;0.467185
5996.000000;0.466948
5995.000000;0.466762
5994.000000;0.466635
5993.000000;0.466545
5992.000000;0.466445
5991.000000;0.466297
5990.000000;0.466095
5989.000000;0.465859
5988.000000;0.465617
5987.000000;0.465396
5986.000000;0.465195
5985.000000;0.464984
5984.000000;0.464747
5983.000000;0.464508
5982.000000;0.464284
5981.000000;0.464042
5980.000000;0.463741
5979.000000;0.463384
5978.000000;0.463017
5977.000000;0.462684
5976.000000;0.462429
5975.000000;0.462283
5974.000000;0.462216
5973.000000;0.462120
5972.000000;0.461907
5971.000000;0.461607
5970.000000;0.461313
5969.000000;0.461055
5968.000000;0.460798
5967.000000;0.460529
5966.000000;0.460288
5965.000000;0.460102
5964.000000;0.459958
5963.000000;0.459845
5962.000000;0.459763
5961.000000;0.459685
5960.000000;0.459554
5959.000000;0.459364
5958.000000;0.459164
5957.000000;0.458988
5956.000000;0.458813
5955.000000;0.458606
5954.000000;0.458383
5953.000000;0.458182
5952.000000;0.458027
5951.000000;0.457919
5950.000000;0.457855
5949.000000;0.457810
5948.000000;0.457741
5947.000000;0.457614
5946.000000;0.457424
5945.000000;0.457184
5944.000000;0.456921
5943.000000;0.456677
5942.000000;0.456495
5941.000000;0.456385
5940.000000;0.456315
5939.000000;0.456242
5938.000000;0.456128
5937.000000;0.455946
5936.000000;0.455698
5935.000000;0.455442
5934.000000;0.455259
5933.000000;0.455186
5932.000000;0.455175
5931.000000;0.455140
5930.000000;0.455015
5929.000000;0.454798
5928.000000;0.454546
5927.000000;0.454348
5926.000000;0.454262
5925.000000;0.454279
5924.000000;0.454323
5923.000000;0.454318
5922.000000;0.454238
5921.000000;0.454110
5920.000000;0.453979
5919.000000;0.453867
5918.000000;0.453771
5917.000000;0.453690
5916.000000;0.453639
5915.000000;0.453612
5914.000000;0.453548
5913.000000;0.453373
5912.000000;0.453088
5911.000000;0.452793
5910.000000;0.452591
5909.000000;0.452503
5908.000000;0.452477
5907.000000;0.452449
5906.000000;0.452378
5905.000000;0.452258
5904.000000;0.452114
5903.000000;0.451978
5902.000000;0.451852
5901.000000;0.451716
5900.000000;0.451580
5899.000000;0.451487
5898.000000;0.451451
5897.000000;0.451423
5896.000000;0.451339
5895.000000;0.451189
5894.000000;0.451014
5893.000000;0.450859
5892.000000;0.450750
5891.000000;0.450681
5890.000000;0.450613
5889.000000;0.450512
5888.000000;0.450394
5887.000000;0.450328
5886.000000;0.450357
5885.000000;0.450463
5884.000000;0.450598
5883.000000;0.450710
5882.000000;0.450731
5881.000000;0.450616
5880.000000;0.450414
5879.000000;0.450254
5878.000000;0.450205
5877.000000;0.450204
5876.000000;0.450156
5875.000000;0.450055
5874.000000;0.449965
5873.000000;0.449936
5872.000000;0.449989
5871.000000;0.450128
5870.000000;0.450301
5869.000000;0.450389
5868.000000;0.450325
5867.000000;0.450181
5866.000000;0.450088
5865.000000;0.450077
5864.000000;0.450078
5863.000000;0.450042
5862.000000;0.449994
5861.000000;0.449969
5860.000000;0.449966
5859.000000;0.449988
5858.000000;0.450045
5857.000000;0.450113
5856.000000;0.450145
5855.000000;0.450131
5854.000000;0.450114
5853.000000;0.450134
5852.000000;0.450190
5851.000000;0.450271
5850.000000;0.450373
5849.000000;0.450472
5848.000000;0.450534
5847.000000;0.450552
5846.000000;0.450563
5845.000000;0.450595
5844.000000;0.450640
5843.000000;0.450669
5842.000000;0.450676
5841.000000;0.450680
5840.000000;0.450708
5839.000000;0.450760
5838.000000;0.450817
5837.000000;0.450865
5836.000000;0.450930
5835.000000;0.451063
5834.000000;0.451284
5833.000000;0.451560
5832.000000;0.451837
5831.000000;0.452061
5830.000000;0.452175
5829.000000;0.452135
5828.000000;0.451981
5827.000000;0.451837
5826.000000;0.451809
5825.000000;0.451905
5824.000000;0.452079
5823.000000;0.452304
5822.000000;0.452565
5821.000000;0.452812
5820.000000;0.452990
5819.000000;0.453105
5818.000000;0.453210
5817.000000;0.453329
5816.000000;0.453443
5815.000000;0.453543
5814.000000;0.453651
5813.000000;0.453795
5812.000000;0.453983
5811.000000;0.454212
5810.000000;0.454461
5809.000000;0.454700
5808.000000;0.454923
5807.000000;0.455164
5806.000000;0.455445
5805.000000;0.455729
5804.000000;0.455941
5803.000000;0.456056
5802.000000;0.456112
5801.000000;0.456177
5800.000000;0.456300
5799.000000;0.456491
5798.000000;0.456716
5797.000000;0.456918
5796.000000;0.457074
5795.000000;0.457216
5794.000000;0.457385
5793.000000;0.457581
5792.000000;0.457793
5791.000000;0.458032
5790.000000;0.458313
5789.000000;0.458622
5788.000000;0.458942
5787.000000;0.459275
5786.000000;0.459626
5785.000000;0.459971
5784.000000;0.460289
5783.000000;0.460574
5782.000000;0.460815
5781.000000;0.460988
5780.000000;0.461103
5779.000000;0.461235
5778.000000;0.461467
5777.000000;0.461806
5776.000000;0.462200
5775.000000;0.462599
5774.000000;0.462965
5773.000000;0.463256
5772.000000;0.463462
5771.000000;0.463644
5770.000000;0.463885
5769.000000;0.464210
5768.000000;0.464572
5767.000000;0.464909
5766.000000;0.465205
5765.000000;0.465501
5764.000000;0.465869
5763.000000;0.466341
5762.000000;0.466847
5761.000000;0.467261
5760.000000;0.467539
5759.000000;0.467757
5758.000000;0.468003
5757.000000;0.468281
5756.000000;0.468566
5755.000000;0.468900
5754.000000;0.469332
5753.000000;0.469820
5752.000000;0.470262
5751.000000;0.470618
5750.000000;0.470937
5749.000000;0.471267
5748.000000;0.471616
5747.000000;0.471988
5746.000000;0.472407
5745.000000;0.472875
5744.000000;0.473365
5743.000000;0.473846
5742.000000;0.474304
5741.000000;0.474728
5740.000000;0.475118
5739.000000;0.475504
5738.000000;0.475928
5737.000000;0.476399
5736.000000;0.476899
5735.000000;0.477410
5734.000000;0.477919
5733.000000;0.478406
5732.000000;0.478863
5731.000000;0.479312
5730.000000;0.479775
5729.000000;0.480241
5728.000000;0.480701
5727.000000;0.481191
5726.000000;0.481761
5725.000000;0.482399
5724.000000;0.483032
5723.000000;0.483588
5722.000000;0.484054
5721.000000;0.484466
5720.000000;0.484874
5719.000000;0.485298
5718.000000;0.485704
5717.000000;0.486055
5716.000000;0.486398
5715.000000;0.486856
5714.000000;0.487490
5713.000000;0.488216
5712.000000;0.488903
5711.000000;0.489493
5710.000000;0.490019
5709.000000;0.490528
5708.000000;0.491062
5707.000000;0.491673
5706.000000;0.492377
5705.000000;0.493103
5704.000000;0.493752
5703.000000;0.494293
5702.000000;0.494769
5701.000000;0.495223
5700.000000;0.495692
5699.000000;0.496221
5698.000000;0.496874
5697.000000;0.497597
5696.000000;0.498371
5695.000000;0.499143
5694.000000;0.499847
5693.000000;0.500472
5692.000000;0.501011
5691.000000;0.501496
5690.000000;0.501969
5689.000000;0.502464
5688.000000;0.503012
5687.000000;0.503652
5686.000000;0.504377
5685.000000;0.505102
5684.000000;0.505734
5683.000000;0.506270
5682.000000;0.506786
5681.000000;0.507347
5680.000000;0.507959
5679.000000;0.508602
5678.000000;0.509249
5677.000000;0.509860
5676.000000;0.510416
5675.000000;0.510952
5674.000000;0.511542
5673.000000;0.512215
5672.000000;0.512922
5671.000000;0.513587
5670.000000;0.514179
5669.000000;0.514738
5668.000000;0.515334
5667.000000;0.516007
5666.000000;0.516720
5665.000000;0.517395
5664.000000;0.517977
5663.000000;0.518463
5662.000000;0.518879
5661.000000;0.519262
5660.000000;0.519684
5659.000000;0.520221
5658.000000;0.520871
5657.000000;0.521541
5656.000000;0.522141
5655.000000;0.522679
5654.000000;0.523227
5653.000000;0.523826
5652.000000;0.524464
5651.000000;0.525101
5650.000000;0.525689
5649.000000;0.526195
5648.000000;0.526641
5647.000000;0.527096
5646.000000;0.527616
5645.000000;0.528183
5644.000000;0.528736
5643.000000;0.529243
5642.000000;0.529720
5641.000000;0.530209
5640.000000;0.530751
5639.000000;0.531346
5638.000000;0.531936
5637.000000;0.532454
5636.000000;0.532905
5635.000000;0.533343
5634.000000;0.533779
5633.000000;0.534166
5632.000000;0.534497
5631.000000;0.534848
5630.000000;0.535282
5629.000000;0.535765
5628.000000;0.536225
5627.000000;0.536644
5626.000000;0.537043
5625.000000;0.537422
5624.000000;0.537763
5623.000000;0.538074
5622.000000;0.538387
5621.000000;0.538723
5620.000000;0.539093
5619.000000;0.539479
5618.000000;0.539824
5617.000000;0.540071
5616.000000;0.540242
5615.000000;0.540429
5614.000000;0.540688
5613.000000;0.540985
5612.000000;0.541276
5611.000000;0.541568
5610.000000;0.541864
5609.000000;0.542136
5608.000000;0.542383
5607.000000;0.542665
5606.000000;0.543022
5605.000000;0.543403
5604.000000;0.543734
5603.000000;0.543995
5602.000000;0.544195
5601.000000;0.544320
5600.000000;0.544361
5599.000000;0.544368
5598.000000;0.544419
5597.000000;0.544544
5596.000000;0.544727
5595.000000;0.544945
5594.000000;0.545160
5593.000000;0.545319
5592.000000;0.545415
5591.000000;0.545505
5590.000000;0.545644
5589.000000;0.545823
5588.000000;0.546007
5587.000000;0.546177
5586.000000;0.546313
5585.000000;0.546367
5584.000000;0.546326
5583.000000;0.546254
5582.000000;0.546232
5581.000000;0.546271
5580.000000;0.546323
5579.000000;0.546334
5578.000000;0.546278
5577.000000;0.546162
5576.000000;0.546043
5575.000000;0.545995
5574.000000;0.546031
5573.000000;0.546096
5572.000000;0.546149
5571.000000;0.546195
5570.000000;0.546228
5569.000000;0.546215
5568.000000;0.546163
5567.000000;0.546143
5566.000000;0.546174
5565.000000;0.546182
5564.000000;0.546106
5563.000000;0.545979
5562.000000;0.545858
5561.000000;0.545737
5560.000000;0.545600
5559.000000;0.545485
5558.000000;0.545423
5557.000000;0.545365
5556.000000;0.545242
5555.000000;0.545065
5554.000000;0.544891
5553.000000;0.544737
5552.000000;0.544601
5551.000000;0.544515
5550.000000;0.544515
5549.000000;0.544564
5548.000000;0.544591
5547.000000;0.544566
5546.000000;0.544498
5545.000000;0.544387
5544.000000;0.544241
5543.000000;0.544089
5542.000000;0.543952
5541.000000;0.543827
5540.000000;0.543724
5539.000000;0.543670
5538.000000;0.543625
5537.000000;0.543472
5536.000000;0.543179
5535.000000;0.542889
5534.000000;0.542759
5533.000000;0.542759
5532.000000;0.542752
5531.000000;0.542701
5530.000000;0.542685
5529.000000;0.542725
5528.000000;0.542739
5527.000000;0.542662
5526.000000;0.542518
5525.000000;0.542383
5524.000000;0.542306
5523.000000;0.542270
5522.000000;0.542201
5521.000000;0.542029
5520.000000;0.541796
5519.000000;0.541665
5518.000000;0.541712
5517.000000;0.541816
5516.000000;0.541812
5515.000000;0.541693
5514.000000;0.541562
5513.000000;0.541439
5512.000000;0.541237
5511.000000;0.540969
5510.000000;0.540804
5509.000000;0.540828
5508.000000;0.540910
5507.000000;0.540885
5506.000000;0.540801
5505.000000;0.540842
5504.000000;0.541026
5503.000000;0.541114
5502.000000;0.540942
5501.000000;0.540674
5500.000000;0.540586
5499.000000;0.540701
5498.000000;0.540723
5497.000000;0.540493
5496.000000;0.540333
5495.000000;0.540619
5494.000000;0.541180
5493.000000;0.541445
5492.000000;0.541238
5491.000000;0.541084
5490.000000;0.541456
5489.000000;0.542066
5488.000000;0.542275
5487.000000;0.541967
5486.000000;0.541627
5485.000000;0.541643
5484.000000;0.541913
5483.000000;0.542138
5482.000000;0.542246
5481.000000;0.542290
5480.000000;0.542186
5479.000000;0.541973
5478.000000;0.542020
5477.000000;0.542576
5476.000000;0.543290
5475.000000;0.543528
5474.000000;0.543264
5473.000000;0.543269
5472.000000;0.544080
5471.000000;0.545240
5470.000000;0.545909
5469.000000;0.545877
5468.000000;0.545663
5467.000000;0.545781
5466.000000;0.546171
5465.000000;0.546513
5464.000000;0.546819
5463.000000;0.547315
5462.000000;0.547973
5461.000000;0.548503
5460.000000;0.548762
5459.000000;0.549001
5458.000000;0.549566
5457.000000;0.550410
5456.000000;0.551129
5455.000000;0.551441
5454.000000;0.551479
5453.000000;0.551700
5452.000000;0.552431
5451.000000;0.553410
5450.000000;0.554010
5449.000000;0.554089
5448.000000;0.554309
5447.000000;0.555295
5446.000000;0.556651
5445.000000;0.557467
5444.000000;0.557769
5443.000000;0.558462
5442.000000;0.559820
5441.000000;0.561005
5440.000000;0.561329
5439.000000;0.561368
5438.000000;0.562309
5437.000000;0.564366
5436.000000;0.566502
5435.000000;0.567640
5434.000000;0.567754
5433.000000;0.567834
5432.000000;0.568905
5431.000000;0.570993
5430.000000;0.573109
5429.000000;0.574290
5428.000000;0.574626
5427.000000;0.575138
5426.000000;0.576559
5425.000000;0.578555
5424.000000;0.580288
5423.000000;0.581361
5422.000000;0.582069
5421.000000;0.582976
5420.000000;0.584328
5419.000000;0.585828
5418.000000;0.587209
5417.000000;0.588825
5416.000000;0.591172
5415.000000;0.593983
5414.000000;0.596361
5413.000000;0.597994
5412.000000;0.599706
5411.000000;0.602227
5410.000000;0.605030
5409.000000;0.607133
5408.000000;0.608562
5407.000000;0.610200
5406.000000;0.612438
5405.000000;0.614806
5404.000000;0.616898
5403.000000;0.618991
5402.000000;0.621438
5401.000000;0.624068
5400.000000;0.626705
5399.000000;0.629504
5398.000000;0.632530
5397.000000;0.635701
5396.000000;0.639070
5395.000000;0.642790
5394.000000;0.646669
5393.000000;0.650208
5392.000000;0.653381
5391.000000;0.656735
5390.000000;0.660514
5389.000000;0.664372
5388.000000;0.668056
5387.000000;0.671795
5386.000000;0.675820
5385.000000;0.679935
5384.000000;0.683998
5383.000000;0.688390
5382.000000;0.693314
5381.000000;0.698278
5380.000000;0.703010
5379.000000;0.708000
5378.000000;0.713632
5377.000000;0.719438
5376.000000;0.724810
5375.000000;0.730095
5374.000000;0.736052
5373.000000;0.742517
5372.000000;0.748654
5371.000000;0.754290
5370.000000;0.760083
5369.000000;0.766458
5368.000000;0.773162
5367.000000;0.780018
5366.000000;0.787319
5365.000000;0.795128
5364.000000;0.802970
5363.000000;0.810635
5362.000000;0.818560
5361.000000;0.827117
5360.000000;0.836128
5359.000000;0.845210
5358.000000;0.854269
5357.000000;0.863475
5356.000000;0.873014
5355.000000;0.883035
5354.000000;0.893499
5353.000000;0.904062
5352.000000;0.914579
5351.000000;0.925580
5350.000000;0.937448
5349.000000;0.949459
5348.000000;0.960742
5347.000000;0.971835
5346.000000;0.984126
5345.000000;0.997755
5344.000000;1.011204
5343.000000;1.023635
5342.000000;1.036357
5341.000000;1.050789
5340.000000;1.066395
5339.000000;1.081765
5338.000000;1.096645
5337.000000;1.111850
5336.000000;1.127758
5335.000000;1.144021
5334.000000;1.160420
5333.000000;1.176834
5332.000000;1.192781
5331.000000;1.208212
5330.000000;1.224216
5329.000000;1.241679
5328.000000;1.259897
5327.000000;1.277530
5326.000000;1.294527
5325.000000;1.311961
5324.000000;1.330108
5323.000000;1.348137
5322.000000;1.365697
5321.000000;1.383402
5320.000000;1.401724
5319.000000;1.420509
5318.000000;1.439484
5317.000000;1.458332
5316.000000;1.476399
5315.000000;1.493245
5314.000000;1.509364
5313.000000;1.525544
5312.000000;1.541749
5311.000000;1.557518
5310.000000;1.572896
5309.000000;1.588007
5308.000000;1.602405
5307.000000;1.615863
5306.000000;1.629202
5305.000000;1.643149
5304.000000;1.656942
5303.000000;1.669120
5302.000000;1.679163
5301.000000;1.687615
5300.000000;1.695345
5299.000000;1.703352
5298.000000;1.712243
5297.000000;1.721113
5296.000000;1.727933
5295.000000;1.731974
5294.000000;1.734910
5293.000000;1.738631
5292.000000;1.743066
5291.000000;1.747055
5290.000000;1.750161
5289.000000;1.752730
5288.000000;1.755217
5287.000000;1.758160
5286.000000;1.761787
5285.000000;1.765055
5284.000000;1.766373
5283.000000;1.765933
5282.000000;1.765769
5281.000000;1.766908
5280.000000;1.768239
5279.000000;1.768838
5278.000000;1.769563
5277.000000;1.771339
5276.000000;1.773506
5275.000000;1.775000
5274.000000;1.775912
5273.000000;1.776817
5272.000000;1.777643
5271.000000;1.778169
5270.000000;1.778554
5269.000000;1.778587
5268.000000;1.777743
5267.000000;1.776610
5266.000000;1.776664
5265.000000;1.778164
5264.000000;1.779726
5263.000000;1.780458
5262.000000;1.780896
5261.000000;1.781179
5260.000000;1.780235
5259.000000;1.777909
5258.000000;1.776088
5257.000000;1.776308
5256.000000;1.777735
5255.000000;1.778739
5254.000000;1.779183
5253.000000;1.779811
5252.000000;1.780525
5251.000000;1.780703
5250.000000;1.780346
5249.000000;1.779832
5248.000000;1.779500
5247.000000;1.780166
5246.000000;1.782539
5245.000000;1.785503
5244.000000;1.786468
5243.000000;1.784450
5242.000000;1.781550
5241.000000;1.780242
5240.000000;1.780524
5239.000000;1.780904
5238.000000;1.780999
5237.000000;1.781555
5236.000000;1.782589
5235.000000;1.783196
5234.000000;1.783044
5233.000000;1.782720
5232.000000;1.782692
5231.000000;1.782795
5230.000000;1.782654
5229.000000;1.782140
5228.000000;1.781484
5227.000000;1.781207
5226.000000;1.781770
5225.000000;1.783097
5224.000000;1.784586
5223.000000;1.785647
5222.000000;1.785965
5221.000000;1.785314
5220.000000;1.783652
5219.000000;1.781511
5218.000000;1.779885
5217.000000;1.779561
5216.000000;1.780693
5215.000000;1.782859
5214.000000;1.785036
5213.000000;1.785978
5212.000000;1.785433
5211.000000;1.784612
5210.000000;1.784817
5209.000000;1.786003
5208.000000;1.787158
5207.000000;1.787668
5206.000000;1.787623
5205.000000;1.787240
5204.000000;1.786870
5203.000000;1.787092
5202.000000;1.787925
5201.000000;1.788411
5200.000000;1.787829
5199.000000;1.786799
5198.000000;1.786335
5197.000000;1.786356
5196.000000;1.786367
5195.000000;1.786934
5194.000000;1.788810
5193.000000;1.791169
5192.000000;1.792321
5191.000000;1.791709
5190.000000;1.789836
5189.000000;1.786857
5188.000000;1.783001
5187.000000;1.780025
5186.000000;1.780122
5185.000000;1.783213
5184.000000;1.786879
5183.000000;1.789145
5182.000000;1.789965
5181.000000;1.789846
5180.000000;1.788892
5179.000000;1.787647
5178.000000;1.787231
5177.000000;1.788020
5176.000000;1.789280
5175.000000;1.790432
5174.000000;1.791576
5173.000000;1.792573
5172.000000;1.792831
5171.000000;1.792239
5170.000000;1.791322
5169.000000;1.790415
5168.000000;1.789684
5167.000000;1.789693
5166.000000;1.790727
5165.000000;1.791824
5164.000000;1.791751
5163.000000;1.790787
5162.000000;1.790191
5161.000000;1.790206
5160.000000;1.790110
5159.000000;1.789853
5158.000000;1.789976
5157.000000;1.790147
5156.000000;1.789542
5155.000000;1.788657
5154.000000;1.788873
5153.000000;1.790061
5152.000000;1.790526
5151.000000;1.789634
5150.000000;1.788799
5149.000000;1.789390
5148.000000;1.791168
5147.000000;1.793064
5146.000000;1.794110
5145.000000;1.793483
5144.000000;1.791178
5143.000000;1.788882
5142.000000;1.788651
5141.000000;1.790444
5140.000000;1.792186
5139.000000;1.792437
5138.000000;1.791680
5137.000000;1.790864
5136.000000;1.790270
5135.000000;1.789978
5134.000000;1.789973
5133.000000;1.789592
5132.000000;1.788314
5131.000000;1.787212
5130.000000;1.788044
5129.000000;1.790747
5128.000000;1.793252
5127.000000;1.793986
5126.000000;1.793235
5125.000000;1.791842
5124.000000;1.790206
5123.000000;1.788870
5122.000000;1.788462
5121.000000;1.788568
5120.000000;1.788035
5119.000000;1.786862
5118.000000;1.786491
5117.000000;1.787841
5116.000000;1.790244
5115.000000;1.792507
5114.000000;1.793886
5113.000000;1.793998
5112.000000;1.793098
5111.000000;1.792493
5110.000000;1.793247
5109.000000;1.794507
5108.000000;1.794561
5107.000000;1.793436
5106.000000;1.792628
5105.000000;1.792339
5104.000000;1.791211
5103.000000;1.789155
5102.000000;1.788184
5101.000000;1.789551
5100.000000;1.791892
5099.000000;1.793107
5098.000000;1.792737
5097.000000;1.791582
5096.000000;1.790311
5095.000000;1.789369
5094.000000;1.789048
5093.000000;1.788883
5092.000000;1.787934
5091.000000;1.786290
5090.000000;1.785287
5089.000000;1.785749
5088.000000;1.787100
5087.000000;1.788623
5086.000000;1.790237
5085.000000;1.791613
5084.000000;1.791963
5083.000000;1.791300
5082.000000;1.790649
5081.000000;1.790447
5080.000000;1.789954
5079.000000;1.788850
5078.000000;1.788122
5077.000000;1.788603
5076.000000;1.789704
5075.000000;1.790359
5074.000000;1.790453
5073.000000;1.790653
5072.000000;1.791449
5071.000000;1.792865
5070.000000;1.794478
5069.000000;1.795488
5068.000000;1.795467
5067.000000;1.795164
5066.000000;1.795696
5065.000000;1.796861
5064.000000;1.797228
5063.000000;1.796056
5062.000000;1.794118
5061.000000;1.792400
5060.000000;1.791140
5059.000000;1.790381
5058.000000;1.790280
5057.000000;1.790485
5056.000000;1.790210
5055.000000;1.789346
5054.000000;1.788671
5053.000000;1.788607
5052.000000;1.788624
5051.000000;1.788211
5050.000000;1.787653
5049.000000;1.787542
5048.000000;1.788142
5047.000000;1.789352
5046.000000;1.790629
5045.000000;1.791052
5044.000000;1.790234
5043.000000;1.789005
5042.000000;1.788405
5041.000000;1.788300
5040.000000;1.787980
5039.000000;1.787704
5038.000000;1.788292
5037.000000;1.789294
5036.000000;1.789105
5035.000000;1.787255
5034.000000;1.785328
5033.000000;1.785063
5032.000000;1.786523
5031.000000;1.788437
5030.000000;1.789475
5029.000000;1.788926
5028.000000;1.786975
5027.000000;1.784625
5026.000000;1.782803
5025.000000;1.781486
5024.000000;1.780168
5023.000000;1.778989
5022.000000;1.778649
5021.000000;1.779276
5020.000000;1.780187
5019.000000;1.780737
5018.000000;1.780792
5017.000000;1.780613
5016.000000;1.780783
5015.000000;1.781766
5014.000000;1.782887
5013.000000;1.782425
5012.000000;1.779706
5011.000000;1.776427
5010.000000;1.774786
5009.000000;1.775029
5008.000000;1.775861
5007.000000;1.776428
5006.000000;1.776556
5005.000000;1.775784
5004.000000;1.773899
5003.000000;1.772067
5002.000000;1.771749
5001.000000;1.772664
5000.000000;1.773177
4999.000000;1.772680
4998.000000;1.771908
4997.000000;1.771143
4996.000000;1.769884
4995.000000;1.768321
4994.000000;1.767443
4993.000000;1.767338
4992.000000;1.766769
4991.000000;1.764808
4990.000000;1.761922
4989.000000;1.759226
4988.000000;1.757573
4987.000000;1.757300
4986.000000;1.757888
4985.000000;1.757963
4984.000000;1.756618
4983.000000;1.754615
4982.000000;1.753319
4981.000000;1.752774
4980.000000;1.752011
4979.000000;1.750828
4978.000000;1.749773
4977.000000;1.748668
4976.000000;1.746809
4975.000000;1.744591
4974.000000;1.743360
4973.000000;1.743500
4972.000000;1.743992
4971.000000;1.743912
4970.000000;1.743074
4969.000000;1.741268
4968.000000;1.738442
4967.000000;1.735728
4966.000000;1.734677
4965.000000;1.735150
4964.000000;1.735315
4963.000000;1.734055
4962.000000;1.732053
4961.000000;1.730159
4960.000000;1.728175
4959.000000;1.725794
4958.000000;1.723418
4957.000000;1.721384
4956.000000;1.719382
4955.000000;1.717192
4954.000000;1.715082
4953.000000;1.713011
4952.000000;1.710289
4951.000000;1.706659
4950.000000;1.703039
4949.000000;1.700605
4948.000000;1.699573
4947.000000;1.699228
4946.000000;1.698772
4945.000000;1.697969
4944.000000;1.697255
4943.000000;1.697148
4942.000000;1.697215
4941.000000;1.695964
4940.000000;1.692391
4939.000000;1.687372
4938.000000;1.682845
4937.000000;1.679948
4936.000000;1.678478
4935.000000;1.677589
4934.000000;1.676342
4933.000000;1.674113
4932.000000;1.671357
4931.000000;1.669447
4930.000000;1.668841
4929.000000;1.667999
4928.000000;1.665189
4927.000000;1.660893
4926.000000;1.657096
4925.000000;1.654653
4924.000000;1.652784
4923.000000;1.650844
4922.000000;1.649059
4921.000000;1.647437
4920.000000;1.645282
4919.000000;1.642194
4918.000000;1.638623
4917.000000;1.635228
4916.000000;1.632411
4915.000000;1.630400
4914.000000;1.628943
4913.000000;1.627117
4912.000000;1.624317
4911.000000;1.621273
4910.000000;1.619177
4909.000000;1.618064
4908.000000;1.617025
4907.000000;1.615714
4906.000000;1.614434
4905.000000;1.612868
4904.000000;1.610122
4903.000000;1.606211
4902.000000;1.602282
4901.000000;1.599116
4900.000000;1.596445
4899.000000;1.593873
4898.000000;1.591405
4897.000000;1.588872
4896.000000;1.585857
4895.000000;1.582473
4894.000000;1.579364
4893.000000;1.576757
4892.000000;1.574314
4891.000000;1.572006
4890.000000;1.570195
4889.000000;1.568701
4888.000000;1.566656
4887.000000;1.563600
4886.000000;1.559972
4885.000000;1.556318
4884.000000;1.552804
4883.000000;1.549679
4882.000000;1.547376
4881.000000;1.545815
4880.000000;1.544255
4879.000000;1.542139
4878.000000;1.539555
4877.000000;1.536690
4876.000000;1.533425
4875.000000;1.529686
4874.000000;1.525703
4873.000000;1.521801
4872.000000;1.518374
4871.000000;1.515952
4870.000000;1.514675
4869.000000;1.513710
4868.000000;1.511841
4867.000000;1.508761
4866.000000;1.505194
4865.000000;1.501780
4864.000000;1.498536
4863.000000;1.495367
4862.000000;1.492334
4861.000000;1.489313
4860.000000;1.486088
4859.000000;1.482915
4858.000000;1.480361
4857.000000;1.478419
4856.000000;1.476389
4855.000000;1.473788
4854.000000;1.470850
4853.000000;1.467969
4852.000000;1.465199
4851.000000;1.462469
4850.000000;1.459808
4849.000000;1.457194
4848.000000;1.454564
4847.000000;1.452036
4846.000000;1.449737
4845.000000;1.447439
4844.000000;1.444783
4843.000000;1.441849
4842.000000;1.439044
4841.000000;1.436468
4840.000000;1.433877
4839.000000;1.431238
4838.000000;1.428758
4837.000000;1.426329
4836.000000;1.423496
4835.000000;1.420082
4834.000000;1.416406
4833.000000;1.412808
4832.000000;1.409384
4831.000000;1.406222
4830.000000;1.403467
4829.000000;1.401059
4828.000000;1.398705
4827.000000;1.396144
4826.000000;1.393191
4825.000000;1.389701
4824.000000;1.385883
4823.000000;1.382443
4822.000000;1.379944
4821.000000;1.378099
4820.000000;1.376197
4819.000000;1.374126
4818.000000;1.372338
4817.000000;1.370832
4816.000000;1.368875
4815.000000;1.365913
4814.000000;1.362220
4813.000000;1.358420
4812.000000;1.354792
4811.000000;1.351294
4810.000000;1.347929
4809.000000;1.344836
4808.000000;1.342151
4807.000000;1.339894
4806.000000;1.337855
4805.000000;1.335646
4804.000000;1.333029
4803.000000;1.330136
4802.000000;1.327214
4801.000000;1.324313
4800.000000;1.321430
4799.000000;1.318687
4798.000000;1.316096
4797.000000;1.313392
4796.000000;1.310471
4795.000000;1.307752
4794.000000;1.305645
4793.000000;1.303825
4792.000000;1.301523
4791.000000;1.298448
4790.000000;1.295045
4789.000000;1.291908
4788.000000;1.289394
4787.000000;1.287657
4786.000000;1.286531
4785.000000;1.285374
4784.000000;1.283474
4783.000000;1.280706
4782.000000;1.277466
4781.000000;1.274072
4780.000000;1.270615
4779.000000;1.267293
4778.000000;1.264413
4777.000000;1.262003
4776.000000;1.259825
4775.000000;1.257734
4774.000000;1.255667
4773.000000;1.253340
4772.000000;1.250408
4771.000000;1.246997
4770.000000;1.243702
4769.000000;1.240957
4768.000000;1.238707
4767.000000;1.236713
4766.000000;1.234842
4765.000000;1.232990
4764.000000;1.231012
4763.000000;1.228832
4762.000000;1.226449
4761.000000;1.223858
4760.000000;1.221141
4759.000000;1.218513
4758.000000;1.216052
4757.000000;1.213510
4756.000000;1.210685
4755.000000;1.207855
4754.000000;1.205512
4753.000000;1.203723
4752.000000;1.202076
4751.000000;1.200210
4750.000000;1.198100
4749.000000;1.195854
4748.000000;1.193518
4747.000000;1.191111
4746.000000;1.188608
4745.000000;1.185938
4744.000000;1.183180
4743.000000;1.180637
4742.000000;1.178511
4741.000000;1.176632
4740.000000;1.174742
4739.000000;1.172864
4738.000000;1.171107
4737.000000;1.169300
4736.000000;1.167221
4735.000000;1.165016
4734.000000;1.163007
4733.000000;1.161192
4732.000000;1.159321
4731.000000;1.157367
4730.000000;1.155500
4729.000000;1.153657
4728.000000;1.151571
4727.000000;1.149239
4726.000000;1.146973
4725.000000;1.144976
4724.000000;1.143190
4723.000000;1.141562
4722.000000;1.140111
4721.000000;1.138715
4720.000000;1.137175
4719.000000;1.135532
4718.000000;1.133976
4717.000000;1.132435
4716.000000;1.130569
4715.000000;1.128267
4714.000000;1.125872
4713.000000;1.123787
4712.000000;1.122080
4711.000000;1.120514
4710.000000;1.118802
4709.000000;1.116810
4708.000000;1.114691
4707.000000;1.112786
4706.000000;1.111257
4705.000000;1.109872
4704.000000;1.108329
4703.000000;1.106646
4702.000000;1.105023
4701.000000;1.103472
4700.000000;1.101904
4699.000000;1.100430
4698.000000;1.099232
4697.000000;1.098169
4696.000000;1.096881
4695.000000;1.095294
4694.000000;1.093697
4693.000000;1.092274
4692.000000;1.090879
4691.000000;1.089329
4690.000000;1.087667
4689.000000;1.086041
4688.000000;1.084551
4687.000000;1.083245
4686.000000;1.082099
4685.000000;1.080975
4684.000000;1.079754
4683.000000;1.078516
4682.000000;1.077401
4681.000000;1.076342
4680.000000;1.075135
4679.000000;1.073732
4678.000000;1.072271
4677.000000;1.070847
4676.000000;1.069432
4675.000000;1.068010
4674.000000;1.066592
4673.000000;1.065166
4672.000000;1.063788
4671.000000;1.062653
4670.000000;1.061866
4669.000000;1.061221
4668.000000;1.060418
4667.000000;1.059430
4666.000000;1.058445
4665.000000;1.057541
4664.000000;1.056627
4663.000000;1.055636
4662.000000;1.054544
4661.000000;1.053268
4660.000000;1.051798
4659.000000;1.050377
4658.000000;1.049325
4657.000000;1.048691
4656.000000;1.048237
4655.000000;1.047693
4654.000000;1.046863
4653.000000;1.045615
4652.000000;1.044026
4651.000000;1.042452
4650.000000;1.041259
4649.000000;1.040506
4648.000000;1.040030
4647.000000;1.039703
4646.000000;1.039411
4645.000000;1.038961
4644.000000;1.038272
4643.000000;1.037526
4642.000000;1.036880
4641.000000;1.036172
4640.000000;1.035195
4639.000000;1.034122
4638.000000;1.033303
4637.000000;1.032763
4636.000000;1.032214
4635.000000;1.031528
4634.000000;1.030860
4633.000000;1.030343
4632.000000;1.029932
4631.000000;1.029529
4630.000000;1.029035
4629.000000;1.028321
4628.000000;1.027390
4627.000000;1.026488
4626.000000;1.025811
4625.000000;1.025219
4624.000000;1.024503
4623.000000;1.023789
4622.000000;1.023355
4621.000000;1.023173
4620.000000;1.022994
4619.000000;1.022801
4618.000000;1.022775
4617.000000;1.022842
4616.000000;1.022652
4615.000000;1.022047
4614.000000;1.021211
4613.000000;1.020342
4612.000000;1.019498
4611.000000;1.018790
4610.000000;1.018369
4609.000000;1.018135
4608.000000;1.017788
4607.000000;1.017251
4606.000000;1.016781
4605.000000;1.016588
4604.000000;1.016573
4603.000000;1.016509
4602.000000;1.016269
4601.000000;1.015831
4600.000000;1.015285
4599.000000;1.014885
4598.000000;1.014843
4597.000000;1.015053
4596.000000;1.015178
4595.000000;1.015047
4594.000000;1.014770
4593.000000;1.014479
4592.000000;1.014202
4591.000000;1.014002
4590.000000;1.013998
4589.000000;1.014197
4588.000000;1.014486
4587.000000;1.014802
4586.000000;1.015130
4585.000000;1.015364
4584.000000;1.015377
4583.000000;1.015226
4582.000000;1.015096
4581.000000;1.015046
4580.000000;1.015001
4579.000000;1.014947
4578.000000;1.014943
4577.000000;1.014982
4576.000000;1.015059
4575.000000;1.015319
4574.000000;1.015897
4573.000000;1.016645
4572.000000;1.017267
4571.000000;1.017700
4570.000000;1.018105
4569.000000;1.018535
4568.000000;1.018873
4567.000000;1.019118
4566.000000;1.019444
4565.000000;1.019918
4564.000000;1.020404
4563.000000;1.020781
4562.000000;1.021071
4561.000000;1.021333
4560.000000;1.021619
4559.000000;1.022051
4558.000000;1.022749
4557.000000;1.023660
4556.000000;1.024609
4555.000000;1.025490
4554.000000;1.026288
4553.000000;1.026972
4552.000000;1.027561
4551.000000;1.028229
4550.000000;1.029136
4549.000000;1.030209
4548.000000;1.031256
4547.000000;1.032221
4546.000000;1.033127
4545.000000;1.033867
4544.000000;1.034323
4543.000000;1.034613
4542.000000;1.035008
4541.000000;1.035645
4540.000000;1.036513
4539.000000;1.037621
4538.000000;1.038932
4537.000000;1.040262
4536.000000;1.041483
4535.000000;1.042734
4534.000000;1.044135
4533.000000;1.045424
4532.000000;1.046218
4531.000000;1.046562
4530.000000;1.046894
4529.000000;1.047487
4528.000000;1.048245
4527.000000;1.049007
4526.000000;1.049740
4525.000000;1.050414
4524.000000;1.050972
4523.000000;1.051508
4522.000000;1.052240
4521.000000;1.053289
4520.000000;1.054587
4519.000000;1.055954
4518.000000;1.057115
4517.000000;1.057833
4516.000000;1.058236
4515.000000;1.058831
4514.000000;1.059905
4513.000000;1.061122
4512.000000;1.062010
4511.000000;1.062646
4510.000000;1.063456
4509.000000;1.064497
4508.000000;1.065448
4507.000000;1.066237
4506.000000;1.067165
4505.000000;1.068349
4504.000000;1.069502
4503.000000;1.070372
4502.000000;1.071066
4501.000000;1.071820
4500.000000;1.072747
4499.000000;1.073884
4498.000000;1.075221
4497.000000;1.076619
4496.000000;1.077910
4495.000000;1.079098
4494.000000;1.080272
4493.000000;1.081402
4492.000000;1.082464
4491.000000;1.083649
4490.000000;1.085118
4489.000000;1.086648
4488.000000;1.087888
4487.000000;1.088921
4486.000000;1.090189
4485.000000;1.091863
4484.000000;1.093646
4483.000000;1.095202
4482.000000;1.096464
4481.000000;1.097506
4480.000000;1.098468
4479.000000;1.099623
4478.000000;1.101208
4477.000000;1.103125
4476.000000;1.105042
4475.000000;1.106766
4474.000000;1.108281
4473.000000;1.109527
4472.000000;1.110488
4471.000000;1.111460
4470.000000;1.112849
4469.000000;1.114702
4468.000000;1.116729
4467.000000;1.118763
4466.000000;1.120860
4465.000000;1.123003
4464.000000;1.125049
4463.000000;1.126990
4462.000000;1.128931
4461.000000;1.130825
4460.000000;1.132544
4459.000000;1.134195
4458.000000;1.136043
4457.000000;1.138152
4456.000000;1.140391
4455.000000;1.142694
4454.000000;1.144991
4453.000000;1.146999
4452.000000;1.148539
4451.000000;1.149966
4450.000000;1.151842
4449.000000;1.154194
4448.000000;1.156524
4447.000000;1.158534
4446.000000;1.160413
4445.000000;1.162404
4444.000000;1.164548
4443.000000;1.166874
4442.000000;1.169399
4441.000000;1.171890
4440.000000;1.174048
4439.000000;1.176008
4438.000000;1.178246
4437.000000;1.180924
4436.000000;1.183713
4435.000000;1.186290
4434.000000;1.188650
4433.000000;1.190849
4432.000000;1.192869
4431.000000;1.194843
4430.000000;1.197080
4429.000000;1.199753
4428.000000;1.202766
4427.000000;1.205912
4426.000000;1.208898
4425.000000;1.211330
4424.000000;1.213118
4423.000000;1.214841
4422.000000;1.217302
4421.000000;1.220644
4420.000000;1.224232
4419.000000;1.227389
4418.000000;1.229940
4417.000000;1.232115
4416.000000;1.234310
4415.000000;1.236921
4414.000000;1.240008
4413.000000;1.243137
4412.000000;1.245862
4411.000000;1.248270
4410.000000;1.250733
4409.000000;1.253344
4408.000000;1.256016
4407.000000;1.258913
4406.000000;1.262247
4405.000000;1.265797
4404.000000;1.269179
4403.000000;1.272445
4402.000000;1.275839
4401.000000;1.279143
4400.000000;1.281946
4399.000000;1.284438
4398.000000;1.287234
4397.000000;1.290421
4396.000000;1.293472
4395.000000;1.296122
4394.000000;1.298649
4393.000000;1.301245
4392.000000;1.303816
4391.000000;1.306499
4390.000000;1.309707
4389.000000;1.313515
4388.000000;1.317555
4387.000000;1.321597
4386.000000;1.325671
4385.000000;1.329568
4384.000000;1.332919
4383.000000;1.335837
4382.000000;1.338822
4381.000000;1.341946
4380.000000;1.344808
4379.000000;1.347411
4378.000000;1.350345
4377.000000;1.353908
4376.000000;1.357720
4375.000000;1.361429
4374.000000;1.365142
4373.000000;1.368862
4372.000000;1.372164
4371.000000;1.374796
4370.000000;1.377162
4369.000000;1.379929
4368.000000;1.383461
4367.000000;1.387710
4366.000000;1.392233
4365.000000;1.396341
4364.000000;1.399746
4363.000000;1.403055
4362.000000;1.407095
4361.000000;1.411796
4360.000000;1.416315
4359.000000;1.420215
4358.000000;1.423830
4357.000000;1.427483
4356.000000;1.431109
4355.000000;1.434708
4354.000000;1.438446
4353.000000;1.442221
4352.000000;1.445805
4351.000000;1.449468
4350.000000;1.453746
4349.000000;1.458571
4348.000000;1.463375
4347.000000;1.468063
4346.000000;1.473022
4345.000000;1.478120
4344.000000;1.482666
4343.000000;1.486552
4342.000000;1.490508
4341.000000;1.494927
4340.000000;1.499352
4339.000000;1.503468
4338.000000;1.507778
4337.000000;1.512886
4336.000000;1.518734
4335.000000;1.524820
4334.000000;1.530577
4333.000000;1.535379
4332.000000;1.538919
4331.000000;1.541829
4330.000000;1.545258
4329.000000;1.549630
4328.000000;1.554477
4327.000000;1.559464
4326.000000;1.564712
4325.000000;1.570007
4324.000000;1.574622
4323.000000;1.578256
4322.000000;1.581408
4321.000000;1.584618
4320.000000;1.588131
4319.000000;1.592386
4318.000000;1.597899
4317.000000;1.604385
4316.000000;1.610825
4315.000000;1.616650
4314.000000;1.622115
4313.000000;1.627325
4312.000000;1.631868
4311.000000;1.635703
4310.000000;1.639507
4309.000000;1.643767
4308.000000;1.648262
4307.000000;1.652676
4306.000000;1.657053
4305.000000;1.661500
4304.000000;1.666133
4303.000000;1.671339
4302.000000;1.677316
4301.000000;1.683419
4300.000000;1.688912
4299.000000;1.694203
4298.000000;1.700309
4297.000000;1.707174
4296.000000;1.713677
4295.000000;1.719316
4294.000000;1.724638
4293.000000;1.729787
4292.000000;1.733958
4291.000000;1.736732
4290.000000;1.738840
4289.000000;1.741295
4288.000000;1.744729
4287.000000;1.749734
4286.000000;1.756772
4285.000000;1.765374
4284.000000;1.774198
4283.000000;1.782105
4282.000000;1.788617
4281.000000;1.793572
4280.000000;1.797337
4279.000000;1.801118
4278.000000;1.806003
4277.000000;1.811880
4276.000000;1.818186
4275.000000;1.825106
4274.000000;1.832726
4273.000000;1.839642
4272.000000;1.844215
4271.000000;1.846936
4270.000000;1.849767
4269.000000;1.853527
4268.000000;1.857722
4267.000000;1.862413
4266.000000;1.868209
4265.000000;1.874606
4264.000000;1.880323
4263.000000;1.885311
4262.000000;1.890622
4261.000000;1.896432
4260.000000;1.902044
4259.000000;1.907648
4258.000000;1.914008
4257.000000;1.920648
4256.000000;1.926770
4255.000000;1.933564
4254.000000;1.942924
4253.000000;1.953753
4252.000000;1.962158
4251.000000;1.966257
4250.000000;1.968202
4249.000000;1.970535
4248.000000;1.973484
4247.000000;1.976600
4246.000000;1.980426
4245.000000;1.985420
4244.000000;1.991113
4243.000000;1.997218
4242.000000;2.004028
4241.000000;2.011050
4240.000000;2.017078
4239.000000;2.021974
4238.000000;2.026472
4237.000000;2.030589
4236.000000;2.034337
4235.000000;2.039321
4234.000000;2.046814
4233.000000;2.054599
4232.000000;2.059025
4231.000000;2.060508
4230.000000;2.063572
4229.000000;2.071149
4228.000000;2.081963
4227.000000;2.093358
4226.000000;2.103496
4225.000000;2.110380
4224.000000;2.112547
4223.000000;2.112017
4222.000000;2.113248
4221.000000;2.118368
4220.000000;2.125813
4219.000000;2.133695
4218.000000;2.141735
4217.000000;2.149282
4216.000000;2.154489
4215.000000;2.156760
4214.000000;2.157782
4213.000000;2.159381
4212.000000;2.162450
4211.000000;2.167993
4210.000000;2.176588
4209.000000;2.186692
4208.000000;2.196297
4207.000000;2.205730
4206.000000;2.215753
4205.000000;2.224012
4204.000000;2.227259
4203.000000;2.227342
4202.000000;2.230009
4201.000000;2.237424
4200.000000;2.246438
4199.000000;2.253710
4198.000000;2.258282
4197.000000;2.259300
4196.000000;2.256296
4195.000000;2.252547
4194.000000;2.253364
4193.000000;2.259981
4192.000000;2.269125
4191.000000;2.278906
4190.000000;2.290476
4189.000000;2.303020
4188.000000;2.312258
4187.000000;2.316496
4186.000000;2.319440
4185.000000;2.324284
4184.000000;2.329933
4183.000000;2.335114
4182.000000;2.341491
4181.000000;2.349704
4180.000000;2.355969
4179.000000;2.355941
4178.000000;2.350318
4177.000000;2.344168
4176.000000;2.343130
4175.000000;2.350937
4174.000000;2.366492
4173.000000;2.383430
4172.000000;2.396078
4171.000000;2.405146
4170.000000;2.413663
4169.000000;2.420171
4168.000000;2.421680
4167.000000;2.421981
4166.000000;2.428632
4165.000000;2.440758
4164.000000;2.449085
4163.000000;2.450396
4162.000000;2.452438
4161.000000;2.461288
4160.000000;2.473318
4159.000000;2.482049
4158.000000;2.485942
4157.000000;2.485720
4156.000000;2.480761
4155.000000;2.471776
4154.000000;2.462342
4153.000000;2.456930
4152.000000;2.460293
4151.000000;2.476589
4150.000000;2.504068
4149.000000;2.530660
4148.000000;2.542874
4147.000000;2.543184
4146.000000;2.546979
4145.000000;2.561743
4144.000000;2.579371
4143.000000;2.588243
4142.000000;2.585907
4141.000000;2.576239
4140.000000;2.563302
4139.000000;2.553318
4138.000000;2.554489
4137.000000;2.567924
4136.000000;2.583198
4135.000000;2.589067
4134.000000;2.586395
4133.000000;2.585359
4132.000000;2.593406
4131.000000;2.610313
4130.000000;2.631393
4129.000000;2.651431
4128.000000;2.665064
4127.000000;2.666468
4126.000000;2.653045
4125.000000;2.629633
4124.000000;2.608815
4123.000000;2.603675
4122.000000;2.615878
4121.000000;2.633128
4120.000000;2.642719
4119.000000;2.646941
4118.000000;2.656786
4117.000000;2.673282
4116.000000;2.684699
4115.000000;2.681360
4114.000000;2.665751
4113.000000;2.646984
4112.000000;2.634162
4111.000000;2.634500
4110.000000;2.650320
4109.000000;2.676158
4108.000000;2.702040
4107.000000;2.720290
4106.000000;2.728060
4105.000000;2.726259
4104.000000;2.722278
4103.000000;2.729773
4102.000000;2.753769
4101.000000;2.780409
4100.000000;2.789240
4099.000000;2.775117
4098.000000;2.748737
4097.000000;2.720484
4096.000000;2.699154
4095.000000;2.695615
4094.000000;2.713721
4093.000000;2.741695
4092.000000;2.762415
4091.000000;2.772358
4090.000000;2.778752
4089.000000;2.782717
4088.000000;2.784209
4087.000000;2.792160
4086.000000;2.808948
4085.000000;2.816481
4084.000000;2.799665
4083.000000;2.778770
4082.000000;2.784450
4081.000000;2.819771
4080.000000;2.855585
4079.000000;2.861562
4078.000000;2.846252
4077.000000;2.834422
4076.000000;2.831824
4075.000000;2.832945
4074.000000;2.835476
4073.000000;2.838493
4072.000000;2.837992
4071.000000;2.833651
4070.000000;2.829626
4069.000000;2.826866
4068.000000;2.826737
4067.000000;2.836356
4066.000000;2.855272
4065.000000;2.864390
4064.000000;2.852471
4063.000000;2.833417
4062.000000;2.822770
4061.000000;2.820436
4060.000000;2.817941
4059.000000;2.825308
4058.000000;2.859060
4057.000000;2.908591
4056.000000;2.937725
4055.000000;2.926886
4054.000000;2.900443
4053.000000;2.882056
4052.000000;2.871969
4051.000000;2.865754
4050.000000;2.864606
4049.000000;2.871846
4048.000000;2.885869
4047.000000;2.902440
4046.000000;2.917125
4045.000000;2.918854
4044.000000;2.907906
4043.000000;2.910688
4042.000000;2.946745
4041.000000;3.000605
4040.000000;3.028640
4039.000000;3.006785
4038.000000;2.959152
4037.000000;2.922202
4036.000000;2.910897
4035.000000;2.919678
4034.000000;2.937568
4033.000000;2.953873
4032.000000;2.961148
4031.000000;2.961082
4030.000000;2.953978
4029.000000;2.935479
4028.000000;2.910989
4027.000000;2.896834
4026.000000;2.906507
4025.000000;2.939238
4024.000000;2.979582
4023.000000;3.007425
4022.000000;3.010516
4021.000000;2.990788
4020.000000;2.964432
4019.000000;2.951733
4018.000000;2.956705
4017.000000;2.962275
4016.000000;2.959106
4015.000000;2.964296
4014.000000;2.995465
4013.000000;3.047428
4012.000000;3.098310
4011.000000;3.134879
4010.000000;3.146219
4009.000000;3.109015
4008.000000;3.033616
4007.000000;2.970054
4006.000000;2.947224
4005.000000;2.948781
4004.000000;2.945901
4003.000000;2.941435
4002.000000;2.957755
4001.000000;3.002030
4000.000000;3.063121
3999.000000;3.132277
3998.000000;3.207008
3997.000000;3.265240
3996.000000;3.278428
3995.000000;3.260107
3994.000000;3.237989
3993.000000;3.218505
3992.000000;3.200439
3991.000000;3.189616
3990.000000;3.188114
3989.000000;3.177476
3988.000000;3.137031
3987.000000;3.097727
3986.000000;3.104016
3985.000000;3.150172
3984.000000;3.180227
3983.000000;3.161875
3982.000000;3.127775
3981.000000;3.106829
3980.000000;3.101160
3979.000000;3.111063
3978.000000;3.138316
3977.000000;3.172220
3976.000000;3.201071
3975.000000;3.236693
3974.000000;3.292251
3973.000000;3.343575
3972.000000;3.345805
3971.000000;3.308882
3970.000000;3.289856
3969.000000;3.307151
3968.000000;3.329276
3967.000000;3.344956
3966.000000;3.393428
3965.000000;3.488616
3964.000000;3.568088
3963.000000;3.567084
3962.000000;3.484237
3961.000000;3.376570
3960.000000;3.305017
3959.000000;3.290242
3958.000000;3.324718
3957.000000;3.375262
3956.000000;3.400805
3955.000000;3.379080
3954.000000;3.330886
3953.000000;3.289976
3952.000000;3.267271
3951.000000;3.291299
3950.000000;3.386083
3949.000000;3.528542
3948.000000;3.659475
3947.000000;3.736020
3946.000000;3.742157
3945.000000;3.687406
3944.000000;3.614786
3943.000000;3.560340
3942.000000;3.550163
3941.000000;3.574772
3940.000000;3.586125
3939.000000;3.562825
3938.000000;3.523944
3937.000000;3.471505
3936.000000;3.416668
3935.000000;3.412119
3934.000000;3.466619
3933.000000;3.530859
3932.000000;3.556384
3931.000000;3.570515
3930.000000;3.604922
3929.000000;3.618200
3928.000000;3.566165
3927.000000;3.499561
3926.000000;3.496892
3925.000000;3.578164
3924.000000;3.684020
3923.000000;3.727637
3922.000000;3.787947
3921.000000;3.871811
3920.000000;4.212458
3919.000000;4.440613
3918.000000;3.848649
3917.000000;3.745973
3916.000000;3.702425
3915.000000;3.676299
3914.000000;3.625147
3913.000000;3.588918
3912.000000;3.580516
3911.000000;3.631744
3910.000000;3.788371
3909.000000;3.875516
3908.000000;3.853204
3907.000000;3.914662
3906.000000;4.028374
3905.000000;4.001871
3904.000000;3.855159
3903.000000;3.799798
3902.000000;3.894090
3901.000000;4.086768
3900.000000;4.304533
3899.000000;4.307886
3898.000000;4.085665
3897.000000;3.971049
3896.000000;3.966970
3895.000000;4.041251
3894.000000;4.116002
3893.000000;4.111750
3892.000000;4.037108
3891.000000;3.903692
3890.000000;3.994872
3889.000000;4.229484
3888.000000;4.300500
3887.000000;4.332632
3886.000000;4.241268
3885.000000;4.548330
3884.000000;4.276142
3883.000000;4.097408
3882.000000;4.125551
3881.000000;4.063956
3880.000000;4.166691
3879.000000;4.138824
3878.000000;3.978724
3877.000000;4.121824
3876.000000;4.212092
3875.000000;4.124818
3874.000000;3.883631
3873.000000;3.783669
3872.000000;3.951189
3871.000000;4.304362
3870.000000;4.682996
3869.000000;4.077162
3868.000000;3.971705
3867.000000;4.097644
3866.000000;4.278591
3865.000000;4.310038
3864.000000;3.886771
3863.000000;3.646805
3862.000000;3.638344
3861.000000;3.745126
3860.000000;3.819587
3859.000000;3.783952
3858.000000;3.903512
3857.000000;4.241919
3856.000000;4.753771
3855.000000;5.010683
3854.000000;4.753126
3853.000000;4.442813
3852.000000;4.428694
3851.000000;4.763947
3850.000000;5.054690
3849.000000;4.647465
3848.000000;4.193760
3847.000000;4.067225
3846.000000;4.203845
3845.000000;3.837141
3844.000000;3.654324
3843.000000;3.762598
3842.000000;4.286967
3841.000000;4.308617
3840.000000;3.970899
3839.000000;3.913710
3838.000000;3.991622
3837.000000;4.396305
3836.000000;4.644340
3835.000000;4.168498
3834.000000;3.911222
3833.000000;3.681943
3832.000000;3.637681
3831.000000;3.799793
3830.000000;3.749574
3829.000000;3.719350
3828.000000;3.730423
3827.000000;3.670405
3826.000000;3.604314
3825.000000;3.610401
3824.000000;3.777860
3823.000000;3.945562
3822.000000;4.075845
3821.000000;3.834150
3820.000000;3.420146
3819.000000;3.518627
3818.000000;3.948671
3817.000000;3.966924
3816.000000;3.870594
3815.000000;3.755437
3814.000000;3.961411
3813.000000;4.512839
3812.000000;4.669309
3811.000000;4.051241
3810.000000;3.909155
3809.000000;3.852642
3808.000000;3.769599
3807.000000;3.690279
3806.000000;3.733169
3805.000000;3.847756
3804.000000;4.040332
3803.000000;4.075322
3802.000000;4.190357
3801.000000;3.991305
3800.000000;3.722765
3799.000000;3.986030
3798.000000;4.242464
3797.000000;4.120217
3796.000000;3.788054
3795.000000;3.631257
3794.000000;3.700192
3793.000000;3.811319
3792.000000;3.814253
3791.000000;3.743757
3790.000000;3.705536
3789.000000;3.786371
3788.000000;3.971134
3787.000000;4.016352
3786.000000;3.932997
3785.000000;4.189700
3784.000000;4.279672
3783.000000;3.777820
3782.000000;3.692165
3781.000000;3.646261
3780.000000;3.638130
3779.000000;3.754171
3778.000000;3.984592
3777.000000;4.087369
3776.000000;4.134924
3775.000000;4.077405
3774.000000;4.036075
3773.000000;4.010416
3772.000000;3.926222
3771.000000;3.923357
3770.000000;3.757207
3769.000000;3.458888
3768.000000;3.598961
3767.000000;3.930449
3766.000000;3.797391
3765.000000;3.770275
3764.000000;3.762533
3763.000000;3.628623
3762.000000;3.589137
3761.000000;3.545343
3760.000000;3.542796
3759.000000;3.655845
3758.000000;3.753534
3757.000000;3.695781
3756.000000;3.675766
3755.000000;3.813339
3754.000000;4.026646
3753.000000;4.195368
3752.000000;4.243518
3751.000000;4.318662
3750.000000;4.652683
3749.000000;4.702143
3748.000000;4.541485
3747.000000;4.608467
3746.000000;4.614631
3745.000000;4.398352
3744.000000;4.152015
3743.000000;4.428370
3742.000000;4.668265
3741.000000;4.571836
3740.000000;4.338121
3739.000000;4.167331
3738.000000;4.163453
3737.000000;4.348307
3736.000000;4.789792
3735.000000;4.415272
3734.000000;4.141282
3733.000000;4.008318
3732.000000;3.897970
3731.000000;3.971886
3730.000000;4.385388
3729.000000;4.877901
3728.000000;5.069863
3727.000000;4.413089
3726.000000;4.060997
3725.000000;4.079991
3724.000000;4.496111
3723.000000;4.428337
3722.000000;4.130647
3721.000000;4.013729
3720.000000;3.915136
3719.000000;3.903718
3718.000000;3.819128
3717.000000;3.691287
3716.000000;3.674108
3715.000000;3.771231
3714.000000;3.851048
3713.000000;3.824096
3712.000000;3.851652
3711.000000;4.120708
3710.000000;3.996009
3709.000000;3.677097
3708.000000;3.602476
3707.000000;3.735528
3706.000000;3.891534
3705.000000;3.889405
3704.000000;3.829677
3703.000000;3.776621
3702.000000;3.810532
3701.000000;4.159935
3700.000000;4.243445
3699.000000;3.943169
3698.000000;3.864958
3697.000000;3.715985
3696.000000;3.561418
3695.000000;3.503607
3694.000000;3.569582
3693.000000;3.818720
3692.000000;3.994629
3691.000000;3.592461
3690.000000;3.469504
3689.000000;3.582396
3688.000000;3.850383
3687.000000;4.483795
3686.000000;4.709400
3685.000000;4.383514
3684.000000;4.159874
3683.000000;3.871423
3682.000000;3.609991
3681.000000;3.501647
3680.000000;3.560608
3679.000000;3.653689
3678.000000;3.602359
3677.000000;3.543375
3676.000000;3.332469
3675.000000;3.162526
3674.000000;3.446469
3673.000000;4.272960
3672.000000;4.801828
3671.000000;4.641406
3670.000000;4.173504
3669.000000;3.836827
3668.000000;3.784175
3667.000000;3.904514
3666.000000;4.011099
3665.000000;3.979144
3664.000000;3.839956
3663.000000;3.685866
3662.000000;3.608248
3661.000000;3.594351
3660.000000;3.646469
3659.000000;3.849763
3658.000000;4.205492
3657.000000;4.253312
3656.000000;3.881602
3655.000000;3.597411
3654.000000;3.576491
3653.000000;3.665598
3652.000000;3.665139
3651.000000;3.631624
3650.000000;3.899205
3649.000000;3.920509
3648.000000;3.583701
3647.000000;3.675049
3646.000000;3.755825
3645.000000;3.882292
3644.000000;3.968606
3643.000000;4.026347
3642.000000;4.213406
3641.000000;3.865528
3640.000000;3.539498
3639.000000;3.471123
3638.000000;3.569266
3637.000000;3.887488
3636.000000;3.776602
3635.000000;3.592163
3634.000000;3.540566
3633.000000;3.607235
3632.000000;3.808758
3631.000000;4.009732
3630.000000;4.148555
3629.000000;4.070112
3628.000000;3.923551
3627.000000;4.147886
3626.000000;4.403146
3625.000000;4.300571
3624.000000;4.092886
3623.000000;4.001872
3622.000000;4.198462
3621.000000;4.255118
3620.000000;3.895798
3619.000000;3.710285
3618.000000;3.694371
3617.000000;3.854847
3616.000000;4.103687
3615.000000;4.297158
3614.000000;4.305952
3613.000000;4.201315
3612.000000;4.052598
3611.000000;3.999142
3610.000000;4.105708
3609.000000;4.608727
3608.000000;4.428858
3607.000000;4.037268
3606.000000;3.934002
3605.000000;3.906172
3604.000000;3.889467
3603.000000;3.856320
3602.000000;3.785354
3601.000000;3.665821
3600.000000;3.533816
3599.000000;3.455169
3598.000000;3.454215
3597.000000;3.521821
3596.000000;3.674315
3595.000000;3.957504
3594.000000;4.261305
3593.000000;4.036646
3592.000000;3.736144
3591.000000;3.619533
3590.000000;3.641861
3589.000000;3.728441
3588.000000;3.802154
3587.000000;3.833814
3586.000000;3.852307
3585.000000;3.877159
3584.000000;3.916870
3583.000000;4.033187
3582.000000;4.170268
3581.000000;4.038794
3580.000000;3.961451
3579.000000;3.902460
3578.000000;3.770506
3577.000000;3.703512
3576.000000;3.754343
3575.000000;3.826989
3574.000000;4.061650
3573.000000;4.811994
3572.000000;4.267128
3571.000000;4.320593
3570.000000;4.270811
3569.000000;4.069009
3568.000000;3.915869
3567.000000;3.847186
3566.000000;3.884366
3565.000000;3.989148
3564.000000;4.125287
3563.000000;4.183022
3562.000000;4.000710
3561.000000;3.756633
3560.000000;3.639022
3559.000000;3.655198
3558.000000;3.711487
3557.000000;3.695906
3556.000000;3.696492
3555.000000;3.856024
3554.000000;4.127443
3553.000000;4.615103
3552.000000;4.151044
3551.000000;3.717906
3550.000000;3.584383
3549.000000;3.603224
3548.000000;3.699582
3547.000000;3.852670
3546.000000;4.144530
3545.000000;4.390664
3544.000000;4.119626
3543.000000;3.984422
3542.000000;4.026127
3541.000000;4.029399
3540.000000;3.805203
3539.000000;3.678857
3538.000000;3.643591
3537.000000;3.645710
3536.000000;3.630323
3535.000000;3.614814
3534.000000;3.666862
3533.000000;3.775831
3532.000000;3.849765
3531.000000;3.876269
3530.000000;3.919428
3529.000000;3.975577
3528.000000;3.938987
3527.000000;3.847881
3526.000000;3.831414
3525.000000;3.892997
3524.000000;3.964168
3523.000000;3.990436
3522.000000;3.986695
3521.000000;3.984911
3520.000000;3.964607
3519.000000;4.171944
3518.000000;4.414669
3517.000000;3.789984
3516.000000;3.625575
3515.000000;3.639847
3514.000000;3.823337
3513.000000;4.237576
3512.000000;4.106267
3511.000000;3.864192
3510.000000;3.897362
3509.000000;4.110931
3508.000000;4.143951
3507.000000;3.816474
3506.000000;3.620256
3505.000000;3.572698
3504.000000;3.667809
3503.000000;3.900906
3502.000000;4.194101
3501.000000;4.302641
3500.000000;4.203537
3499.000000;4.094957
3498.000000;4.027640
3497.000000;3.852141
3496.000000;3.838960
3495.000000;4.204474
3494.000000;3.976116
3493.000000;3.587691
3492.000000;3.469872
3491.000000;3.513770
3490.000000;3.809419
3489.000000;4.045588
3488.000000;3.719455
3487.000000;3.785049
3486.000000;3.925783
3485.000000;3.779000
3484.000000;3.729735
3483.000000;3.810481
3482.000000;3.824505
3481.000000;3.760889
3480.000000;3.747376
3479.000000;3.797224
3478.000000;3.767827
3477.000000;3.582731
3476.000000;3.445452
3475.000000;3.419255
3474.000000;3.463184
3473.000000;3.633055
3472.000000;4.386907
3471.000000;3.745717
3470.000000;3.464283
3469.000000;3.444884
3468.000000;3.562031
3467.000000;3.576278
3466.000000;3.477046
3465.000000;3.552605
3464.000000;3.982594
3463.000000;4.098420
3462.000000;3.654863
3461.000000;3.648819
3460.000000;3.888125
3459.000000;4.254286
3458.000000;3.950620
3457.000000;3.854795
3456.000000;3.938172
3455.000000;4.005434
3454.000000;4.085381
3453.000000;4.413036
3452.000000;3.823528
3451.000000;3.453797
3450.000000;3.328689
3449.000000;3.329475
3448.000000;3.455335
3447.000000;3.803628
3446.000000;4.083150
3445.000000;3.818586
3444.000000;3.837557
3443.000000;3.934439
3442.000000;3.938263
3441.000000;3.814368
3440.000000;3.747382
3439.000000;3.799806
3438.000000;3.731872
3437.000000;3.580833
3436.000000;3.532697
3435.000000;3.554918
3434.000000;3.561964
3433.000000;3.540640
3432.000000;3.554517
3431.000000;3.618550
3430.000000;3.647887
3429.000000;3.570515
3428.000000;3.462210
3427.000000;3.407780
3426.000000;3.418048
3425.000000;3.445347
3424.000000;3.448716
3423.000000;3.454899
3422.000000;3.525514
3421.000000;3.669489
3420.000000;3.806988
3419.000000;3.824473
3418.000000;3.712863
3417.000000;3.606473
3416.000000;3.601358
3415.000000;3.738419
3414.000000;3.695497
3413.000000;3.489012
3412.000000;3.425946
3411.000000;3.423889
3410.000000;3.418839
3409.000000;3.444200
3408.000000;3.533720
3407.000000;3.708941
3406.000000;4.117968
3405.000000;3.877837
3404.000000;3.512179
3403.000000;3.461694
3402.000000;3.579081
3401.000000;3.780831
3400.000000;3.812225
3399.000000;3.767030
3398.000000;3.690511
3397.000000;3.592354
3396.000000;3.567672
3395.000000;3.640900
3394.000000;3.822755
3393.000000;4.039287
3392.000000;3.815621
3391.000000;3.637593
3390.000000;3.627884
3389.000000;3.635431
3388.000000;3.596096
3387.000000;3.586311
3386.000000;3.587971
3385.000000;3.548102
3384.000000;3.500166
3383.000000;3.507113
3382.000000;3.598901
3381.000000;3.785313
3380.000000;4.025959
3379.000000;4.356444
3378.000000;4.509170
3377.000000;4.192870
3376.000000;4.027583
3375.000000;3.861141
3374.000000;3.736575
3373.000000;3.792961
3372.000000;3.932598
3371.000000;3.802917
3370.000000;3.750503
3369.000000;3.891174
3368.000000;4.059536
3367.000000;4.065891
3366.000000;3.835386
3365.000000;3.688972
3364.000000;3.754312
3363.000000;4.145471
3362.000000;4.576611
3361.000000;4.308560
3360.000000;4.209864
3359.000000;3.903584
3358.000000;3.822349
3357.000000;3.754295
3356.000000;3.532620
3355.000000;3.398305
3354.000000;3.372471
3353.000000;3.427025
3352.000000;3.569109
3351.000000;3.794255
3350.000000;3.922028
3349.000000;3.779393
3348.000000;3.658496
3347.000000;3.676791
3346.000000;3.974035
3345.000000;4.048742
3344.000000;3.724120
3343.000000;3.621540
3342.000000;3.678936
3341.000000;3.985517
3340.000000;3.877205
3339.000000;3.676659
3338.000000;3.790923
3337.000000;4.254813
3336.000000;4.004680
3335.000000;3.659452
3334.000000;3.526313
3333.000000;3.552373
3332.000000;3.684391
3331.000000;3.766936
3330.000000;3.978397
3329.000000;3.919172
3328.000000;3.570529
3327.000000;3.422241
3326.000000;3.322694
3325.000000;3.281175
3324.000000;3.328597
3323.000000;3.490215
3322.000000;3.783788
3321.000000;4.045350
3320.000000;4.015793
3319.000000;4.093248
3318.000000;4.247117
3317.000000;4.361355
3316.000000;4.328047
3315.000000;3.793159
3314.000000;3.574761
3313.000000;3.540184
3312.000000;3.564047
3311.000000;3.644907
3310.000000;3.922014
3309.000000;3.857130
3308.000000;3.454993
3307.000000;3.315491
3306.000000;3.323551
3305.000000;3.392294
3304.000000;3.436419
3303.000000;3.418026
3302.000000;3.391064
3301.000000;3.444059
3300.000000;3.628299
3299.000000;3.825484
3298.000000;3.883862
3297.000000;3.856050
3296.000000;3.840024
3295.000000;3.882823
3294.000000;3.898144
3293.000000;3.770976
3292.000000;3.547682
3291.000000;3.427132
3290.000000;3.429564
3289.000000;3.516317
3288.000000;3.646301
3287.000000;3.823223
3286.000000;4.067598
3285.000000;4.096803
3284.000000;3.938220
3283.000000;3.902670
3282.000000;4.001237
3281.000000;3.913403
3280.000000;3.636902
3279.000000;3.623052
3278.000000;3.900185
3277.000000;3.722491
3276.000000;3.531994
3275.000000;3.676140
3274.000000;3.929900
3273.000000;3.894770
3272.000000;3.883456
3271.000000;3.909867
3270.000000;3.865895
3269.000000;3.788278
3268.000000;3.711910
3267.000000;3.630976
3266.000000;3.518677
3265.000000;3.385474
3264.000000;3.275862
3263.000000;3.230016
3262.000000;3.258071
3261.000000;3.354485
3260.000000;3.511742
3259.000000;3.737881
3258.000000;4.090293
3257.000000;4.201077
3256.000000;4.149267
3255.000000;4.265185
3254.000000;4.098974
3253.000000;3.937220
3252.000000;3.999325
3251.000000;4.324603
3250.000000;4.026285
3249.000000;3.579048
3248.000000;3.437056
3247.000000;3.463980
3246.000000;3.667423
3245.000000;4.046720
3244.000000;3.886409
3243.000000;3.637023
3242.000000;3.612164
3241.000000;3.744961
3240.000000;3.906680
3239.000000;3.745832
3238.000000;3.598280
3237.000000;3.576255
3236.000000;3.635393
3235.000000;3.782415
3234.000000;3.966330
3233.000000;3.987361
3232.000000;3.834705
3231.000000;3.781262
3230.000000;3.872453
3229.000000;3.838959
3228.000000;3.625103
3227.000000;3.446831
3226.000000;3.394776
3225.000000;3.479301
3224.000000;3.638434
3223.000000;3.762903
3222.000000;3.831297
3221.000000;3.762325
3220.000000;3.602103
3219.000000;3.495061
3218.000000;3.468763
3217.000000;3.507791
3216.000000;3.534327
3215.000000;3.559581
3214.000000;3.611180
3213.000000;3.577889
3212.000000;3.542781
3211.000000;3.618666
3210.000000;3.735440
3209.000000;3.895872
3208.000000;4.592970
3207.000000;4.006863
3206.000000;3.690789
3205.000000;3.586735
3204.000000;3.480685
3203.000000;3.456928
3202.000000;3.515769
3201.000000;3.600804
3200.000000;3.647847
3199.000000;3.678449
3198.000000;3.768604
3197.000000;3.917395
3196.000000;4.054310
3195.000000;4.108518
3194.000000;3.931795
3193.000000;3.825536
3192.000000;3.989301
3191.000000;4.499661
3190.000000;4.249737
3189.000000;3.725302
3188.000000;3.482775
3187.000000;3.411072
3186.000000;3.461978
3185.000000;3.684652
3184.000000;4.134013
3183.000000;3.756878
3182.000000;3.501636
3181.000000;3.428727
3180.000000;3.387762
3179.000000;3.420589
3178.000000;3.577575
3177.000000;3.840150
3176.000000;3.754996
3175.000000;3.679396
3174.000000;3.812228
3173.000000;4.213808
3172.000000;4.231543
3171.000000;3.780778
3170.000000;3.662249
3169.000000;3.767734
3168.000000;3.960369
3167.000000;3.682925
3166.000000;3.515453
3165.000000;3.458718
3164.000000;3.377339
3163.000000;3.324507
3162.000000;3.339552
3161.000000;3.445154
3160.000000;3.618829
3159.000000;3.686970
3158.000000;3.694002
3157.000000;3.746145
3156.000000;3.707934
3155.000000;3.661942
3154.000000;3.641765
3153.000000;3.614119
3152.000000;3.705400
3151.000000;3.770424
3150.000000;3.546017
3149.000000;3.418729
3148.000000;3.420137
3147.000000;3.456923
3146.000000;3.457057
3145.000000;3.404443
3144.000000;3.338890
3143.000000;3.308355
3142.000000;3.370924
3141.000000;3.572031
3140.000000;3.823574
3139.000000;3.819388
3138.000000;3.733550
3137.000000;3.743939
3136.000000;3.738971
3135.000000;3.594971
3134.000000;3.459529
3133.000000;3.407479
3132.000000;3.404943
3131.000000;3.446680
3130.000000;3.564500
3129.000000;3.819819
3128.000000;4.300047
3127.000000;4.314970
3126.000000;4.388785
3125.000000;4.223210
3124.000000;3.801099
3123.000000;3.639519
3122.000000;3.673908
3121.000000;3.856150
3120.000000;3.849459
3119.000000;3.703026
3118.000000;3.696854
3117.000000;3.849606
3116.000000;4.023042
3115.000000;3.854458
3114.000000;3.648653
3113.000000;3.574133
3112.000000;3.619180
3111.000000;3.719836
3110.000000;3.880007
3109.000000;3.899059
3108.000000;3.796103
3107.000000;3.892295
3106.000000;4.026201
3105.000000;3.983581
3104.000000;3.948507
3103.000000;4.220319
3102.000000;4.118725
3101.000000;3.822562
3100.000000;4.065886
3099.000000;4.100408
3098.000000;3.662092
3097.000000;3.503127
3096.000000;3.469581
3095.000000;3.501902
3094.000000;3.701787
3093.000000;3.915519
3092.000000;3.601683
3091.000000;3.489626
3090.000000;3.453503
3089.000000;3.396609
3088.000000;3.426620
3087.000000;3.617196
3086.000000;4.103637
3085.000000;3.986656
3084.000000;3.590499
3083.000000;3.463436
3082.000000;3.375253
3081.000000;3.307516
3080.000000;3.315312
3079.000000;3.419273
3078.000000;3.581988
3077.000000;3.704534
3076.000000;3.673057
3075.000000;3.559511
3074.000000;3.522135
3073.000000;3.571100
3072.000000;3.498522
3071.000000;3.366883
3070.000000;3.343262
3069.000000;3.501020
3068.000000;3.990871
3067.000000;4.033200
3066.000000;3.798576
3065.000000;3.718720
3064.000000;3.608478
3063.000000;3.559455
3062.000000;3.716097
3061.000000;3.902129
3060.000000;3.649726
3059.000000;3.505892
3058.000000;3.561257
3057.000000;3.809863
3056.000000;3.690443
3055.000000;3.441758
3054.000000;3.432180
3053.000000;3.787155
3052.000000;3.987225
3051.000000;3.539787
3050.000000;3.511838
3049.000000;3.886008
3048.000000;4.092682
3047.000000;3.637799
3046.000000;3.446601
3045.000000;3.391031
3044.000000;3.431692
3043.000000;3.601183
3042.000000;3.932264
3041.000000;4.199479
3040.000000;4.000575
3039.000000;3.958181
3038.000000;3.970768
3037.000000;3.703971
3036.000000;3.507214
3035.000000;3.458633
3034.000000;3.510687
3033.000000;3.662683
3032.000000;3.913920
3031.000000;3.772212
3030.000000;3.490902
3029.000000;3.430404
3028.000000;3.493587
3027.000000;3.492991
3026.000000;3.429163
3025.000000;3.433713
3024.000000;3.490508
3023.000000;3.546451
3022.000000;3.613705
3021.000000;3.621574
3020.000000;3.537322
3019.000000;3.499474
3018.000000;3.670424
3017.000000;3.953574
3016.000000;3.573962
3015.000000;3.396161
3014.000000;3.427339
3013.000000;3.571306
3012.000000;3.804423
3011.000000;3.905591
3010.000000;4.129043
3009.000000;4.764069
3008.000000;4.178067
3007.000000;3.903116
3006.000000;3.673339
3005.000000;3.521893
3004.000000;3.462593
3003.000000;3.437376
3002.000000;3.435463
3001.000000;3.533445
3000.000000;3.871023
2999.000000;3.932250
2998.000000;3.637612
2997.000000;3.472651
2996.000000;3.376889
2995.000000;3.448379
2994.000000;3.778141
2993.000000;3.721284
2992.000000;3.460367
2991.000000;3.411551
2990.000000;3.474361
2989.000000;3.589169
2988.000000;3.643086
2987.000000;3.613548
2986.000000;3.556929
2985.000000;3.503126
2984.000000;3.501062
2983.000000;3.518749
2982.000000;3.448541
2981.000000;3.371911
2980.000000;3.401276
2979.000000;3.536131
2978.000000;3.888297
2977.000000;4.026028
2976.000000;3.582984
2975.000000;3.539974
2974.000000;3.749015
2973.000000;3.667667
2972.000000;3.514294
2971.000000;3.605014
2970.000000;3.749050
2969.000000;3.965992
2968.000000;4.661231
2967.000000;4.458958
2966.000000;4.715356
2965.000000;4.239892
2964.000000;3.821047
2963.000000;3.614885
2962.000000;3.507830
2961.000000;3.520097
2960.000000;3.560387
2959.000000;3.572784
2958.000000;3.575435
2957.000000;3.664289
2956.000000;4.011832
2955.000000;4.036183
2954.000000;3.661870
2953.000000;3.579016
2952.000000;3.581238
2951.000000;3.604800
2950.000000;3.877684
2949.000000;4.307478
2948.000000;3.808244
2947.000000;3.555652
2946.000000;3.432955
2945.000000;3.388278
2944.000000;3.433242
2943.000000;3.500592
2942.000000;3.530169
2941.000000;3.512263
2940.000000;3.471050
2939.000000;3.480076
2938.000000;3.635615
2937.000000;4.055447
2936.000000;4.303153
2935.000000;3.758210
2934.000000;3.503868
2933.000000;3.414537
2932.000000;3.412435
2931.000000;3.489282
2930.000000;3.688638
2929.000000;4.054136
2928.000000;4.038825
2927.000000;3.766962
2926.000000;3.704202
2925.000000;3.713257
2924.000000;3.694409
2923.000000;3.728961
2922.000000;3.899780
2921.000000;4.253860
2920.000000;4.361140
2919.000000;4.266718
2918.000000;4.078851
2917.000000;3.920250
2916.000000;3.807910
2915.000000;3.591488
2914.000000;3.542770
2913.000000;3.675726
2912.000000;3.758856
2911.000000;3.849681
2910.000000;3.844352
2909.000000;3.731618
2908.000000;3.820845
2907.000000;3.809231
2906.000000;3.564008
2905.000000;3.425478
2904.000000;3.436344
2903.000000;3.582795
2902.000000;3.733648
2901.000000;3.684433
2900.000000;3.635445
2899.000000;3.805919
2898.000000;3.750904
2897.000000;3.481928
2896.000000;3.447235
2895.000000;3.529651
2894.000000;3.668384
2893.000000;3.912225
2892.000000;3.843217
2891.000000;3.574361
2890.000000;3.494076
2889.000000;3.532506
2888.000000;3.759687
2887.000000;4.067572
2886.000000;3.662065
2885.000000;3.445174
2884.000000;3.436600
2883.000000;3.530999
2882.000000;3.760813
2881.000000;4.243072
2880.000000;4.594547
2879.000000;4.226093
2878.000000;4.156273
2877.000000;4.239353
2876.000000;4.146298
2875.000000;3.838029
2874.000000;3.617703
2873.000000;3.548470
2872.000000;3.501263
2871.000000;3.378838
2870.000000;3.320248
2869.000000;3.385708
2868.000000;3.661467
2867.000000;3.968951
2866.000000;3.674833
2865.000000;3.571718
2864.000000;3.578064
2863.000000;3.493092
2862.000000;3.432935
2861.000000;3.444753
2860.000000;3.525875
2859.000000;3.692959
2858.000000;3.935949
2857.000000;4.374348
2856.000000;4.396146
2855.000000;3.964384
2854.000000;3.833595
2853.000000;3.865511
2852.000000;3.942533
2851.000000;4.056863
2850.000000;4.265302
2849.000000;4.026571
2848.000000;3.940587
2847.000000;3.938093
2846.000000;3.788364
2845.000000;3.731322
2844.000000;3.751632
2843.000000;3.823886
2842.000000;3.748818
2841.000000;3.568720
2840.000000;3.545628
2839.000000;3.683946
2838.000000;3.727016
2837.000000;3.582738
2836.000000;3.498882
2835.000000;3.517491
2834.000000;3.607088
2833.000000;3.699347
2832.000000;3.834327
2831.000000;4.229336
2830.000000;4.586093
2829.000000;4.071637
2828.000000;3.722406
2827.000000;3.499612
2826.000000;3.398650
2825.000000;3.409286
2824.000000;3.495620
2823.000000;3.704040
2822.000000;4.166423
2821.000000;4.796857
2820.000000;4.142978
2819.000000;3.681409
2818.000000;3.583670
2817.000000;3.633688
2816.000000;3.654487
2815.000000;3.660746
2814.000000;3.611627
2813.000000;3.510343
2812.000000;3.473972
2811.000000;3.561800
2810.000000;3.686115
2809.000000;3.665584
2808.000000;3.588820
2807.000000;3.571383
2806.000000;3.641210
2805.000000;3.747473
2804.000000;3.767208
2803.000000;3.737010
2802.000000;3.694051
2801.000000;3.604469
2800.000000;3.539436
2799.000000;3.533381
2798.000000;3.552603
2797.000000;3.575131
2796.000000;3.674740
2795.000000;3.840281
2794.000000;3.813402
2793.000000;3.616882
2792.000000;3.473910
2791.000000;3.454175
2790.000000;3.531009
2789.000000;3.713002
2788.000000;3.820012
2787.000000;3.538898
2786.000000;3.348962
2785.000000;3.304710
2784.000000;3.390405
2783.000000;3.724441
2782.000000;3.723842
2781.000000;3.436269
2780.000000;3.400029
2779.000000;3.462608
2778.000000;3.547288
2777.000000;3.609180
2776.000000;3.587359
2775.000000;3.552796
2774.000000;3.521392
2773.000000;3.460258
2772.000000;3.442695
2771.000000;3.564948
2770.000000;3.785555
2769.000000;3.733194
2768.000000;3.628118
2767.000000;3.893113
2766.000000;4.152752
2765.000000;3.705221
2764.000000;3.670224
2763.000000;3.959094
2762.000000;4.010201
2761.000000;3.593454
2760.000000;3.421056
2759.000000;3.351792
2758.000000;3.318567
2757.000000;3.313653
2756.000000;3.338410
2755.000000;3.416014
2754.000000;3.584640
2753.000000;4.104006
2752.000000;4.253469
2751.000000;3.858437
2750.000000;3.895135
2749.000000;3.892347
2748.000000;3.685713
2747.000000;3.549356
2746.000000;3.750982
2745.000000;4.314958
2744.000000;3.682648
2743.000000;3.468565
2742.000000;3.387046
2741.000000;3.358034
2740.000000;3.432071
2739.000000;3.558979
2738.000000;3.803358
2737.000000;4.176977
2736.000000;4.160285
2735.000000;3.686099
2734.000000;3.455763
2733.000000;3.403230
2732.000000;3.508321
2731.000000;4.051698
2730.000000;4.173445
2729.000000;3.719579
2728.000000;3.724620
2727.000000;3.714866
2726.000000;3.656746
2725.000000;3.494670
2724.000000;3.338914
2723.000000;3.266675
2722.000000;3.227750
2721.000000;3.197065
2720.000000;3.160390
2719.000000;3.137084
2718.000000;3.156318
2717.000000;3.264360
2716.000000;3.405386
2715.000000;3.406864
2714.000000;3.419908
2713.000000;3.564742
2712.000000;3.713734
2711.000000;3.688979
2710.000000;3.725892
2709.000000;4.023799
2708.000000;4.024805
2707.000000;3.685651
2706.000000;3.513445
2705.000000;3.461844
2704.000000;3.548890
2703.000000;3.787673
2702.000000;4.225900
2701.000000;4.083045
2700.000000;3.712751
2699.000000;3.595718
2698.000000;3.652185
2697.000000;4.013675
2696.000000;4.140095
2695.000000;3.679139
2694.000000;3.469783
2693.000000;3.394721
2692.000000;3.414815
2691.000000;3.506472
2690.000000;3.600965
2689.000000;3.823495
2688.000000;4.299183
2687.000000;3.978708
2686.000000;3.654335
2685.000000;3.512967
2684.000000;3.475396
2683.000000;3.530990
2682.000000;3.847309
2681.000000;4.131130
2680.000000;3.624362
2679.000000;3.449072
2678.000000;3.441690
2677.000000;3.578845
2676.000000;3.868457
2675.000000;3.894839
2674.000000;3.662125
2673.000000;3.529823
2672.000000;3.495280
2671.000000;3.582171
2670.000000;3.797063
2669.000000;3.614648
2668.000000;3.442243
2667.000000;3.453700
2666.000000;3.660734
2665.000000;4.361546
2664.000000;3.915441
2663.000000;3.820581
2662.000000;4.306624
2661.000000;3.983602
2660.000000;3.761095
2659.000000;3.714934
2658.000000;4.014870
2657.000000;4.307134
2656.000000;3.621026
2655.000000;3.428428
2654.000000;3.379797
2653.000000;3.364783
2652.000000;3.342647
2651.000000;3.347241
2650.000000;3.440024
2649.000000;3.587259
2648.000000;3.804745
2647.000000;4.024265
2646.000000;3.961585
2645.000000;3.808887
2644.000000;3.720331
2643.000000;3.511952
2642.000000;3.334213
2641.000000;3.298842
2640.000000;3.373412
2639.000000;3.697098
2638.000000;3.970541
2637.000000;3.491657
2636.000000;3.367482
2635.000000;3.407111
2634.000000;3.458625
2633.000000;3.494007
2632.000000;3.483894
2631.000000;3.493991
2630.000000;3.614002
2629.000000;3.629256
2628.000000;3.413155
2627.000000;3.362561
2626.000000;3.406303
2625.000000;3.310129
2624.000000;3.212609
2623.000000;3.229920
2622.000000;3.373048
2621.000000;3.524538
2620.000000;3.396291
2619.000000;3.274597
2618.000000;3.339361
2617.000000;3.526244
2616.000000;3.505850
2615.000000;3.384843
2614.000000;3.409705
2613.000000;3.700413
2612.000000;3.901265
2611.000000;3.526707
2610.000000;3.482517
2609.000000;3.618770
2608.000000;3.944159
2607.000000;4.115489
2606.000000;3.645271
2605.000000;3.562767
2604.000000;3.689495
2603.000000;3.684111
2602.000000;3.471670
2601.000000;3.389799
2600.000000;3.719234
2599.000000;4.070993
2598.000000;3.485835
2597.000000;3.322842
2596.000000;3.289697
2595.000000;3.399469
2594.000000;3.532985
2593.000000;3.350229
2592.000000;3.223059
2591.000000;3.367874
2590.000000;3.586769
2589.000000;3.320593
2588.000000;3.197846
2587.000000;3.329683
2586.000000;3.796123
2585.000000;3.765747
2584.000000;3.367151
2583.000000;3.307668
2582.000000;3.477458
2581.000000;3.574677
2580.000000;3.390594
2579.000000;3.362113
2578.000000;3.332287
2577.000000;3.192301
2576.000000;3.107765
2575.000000;3.104032
2574.000000;3.163137
2573.000000;3.223615
2572.000000;3.192297
2571.000000;3.125208
2570.000000;3.137155
2569.000000;3.177183
2568.000000;3.146211
2567.000000;3.055909
2566.000000;3.012508
2565.000000;3.049700
2564.000000;3.255648
2563.000000;3.771825
2562.000000;3.563934
2561.000000;3.345401
2560.000000;3.335909
2559.000000;3.248951
2558.000000;3.247662
2557.000000;3.301974
2556.000000;3.513926
2555.000000;4.071279
2554.000000;3.477955
2553.000000;3.179688
2552.000000;3.120379
2551.000000;3.135346
2550.000000;3.154657
2549.000000;3.167976
2548.000000;3.181586
2547.000000;3.141921
2546.000000;3.101556
2545.000000;3.074577
2544.000000;3.064786
2543.000000;3.113033
2542.000000;3.271942
2541.000000;3.317040
2540.000000;3.167364
2539.000000;3.124469
2538.000000;3.225674
2537.000000;3.367507
2536.000000;3.324779
2535.000000;3.222762
2534.000000;3.140176
2533.000000;3.050377
2532.000000;3.027927
2531.000000;3.092818
2530.000000;3.155903
2529.000000;3.116317
2528.000000;3.068511
2527.000000;3.077955
2526.000000;3.204602
2525.000000;3.446666
2524.000000;3.350582
2523.000000;3.156591
2522.000000;3.118719
2521.000000;3.178627
2520.000000;3.406401
2519.000000;3.577166
2518.000000;3.310869
2517.000000;3.187568
2516.000000;3.208602
2515.000000;3.207794
2514.000000;3.157498
2513.000000;3.152124
2512.000000;3.215502
2511.000000;3.220868
2510.000000;3.089699
2509.000000;2.976886
2508.000000;2.960495
2507.000000;2.994474
2506.000000;2.991021
2505.000000;2.960985
2504.000000;2.955830
2503.000000;2.962584
2502.000000;2.986045
2501.000000;3.041215
2500.000000;3.106506
2499.000000;3.165820
2498.000000;3.202581
2497.000000;3.209519
2496.000000;3.273844
2495.000000;3.371766
2494.000000;3.283804
2493.000000;3.136846
2492.000000;3.069599
2491.000000;3.073263
2490.000000;3.164924
2489.000000;3.357270
2488.000000;3.509156
2487.000000;3.503544
2486.000000;3.428302
2485.000000;3.273981
2484.000000;3.137801
2483.000000;3.060093
2482.000000;3.030187
2481.000000;3.063088
2480.000000;3.145072
2479.000000;3.190871
2478.000000;3.174127
2477.000000;3.169253
2476.000000;3.207474
2475.000000;3.315264
2474.000000;3.376267
2473.000000;3.266122
2472.000000;3.196602
2471.000000;3.213815
2470.000000;3.299890
2469.000000;3.412226
2468.000000;3.349086
2467.000000;3.228879
2466.000000;3.221992
2465.000000;3.285740
2464.000000;3.314318
2463.000000;3.265675
2462.000000;3.207398
2461.000000;3.190034
2460.000000;3.246208
2459.000000;3.313695
2458.000000;3.365749
2457.000000;3.599262
2456.000000;3.619995
2455.000000;3.304557
2454.000000;3.158636
2453.000000;3.112260
2452.000000;3.123938
2451.000000;3.200201
2450.000000;3.274632
2449.000000;3.246318
2448.000000;3.219821
2447.000000;3.260562
2446.000000;3.306126
2445.000000;3.320595
2444.000000;3.312992
2443.000000;3.333353
2442.000000;3.362910
2441.000000;3.288172
2440.000000;3.196272
2439.000000;3.209938
2438.000000;3.307097
2437.000000;3.386733
2436.000000;3.399190
2435.000000;3.363718
2434.000000;3.335629
2433.000000;3.375112
2432.000000;3.424402
2431.000000;3.477287
2430.000000;3.582888
2429.000000;3.550647
2428.000000;3.442493
2427.000000;3.411722
2426.000000;3.391951
2425.000000;3.386413
2424.000000;3.424456
2423.000000;3.407251
2422.000000;3.337163
2421.000000;3.278337
2420.000000;3.230795
2419.000000;3.236228
2418.000000;3.354395
2417.000000;3.657230
2416.000000;3.710006
2415.000000;3.399000
2414.000000;3.271122
2413.000000;3.278893
2412.000000;3.447306
2411.000000;3.779835
2410.000000;3.922333
2409.000000;3.795213
2408.000000;3.571423
2407.000000;3.405590
2406.000000;3.368185
2405.000000;3.355593
2404.000000;3.316930
2403.000000;3.302261
2402.000000;3.340404
2401.000000;3.443835
2400.000000;3.755781
2399.000000;4.227693
2398.000000;3.796551
2397.000000;3.626841
2396.000000;3.607037
2395.000000;3.649300
2394.000000;3.715088
2393.000000;3.681881
2392.000000;3.730741
2391.000000;4.116759
2390.000000;4.452380
2389.000000;3.743129
2388.000000;3.485640
2387.000000;3.383815
2386.000000;3.410319
2385.000000;3.573347
2384.000000;3.676173
2383.000000;3.631231
2382.000000;3.547934
2381.000000;3.515977
2380.000000;3.588414
2379.000000;3.787290
2378.000000;4.213362
2377.000000;4.264111
2376.000000;3.810877
2375.000000;3.562779
2374.000000;3.409627
2373.000000;3.295079
2372.000000;3.214037
2371.000000;3.229142
2370.000000;3.397279
2369.000000;3.719380
2368.000000;3.880399
2367.000000;4.025262
2366.000000;4.552769
2365.000000;4.122560
2364.000000;3.818993
2363.000000;3.662260
2362.000000;3.633016
2361.000000;3.662744
2360.000000;3.587271
2359.000000;3.524623
2358.000000;3.595194
2357.000000;3.815612
2356.000000;4.110768
2355.000000;4.392447
2354.000000;4.427158
2353.000000;3.957241
2352.000000;3.784951
2351.000000;3.732156
2350.000000;3.829583
2349.000000;4.646100
2348.000000;4.110226
2347.000000;3.712078
2346.000000;3.698978
2345.000000;3.683160
2344.000000;3.716124
2343.000000;3.794757
2342.000000;4.070208
2341.000000;4.733301
2340.000000;4.004634
2339.000000;3.742753
2338.000000;3.689263
2337.000000;3.702563
2336.000000;3.750485
2335.000000;3.792806
2334.000000;3.891191
2333.000000;3.792078
2332.000000;3.653972
2331.000000;3.653393
2330.000000;3.751371
2329.000000;4.187116
2328.000000;4.343962
2327.000000;3.870590
2326.000000;3.796529
2325.000000;3.721750
2324.000000;3.629214
2323.000000;3.633849
2322.000000;3.738179
2321.000000;3.893975
2320.000000;3.917767
2319.000000;3.685223
2318.000000;3.508733
2317.000000;3.477854
2316.000000;3.526510
2315.000000;3.639954
2314.000000;3.801842
2313.000000;4.042292
2312.000000;4.170651
2311.000000;4.041868
2310.000000;3.985955
2309.000000;3.807482
2308.000000;3.634733
2307.000000;3.596975
2306.000000;3.862774
2305.000000;3.917737
2304.000000;3.493446
2303.000000;3.393028
2302.000000;3.443657
2301.000000;3.655924
2300.000000;4.082642
2299.000000;4.019807
2298.000000;3.802224
2297.000000;3.710605
2296.000000;3.721769
2295.000000;3.946622
2294.000000;4.537872
2293.000000;4.201916
2292.000000;3.783353
2291.000000;3.589614
2290.000000;3.526617
2289.000000;3.605066
2288.000000;3.738713
2287.000000;3.679445
2286.000000;3.460531
2285.000000;3.298822
2284.000000;3.263855
2283.000000;3.365280
2282.000000;3.590528
2281.000000;3.899397
2280.000000;4.140466
2279.000000;4.327471
2278.000000;4.084672
2277.000000;3.668570
2276.000000;3.475846
2275.000000;3.470148
2274.000000;3.723763
2273.000000;4.133006
2272.000000;4.046988
2271.000000;4.118548
2270.000000;4.315276
2269.000000;4.075497
2268.000000;3.895478
2267.000000;3.820408
2266.000000;3.797485
2265.000000;3.736091
2264.000000;3.889866
2263.000000;4.626141
2262.000000;4.051076
2261.000000;3.707492
2260.000000;3.561524
2259.000000;3.516597
2258.000000;3.707208
2257.000000;3.924915
2256.000000;3.826112
2255.000000;3.796936
2254.000000;3.864240
2253.000000;4.058196
2252.000000;4.212925
2251.000000;4.046165
2250.000000;4.047136
2249.000000;4.402341
2248.000000;4.179247
2247.000000;3.750925
2246.000000;3.588835
2245.000000;3.625603
2244.000000;3.775263
2243.000000;3.597265
2242.000000;3.456041
2241.000000;3.490777
2240.000000;3.567579
2239.000000;3.731320
2238.000000;4.028227
2237.000000;3.935539
2236.000000;3.687224
2235.000000;3.575496
2234.000000;3.615792
2233.000000;3.860796
2232.000000;3.777582
2231.000000;3.582803
2230.000000;3.625647
2229.000000;3.771434
2228.000000;3.863475
2227.000000;3.773017
2226.000000;3.596253
2225.000000;3.494611
2224.000000;3.631218
2223.000000;3.933723
2222.000000;3.680960
2221.000000;3.481250
2220.000000;3.476189
2219.000000;3.514440
2218.000000;3.550348
2217.000000;3.627329
2216.000000;3.685950
2215.000000;3.779273
2214.000000;4.184635
2213.000000;4.340766
2212.000000;4.103158
2211.000000;3.906396
2210.000000;3.751501
2209.000000;3.958766
2208.000000;4.103463
2207.000000;3.767147
2206.000000;3.697056
2205.000000;3.729707
2204.000000;3.714206
2203.000000;3.724292
2202.000000;3.848828
2201.000000;3.837837
2200.000000;3.723621
2199.000000;3.726394
2198.000000;3.681040
2197.000000;3.689445
2196.000000;3.810367
2195.000000;3.881383
2194.000000;3.827569
2193.000000;3.754435
2192.000000;3.647140
2191.000000;3.621087
2190.000000;3.920818
2189.000000;4.190383
2188.000000;3.708564
2187.000000;3.485760
2186.000000;3.420588
2185.000000;3.368888
2184.000000;3.326170
2183.000000;3.344048
2182.000000;3.441150
2181.000000;3.560290
2180.000000;3.584715
2179.000000;3.608728
2178.000000;3.779032
2177.000000;4.039451
2176.000000;4.170879
2175.000000;4.245543
2174.000000;3.959119
2173.000000;3.704587
2172.000000;3.747663
2171.000000;3.832737
2170.000000;3.715362
2169.000000;3.651289
2168.000000;3.729402
2167.000000;3.877627
2166.000000;3.918123
2165.000000;3.893964
2164.000000;3.897846
2163.000000;3.843525
2162.000000;3.782476
2161.000000;4.024521
2160.000000;4.175053
2159.000000;3.730224
2158.000000;3.591832
2157.000000;3.609137
2156.000000;3.709880
2155.000000;4.080064
2154.000000;4.260003
2153.000000;3.992032
2152.000000;4.267895
2151.000000;4.485063
2150.000000;3.936283
2149.000000;3.688409
2148.000000;3.628898
2147.000000;3.711874
2146.000000;3.800007
2145.000000;4.001559
2144.000000;4.013794
2143.000000;3.696380
2142.000000;3.711491
2141.000000;3.823247
2140.000000;3.858675
2139.000000;4.187113
2138.000000;4.404990
2137.000000;4.226472
2136.000000;4.073580
2135.000000;3.899558
2134.000000;3.941088
2133.000000;4.001353
2132.000000;4.146443
2131.000000;4.300443
2130.000000;3.876977
2129.000000;3.777105
2128.000000;3.869587
2127.000000;4.030359
2126.000000;4.025510
2125.000000;3.717879
2124.000000;3.628140
2123.000000;3.722427
2122.000000;4.102172
2121.000000;4.263542
2120.000000;3.837214
2119.000000;3.775601
2118.000000;3.790981
2117.000000;3.813269
2116.000000;3.958340
2115.000000;3.993494
2114.000000;3.872776
2113.000000;3.684337
2112.000000;3.512933
2111.000000;3.429074
2110.000000;3.503699
2109.000000;3.951185
2108.000000;4.024188
2107.000000;3.651684
2106.000000;3.589883
2105.000000;3.617713
2104.000000;3.682951
2103.000000;4.051028
2102.000000;4.051864
2101.000000;3.934784
2100.000000;4.550223
2099.000000;3.646918
2098.000000;3.391114
2097.000000;3.411985
2096.000000;3.567768
2095.000000;3.864598
2094.000000;3.790292
2093.000000;3.607936
2092.000000;3.542502
2091.000000;3.793594
2090.000000;4.084066
2089.000000;3.769251
2088.000000;3.714716
2087.000000;3.775747
2086.000000;3.876190
2085.000000;3.917809
2084.000000;3.777364
2083.000000;3.718196
2082.000000;3.861844
2081.000000;3.946636
2080.000000;3.676689
2079.000000;3.542947
2078.000000;3.567839
2077.000000;3.684824
2076.000000;3.645583
2075.000000;3.544027
2074.000000;3.510718
2073.000000;3.709700
2072.000000;4.338452
2071.000000;3.721351
2070.000000;3.461214
2069.000000;3.447895
2068.000000;3.513457
2067.000000;3.611083
2066.000000;3.632223
2065.000000;3.621746
2064.000000;3.536607
2063.000000;3.504476
2062.000000;3.675734
2061.000000;4.087974
2060.000000;4.048040
2059.000000;3.768001
2058.000000;3.689548
2057.000000;3.769543
2056.000000;3.983404
2055.000000;4.231196
2054.000000;4.305390
2053.000000;4.025054
2052.000000;3.975480
2051.000000;4.092230
2050.000000;4.213542
2049.000000;4.300821
2048.000000;4.033714
2047.000000;4.151458
2046.000000;4.694220
2045.000000;4.545015
2044.000000;4.021144
2043.000000;3.746353
2042.000000;3.778387
2041.000000;3.988810
2040.000000;3.961164
2039.000000;3.794012
2038.000000;3.777432
2037.000000;3.686208
2036.000000;3.614778
2035.000000;3.697464
2034.000000;3.698234
2033.000000;3.537040
2032.000000;3.401043
2031.000000;3.380766
2030.000000;3.476220
2029.000000;3.690297
2028.000000;4.003327
2027.000000;3.919097
2026.000000;3.680269
2025.000000;3.598447
2024.000000;3.612495
2023.000000;3.838119
2022.000000;4.133015
2021.000000;3.963288
2020.000000;3.746719
2019.000000;3.494592
2018.000000;3.399182
2017.000000;3.470050
2016.000000;3.672451
2015.000000;3.819554
2014.000000;3.649512
2013.000000;3.504455
2012.000000;3.492229
2011.000000;3.605232
2010.000000;3.671895
2009.000000;3.630981
2008.000000;3.569793
2007.000000;3.531189
2006.000000;3.669145
2005.000000;3.861843
2004.000000;3.631086
2003.000000;3.470506
2002.000000;3.504042
2001.000000;3.582222
2000.000000;3.595488
1999.000000;3.519099
1998.000000;3.673748
1997.000000;4.101457
1996.000000;3.718096
1995.000000;3.565280
1994.000000;3.655705
1993.000000;3.831591
1992.000000;4.007801
1991.000000;3.890729
1990.000000;3.777706
1989.000000;3.879442
1988.000000;4.068495
1987.000000;4.130442
1986.000000;4.358401
1985.000000;4.013678
1984.000000;3.637508
1983.000000;3.494880
1982.000000;3.481474
1981.000000;3.606204
1980.000000;3.828282
1979.000000;3.877082
1978.000000;4.095446
1977.000000;4.432474
1976.000000;4.105401
1975.000000;4.219163
1974.000000;4.308377
1973.000000;4.096727
1972.000000;4.065678
1971.000000;3.813610
1970.000000;3.601807
1969.000000;3.505198
1968.000000;3.589846
1967.000000;4.049603
1966.000000;3.854673
1965.000000;3.484486
1964.000000;3.389179
1963.000000;3.445227
1962.000000;3.540180
1961.000000;3.469934
1960.000000;3.378153
1959.000000;3.363287
1958.000000;3.429906
1957.000000;3.553234
1956.000000;3.693220
1955.000000;3.771751
1954.000000;3.817430
1953.000000;3.818977
1952.000000;3.732009
1951.000000;3.670773
1950.000000;3.537515
1949.000000;3.371979
1948.000000;3.285385
1947.000000;3.284232
1946.000000;3.347016
1945.000000;3.468421
1944.000000;3.638349
1943.000000;3.725272
1942.000000;3.647966
1941.000000;3.553609
1940.000000;3.450187
1939.000000;3.357595
1938.000000;3.362227
1937.000000;3.423717
1936.000000;3.491687
1935.000000;3.564925
1934.000000;3.913008
1933.000000;4.455262
1932.000000;3.865243
1931.000000;3.966203
1930.000000;3.851361
1929.000000;3.548556
1928.000000;3.527312
1927.000000;3.696340
1926.000000;4.086237
1925.000000;4.025285
1924.000000;3.836775
1923.000000;3.735709
1922.000000;3.536620
1921.000000;3.485383
1920.000000;3.565287
1919.000000;3.547365
1918.000000;3.493984
1917.000000;3.482186
1916.000000;3.406936
1915.000000;3.324042
1914.000000;3.313211
1913.000000;3.441888
1912.000000;3.673097
1911.000000;3.597872
1910.000000;3.459039
1909.000000;3.416568
1908.000000;3.386322
1907.000000;3.372614
1906.000000;3.425792
1905.000000;3.567622
1904.000000;3.735760
1903.000000;3.975918
1902.000000;4.223508
1901.000000;4.164194
1900.000000;4.221767
1899.000000;4.047412
1898.000000;3.724142
1897.000000;3.745291
1896.000000;3.894567
1895.000000;3.695885
1894.000000;3.579301
1893.000000;3.590225
1892.000000;3.526358
1891.000000;3.414065
1890.000000;3.318462
1889.000000;3.289752
1888.000000;3.369647
1887.000000;3.621589
1886.000000;4.175673
1885.000000;4.347199
1884.000000;4.016510
1883.000000;3.765789
1882.000000;3.571724
1881.000000;3.448813
1880.000000;3.372432
1879.000000;3.434085
1878.000000;3.654049
1877.000000;4.008312
1876.000000;4.055270
1875.000000;3.754734
1874.000000;3.795026
1873.000000;4.179036
1872.000000;4.518014
1871.000000;4.150367
1870.000000;3.888854
1869.000000;3.749210
1868.000000;3.813422
1867.000000;4.063357
1866.000000;4.134677
1865.000000;4.238237
1864.000000;4.262712
1863.000000;4.149893
1862.000000;3.811568
1861.000000;3.622189
1860.000000;3.635246
1859.000000;3.665686
1858.000000;3.674403
1857.000000;3.723672
1856.000000;3.839382
1855.000000;4.121873
1854.000000;4.598929
1853.000000;4.721185
1852.000000;4.422528
1851.000000;3.987540
1850.000000;4.165504
1849.000000;4.602614
1848.000000;3.825554
1847.000000;3.554612
1846.000000;3.452413
1845.000000;3.413038
1844.000000;3.401668
1843.000000;3.414346
1842.000000;3.475578
1841.000000;3.490948
1840.000000;3.463120
1839.000000;3.476536
1838.000000;3.535754
1837.000000;3.627991
1836.000000;3.746836
1835.000000;3.854496
1834.000000;3.685298
1833.000000;3.482223
1832.000000;3.406429
1831.000000;3.436541
1830.000000;3.524433
1829.000000;3.531240
1828.000000;3.520509
1827.000000;3.760383
1826.000000;4.324864
1825.000000;4.010592
1824.000000;3.852857
1823.000000;3.965495
1822.000000;3.838847
1821.000000;3.589172
1820.000000;3.479602
1819.000000;3.442387
1818.000000;3.446935
1817.000000;3.559677
1816.000000;3.823279
1815.000000;4.180276
1814.000000;4.454781
1813.000000;4.340959
1812.000000;4.283950
1811.000000;4.817116
1810.000000;4.351648
1809.000000;3.872013
1808.000000;3.698164
1807.000000;3.581981
1806.000000;3.444706
1805.000000;3.323717
1804.000000;3.291698
1803.000000;3.361502
1802.000000;3.485289
1801.000000;3.728906
1800.000000;4.133630
1799.000000;3.828630
1798.000000;3.570052
1797.000000;3.503829
1796.000000;3.549933
1795.000000;3.885501
1794.000000;4.357346
1793.000000;4.327133
1792.000000;4.335432
1791.000000;3.925790
1790.000000;3.675433
1789.000000;3.527060
1788.000000;3.468147
1787.000000;3.581911
1786.000000;4.141981
1785.000000;4.268743
1784.000000;4.016518
1783.000000;4.205947
1782.000000;3.961884
1781.000000;3.735855
1780.000000;3.828735
1779.000000;4.308492
1778.000000;3.684761
1777.000000;3.446868
1776.000000;3.479923
1775.000000;3.651803
1774.000000;3.813316
1773.000000;3.814412
1772.000000;4.158266
1771.000000;3.900634
1770.000000;3.689983
1769.000000;3.802792
1768.000000;3.935563
1767.000000;3.951710
1766.000000;3.735844
1765.000000;3.632300
1764.000000;3.788906
1763.000000;4.108534
1762.000000;4.415701
1761.000000;4.235098
1760.000000;3.706560
1759.000000;3.444232
1758.000000;3.352245
1757.000000;3.399016
1756.000000;3.540449
1755.000000;3.605292
1754.000000;3.584282
1753.000000;3.708245
1752.000000;4.043091
1751.000000;3.872369
1750.000000;3.564413
1749.000000;3.452414
1748.000000;3.487531
1747.000000;3.638147
1746.000000;3.926504
1745.000000;3.903996
1744.000000;3.633404
1743.000000;3.617085
1742.000000;3.655651
1741.000000;3.522097
1740.000000;3.335877
1739.000000;3.299920
1738.000000;3.412615
1737.000000;3.678031
1736.000000;4.187123
1735.000000;4.118644
1734.000000;3.722201
1733.000000;3.679754
1732.000000;4.271701
1731.000000;4.002441
1730.000000;3.541008
1729.000000;3.453202
1728.000000;3.472518
1727.000000;3.628716
1726.000000;3.746478
1725.000000;3.848242
1724.000000;4.065199
1723.000000;3.936825
1722.000000;3.715886
1721.000000;3.563122
1720.000000;3.509546
1719.000000;3.544169
1718.000000;3.543647
1717.000000;3.430430
1716.000000;3.306108
1715.000000;3.288211
1714.000000;3.396733
1713.000000;3.645174
1712.000000;3.998574
1711.000000;3.895476
1710.000000;3.671721
1709.000000;3.584336
1708.000000;3.490513
1707.000000;3.416009
1706.000000;3.399903
1705.000000;3.472264
1704.000000;3.845134
1703.000000;4.091093
1702.000000;3.653877
1701.000000;3.454727
1700.000000;3.350315
1699.000000;3.348201
1698.000000;3.402939
1697.000000;3.468624
1696.000000;3.718972
1695.000000;4.229545
1694.000000;3.804834
1693.000000;3.668690
1692.000000;3.767760
1691.000000;4.138010
1690.000000;4.751583
1689.000000;4.264869
1688.000000;4.249845
1687.000000;3.961040
1686.000000;3.939649
1685.000000;3.970463
1684.000000;3.833061
1683.000000;4.041945
1682.000000;4.147235
1681.000000;3.861615
1680.000000;3.743519
1679.000000;3.657476
1678.000000;3.665640
1677.000000;3.688560
1676.000000;3.554862
1675.000000;3.439131
1674.000000;3.473390
1673.000000;3.748659
1672.000000;4.327758
1671.000000;4.476183
1670.000000;4.076850
1669.000000;3.900527
1668.000000;4.051019
1667.000000;4.147570
1666.000000;4.100364
1665.000000;4.165554
1664.000000;3.953782
1663.000000;3.635288
1662.000000;3.420845
1661.000000;3.329439
1660.000000;3.365517
1659.000000;3.573067
1658.000000;3.884297
1657.000000;3.722068
1656.000000;3.518077
1655.000000;3.452202
1654.000000;3.423830
1653.000000;3.359797
1652.000000;3.522406
1651.000000;3.957274
1650.000000;3.655382
1649.000000;3.606200
1648.000000;3.689341
1647.000000;3.426751
1646.000000;3.196102
1645.000000;3.150230
1644.000000;3.239528
1643.000000;3.547314
1642.000000;4.135122
1641.000000;3.577809
1640.000000;3.417121
1639.000000;3.472114
1638.000000;3.559659
1637.000000;3.687348
1636.000000;3.792321
1635.000000;3.848447
1634.000000;3.619240
1633.000000;3.363282
1632.000000;3.248098
1631.000000;3.257993
1630.000000;3.342538
1629.000000;3.433621
1628.000000;3.495190
1627.000000;3.714009
1626.000000;3.705391
1625.000000;3.426263
1624.000000;3.309496
1623.000000;3.262785
1622.000000;3.302205
1621.000000;3.524162
1620.000000;4.020744
1619.000000;4.163387
1618.000000;3.911971
1617.000000;3.759605
1616.000000;3.604416
1615.000000;3.490185
1614.000000;3.486165
1613.000000;3.515779
1612.000000;3.473943
1611.000000;3.448688
1610.000000;3.592854
1609.000000;3.891293
1608.000000;3.630082
1607.000000;3.383928
1606.000000;3.360863
1605.000000;3.453458
1604.000000;3.652055
1603.000000;4.120585
1602.000000;3.984961
1601.000000;3.645472
1600.000000;3.887475
1599.000000;4.316936
1598.000000;4.146952
1597.000000;4.376513
1596.000000;3.912549
1595.000000;3.538869
1594.000000;3.385544
1593.000000;3.350324
1592.000000;3.427818
1591.000000;3.533841
1590.000000;3.614524
1589.000000;3.675468
1588.000000;3.839218
1587.000000;4.178087
1586.000000;3.843816
1585.000000;3.533101
1584.000000;3.381637
1583.000000;3.286690
1582.000000;3.249774
1581.000000;3.255860
1580.000000;3.309281
1579.000000;3.433775
1578.000000;3.595389
1577.000000;3.788413
1576.000000;4.146016
1575.000000;3.877980
1574.000000;3.514561
1573.000000;3.388877
1572.000000;3.381462
1571.000000;3.431990
1570.000000;3.385337
1569.000000;3.221428
1568.000000;3.122484
1567.000000;3.106986
1566.000000;3.125782
1565.000000;3.202098
1564.000000;3.413958
1563.000000;3.702443
1562.000000;3.819038
1561.000000;3.883929
1560.000000;3.880839
1559.000000;3.778951
1558.000000;3.929205
1557.000000;3.636798
1556.000000;3.345456
1555.000000;3.310118
1554.000000;3.355152
1553.000000;3.425908
1552.000000;3.662969
1551.000000;3.976352
1550.000000;3.807899
1549.000000;3.629224
1548.000000;3.467145
1547.000000;3.383795
1546.000000;3.429292
1545.000000;3.578038
1544.000000;3.799282
1543.000000;3.998728
1542.000000;4.279571
1541.000000;4.841386
1540.000000;4.396739
1539.000000;3.583009
1538.000000;3.250228
1537.000000;3.179570
1536.000000;3.220571
1535.000000;3.275540
1534.000000;3.339928
1533.000000;3.518912
1532.000000;3.871363
1531.000000;3.924702
1530.000000;3.756670
1529.000000;3.640283
1528.000000;3.565566
1527.000000;3.577134
1526.000000;3.668572
1525.000000;3.618296
1524.000000;3.430071
1523.000000;3.342371
1522.000000;3.317738
1521.000000;3.340991
1520.000000;3.479275
1519.000000;3.668097
1518.000000;3.684915
1517.000000;3.658357
1516.000000;3.734579
1515.000000;3.935502
1514.000000;4.195409
1513.000000;3.976486
1512.000000;3.693885
1511.000000;3.541712
1510.000000;3.423344
1509.000000;3.383088
1508.000000;3.445636
1507.000000;3.546218
1506.000000;3.617606
1505.000000;3.643429
1504.000000;3.655248
1503.000000;3.697027
1502.000000;3.722324
1501.000000;3.882063
1500.000000;4.324501
1499.000000;3.931200
1498.000000;3.615400
1497.000000;3.570212
1496.000000;3.653032
1495.000000;3.964505
1494.000000;4.173317
1493.000000;4.070372
1492.000000;4.256067
1491.000000;4.050353
1490.000000;3.925714
1489.000000;3.941192
1488.000000;3.758995
1487.000000;3.564988
1486.000000;3.457250
1485.000000;3.457117
1484.000000;3.594704
1483.000000;3.583608
1482.000000;3.377896
1481.000000;3.311979
1480.000000;3.517948
1479.000000;3.850301
1478.000000;3.561175
1477.000000;3.439602
1476.000000;3.446083
1475.000000;3.465274
1474.000000;3.561748
1473.000000;3.771910
1472.000000;3.909177
1471.000000;3.806435
1470.000000;3.664903
1469.000000;3.467996
1468.000000;3.371429
1467.000000;3.398620
1466.000000;3.538963
1465.000000;3.745873
1464.000000;3.799974
1463.000000;3.690892
1462.000000;3.587959
1461.000000;3.543479
1460.000000;3.547872
1459.000000;3.570278
1458.000000;3.614262
1457.000000;3.714649
1456.000000;3.746593
1455.000000;3.564941
1454.000000;3.425488
1453.000000;3.409750
1452.000000;3.450567
1451.000000;3.740900
1450.000000;4.280719
1449.000000;3.688593
1448.000000;3.491934
1447.000000;3.323826
1446.000000;3.196551
1445.000000;3.166298
1444.000000;3.261549
1443.000000;3.451800
1442.000000;3.544459
1441.000000;3.715231
1440.000000;3.663907
1439.000000;3.433463
1438.000000;3.364945
1437.000000;3.387049
1436.000000;3.465600
1435.000000;3.424957
1434.000000;3.296898
1433.000000;3.243149
1432.000000;3.262796
1431.000000;3.329793
1430.000000;3.485905
1429.000000;3.689519
1428.000000;3.537567
1427.000000;3.403835
1426.000000;3.370223
1425.000000;3.425479
1424.000000;3.647406
1423.000000;3.653724
1422.000000;3.512242
1421.000000;3.513764
1420.000000;3.501097
1419.000000;3.433728
1418.000000;3.404396
1417.000000;3.454020
1416.000000;3.564513
1415.000000;3.683061
1414.000000;3.833399
1413.000000;3.945147
1412.000000;4.118439
1411.000000;4.124203
1410.000000;3.503867
1409.000000;3.198197
1408.000000;3.117573
1407.000000;3.138595
1406.000000;3.179626
1405.000000;3.210301
1404.000000;3.239858
1403.000000;3.301267
1402.000000;3.445403
1401.000000;3.801945
1400.000000;4.369306
1399.000000;4.099961
1398.000000;3.926039
1397.000000;3.624517
1396.000000;3.393803
1395.000000;3.256150
1394.000000;3.208525
1393.000000;3.285104
1392.000000;3.429244
1391.000000;3.470076
1390.000000;3.392297
1389.000000;3.354950
1388.000000;3.409042
1387.000000;3.516506
1386.000000;3.555262
1385.000000;3.490423
1384.000000;3.467112
1383.000000;3.537107
1382.000000;3.737813
1381.000000;4.452494
1380.000000;4.063447
1379.000000;3.590467
1378.000000;3.462452
1377.000000;3.375126
1376.000000;3.314570
1375.000000;3.314840
1374.000000;3.321121
1373.000000;3.265400
1372.000000;3.222889
1371.000000;3.261879
1370.000000;3.343591
1369.000000;3.419933
1368.000000;3.514068
1367.000000;3.607524
1366.000000;3.683182
1365.000000;3.696078
1364.000000;3.711323
1363.000000;3.886334
1362.000000;4.021780
1361.000000;3.865598
1360.000000;3.661175
1359.000000;3.544657
1358.000000;3.520948
1357.000000;3.555958
1356.000000;3.809096
1355.000000;3.912389
1354.000000;3.537963
1353.000000;3.459055
1352.000000;3.736051
1351.000000;3.860145
1350.000000;3.559859
1349.000000;3.408221
1348.000000;3.274284
1347.000000;3.139754
1346.000000;3.053134
1345.000000;3.010991
1344.000000;3.012324
1343.000000;3.090626
1342.000000;3.313938
1341.000000;3.533634
1340.000000;3.412329
1339.000000;3.287557
1338.000000;3.233523
1337.000000;3.241098
1336.000000;3.316583
1335.000000;3.474007
1334.000000;3.740962
1333.000000;3.767462
1332.000000;3.582704
1331.000000;3.515825
1330.000000;3.514261
1329.000000;3.439238
1328.000000;3.324168
1327.000000;3.336970
1326.000000;3.598853
1325.000000;4.095385
1324.000000;3.652055
1323.000000;3.404190
1322.000000;3.417106
1321.000000;3.562554
1320.000000;3.722513
1319.000000;3.631916
1318.000000;3.627483
1317.000000;3.736753
1316.000000;3.746089
1315.000000;3.844932
1314.000000;4.261684
1313.000000;4.191133
1312.000000;3.643271
1311.000000;3.414400
1310.000000;3.399283
1309.000000;3.688916
1308.000000;3.795412
1307.000000;3.487938
1306.000000;3.451680
1305.000000;3.444410
1304.000000;3.493606
1303.000000;3.729726
1302.000000;3.603275
1301.000000;3.416361
1300.000000;3.478923
1299.000000;3.616245
1298.000000;3.635987
1297.000000;3.682257
1296.000000;3.791931
1295.000000;3.576467
1294.000000;3.467240
1293.000000;3.685333
1292.000000;4.052745
1291.000000;3.668975
1290.000000;3.455901
1289.000000;3.379652
1288.000000;3.338058
1287.000000;3.269456
1286.000000;3.176374
1285.000000;3.146305
1284.000000;3.194961
1283.000000;3.335724
1282.000000;3.548450
1281.000000;3.479214
1280.000000;3.298161
1279.000000;3.250206
1278.000000;3.276836
1277.000000;3.279291
1276.000000;3.218918
1275.000000;3.193620
1274.000000;3.312217
1273.000000;3.752034
1272.000000;3.692084
1271.000000;3.398364
1270.000000;3.398152
1269.000000;3.542442
1268.000000;3.831595
1267.000000;4.038941
1266.000000;3.828616
1265.000000;3.613755
1264.000000;3.481193
1263.000000;3.381930
1262.000000;3.406282
1261.000000;3.387415
1260.000000;3.171310
1259.000000;3.059168
1258.000000;3.183078
1257.000000;3.642114
1256.000000;3.512871
1255.000000;3.213436
1254.000000;3.225573
1253.000000;3.301693
1252.000000;3.318487
1251.000000;3.283838
1250.000000;3.284062
1249.000000;3.323392
1248.000000;3.392206
1247.000000;3.453263
1246.000000;3.405977
1245.000000;3.386996
1244.000000;3.437702
1243.000000;3.341814
1242.000000;3.211734
1241.000000;3.142861
1240.000000;3.090095
1239.000000;3.074022
1238.000000;3.122939
1237.000000;3.287269
1236.000000;3.683605
1235.000000;3.597443
1234.000000;3.285687
1233.000000;3.222100
1232.000000;3.199714
1231.000000;3.139678
1230.000000;3.092098
1229.000000;3.273374
1228.000000;3.521423
1227.000000;3.142688
1226.000000;2.954205
1225.000000;2.917515
1224.000000;2.922181
1223.000000;2.934584
1222.000000;2.915811
1221.000000;2.895729
1220.000000;2.932655
1219.000000;3.082925
1218.000000;3.346946
1217.000000;3.301146
1216.000000;3.108841
1215.000000;3.068866
1214.000000;3.151336
1213.000000;3.422511
1212.000000;3.958188
1211.000000;3.746682
1210.000000;3.702364
1209.000000;3.795039
1208.000000;3.595486
1207.000000;3.377232
1206.000000;3.248847
1205.000000;3.148427
1204.000000;3.081543
1203.000000;3.072236
1202.000000;3.153337
1201.000000;3.442878
1200.000000;4.023248
