Criado como novo conjunto de dados;"e2410_daniel_v2.spp","28443.5 Secs"
cm-1;Abs
10000.000000;0.538589
9999.000000;0.538021
9998.000000;0.537456
9997.000000;0.536887
9996.000000;0.536329
9995.000000;0.535751
9994.000000;0.535229
9993.000000;0.534828
9992.000000;0.534310
9991.000000;0.533737
9990.000000;0.533280
9989.000000;0.532873
9988.000000;0.532267
9987.000000;0.531469
9986.000000;0.530750
9985.000000;0.530257
9984.000000;0.529897
9983.000000;0.529572
9982.000000;0.529251
9981.000000;0.528827
9980.000000;0.528210
9979.000000;0.527562
9978.000000;0.527153
9977.000000;0.526959
9976.000000;0.526660
9975.000000;0.526041
9974.000000;0.525196
9973.000000;0.524333
9972.000000;0.523605
9971.000000;0.523124
9970.000000;0.522895
9969.000000;0.522730
9968.000000;0.522429
9967.000000;0.522028
9966.000000;0.521699
9965.000000;0.521473
9964.000000;0.521236
9963.000000;0.520938
9962.000000;0.520589
9961.000000;0.520127
9960.000000;0.519528
9959.000000;0.518943
9958.000000;0.518495
9957.000000;0.518037
9956.000000;0.517338
9955.000000;0.516441
9954.000000;0.515599
9953.000000;0.514942
9952.000000;0.514463
9951.000000;0.514188
9950.000000;0.514082
9949.000000;0.513889
9948.000000;0.513368
9947.000000;0.512621
9946.000000;0.511900
9945.000000;0.511189
9944.000000;0.510317
9943.000000;0.509388
9942.000000;0.508745
9941.000000;0.508527
9940.000000;0.508547
9939.000000;0.508596
9938.000000;0.508538
9937.000000;0.508165
9936.000000;0.507336
9935.000000;0.506284
9934.000000;0.505454
9933.000000;0.505000
9932.000000;0.504700
9931.000000;0.504365
9930.000000;0.503999
9929.000000;0.503578
9928.000000;0.503015
9927.000000;0.502405
9926.000000;0.501980
9925.000000;0.501757
9924.000000;0.501493
9923.000000;0.501045
9922.000000;0.500508
9921.000000;0.499959
9920.000000;0.499340
9919.000000;0.498677
9918.000000;0.498118
9917.000000;0.497674
9916.000000;0.497169
9915.000000;0.496546
9914.000000;0.495970
9913.000000;0.495541
9912.000000;0.495141
9911.000000;0.494656
9910.000000;0.494154
9909.000000;0.493748
9908.000000;0.493454
9907.000000;0.493264
9906.000000;0.493171
9905.000000;0.493053
9904.000000;0.492683
9903.000000;0.491936
9902.000000;0.490897
9901.000000;0.489769
9900.000000;0.488786
9899.000000;0.488135
9898.000000;0.487784
9897.000000;0.487426
9896.000000;0.486807
9895.000000;0.486061
9894.000000;0.485506
9893.000000;0.485164
9892.000000;0.484779
9891.000000;0.484275
9890.000000;0.483874
9889.000000;0.483677
9888.000000;0.483430
9887.000000;0.482861
9886.000000;0.482041
9885.000000;0.481286
9884.000000;0.480827
9883.000000;0.480671
9882.000000;0.480635
9881.000000;0.480473
9880.000000;0.480081
9879.000000;0.479618
9878.000000;0.479319
9877.000000;0.479198
9876.000000;0.479060
9875.000000;0.478753
9874.000000;0.478237
9873.000000;0.477445
9872.000000;0.476332
9871.000000;0.475091
9870.000000;0.474083
9869.000000;0.473475
9868.000000;0.473116
9867.000000;0.472806
9866.000000;0.472504
9865.000000;0.472233
9864.000000;0.471940
9863.000000;0.471571
9862.000000;0.471166
9861.000000;0.470773
9860.000000;0.470332
9859.000000;0.469735
9858.000000;0.468958
9857.000000;0.468147
9856.000000;0.467553
9855.000000;0.467318
9854.000000;0.467275
9853.000000;0.467056
9852.000000;0.466508
9851.000000;0.465881
9850.000000;0.465481
9849.000000;0.465261
9848.000000;0.464907
9847.000000;0.464268
9846.000000;0.463486
9845.000000;0.462776
9844.000000;0.462251
9843.000000;0.461947
9842.000000;0.461841
9841.000000;0.461833
9840.000000;0.461806
9839.000000;0.461659
9838.000000;0.461241
9837.000000;0.460402
9836.000000;0.459245
9835.000000;0.458179
9834.000000;0.457523
9833.000000;0.457157
9832.000000;0.456768
9831.000000;0.456303
9830.000000;0.455944
9829.000000;0.455713
9828.000000;0.455373
9827.000000;0.454739
9826.000000;0.453890
9825.000000;0.453057
9824.000000;0.452462
9823.000000;0.452221
9822.000000;0.452236
9821.000000;0.452200
9820.000000;0.451850
9819.000000;0.451186
9818.000000;0.450371
9817.000000;0.449513
9816.000000;0.448706
9815.000000;0.448113
9814.000000;0.447798
9813.000000;0.447573
9812.000000;0.447210
9811.000000;0.446743
9810.000000;0.446347
9809.000000;0.446024
9808.000000;0.445636
9807.000000;0.445184
9806.000000;0.444788
9805.000000;0.444447
9804.000000;0.444035
9803.000000;0.443541
9802.000000;0.443091
9801.000000;0.442724
9800.000000;0.442335
9799.000000;0.441841
9798.000000;0.441268
9797.000000;0.440685
9796.000000;0.440175
9795.000000;0.439805
9794.000000;0.439509
9793.000000;0.439087
9792.000000;0.438464
9791.000000;0.437823
9790.000000;0.437317
9789.000000;0.436822
9788.000000;0.436187
9787.000000;0.435578
9786.000000;0.435278
9785.000000;0.435241
9784.000000;0.435118
9783.000000;0.434688
9782.000000;0.434040
9781.000000;0.433375
9780.000000;0.432845
9779.000000;0.432545
9778.000000;0.432435
9777.000000;0.432308
9776.000000;0.431997
9775.000000;0.431581
9774.000000;0.431199
9773.000000;0.430798
9772.000000;0.430269
9771.000000;0.429700
9770.000000;0.429235
9769.000000;0.428783
9768.000000;0.428161
9767.000000;0.427437
9766.000000;0.426853
9765.000000;0.426423
9764.000000;0.425915
9763.000000;0.425216
9762.000000;0.424468
9761.000000;0.423844
9760.000000;0.423387
9759.000000;0.423071
9758.000000;0.422799
9757.000000;0.422415
9756.000000;0.421885
9755.000000;0.421408
9754.000000;0.421126
9753.000000;0.420854
9752.000000;0.420345
9751.000000;0.419712
9750.000000;0.419277
9749.000000;0.419082
9748.000000;0.418857
9747.000000;0.418452
9746.000000;0.417968
9745.000000;0.417476
9744.000000;0.416927
9743.000000;0.416352
9742.000000;0.415869
9741.000000;0.415444
9740.000000;0.414940
9739.000000;0.414399
9738.000000;0.414025
9737.000000;0.413834
9736.000000;0.413606
9735.000000;0.413224
9734.000000;0.412820
9733.000000;0.412505
9732.000000;0.412205
9731.000000;0.411808
9730.000000;0.411306
9729.000000;0.410747
9728.000000;0.410210
9727.000000;0.409809
9726.000000;0.409545
9725.000000;0.409210
9724.000000;0.408647
9723.000000;0.408047
9722.000000;0.407707
9721.000000;0.407568
9720.000000;0.407289
9719.000000;0.406778
9718.000000;0.406270
9717.000000;0.405861
9716.000000;0.405332
9715.000000;0.404542
9714.000000;0.403696
9713.000000;0.403038
9712.000000;0.402552
9711.000000;0.402119
9710.000000;0.401745
9709.000000;0.401463
9708.000000;0.401181
9707.000000;0.400800
9706.000000;0.400342
9705.000000;0.399865
9704.000000;0.399357
9703.000000;0.398821
9702.000000;0.398334
9701.000000;0.397951
9700.000000;0.397633
9699.000000;0.397327
9698.000000;0.397015
9697.000000;0.396652
9696.000000;0.396207
9695.000000;0.395755
9694.000000;0.395401
9693.000000;0.395076
9692.000000;0.394580
9691.000000;0.393866
9690.000000;0.393147
9689.000000;0.392662
9688.000000;0.392437
9687.000000;0.392325
9686.000000;0.392149
9685.000000;0.391811
9684.000000;0.391358
9683.000000;0.390969
9682.000000;0.390740
9681.000000;0.390511
9680.000000;0.390021
9679.000000;0.389250
9678.000000;0.388449
9677.000000;0.387830
9676.000000;0.387374
9675.000000;0.386947
9674.000000;0.386445
9673.000000;0.385827
9672.000000;0.385135
9671.000000;0.384521
9670.000000;0.384124
9669.000000;0.383909
9668.000000;0.383704
9667.000000;0.383396
9666.000000;0.382975
9665.000000;0.382454
9664.000000;0.381868
9663.000000;0.381337
9662.000000;0.380967
9661.000000;0.380705
9660.000000;0.380401
9659.000000;0.379980
9658.000000;0.379449
9657.000000;0.378811
9656.000000;0.378121
9655.000000;0.377587
9654.000000;0.377381
9653.000000;0.377378
9652.000000;0.377252
9651.000000;0.376838
9650.000000;0.376255
9649.000000;0.375669
9648.000000;0.375132
9647.000000;0.374651
9646.000000;0.374252
9645.000000;0.373904
9644.000000;0.373521
9643.000000;0.373088
9642.000000;0.372688
9641.000000;0.372397
9640.000000;0.372200
9639.000000;0.371999
9638.000000;0.371674
9637.000000;0.371174
9636.000000;0.370606
9635.000000;0.370122
9634.000000;0.369686
9633.000000;0.369092
9632.000000;0.368345
9631.000000;0.367811
9630.000000;0.367784
9629.000000;0.368018
9628.000000;0.367954
9627.000000;0.367343
9626.000000;0.366435
9625.000000;0.365611
9624.000000;0.365054
9623.000000;0.364759
9622.000000;0.364606
9621.000000;0.364410
9620.000000;0.364070
9619.000000;0.363674
9618.000000;0.363343
9617.000000;0.363026
9616.000000;0.362616
9615.000000;0.362172
9614.000000;0.361814
9613.000000;0.361458
9612.000000;0.360919
9611.000000;0.360254
9610.000000;0.359742
9609.000000;0.359497
9608.000000;0.359328
9607.000000;0.359011
9606.000000;0.358536
9605.000000;0.358026
9604.000000;0.357583
9603.000000;0.357252
9602.000000;0.357017
9601.000000;0.356784
9600.000000;0.356478
9599.000000;0.356126
9598.000000;0.355756
9597.000000;0.355306
9596.000000;0.354761
9595.000000;0.354281
9594.000000;0.353982
9593.000000;0.353686
9592.000000;0.353107
9591.000000;0.352256
9590.000000;0.351439
9589.000000;0.350851
9588.000000;0.350400
9587.000000;0.349951
9586.000000;0.349514
9585.000000;0.349160
9584.000000;0.348923
9583.000000;0.348815
9582.000000;0.348800
9581.000000;0.348735
9580.000000;0.348489
9579.000000;0.348089
9578.000000;0.347618
9577.000000;0.347022
9576.000000;0.346215
9575.000000;0.345339
9574.000000;0.344706
9573.000000;0.344423
9572.000000;0.344293
9571.000000;0.344105
9570.000000;0.343840
9569.000000;0.343550
9568.000000;0.343205
9567.000000;0.342751
9566.000000;0.342198
9565.000000;0.341589
9564.000000;0.340988
9563.000000;0.340501
9562.000000;0.340189
9561.000000;0.339964
9560.000000;0.339672
9559.000000;0.339291
9558.000000;0.338938
9557.000000;0.338691
9556.000000;0.338505
9555.000000;0.338291
9554.000000;0.337974
9553.000000;0.337502
9552.000000;0.336920
9551.000000;0.336385
9550.000000;0.335988
9549.000000;0.335613
9548.000000;0.335095
9547.000000;0.334464
9546.000000;0.333897
9545.000000;0.333473
9544.000000;0.333132
9543.000000;0.332837
9542.000000;0.332620
9541.000000;0.332458
9540.000000;0.332262
9539.000000;0.331988
9538.000000;0.331636
9537.000000;0.331182
9536.000000;0.330620
9535.000000;0.330051
9534.000000;0.329593
9533.000000;0.329262
9532.000000;0.329020
9531.000000;0.328883
9530.000000;0.328825
9529.000000;0.328677
9528.000000;0.328278
9527.000000;0.327700
9526.000000;0.327143
9525.000000;0.326672
9524.000000;0.326201
9523.000000;0.325696
9522.000000;0.325216
9521.000000;0.324780
9520.000000;0.324360
9519.000000;0.323992
9518.000000;0.323744
9517.000000;0.323592
9516.000000;0.323440
9515.000000;0.323234
9514.000000;0.322948
9513.000000;0.322524
9512.000000;0.321971
9511.000000;0.321451
9510.000000;0.321128
9509.000000;0.320948
9508.000000;0.320721
9507.000000;0.320357
9506.000000;0.319898
9505.000000;0.319394
9504.000000;0.318883
9503.000000;0.318442
9502.000000;0.318085
9501.000000;0.317692
9500.000000;0.317179
9499.000000;0.316661
9498.000000;0.316281
9497.000000;0.316000
9496.000000;0.315706
9495.000000;0.315428
9494.000000;0.315243
9493.000000;0.315068
9492.000000;0.314767
9491.000000;0.314391
9490.000000;0.314087
9489.000000;0.313831
9488.000000;0.313489
9487.000000;0.313073
9486.000000;0.312712
9485.000000;0.312389
9484.000000;0.311962
9483.000000;0.311425
9482.000000;0.310902
9481.000000;0.310418
9480.000000;0.309904
9479.000000;0.309423
9478.000000;0.309133
9477.000000;0.309011
9476.000000;0.308834
9475.000000;0.308490
9474.000000;0.308102
9473.000000;0.307800
9472.000000;0.307547
9471.000000;0.307248
9470.000000;0.306887
9469.000000;0.306489
9468.000000;0.306089
9467.000000;0.305735
9466.000000;0.305427
9465.000000;0.305069
9464.000000;0.304602
9463.000000;0.304140
9462.000000;0.303824
9461.000000;0.303603
9460.000000;0.303319
9459.000000;0.302942
9458.000000;0.302554
9457.000000;0.302145
9456.000000;0.301642
9455.000000;0.301109
9454.000000;0.300707
9453.000000;0.300464
9452.000000;0.300261
9451.000000;0.300042
9450.000000;0.299835
9449.000000;0.299581
9448.000000;0.299163
9447.000000;0.298628
9446.000000;0.298165
9445.000000;0.297836
9444.000000;0.297502
9443.000000;0.297064
9442.000000;0.296607
9441.000000;0.296262
9440.000000;0.296055
9439.000000;0.295926
9438.000000;0.295783
9437.000000;0.295502
9436.000000;0.295023
9435.000000;0.294438
9434.000000;0.293890
9433.000000;0.293416
9432.000000;0.292984
9431.000000;0.292624
9430.000000;0.292365
9429.000000;0.292118
9428.000000;0.291781
9427.000000;0.291424
9426.000000;0.291187
9425.000000;0.291046
9424.000000;0.290859
9423.000000;0.290602
9422.000000;0.290373
9421.000000;0.290177
9420.000000;0.289919
9419.000000;0.289593
9418.000000;0.289284
9417.000000;0.288990
9416.000000;0.288634
9415.000000;0.288239
9414.000000;0.287914
9413.000000;0.287646
9412.000000;0.287311
9411.000000;0.286894
9410.000000;0.286515
9409.000000;0.286207
9408.000000;0.285862
9407.000000;0.285426
9406.000000;0.284977
9405.000000;0.284568
9404.000000;0.284163
9403.000000;0.283760
9402.000000;0.283418
9401.000000;0.283142
9400.000000;0.282854
9399.000000;0.282509
9398.000000;0.282136
9397.000000;0.281750
9396.000000;0.281352
9395.000000;0.280997
9394.000000;0.280729
9393.000000;0.280470
9392.000000;0.280124
9391.000000;0.279747
9390.000000;0.279462
9389.000000;0.279244
9388.000000;0.278956
9387.000000;0.278583
9386.000000;0.278242
9385.000000;0.277971
9384.000000;0.277701
9383.000000;0.277429
9382.000000;0.277239
9381.000000;0.277122
9380.000000;0.276957
9379.000000;0.276703
9378.000000;0.276437
9377.000000;0.276184
9376.000000;0.275859
9375.000000;0.275433
9374.000000;0.274995
9373.000000;0.274636
9372.000000;0.274363
9371.000000;0.274152
9370.000000;0.273964
9369.000000;0.273708
9368.000000;0.273321
9367.000000;0.272891
9366.000000;0.272566
9365.000000;0.272336
9364.000000;0.272040
9363.000000;0.271585
9362.000000;0.271045
9361.000000;0.270537
9360.000000;0.270129
9359.000000;0.269846
9358.000000;0.269626
9357.000000;0.269296
9356.000000;0.268757
9355.000000;0.268158
9354.000000;0.267744
9353.000000;0.267534
9352.000000;0.267330
9351.000000;0.267012
9350.000000;0.266667
9349.000000;0.266412
9348.000000;0.266271
9347.000000;0.266227
9346.000000;0.266230
9345.000000;0.266133
9344.000000;0.265791
9343.000000;0.265249
9342.000000;0.264712
9341.000000;0.264306
9340.000000;0.264016
9339.000000;0.263817
9338.000000;0.263709
9337.000000;0.263590
9336.000000;0.263299
9335.000000;0.262832
9334.000000;0.262374
9333.000000;0.262078
9332.000000;0.261910
9331.000000;0.261749
9330.000000;0.261508
9329.000000;0.261136
9328.000000;0.260633
9327.000000;0.260092
9326.000000;0.259638
9325.000000;0.259307
9324.000000;0.259062
9323.000000;0.258881
9322.000000;0.258746
9321.000000;0.258590
9320.000000;0.258391
9319.000000;0.258265
9318.000000;0.258303
9317.000000;0.258369
9316.000000;0.258230
9315.000000;0.257863
9314.000000;0.257457
9313.000000;0.257124
9312.000000;0.256796
9311.000000;0.256410
9310.000000;0.255978
9309.000000;0.255477
9308.000000;0.254853
9307.000000;0.254194
9306.000000;0.253734
9305.000000;0.253588
9304.000000;0.253630
9303.000000;0.253654
9302.000000;0.253549
9301.000000;0.253283
9300.000000;0.252867
9299.000000;0.252405
9298.000000;0.252038
9297.000000;0.251802
9296.000000;0.251598
9295.000000;0.251335
9294.000000;0.251010
9293.000000;0.250640
9292.000000;0.250227
9291.000000;0.249811
9290.000000;0.249462
9289.000000;0.249202
9288.000000;0.249005
9287.000000;0.248844
9286.000000;0.248670
9285.000000;0.248384
9284.000000;0.247944
9283.000000;0.247474
9282.000000;0.247142
9281.000000;0.246956
9280.000000;0.246794
9279.000000;0.246595
9278.000000;0.246384
9277.000000;0.246144
9276.000000;0.245825
9275.000000;0.245474
9274.000000;0.245196
9273.000000;0.244982
9272.000000;0.244732
9271.000000;0.244437
9270.000000;0.244201
9269.000000;0.244065
9268.000000;0.243951
9267.000000;0.243798
9266.000000;0.243605
9265.000000;0.243337
9264.000000;0.242930
9263.000000;0.242430
9262.000000;0.241994
9261.000000;0.241740
9260.000000;0.241658
9259.000000;0.241680
9258.000000;0.241733
9257.000000;0.241712
9256.000000;0.241539
9255.000000;0.241223
9254.000000;0.240798
9253.000000;0.240225
9252.000000;0.239503
9251.000000;0.238804
9250.000000;0.238361
9249.000000;0.238201
9248.000000;0.238138
9247.000000;0.238028
9246.000000;0.237896
9245.000000;0.237799
9244.000000;0.237713
9243.000000;0.237576
9242.000000;0.237342
9241.000000;0.236977
9240.000000;0.236523
9239.000000;0.236146
9238.000000;0.235990
9237.000000;0.235969
9236.000000;0.235846
9235.000000;0.235519
9234.000000;0.235108
9233.000000;0.234748
9232.000000;0.234433
9231.000000;0.234106
9230.000000;0.233767
9229.000000;0.233455
9228.000000;0.233180
9227.000000;0.232914
9226.000000;0.232610
9225.000000;0.232238
9224.000000;0.231863
9223.000000;0.231629
9222.000000;0.231580
9221.000000;0.231558
9220.000000;0.231394
9219.000000;0.231134
9218.000000;0.230947
9217.000000;0.230842
9216.000000;0.230658
9215.000000;0.230322
9214.000000;0.229947
9213.000000;0.229643
9212.000000;0.229387
9211.000000;0.229092
9210.000000;0.228714
9209.000000;0.228250
9208.000000;0.227770
9207.000000;0.227422
9206.000000;0.227313
9205.000000;0.227355
9204.000000;0.227350
9203.000000;0.227220
9202.000000;0.227042
9201.000000;0.226849
9200.000000;0.226558
9199.000000;0.226139
9198.000000;0.225718
9197.000000;0.225444
9196.000000;0.225326
9195.000000;0.225252
9194.000000;0.225120
9193.000000;0.224908
9192.000000;0.224641
9191.000000;0.224328
9190.000000;0.223937
9189.000000;0.223471
9188.000000;0.223056
9187.000000;0.222874
9186.000000;0.222965
9185.000000;0.223152
9184.000000;0.223227
9183.000000;0.223136
9182.000000;0.222916
9181.000000;0.222579
9180.000000;0.222167
9179.000000;0.221801
9178.000000;0.221556
9177.000000;0.221345
9176.000000;0.221048
9175.000000;0.220694
9174.000000;0.220377
9173.000000;0.220086
9172.000000;0.219755
9171.000000;0.219413
9170.000000;0.219131
9169.000000;0.218877
9168.000000;0.218569
9167.000000;0.218245
9166.000000;0.218024
9165.000000;0.217930
9164.000000;0.217867
9163.000000;0.217763
9162.000000;0.217595
9161.000000;0.217348
9160.000000;0.217059
9159.000000;0.216847
9158.000000;0.216777
9157.000000;0.216744
9156.000000;0.216616
9155.000000;0.216434
9154.000000;0.216308
9153.000000;0.216194
9152.000000;0.215953
9151.000000;0.215572
9150.000000;0.215156
9149.000000;0.214740
9148.000000;0.214317
9147.000000;0.213994
9146.000000;0.213922
9145.000000;0.214050
9144.000000;0.214127
9143.000000;0.213978
9142.000000;0.213639
9141.000000;0.213226
9140.000000;0.212833
9139.000000;0.212556
9138.000000;0.212448
9137.000000;0.212406
9136.000000;0.212259
9135.000000;0.211980
9134.000000;0.211682
9133.000000;0.211412
9132.000000;0.211098
9131.000000;0.210715
9130.000000;0.210352
9129.000000;0.210075
9128.000000;0.209855
9127.000000;0.209651
9126.000000;0.209456
9125.000000;0.209239
9124.000000;0.208971
9123.000000;0.208706
9122.000000;0.208545
9121.000000;0.208495
9120.000000;0.208459
9119.000000;0.208363
9118.000000;0.208192
9117.000000;0.207936
9116.000000;0.207611
9115.000000;0.207309
9114.000000;0.207113
9113.000000;0.206980
9112.000000;0.206812
9111.000000;0.206614
9110.000000;0.206453
9109.000000;0.206304
9108.000000;0.206077
9107.000000;0.205779
9106.000000;0.205508
9105.000000;0.205287
9104.000000;0.205068
9103.000000;0.204886
9102.000000;0.204856
9101.000000;0.204988
9100.000000;0.205130
9099.000000;0.205128
9098.000000;0.204938
9097.000000;0.204576
9096.000000;0.204085
9095.000000;0.203555
9094.000000;0.203088
9093.000000;0.202721
9092.000000;0.202451
9091.000000;0.202298
9090.000000;0.202254
9089.000000;0.202202
9088.000000;0.202030
9087.000000;0.201778
9086.000000;0.201550
9085.000000;0.201341
9084.000000;0.201078
9083.000000;0.200799
9082.000000;0.200624
9081.000000;0.200553
9080.000000;0.200473
9079.000000;0.200353
9078.000000;0.200270
9077.000000;0.200222
9076.000000;0.200078
9075.000000;0.199767
9074.000000;0.199388
9073.000000;0.199078
9072.000000;0.198883
9071.000000;0.198765
9070.000000;0.198659
9069.000000;0.198486
9068.000000;0.198222
9067.000000;0.197944
9066.000000;0.197745
9065.000000;0.197607
9064.000000;0.197453
9063.000000;0.197296
9062.000000;0.197206
9061.000000;0.197149
9060.000000;0.197011
9059.000000;0.196772
9058.000000;0.196536
9057.000000;0.196366
9056.000000;0.196220
9055.000000;0.196046
9054.000000;0.195839
9053.000000;0.195587
9052.000000;0.195281
9051.000000;0.194986
9050.000000;0.194794
9049.000000;0.194692
9048.000000;0.194576
9047.000000;0.194402
9046.000000;0.194217
9045.000000;0.194039
9044.000000;0.193827
9043.000000;0.193580
9042.000000;0.193362
9041.000000;0.193202
9040.000000;0.193071
9039.000000;0.192945
9038.000000;0.192817
9037.000000;0.192647
9036.000000;0.192398
9035.000000;0.192110
9034.000000;0.191846
9033.000000;0.191590
9032.000000;0.191288
9031.000000;0.190995
9030.000000;0.190833
9029.000000;0.190829
9028.000000;0.190863
9027.000000;0.190804
9026.000000;0.190606
9025.000000;0.190294
9024.000000;0.189947
9023.000000;0.189685
9022.000000;0.189572
9021.000000;0.189533
9020.000000;0.189451
9019.000000;0.189316
9018.000000;0.189192
9017.000000;0.189071
9016.000000;0.188879
9015.000000;0.188628
9014.000000;0.188427
9013.000000;0.188335
9012.000000;0.188285
9011.000000;0.188176
9010.000000;0.187962
9009.000000;0.187661
9008.000000;0.187337
9007.000000;0.187072
9006.000000;0.186881
9005.000000;0.186703
9004.000000;0.186504
9003.000000;0.186345
9002.000000;0.186270
9001.000000;0.186200
9000.000000;0.186048
8999.000000;0.185871
8998.000000;0.185778
8997.000000;0.185758
8996.000000;0.185709
8995.000000;0.185609
8994.000000;0.185502
8993.000000;0.185355
8992.000000;0.185071
8991.000000;0.184634
8990.000000;0.184156
8989.000000;0.183770
8988.000000;0.183554
8987.000000;0.183513
8986.000000;0.183544
8985.000000;0.183465
8984.000000;0.183190
8983.000000;0.182836
8982.000000;0.182571
8981.000000;0.182422
8980.000000;0.182322
8979.000000;0.182267
8978.000000;0.182272
8977.000000;0.182249
8976.000000;0.182099
8975.000000;0.181881
8974.000000;0.181731
8973.000000;0.181645
8972.000000;0.181506
8971.000000;0.181293
8970.000000;0.181110
8969.000000;0.181017
8968.000000;0.180965
8967.000000;0.180917
8966.000000;0.180872
8965.000000;0.180780
8964.000000;0.180569
8963.000000;0.180275
8962.000000;0.180009
8961.000000;0.179795
8960.000000;0.179569
8959.000000;0.179331
8958.000000;0.179178
8957.000000;0.179155
8956.000000;0.179197
8955.000000;0.179215
8954.000000;0.179156
8953.000000;0.178983
8952.000000;0.178703
8951.000000;0.178416
8950.000000;0.178227
8949.000000;0.178114
8948.000000;0.177967
8947.000000;0.177743
8946.000000;0.177482
8945.000000;0.177202
8944.000000;0.176915
8943.000000;0.176689
8942.000000;0.176590
8941.000000;0.176556
8940.000000;0.176483
8939.000000;0.176404
8938.000000;0.176444
8937.000000;0.176603
8936.000000;0.176708
8935.000000;0.176616
8934.000000;0.176336
8933.000000;0.175959
8932.000000;0.175562
8931.000000;0.175217
8930.000000;0.174972
8929.000000;0.174801
8928.000000;0.174641
8927.000000;0.174491
8926.000000;0.174391
8925.000000;0.174317
8924.000000;0.174198
8923.000000;0.174017
8922.000000;0.173836
8921.000000;0.173713
8920.000000;0.173650
8919.000000;0.173610
8918.000000;0.173529
8917.000000;0.173350
8916.000000;0.173105
8915.000000;0.172913
8914.000000;0.172816
8913.000000;0.172722
8912.000000;0.172571
8911.000000;0.172469
8910.000000;0.172532
8909.000000;0.172679
8908.000000;0.172727
8907.000000;0.172631
8906.000000;0.172468
8905.000000;0.172257
8904.000000;0.171956
8903.000000;0.171621
8902.000000;0.171405
8901.000000;0.171386
8900.000000;0.171495
8899.000000;0.171628
8898.000000;0.171700
8897.000000;0.171651
8896.000000;0.171485
8895.000000;0.171304
8894.000000;0.171184
8893.000000;0.171055
8892.000000;0.170810
8891.000000;0.170470
8890.000000;0.170149
8889.000000;0.169922
8888.000000;0.169831
8887.000000;0.169933
8886.000000;0.170177
8885.000000;0.170314
8884.000000;0.170131
8883.000000;0.169730
8882.000000;0.169397
8881.000000;0.169250
8880.000000;0.169180
8879.000000;0.169101
8878.000000;0.169023
8877.000000;0.168901
8876.000000;0.168631
8875.000000;0.168265
8874.000000;0.168017
8873.000000;0.168009
8872.000000;0.168138
8871.000000;0.168247
8870.000000;0.168293
8869.000000;0.168293
8868.000000;0.168245
8867.000000;0.168165
8866.000000;0.168095
8865.000000;0.168022
8864.000000;0.167887
8863.000000;0.167694
8862.000000;0.167527
8861.000000;0.167435
8860.000000;0.167394
8859.000000;0.167377
8858.000000;0.167366
8857.000000;0.167299
8856.000000;0.167129
8855.000000;0.166951
8854.000000;0.166937
8853.000000;0.167122
8852.000000;0.167338
8851.000000;0.167397
8850.000000;0.167262
8849.000000;0.167019
8848.000000;0.166782
8847.000000;0.166638
8846.000000;0.166594
8845.000000;0.166572
8844.000000;0.166499
8843.000000;0.166407
8842.000000;0.166367
8841.000000;0.166365
8840.000000;0.166325
8839.000000;0.166233
8838.000000;0.166134
8837.000000;0.166053
8836.000000;0.165978
8835.000000;0.165925
8834.000000;0.165901
8833.000000;0.165845
8832.000000;0.165703
8831.000000;0.165544
8830.000000;0.165499
8829.000000;0.165602
8828.000000;0.165780
8827.000000;0.165958
8826.000000;0.166096
8825.000000;0.166143
8824.000000;0.166096
8823.000000;0.166051
8822.000000;0.166107
8821.000000;0.166224
8820.000000;0.166292
8819.000000;0.166301
8818.000000;0.166325
8817.000000;0.166384
8816.000000;0.166467
8815.000000;0.166636
8814.000000;0.166966
8813.000000;0.167366
8812.000000;0.167608
8811.000000;0.167556
8810.000000;0.167267
8809.000000;0.166868
8808.000000;0.166456
8807.000000;0.166116
8806.000000;0.165927
8805.000000;0.165922
8804.000000;0.166096
8803.000000;0.166398
8802.000000;0.166686
8801.000000;0.166756
8800.000000;0.166557
8799.000000;0.166302
8798.000000;0.166230
8797.000000;0.166325
8796.000000;0.166398
8795.000000;0.166403
8794.000000;0.166472
8793.000000;0.166659
8792.000000;0.166843
8791.000000;0.166918
8790.000000;0.166909
8789.000000;0.166858
8788.000000;0.166759
8787.000000;0.166655
8786.000000;0.166670
8785.000000;0.166863
8784.000000;0.167130
8783.000000;0.167311
8782.000000;0.167337
8781.000000;0.167257
8780.000000;0.167182
8779.000000;0.167214
8778.000000;0.167363
8777.000000;0.167544
8776.000000;0.167688
8775.000000;0.167824
8774.000000;0.167991
8773.000000;0.168141
8772.000000;0.168212
8771.000000;0.168244
8770.000000;0.168327
8769.000000;0.168473
8768.000000;0.168651
8767.000000;0.168888
8766.000000;0.169203
8765.000000;0.169476
8764.000000;0.169553
8763.000000;0.169448
8762.000000;0.169342
8761.000000;0.169361
8760.000000;0.169482
8759.000000;0.169639
8758.000000;0.169802
8757.000000;0.169960
8756.000000;0.170106
8755.000000;0.170255
8754.000000;0.170403
8753.000000;0.170490
8752.000000;0.170502
8751.000000;0.170551
8750.000000;0.170748
8749.000000;0.171042
8748.000000;0.171281
8747.000000;0.171410
8746.000000;0.171471
8745.000000;0.171476
8744.000000;0.171406
8743.000000;0.171334
8742.000000;0.171394
8741.000000;0.171634
8740.000000;0.171981
8739.000000;0.172337
8738.000000;0.172621
8737.000000;0.172765
8736.000000;0.172773
8735.000000;0.172768
8734.000000;0.172870
8733.000000;0.173049
8732.000000;0.173205
8731.000000;0.173318
8730.000000;0.173429
8729.000000;0.173527
8728.000000;0.173588
8727.000000;0.173666
8726.000000;0.173817
8725.000000;0.173972
8724.000000;0.174029
8723.000000;0.174025
8722.000000;0.174078
8721.000000;0.174203
8720.000000;0.174318
8719.000000;0.174407
8718.000000;0.174526
8717.000000;0.174673
8716.000000;0.174802
8715.000000;0.174924
8714.000000;0.175076
8713.000000;0.175210
8712.000000;0.175263
8711.000000;0.175293
8710.000000;0.175393
8709.000000;0.175528
8708.000000;0.175597
8707.000000;0.175630
8706.000000;0.175737
8705.000000;0.175894
8704.000000;0.175958
8703.000000;0.175893
8702.000000;0.175819
8701.000000;0.175842
8700.000000;0.175967
8699.000000;0.176186
8698.000000;0.176481
8697.000000;0.176739
8696.000000;0.176829
8695.000000;0.176770
8694.000000;0.176681
8693.000000;0.176603
8692.000000;0.176495
8691.000000;0.176402
8690.000000;0.176439
8689.000000;0.176588
8688.000000;0.176694
8687.000000;0.176683
8686.000000;0.176639
8685.000000;0.176644
8684.000000;0.176676
8683.000000;0.176702
8682.000000;0.176726
8681.000000;0.176720
8680.000000;0.176654
8679.000000;0.176607
8678.000000;0.176726
8677.000000;0.177021
8676.000000;0.177333
8675.000000;0.177505
8674.000000;0.177497
8673.000000;0.177333
8672.000000;0.177068
8671.000000;0.176832
8670.000000;0.176769
8669.000000;0.176875
8668.000000;0.177009
8667.000000;0.177058
8666.000000;0.177017
8665.000000;0.176905
8664.000000;0.176738
8663.000000;0.176597
8662.000000;0.176581
8661.000000;0.176682
8660.000000;0.176798
8659.000000;0.176870
8658.000000;0.176900
8657.000000;0.176856
8656.000000;0.176688
8655.000000;0.176461
8654.000000;0.176320
8653.000000;0.176316
8652.000000;0.176361
8651.000000;0.176369
8650.000000;0.176335
8649.000000;0.176271
8648.000000;0.176175
8647.000000;0.176073
8646.000000;0.175983
8645.000000;0.175842
8644.000000;0.175577
8643.000000;0.175251
8642.000000;0.175020
8641.000000;0.174940
8640.000000;0.174927
8639.000000;0.174914
8638.000000;0.174913
8637.000000;0.174936
8636.000000;0.174943
8635.000000;0.174911
8634.000000;0.174845
8633.000000;0.174735
8632.000000;0.174587
8631.000000;0.174489
8630.000000;0.174510
8629.000000;0.174563
8628.000000;0.174477
8627.000000;0.174223
8626.000000;0.173935
8625.000000;0.173712
8624.000000;0.173533
8623.000000;0.173382
8622.000000;0.173311
8621.000000;0.173343
8620.000000;0.173411
8619.000000;0.173423
8618.000000;0.173330
8617.000000;0.173107
8616.000000;0.172787
8615.000000;0.172486
8614.000000;0.172313
8613.000000;0.172245
8612.000000;0.172171
8611.000000;0.172061
8610.000000;0.171980
8609.000000;0.171952
8608.000000;0.171920
8607.000000;0.171841
8606.000000;0.171726
8605.000000;0.171573
8604.000000;0.171362
8603.000000;0.171122
8602.000000;0.170929
8601.000000;0.170821
8600.000000;0.170793
8599.000000;0.170829
8598.000000;0.170870
8597.000000;0.170793
8596.000000;0.170539
8595.000000;0.170231
8594.000000;0.170050
8593.000000;0.170019
8592.000000;0.170009
8591.000000;0.169933
8590.000000;0.169805
8589.000000;0.169640
8588.000000;0.169416
8587.000000;0.169147
8586.000000;0.168876
8585.000000;0.168614
8584.000000;0.168362
8583.000000;0.168185
8582.000000;0.168138
8581.000000;0.168156
8580.000000;0.168115
8579.000000;0.167990
8578.000000;0.167846
8577.000000;0.167709
8576.000000;0.167579
8575.000000;0.167506
8574.000000;0.167533
8573.000000;0.167572
8572.000000;0.167489
8571.000000;0.167294
8570.000000;0.167105
8569.000000;0.166950
8568.000000;0.166745
8567.000000;0.166461
8566.000000;0.166180
8565.000000;0.165966
8564.000000;0.165811
8563.000000;0.165709
8562.000000;0.165660
8561.000000;0.165597
8560.000000;0.165445
8559.000000;0.165242
8558.000000;0.165096
8557.000000;0.165025
8556.000000;0.164950
8555.000000;0.164838
8554.000000;0.164723
8553.000000;0.164583
8552.000000;0.164336
8551.000000;0.163995
8550.000000;0.163677
8549.000000;0.163457
8548.000000;0.163306
8547.000000;0.163186
8546.000000;0.163102
8545.000000;0.163050
8544.000000;0.162992
8543.000000;0.162917
8542.000000;0.162817
8541.000000;0.162635
8540.000000;0.162333
8539.000000;0.162000
8538.000000;0.161774
8537.000000;0.161670
8536.000000;0.161585
8535.000000;0.161449
8534.000000;0.161263
8533.000000;0.161029
8532.000000;0.160761
8531.000000;0.160553
8530.000000;0.160486
8529.000000;0.160478
8528.000000;0.160359
8527.000000;0.160102
8526.000000;0.159842
8525.000000;0.159681
8524.000000;0.159593
8523.000000;0.159544
8522.000000;0.159555
8521.000000;0.159599
8520.000000;0.159581
8519.000000;0.159449
8518.000000;0.159243
8517.000000;0.159016
8516.000000;0.158788
8515.000000;0.158598
8514.000000;0.158477
8513.000000;0.158376
8512.000000;0.158208
8511.000000;0.157983
8510.000000;0.157787
8509.000000;0.157647
8508.000000;0.157508
8507.000000;0.157350
8506.000000;0.157203
8505.000000;0.157070
8504.000000;0.156926
8503.000000;0.156810
8502.000000;0.156789
8501.000000;0.156823
8500.000000;0.156780
8499.000000;0.156603
8498.000000;0.156367
8497.000000;0.156156
8496.000000;0.155981
8495.000000;0.155822
8494.000000;0.155665
8493.000000;0.155501
8492.000000;0.155353
8491.000000;0.155297
8490.000000;0.155352
8489.000000;0.155386
8488.000000;0.155241
8487.000000;0.154935
8486.000000;0.154624
8485.000000;0.154398
8484.000000;0.154226
8483.000000;0.154080
8482.000000;0.153971
8481.000000;0.153865
8480.000000;0.153697
8479.000000;0.153482
8478.000000;0.153306
8477.000000;0.153183
8476.000000;0.153055
8475.000000;0.152905
8474.000000;0.152771
8473.000000;0.152632
8472.000000;0.152424
8471.000000;0.152177
8470.000000;0.152008
8469.000000;0.151963
8468.000000;0.151961
8467.000000;0.151926
8466.000000;0.151860
8465.000000;0.151767
8464.000000;0.151627
8463.000000;0.151466
8462.000000;0.151341
8461.000000;0.151237
8460.000000;0.151064
8459.000000;0.150793
8458.000000;0.150506
8457.000000;0.150294
8456.000000;0.150171
8455.000000;0.150108
8454.000000;0.150062
8453.000000;0.149968
8452.000000;0.149791
8451.000000;0.149589
8450.000000;0.149465
8449.000000;0.149451
8448.000000;0.149489
8447.000000;0.149522
8446.000000;0.149502
8445.000000;0.149367
8444.000000;0.149100
8443.000000;0.148810
8442.000000;0.148615
8441.000000;0.148488
8440.000000;0.148307
8439.000000;0.148060
8438.000000;0.147857
8437.000000;0.147745
8436.000000;0.147635
8435.000000;0.147456
8434.000000;0.147248
8433.000000;0.147079
8432.000000;0.146959
8431.000000;0.146869
8430.000000;0.146796
8429.000000;0.146714
8428.000000;0.146594
8427.000000;0.146459
8426.000000;0.146355
8425.000000;0.146264
8424.000000;0.146124
8423.000000;0.145939
8422.000000;0.145778
8421.000000;0.145656
8420.000000;0.145516
8419.000000;0.145337
8418.000000;0.145184
8417.000000;0.145122
8416.000000;0.145130
8415.000000;0.145134
8414.000000;0.145059
8413.000000;0.144870
8412.000000;0.144605
8411.000000;0.144375
8410.000000;0.144251
8409.000000;0.144202
8408.000000;0.144160
8407.000000;0.144122
8406.000000;0.144113
8405.000000;0.144093
8404.000000;0.143999
8403.000000;0.143826
8402.000000;0.143611
8401.000000;0.143361
8400.000000;0.143088
8399.000000;0.142861
8398.000000;0.142735
8397.000000;0.142663
8396.000000;0.142572
8395.000000;0.142477
8394.000000;0.142419
8393.000000;0.142357
8392.000000;0.142220
8391.000000;0.142031
8390.000000;0.141850
8389.000000;0.141647
8388.000000;0.141366
8387.000000;0.141068
8386.000000;0.140881
8385.000000;0.140808
8384.000000;0.140734
8383.000000;0.140613
8382.000000;0.140508
8381.000000;0.140436
8380.000000;0.140320
8379.000000;0.140114
8378.000000;0.139868
8377.000000;0.139645
8376.000000;0.139477
8375.000000;0.139395
8374.000000;0.139405
8373.000000;0.139417
8372.000000;0.139315
8371.000000;0.139096
8370.000000;0.138859
8369.000000;0.138659
8368.000000;0.138469
8367.000000;0.138274
8366.000000;0.138109
8365.000000;0.137971
8364.000000;0.137831
8363.000000;0.137699
8362.000000;0.137608
8361.000000;0.137517
8360.000000;0.137346
8359.000000;0.137107
8358.000000;0.136907
8357.000000;0.136794
8356.000000;0.136713
8355.000000;0.136607
8354.000000;0.136493
8353.000000;0.136405
8352.000000;0.136333
8351.000000;0.136250
8350.000000;0.136113
8349.000000;0.135879
8348.000000;0.135559
8347.000000;0.135258
8346.000000;0.135069
8345.000000;0.134962
8344.000000;0.134839
8343.000000;0.134677
8342.000000;0.134514
8341.000000;0.134356
8340.000000;0.134187
8339.000000;0.134034
8338.000000;0.133921
8337.000000;0.133778
8336.000000;0.133521
8335.000000;0.133196
8334.000000;0.132921
8333.000000;0.132717
8332.000000;0.132526
8331.000000;0.132367
8330.000000;0.132323
8329.000000;0.132365
8328.000000;0.132337
8327.000000;0.132152
8326.000000;0.131885
8325.000000;0.131642
8324.000000;0.131453
8323.000000;0.131309
8322.000000;0.131201
8321.000000;0.131087
8320.000000;0.130908
8319.000000;0.130673
8318.000000;0.130464
8317.000000;0.130319
8316.000000;0.130203
8315.000000;0.130084
8314.000000;0.129969
8313.000000;0.129838
8312.000000;0.129632
8311.000000;0.129343
8310.000000;0.129046
8309.000000;0.128818
8308.000000;0.128674
8307.000000;0.128590
8306.000000;0.128522
8305.000000;0.128413
8304.000000;0.128236
8303.000000;0.128035
8302.000000;0.127877
8301.000000;0.127758
8300.000000;0.127633
8299.000000;0.127495
8298.000000;0.127362
8297.000000;0.127216
8296.000000;0.127018
8295.000000;0.126789
8294.000000;0.126590
8293.000000;0.126436
8292.000000;0.126293
8291.000000;0.126137
8290.000000;0.125966
8289.000000;0.125766
8288.000000;0.125537
8287.000000;0.125309
8286.000000;0.125105
8285.000000;0.124901
8284.000000;0.124679
8283.000000;0.124467
8282.000000;0.124275
8281.000000;0.124062
8280.000000;0.123838
8279.000000;0.123710
8278.000000;0.123724
8277.000000;0.123754
8276.000000;0.123651
8275.000000;0.123445
8274.000000;0.123272
8273.000000;0.123162
8272.000000;0.123031
8271.000000;0.122848
8270.000000;0.122660
8269.000000;0.122473
8268.000000;0.122252
8267.000000;0.122014
8266.000000;0.121813
8265.000000;0.121635
8264.000000;0.121429
8263.000000;0.121223
8262.000000;0.121097
8261.000000;0.121040
8260.000000;0.120968
8259.000000;0.120836
8258.000000;0.120656
8257.000000;0.120406
8256.000000;0.120064
8255.000000;0.119708
8254.000000;0.119468
8253.000000;0.119366
8252.000000;0.119316
8251.000000;0.119262
8250.000000;0.119207
8249.000000;0.119123
8248.000000;0.118952
8247.000000;0.118719
8246.000000;0.118513
8245.000000;0.118354
8244.000000;0.118181
8243.000000;0.117972
8242.000000;0.117779
8241.000000;0.117624
8240.000000;0.117465
8239.000000;0.117278
8238.000000;0.117080
8237.000000;0.116881
8236.000000;0.116685
8235.000000;0.116528
8234.000000;0.116424
8233.000000;0.116308
8232.000000;0.116108
8231.000000;0.115865
8230.000000;0.115663
8229.000000;0.115486
8228.000000;0.115247
8227.000000;0.114952
8226.000000;0.114702
8225.000000;0.114539
8224.000000;0.114404
8223.000000;0.114245
8222.000000;0.114077
8221.000000;0.113906
8220.000000;0.113712
8219.000000;0.113503
8218.000000;0.113325
8217.000000;0.113187
8216.000000;0.113058
8215.000000;0.112923
8214.000000;0.112775
8213.000000;0.112586
8212.000000;0.112360
8211.000000;0.112176
8210.000000;0.112083
8209.000000;0.112000
8208.000000;0.111828
8207.000000;0.111606
8206.000000;0.111442
8205.000000;0.111318
8204.000000;0.111119
8203.000000;0.110826
8202.000000;0.110553
8201.000000;0.110368
8200.000000;0.110224
8199.000000;0.110076
8198.000000;0.109941
8197.000000;0.109819
8196.000000;0.109662
8195.000000;0.109457
8194.000000;0.109242
8193.000000;0.109027
8192.000000;0.108807
8191.000000;0.108634
8190.000000;0.108576
8189.000000;0.108591
8188.000000;0.108546
8187.000000;0.108382
8186.000000;0.108157
8185.000000;0.107918
8184.000000;0.107655
8183.000000;0.107383
8182.000000;0.107171
8181.000000;0.107038
8180.000000;0.106916
8179.000000;0.106739
8178.000000;0.106515
8177.000000;0.106281
8176.000000;0.106074
8175.000000;0.105932
8174.000000;0.105871
8173.000000;0.105834
8172.000000;0.105744
8171.000000;0.105590
8170.000000;0.105403
8169.000000;0.105180
8168.000000;0.104914
8167.000000;0.104674
8166.000000;0.104547
8165.000000;0.104505
8164.000000;0.104429
8163.000000;0.104267
8162.000000;0.104077
8161.000000;0.103905
8160.000000;0.103738
8159.000000;0.103562
8158.000000;0.103388
8157.000000;0.103186
8156.000000;0.102900
8155.000000;0.102551
8154.000000;0.102236
8153.000000;0.102017
8152.000000;0.101866
8151.000000;0.101734
8150.000000;0.101602
8149.000000;0.101453
8148.000000;0.101278
8147.000000;0.101094
8146.000000;0.100921
8145.000000;0.100739
8144.000000;0.100533
8143.000000;0.100344
8142.000000;0.100215
8141.000000;0.100098
8140.000000;0.099904
8139.000000;0.099623
8138.000000;0.099327
8137.000000;0.099075
8136.000000;0.098885
8135.000000;0.098772
8134.000000;0.098716
8133.000000;0.098632
8132.000000;0.098455
8131.000000;0.098235
8130.000000;0.098054
8129.000000;0.097900
8128.000000;0.097713
8127.000000;0.097523
8126.000000;0.097408
8125.000000;0.097353
8124.000000;0.097255
8123.000000;0.097071
8122.000000;0.096850
8121.000000;0.096627
8120.000000;0.096402
8119.000000;0.096212
8118.000000;0.096099
8117.000000;0.096008
8116.000000;0.095841
8115.000000;0.095597
8114.000000;0.095365
8113.000000;0.095162
8112.000000;0.094913
8111.000000;0.094608
8110.000000;0.094344
8109.000000;0.094186
8108.000000;0.094088
8107.000000;0.093983
8106.000000;0.093857
8105.000000;0.093712
8104.000000;0.093544
8103.000000;0.093368
8102.000000;0.093205
8101.000000;0.093012
8100.000000;0.092730
8099.000000;0.092395
8098.000000;0.092125
8097.000000;0.091986
8096.000000;0.091927
8095.000000;0.091865
8094.000000;0.091750
8093.000000;0.091558
8092.000000;0.091311
8091.000000;0.091096
8090.000000;0.090982
8089.000000;0.090902
8088.000000;0.090726
8087.000000;0.090433
8086.000000;0.090136
8085.000000;0.089924
8084.000000;0.089775
8083.000000;0.089639
8082.000000;0.089507
8081.000000;0.089374
8080.000000;0.089205
8079.000000;0.088986
8078.000000;0.088749
8077.000000;0.088529
8076.000000;0.088328
8075.000000;0.088140
8074.000000;0.087964
8073.000000;0.087792
8072.000000;0.087626
8071.000000;0.087473
8070.000000;0.087299
8069.000000;0.087031
8068.000000;0.086665
8067.000000;0.086324
8066.000000;0.086131
8065.000000;0.086051
8064.000000;0.085968
8063.000000;0.085853
8062.000000;0.085761
8061.000000;0.085689
8060.000000;0.085551
8059.000000;0.085316
8058.000000;0.085047
8057.000000;0.084804
8056.000000;0.084597
8055.000000;0.084433
8054.000000;0.084316
8053.000000;0.084196
8052.000000;0.084007
8051.000000;0.083753
8050.000000;0.083501
8049.000000;0.083275
8048.000000;0.083048
8047.000000;0.082815
8046.000000;0.082600
8045.000000;0.082404
8044.000000;0.082229
8043.000000;0.082115
8042.000000;0.082081
8041.000000;0.082045
8040.000000;0.081908
8039.000000;0.081700
8038.000000;0.081514
8037.000000;0.081349
8036.000000;0.081122
8035.000000;0.080832
8034.000000;0.080573
8033.000000;0.080384
8032.000000;0.080202
8031.000000;0.079996
8030.000000;0.079813
8029.000000;0.079676
8028.000000;0.079523
8027.000000;0.079301
8026.000000;0.079035
8025.000000;0.078772
8024.000000;0.078537
8023.000000;0.078358
8022.000000;0.078257
8021.000000;0.078198
8020.000000;0.078113
8019.000000;0.077989
8018.000000;0.077851
8017.000000;0.077674
8016.000000;0.077407
8015.000000;0.077076
8014.000000;0.076777
8013.000000;0.076555
8012.000000;0.076370
8011.000000;0.076204
8010.000000;0.076087
8009.000000;0.075996
8008.000000;0.075848
8007.000000;0.075622
8006.000000;0.075410
8005.000000;0.075286
8004.000000;0.075202
8003.000000;0.075063
8002.000000;0.074841
8001.000000;0.074579
8000.000000;0.074323
7999.000000;0.074095
7998.000000;0.073897
7997.000000;0.073719
7996.000000;0.073557
7995.000000;0.073416
7994.000000;0.073275
7993.000000;0.073076
7992.000000;0.072790
7991.000000;0.072479
7990.000000;0.072226
7989.000000;0.072046
7988.000000;0.071908
7987.000000;0.071813
7986.000000;0.071773
7985.000000;0.071726
7984.000000;0.071567
7983.000000;0.071275
7982.000000;0.070942
7981.000000;0.070667
7980.000000;0.070481
7979.000000;0.070364
7978.000000;0.070264
7977.000000;0.070099
7976.000000;0.069807
7975.000000;0.069422
7974.000000;0.069049
7973.000000;0.068771
7972.000000;0.068613
7971.000000;0.068561
7970.000000;0.068561
7969.000000;0.068512
7968.000000;0.068356
7967.000000;0.068140
7966.000000;0.067951
7965.000000;0.067793
7964.000000;0.067600
7963.000000;0.067351
7962.000000;0.067091
7961.000000;0.066858
7960.000000;0.066652
7959.000000;0.066485
7958.000000;0.066356
7957.000000;0.066217
7956.000000;0.066011
7955.000000;0.065759
7954.000000;0.065531
7953.000000;0.065338
7952.000000;0.065128
7951.000000;0.064878
7950.000000;0.064619
7949.000000;0.064385
7948.000000;0.064191
7947.000000;0.064054
7946.000000;0.063975
7945.000000;0.063901
7944.000000;0.063771
7943.000000;0.063586
7942.000000;0.063395
7941.000000;0.063224
7940.000000;0.063089
7939.000000;0.063002
7938.000000;0.062932
7937.000000;0.062780
7936.000000;0.062486
7935.000000;0.062127
7934.000000;0.061824
7933.000000;0.061600
7932.000000;0.061396
7931.000000;0.061198
7930.000000;0.061042
7929.000000;0.060924
7928.000000;0.060800
7927.000000;0.060655
7926.000000;0.060498
7925.000000;0.060305
7924.000000;0.060057
7923.000000;0.059812
7922.000000;0.059645
7921.000000;0.059533
7920.000000;0.059392
7919.000000;0.059209
7918.000000;0.059042
7917.000000;0.058916
7916.000000;0.058784
7915.000000;0.058614
7914.000000;0.058415
7913.000000;0.058191
7912.000000;0.057947
7911.000000;0.057728
7910.000000;0.057580
7909.000000;0.057476
7908.000000;0.057338
7907.000000;0.057144
7906.000000;0.056923
7905.000000;0.056690
7904.000000;0.056450
7903.000000;0.056242
7902.000000;0.056098
7901.000000;0.055974
7900.000000;0.055802
7899.000000;0.055585
7898.000000;0.055379
7897.000000;0.055201
7896.000000;0.055038
7895.000000;0.054913
7894.000000;0.054845
7893.000000;0.054774
7892.000000;0.054619
7891.000000;0.054391
7890.000000;0.054165
7889.000000;0.053963
7888.000000;0.053752
7887.000000;0.053545
7886.000000;0.053393
7885.000000;0.053289
7884.000000;0.053162
7883.000000;0.052984
7882.000000;0.052796
7881.000000;0.052627
7880.000000;0.052466
7879.000000;0.052302
7878.000000;0.052126
7877.000000;0.051914
7876.000000;0.051663
7875.000000;0.051432
7874.000000;0.051267
7873.000000;0.051124
7872.000000;0.050941
7871.000000;0.050749
7870.000000;0.050625
7869.000000;0.050553
7868.000000;0.050428
7867.000000;0.050191
7866.000000;0.049890
7865.000000;0.049599
7864.000000;0.049368
7863.000000;0.049216
7862.000000;0.049119
7861.000000;0.049008
7860.000000;0.048853
7859.000000;0.048715
7858.000000;0.048652
7857.000000;0.048612
7856.000000;0.048503
7855.000000;0.048326
7854.000000;0.048145
7853.000000;0.047960
7852.000000;0.047731
7851.000000;0.047492
7850.000000;0.047330
7849.000000;0.047249
7848.000000;0.047169
7847.000000;0.047044
7846.000000;0.046902
7845.000000;0.046752
7844.000000;0.046568
7843.000000;0.046355
7842.000000;0.046148
7841.000000;0.045948
7840.000000;0.045736
7839.000000;0.045550
7838.000000;0.045449
7837.000000;0.045406
7836.000000;0.045333
7835.000000;0.045208
7834.000000;0.045079
7833.000000;0.044955
7832.000000;0.044785
7831.000000;0.044570
7830.000000;0.044375
7829.000000;0.044239
7828.000000;0.044123
7827.000000;0.043986
7826.000000;0.043829
7825.000000;0.043660
7824.000000;0.043475
7823.000000;0.043298
7822.000000;0.043161
7821.000000;0.043057
7820.000000;0.042947
7819.000000;0.042817
7818.000000;0.042665
7817.000000;0.042461
7816.000000;0.042185
7815.000000;0.041901
7814.000000;0.041696
7813.000000;0.041579
7812.000000;0.041494
7811.000000;0.041407
7810.000000;0.041321
7809.000000;0.041218
7808.000000;0.041079
7807.000000;0.040939
7806.000000;0.040846
7805.000000;0.040784
7804.000000;0.040699
7803.000000;0.040576
7802.000000;0.040436
7801.000000;0.040271
7800.000000;0.040074
7799.000000;0.039897
7798.000000;0.039789
7797.000000;0.039712
7796.000000;0.039592
7795.000000;0.039433
7794.000000;0.039286
7793.000000;0.039153
7792.000000;0.039001
7791.000000;0.038854
7790.000000;0.038755
7789.000000;0.038678
7788.000000;0.038563
7787.000000;0.038423
7786.000000;0.038312
7785.000000;0.038213
7784.000000;0.038054
7783.000000;0.037833
7782.000000;0.037622
7781.000000;0.037453
7780.000000;0.037300
7779.000000;0.037167
7778.000000;0.037092
7777.000000;0.037053
7776.000000;0.036983
7775.000000;0.036857
7774.000000;0.036716
7773.000000;0.036586
7772.000000;0.036460
7771.000000;0.036348
7770.000000;0.036266
7769.000000;0.036185
7768.000000;0.036063
7767.000000;0.035921
7766.000000;0.035798
7765.000000;0.035681
7764.000000;0.035545
7763.000000;0.035432
7762.000000;0.035396
7761.000000;0.035384
7760.000000;0.035301
7759.000000;0.035151
7758.000000;0.035017
7757.000000;0.034921
7756.000000;0.034822
7755.000000;0.034717
7754.000000;0.034639
7753.000000;0.034550
7752.000000;0.034376
7751.000000;0.034143
7750.000000;0.033975
7749.000000;0.033924
7748.000000;0.033915
7747.000000;0.033866
7746.000000;0.033771
7745.000000;0.033646
7744.000000;0.033494
7743.000000;0.033344
7742.000000;0.033240
7741.000000;0.033167
7740.000000;0.033073
7739.000000;0.032960
7738.000000;0.032879
7737.000000;0.032840
7736.000000;0.032793
7735.000000;0.032719
7734.000000;0.032630
7733.000000;0.032506
7732.000000;0.032323
7731.000000;0.032133
7730.000000;0.032033
7729.000000;0.032039
7728.000000;0.032067
7727.000000;0.032050
7726.000000;0.031981
7725.000000;0.031858
7724.000000;0.031677
7723.000000;0.031490
7722.000000;0.031380
7721.000000;0.031355
7720.000000;0.031346
7719.000000;0.031314
7718.000000;0.031273
7717.000000;0.031217
7716.000000;0.031114
7715.000000;0.030978
7714.000000;0.030862
7713.000000;0.030785
7712.000000;0.030723
7711.000000;0.030676
7710.000000;0.030658
7709.000000;0.030638
7708.000000;0.030567
7707.000000;0.030462
7706.000000;0.030380
7705.000000;0.030327
7704.000000;0.030265
7703.000000;0.030210
7702.000000;0.030209
7701.000000;0.030238
7700.000000;0.030212
7699.000000;0.030101
7698.000000;0.029963
7697.000000;0.029840
7696.000000;0.029728
7695.000000;0.029636
7694.000000;0.029595
7693.000000;0.029582
7692.000000;0.029528
7691.000000;0.029410
7690.000000;0.029279
7689.000000;0.029177
7688.000000;0.029110
7687.000000;0.029089
7686.000000;0.029120
7685.000000;0.029161
7684.000000;0.029153
7683.000000;0.029107
7682.000000;0.029070
7681.000000;0.029041
7680.000000;0.028969
7679.000000;0.028856
7678.000000;0.028765
7677.000000;0.028730
7676.000000;0.028726
7675.000000;0.028731
7674.000000;0.028733
7673.000000;0.028694
7672.000000;0.028589
7671.000000;0.028468
7670.000000;0.028414
7669.000000;0.028436
7668.000000;0.028476
7667.000000;0.028503
7666.000000;0.028525
7665.000000;0.028527
7664.000000;0.028488
7663.000000;0.028438
7662.000000;0.028415
7661.000000;0.028392
7660.000000;0.028325
7659.000000;0.028253
7658.000000;0.028250
7657.000000;0.028291
7656.000000;0.028289
7655.000000;0.028233
7654.000000;0.028197
7653.000000;0.028207
7652.000000;0.028204
7651.000000;0.028155
7650.000000;0.028097
7649.000000;0.028062
7648.000000;0.028038
7647.000000;0.028027
7646.000000;0.028052
7645.000000;0.028098
7644.000000;0.028126
7643.000000;0.028146
7642.000000;0.028203
7641.000000;0.028294
7640.000000;0.028362
7639.000000;0.028385
7638.000000;0.028389
7637.000000;0.028381
7636.000000;0.028351
7635.000000;0.028320
7634.000000;0.028328
7633.000000;0.028360
7632.000000;0.028379
7631.000000;0.028397
7630.000000;0.028445
7629.000000;0.028491
7628.000000;0.028474
7627.000000;0.028416
7626.000000;0.028413
7625.000000;0.028514
7624.000000;0.028679
7623.000000;0.028846
7622.000000;0.028961
7621.000000;0.028977
7620.000000;0.028905
7619.000000;0.028850
7618.000000;0.028910
7617.000000;0.029051
7616.000000;0.029154
7615.000000;0.029173
7614.000000;0.029144
7613.000000;0.029100
7612.000000;0.029050
7611.000000;0.029038
7610.000000;0.029107
7609.000000;0.029216
7608.000000;0.029296
7607.000000;0.029364
7606.000000;0.029478
7605.000000;0.029615
7604.000000;0.029699
7603.000000;0.029727
7602.000000;0.029758
7601.000000;0.029793
7600.000000;0.029783
7599.000000;0.029757
7598.000000;0.029810
7597.000000;0.029960
7596.000000;0.030131
7595.000000;0.030276
7594.000000;0.030415
7593.000000;0.030538
7592.000000;0.030593
7591.000000;0.030580
7590.000000;0.030570
7589.000000;0.030609
7588.000000;0.030679
7587.000000;0.030774
7586.000000;0.030907
7585.000000;0.031053
7584.000000;0.031172
7583.000000;0.031278
7582.000000;0.031403
7581.000000;0.031511
7580.000000;0.031547
7579.000000;0.031557
7578.000000;0.031649
7577.000000;0.031841
7576.000000;0.032049
7575.000000;0.032227
7574.000000;0.032390
7573.000000;0.032521
7572.000000;0.032577
7571.000000;0.032587
7570.000000;0.032648
7569.000000;0.032792
7568.000000;0.032955
7567.000000;0.033087
7566.000000;0.033201
7565.000000;0.033307
7564.000000;0.033401
7563.000000;0.033516
7562.000000;0.033693
7561.000000;0.033901
7560.000000;0.034072
7559.000000;0.034216
7558.000000;0.034390
7557.000000;0.034584
7556.000000;0.034726
7555.000000;0.034818
7554.000000;0.034936
7553.000000;0.035106
7552.000000;0.035279
7551.000000;0.035432
7550.000000;0.035590
7549.000000;0.035738
7548.000000;0.035828
7547.000000;0.035886
7546.000000;0.035991
7545.000000;0.036153
7544.000000;0.036304
7543.000000;0.036423
7542.000000;0.036553
7541.000000;0.036700
7540.000000;0.036834
7539.000000;0.036981
7538.000000;0.037203
7537.000000;0.037469
7536.000000;0.037678
7535.000000;0.037821
7534.000000;0.037999
7533.000000;0.038257
7532.000000;0.038526
7531.000000;0.038757
7530.000000;0.038983
7529.000000;0.039222
7528.000000;0.039426
7527.000000;0.039572
7526.000000;0.039704
7525.000000;0.039861
7524.000000;0.040032
7523.000000;0.040213
7522.000000;0.040414
7521.000000;0.040611
7520.000000;0.040779
7519.000000;0.040969
7518.000000;0.041258
7517.000000;0.041604
7516.000000;0.041876
7515.000000;0.042039
7514.000000;0.042199
7513.000000;0.042436
7512.000000;0.042708
7511.000000;0.042944
7510.000000;0.043135
7509.000000;0.043295
7508.000000;0.043441
7507.000000;0.043622
7506.000000;0.043889
7505.000000;0.044209
7504.000000;0.044490
7503.000000;0.044710
7502.000000;0.044931
7501.000000;0.045180
7500.000000;0.045406
7499.000000;0.045579
7498.000000;0.045737
7497.000000;0.045920
7496.000000;0.046115
7495.000000;0.046333
7494.000000;0.046562
7493.000000;0.046813
7492.000000;0.047072
7491.000000;0.047313
7490.000000;0.047574
7489.000000;0.047811
7488.000000;0.047981
7487.000000;0.048124
7486.000000;0.048332
7485.000000;0.048608
7484.000000;0.048879
7483.000000;0.049121
7482.000000;0.049368
7481.000000;0.049614
7480.000000;0.049821
7479.000000;0.050012
7478.000000;0.050245
7477.000000;0.050493
7476.000000;0.050685
7475.000000;0.050837
7474.000000;0.051033
7473.000000;0.051264
7472.000000;0.051441
7471.000000;0.051570
7470.000000;0.051775
7469.000000;0.052124
7468.000000;0.052545
7467.000000;0.052943
7466.000000;0.053291
7465.000000;0.053578
7464.000000;0.053791
7463.000000;0.053975
7462.000000;0.054204
7461.000000;0.054469
7460.000000;0.054699
7459.000000;0.054892
7458.000000;0.055116
7457.000000;0.055380
7456.000000;0.055621
7455.000000;0.055832
7454.000000;0.056065
7453.000000;0.056311
7452.000000;0.056505
7451.000000;0.056667
7450.000000;0.056891
7449.000000;0.057183
7448.000000;0.057453
7447.000000;0.057681
7446.000000;0.057947
7445.000000;0.058279
7444.000000;0.058603
7443.000000;0.058873
7442.000000;0.059126
7441.000000;0.059372
7440.000000;0.059565
7439.000000;0.059717
7438.000000;0.059913
7437.000000;0.060168
7436.000000;0.060406
7435.000000;0.060597
7434.000000;0.060801
7433.000000;0.061028
7432.000000;0.061216
7431.000000;0.061365
7430.000000;0.061567
7429.000000;0.061853
7428.000000;0.062150
7427.000000;0.062408
7426.000000;0.062650
7425.000000;0.062879
7424.000000;0.063079
7423.000000;0.063305
7422.000000;0.063634
7421.000000;0.064032
7420.000000;0.064369
7419.000000;0.064596
7418.000000;0.064781
7417.000000;0.064957
7416.000000;0.065092
7415.000000;0.065212
7414.000000;0.065397
7413.000000;0.065640
7412.000000;0.065838
7411.000000;0.065968
7410.000000;0.066133
7409.000000;0.066378
7408.000000;0.066611
7407.000000;0.066764
7406.000000;0.066885
7405.000000;0.067035
7404.000000;0.067210
7403.000000;0.067418
7402.000000;0.067697
7401.000000;0.068034
7400.000000;0.068339
7399.000000;0.068582
7398.000000;0.068850
7397.000000;0.069143
7396.000000;0.069317
7395.000000;0.069367
7394.000000;0.069473
7393.000000;0.069667
7392.000000;0.069720
7391.000000;0.069512
7390.000000;0.069294
7389.000000;0.069413
7388.000000;0.069919
7387.000000;0.070610
7386.000000;0.071267
7385.000000;0.071730
7384.000000;0.071935
7383.000000;0.072016
7382.000000;0.072164
7381.000000;0.072392
7380.000000;0.072606
7379.000000;0.072827
7378.000000;0.073140
7377.000000;0.073447
7376.000000;0.073567
7375.000000;0.073585
7374.000000;0.073797
7373.000000;0.074277
7372.000000;0.074748
7371.000000;0.074936
7370.000000;0.074863
7369.000000;0.074731
7368.000000;0.074689
7367.000000;0.074869
7366.000000;0.075392
7365.000000;0.076063
7364.000000;0.076431
7363.000000;0.076368
7362.000000;0.076194
7361.000000;0.076259
7360.000000;0.076669
7359.000000;0.077350
7358.000000;0.078065
7357.000000;0.078442
7356.000000;0.078308
7355.000000;0.077983
7354.000000;0.078059
7353.000000;0.078751
7352.000000;0.079660
7351.000000;0.080248
7350.000000;0.080356
7349.000000;0.080225
7348.000000;0.080206
7347.000000;0.080485
7346.000000;0.080889
7345.000000;0.081041
7344.000000;0.080865
7343.000000;0.080889
7342.000000;0.081677
7341.000000;0.082999
7340.000000;0.084008
7339.000000;0.084286
7338.000000;0.084296
7337.000000;0.084567
7336.000000;0.085026
7335.000000;0.085395
7334.000000;0.085647
7333.000000;0.085932
7332.000000;0.086380
7331.000000;0.086977
7330.000000;0.087528
7329.000000;0.087812
7328.000000;0.087858
7327.000000;0.087981
7326.000000;0.088422
7325.000000;0.089045
7324.000000;0.089444
7323.000000;0.089486
7322.000000;0.089563
7321.000000;0.090132
7320.000000;0.091149
7319.000000;0.092176
7318.000000;0.092983
7317.000000;0.093697
7316.000000;0.094411
7315.000000;0.095028
7314.000000;0.095453
7313.000000;0.095778
7312.000000;0.096292
7311.000000;0.097173
7310.000000;0.098216
7309.000000;0.098969
7308.000000;0.099157
7307.000000;0.098974
7306.000000;0.098942
7305.000000;0.099513
7304.000000;0.100714
7303.000000;0.102001
7302.000000;0.102731
7301.000000;0.102781
7300.000000;0.102640
7299.000000;0.103024
7298.000000;0.104255
7297.000000;0.105940
7296.000000;0.107283
7295.000000;0.107869
7294.000000;0.108106
7293.000000;0.108755
7292.000000;0.110188
7291.000000;0.112071
7290.000000;0.113736
7289.000000;0.114872
7288.000000;0.115728
7287.000000;0.116668
7286.000000;0.117702
7285.000000;0.118620
7284.000000;0.119430
7283.000000;0.120299
7282.000000;0.121294
7281.000000;0.122370
7280.000000;0.123492
7279.000000;0.124689
7278.000000;0.125929
7277.000000;0.127109
7276.000000;0.128257
7275.000000;0.129542
7274.000000;0.130984
7273.000000;0.132411
7272.000000;0.133726
7271.000000;0.135012
7270.000000;0.136358
7269.000000;0.137748
7268.000000;0.139169
7267.000000;0.140678
7266.000000;0.142320
7265.000000;0.144075
7264.000000;0.145914
7263.000000;0.147791
7262.000000;0.149562
7261.000000;0.151093
7260.000000;0.152463
7259.000000;0.153911
7258.000000;0.155594
7257.000000;0.157496
7256.000000;0.159542
7255.000000;0.161690
7254.000000;0.163846
7253.000000;0.165863
7252.000000;0.167653
7251.000000;0.169356
7250.000000;0.171195
7249.000000;0.173136
7248.000000;0.175077
7247.000000;0.177178
7246.000000;0.179607
7245.000000;0.182182
7244.000000;0.184562
7243.000000;0.186683
7242.000000;0.188819
7241.000000;0.191237
7240.000000;0.193894
7239.000000;0.196465
7238.000000;0.198708
7237.000000;0.200791
7236.000000;0.203174
7235.000000;0.206128
7234.000000;0.209428
7233.000000;0.212561
7232.000000;0.215184
7231.000000;0.217541
7230.000000;0.220199
7229.000000;0.223214
7228.000000;0.226202
7227.000000;0.229018
7226.000000;0.231811
7225.000000;0.234706
7224.000000;0.237763
7223.000000;0.241023
7222.000000;0.244386
7221.000000;0.247653
7220.000000;0.250820
7219.000000;0.254102
7218.000000;0.257603
7217.000000;0.261170
7216.000000;0.264612
7215.000000;0.267913
7214.000000;0.271221
7213.000000;0.274739
7212.000000;0.278596
7211.000000;0.282746
7210.000000;0.286976
7209.000000;0.291079
7208.000000;0.295123
7207.000000;0.299380
7206.000000;0.303888
7205.000000;0.308346
7204.000000;0.312531
7203.000000;0.316552
7202.000000;0.320594
7201.000000;0.324659
7200.000000;0.328721
7199.000000;0.332868
7198.000000;0.337195
7197.000000;0.341702
7196.000000;0.346374
7195.000000;0.351224
7194.000000;0.356186
7193.000000;0.361144
7192.000000;0.366054
7191.000000;0.370955
7190.000000;0.375824
7189.000000;0.380620
7188.000000;0.385473
7187.000000;0.390583
7186.000000;0.395936
7185.000000;0.401236
7184.000000;0.406215
7183.000000;0.410932
7182.000000;0.415686
7181.000000;0.420777
7180.000000;0.426415
7179.000000;0.432611
7178.000000;0.438978
7177.000000;0.444988
7176.000000;0.450575
7175.000000;0.456148
7174.000000;0.461991
7173.000000;0.467977
7172.000000;0.473858
7171.000000;0.479657
7170.000000;0.485535
7169.000000;0.491514
7168.000000;0.497444
7167.000000;0.503172
7166.000000;0.508773
7165.000000;0.514440
7164.000000;0.520166
7163.000000;0.525713
7162.000000;0.530950
7161.000000;0.536150
7160.000000;0.541867
7159.000000;0.548406
7158.000000;0.555402
7157.000000;0.562151
7156.000000;0.568404
7155.000000;0.574503
7154.000000;0.580756
7153.000000;0.587079
7152.000000;0.593250
7151.000000;0.599291
7150.000000;0.605461
7149.000000;0.611880
7148.000000;0.618380
7147.000000;0.624800
7146.000000;0.631152
7145.000000;0.637442
7144.000000;0.643708
7143.000000;0.650112
7142.000000;0.656659
7141.000000;0.662984
7140.000000;0.668805
7139.000000;0.674430
7138.000000;0.680418
7137.000000;0.686796
7136.000000;0.693043
7135.000000;0.698858
7134.000000;0.704512
7133.000000;0.710426
7132.000000;0.716698
7131.000000;0.723103
7130.000000;0.729348
7129.000000;0.735218
7128.000000;0.740758
7127.000000;0.746372
7126.000000;0.752410
7125.000000;0.758703
7124.000000;0.764789
7123.000000;0.770541
7122.000000;0.776260
7121.000000;0.782139
7120.000000;0.788030
7119.000000;0.793761
7118.000000;0.799339
7117.000000;0.804806
7116.000000;0.810203
7115.000000;0.815603
7114.000000;0.820952
7113.000000;0.826079
7112.000000;0.831049
7111.000000;0.836262
7110.000000;0.841965
7109.000000;0.847858
7108.000000;0.853457
7107.000000;0.858636
7106.000000;0.863531
7105.000000;0.868177
7104.000000;0.872581
7103.000000;0.877085
7102.000000;0.882120
7101.000000;0.887520
7100.000000;0.892685
7099.000000;0.897388
7098.000000;0.901845
7097.000000;0.906131
7096.000000;0.910156
7095.000000;0.914137
7094.000000;0.918476
7093.000000;0.923119
7092.000000;0.927559
7091.000000;0.931566
7090.000000;0.935416
7089.000000;0.939395
7088.000000;0.943527
7087.000000;0.947738
7086.000000;0.951856
7085.000000;0.955541
7084.000000;0.958678
7083.000000;0.961719
7082.000000;0.965175
7081.000000;0.968956
7080.000000;0.972747
7079.000000;0.976743
7078.000000;0.981228
7077.000000;0.985739
7076.000000;0.989475
7075.000000;0.992317
7074.000000;0.994768
7073.000000;0.997165
7072.000000;0.999641
7071.000000;1.002592
7070.000000;1.006281
7069.000000;1.010106
7068.000000;1.013189
7067.000000;1.015598
7066.000000;1.018185
7065.000000;1.021243
7064.000000;1.024207
7063.000000;1.026717
7062.000000;1.029096
7061.000000;1.031594
7060.000000;1.033990
7059.000000;1.036152
7058.000000;1.038266
7057.000000;1.040355
7056.000000;1.042248
7055.000000;1.044063
7054.000000;1.046125
7053.000000;1.048395
7052.000000;1.050554
7051.000000;1.052618
7050.000000;1.054899
7049.000000;1.057353
7048.000000;1.059570
7047.000000;1.061438
7046.000000;1.063221
7045.000000;1.064980
7044.000000;1.066499
7043.000000;1.067835
7042.000000;1.069383
7041.000000;1.071283
7040.000000;1.073228
7039.000000;1.074889
7038.000000;1.076174
7037.000000;1.077162
7036.000000;1.078178
7035.000000;1.079697
7034.000000;1.081744
7033.000000;1.083709
7032.000000;1.085133
7031.000000;1.086314
7030.000000;1.087637
7029.000000;1.088811
7028.000000;1.089444
7027.000000;1.089936
7026.000000;1.091008
7025.000000;1.092676
7024.000000;1.094447
7023.000000;1.096178
7022.000000;1.097913
7021.000000;1.099207
7020.000000;1.099555
7019.000000;1.099332
7018.000000;1.099467
7017.000000;1.100302
7016.000000;1.101449
7015.000000;1.102563
7014.000000;1.103543
7013.000000;1.104205
7012.000000;1.104526
7011.000000;1.105011
7010.000000;1.106051
7009.000000;1.107150
7008.000000;1.107554
7007.000000;1.107425
7006.000000;1.107570
7005.000000;1.108248
7004.000000;1.109080
7003.000000;1.109909
7002.000000;1.110863
7001.000000;1.111705
7000.000000;1.112025
6999.000000;1.112025
6998.000000;1.112319
6997.000000;1.113021
6996.000000;1.113733
6995.000000;1.114276
6994.000000;1.114686
6993.000000;1.114684
6992.000000;1.113999
6991.000000;1.113096
6990.000000;1.112779
6989.000000;1.113150
6988.000000;1.113638
6987.000000;1.113948
6986.000000;1.114303
6985.000000;1.114816
6984.000000;1.115346
6983.000000;1.115926
6982.000000;1.116686
6981.000000;1.117397
6980.000000;1.117674
6979.000000;1.117509
6978.000000;1.117087
6977.000000;1.116365
6976.000000;1.115429
6975.000000;1.114902
6974.000000;1.115269
6973.000000;1.116042
6972.000000;1.116292
6971.000000;1.115804
6970.000000;1.115057
6969.000000;1.114321
6968.000000;1.113522
6967.000000;1.112757
6966.000000;1.112236
6965.000000;1.111870
6964.000000;1.111493
6963.000000;1.111316
6962.000000;1.111531
6961.000000;1.111777
6960.000000;1.111641
6959.000000;1.111342
6958.000000;1.111260
6957.000000;1.111152
6956.000000;1.110545
6955.000000;1.109591
6954.000000;1.108821
6953.000000;1.108354
6952.000000;1.108006
6951.000000;1.107852
6950.000000;1.107960
6949.000000;1.107927
6948.000000;1.107356
6947.000000;1.106491
6946.000000;1.105713
6945.000000;1.104837
6944.000000;1.103591
6943.000000;1.102379
6942.000000;1.101804
6941.000000;1.101750
6940.000000;1.101683
6939.000000;1.101516
6938.000000;1.101424
6937.000000;1.101180
6936.000000;1.100492
6935.000000;1.099689
6934.000000;1.099239
6933.000000;1.098861
6932.000000;1.097950
6931.000000;1.096631
6930.000000;1.095608
6929.000000;1.095166
6928.000000;1.095039
6927.000000;1.094992
6926.000000;1.094869
6925.000000;1.094313
6924.000000;1.093137
6923.000000;1.091762
6922.000000;1.090744
6921.000000;1.090092
6920.000000;1.089540
6919.000000;1.089090
6918.000000;1.088725
6917.000000;1.088024
6916.000000;1.086780
6915.000000;1.085542
6914.000000;1.084823
6913.000000;1.084241
6912.000000;1.083141
6911.000000;1.081636
6910.000000;1.080319
6909.000000;1.079394
6908.000000;1.078794
6907.000000;1.078631
6906.000000;1.078760
6905.000000;1.078427
6904.000000;1.077170
6903.000000;1.075584
6902.000000;1.074389
6901.000000;1.073315
6900.000000;1.071831
6899.000000;1.070407
6898.000000;1.069951
6897.000000;1.070332
6896.000000;1.070572
6895.000000;1.070227
6894.000000;1.069589
6893.000000;1.068737
6892.000000;1.067489
6891.000000;1.066126
6890.000000;1.065119
6889.000000;1.064226
6888.000000;1.062844
6887.000000;1.061177
6886.000000;1.060083
6885.000000;1.059789
6884.000000;1.059638
6883.000000;1.059094
6882.000000;1.058196
6881.000000;1.057068
6880.000000;1.055767
6879.000000;1.054639
6878.000000;1.054044
6877.000000;1.053750
6876.000000;1.053257
6875.000000;1.052586
6874.000000;1.052064
6873.000000;1.051524
6872.000000;1.050496
6871.000000;1.049030
6870.000000;1.047603
6869.000000;1.046319
6868.000000;1.045008
6867.000000;1.043909
6866.000000;1.043439
6865.000000;1.043366
6864.000000;1.042971
6863.000000;1.042003
6862.000000;1.040791
6861.000000;1.039508
6860.000000;1.038060
6859.000000;1.036615
6858.000000;1.035478
6857.000000;1.034466
6856.000000;1.033134
6855.000000;1.031541
6854.000000;1.030160
6853.000000;1.029085
6852.000000;1.027959
6851.000000;1.026611
6850.000000;1.025179
6849.000000;1.023671
6848.000000;1.021977
6847.000000;1.020253
6846.000000;1.018761
6845.000000;1.017419
6844.000000;1.015957
6843.000000;1.014371
6842.000000;1.012786
6841.000000;1.011110
6840.000000;1.009310
6839.000000;1.007737
6838.000000;1.006624
6837.000000;1.005567
6836.000000;1.004070
6835.000000;1.002307
6834.000000;1.000724
6833.000000;0.999198
6832.000000;0.997293
6831.000000;0.995047
6830.000000;0.992828
6829.000000;0.990633
6828.000000;0.988226
6827.000000;0.985750
6826.000000;0.983535
6825.000000;0.981454
6824.000000;0.979164
6823.000000;0.976790
6822.000000;0.974682
6821.000000;0.972666
6820.000000;0.970247
6819.000000;0.967477
6818.000000;0.964944
6817.000000;0.962896
6816.000000;0.960968
6815.000000;0.958820
6814.000000;0.956518
6813.000000;0.954272
6812.000000;0.952188
6811.000000;0.950230
6810.000000;0.948137
6809.000000;0.945527
6808.000000;0.942430
6807.000000;0.939451
6806.000000;0.937029
6805.000000;0.934831
6804.000000;0.932292
6803.000000;0.929417
6802.000000;0.926575
6801.000000;0.923819
6800.000000;0.921004
6799.000000;0.918269
6798.000000;0.915803
6797.000000;0.913347
6796.000000;0.910492
6795.000000;0.907331
6794.000000;0.904306
6793.000000;0.901575
6792.000000;0.899044
6791.000000;0.896779
6790.000000;0.894834
6789.000000;0.892827
6788.000000;0.890251
6787.000000;0.887156
6786.000000;0.884029
6785.000000;0.881119
6784.000000;0.878308
6783.000000;0.875521
6782.000000;0.872773
6781.000000;0.869911
6780.000000;0.866766
6779.000000;0.863464
6778.000000;0.860227
6777.000000;0.857018
6776.000000;0.853751
6775.000000;0.850669
6774.000000;0.848095
6773.000000;0.845903
6772.000000;0.843652
6771.000000;0.841128
6770.000000;0.838412
6769.000000;0.835563
6768.000000;0.832617
6767.000000;0.829742
6766.000000;0.827026
6765.000000;0.824229
6764.000000;0.821095
6763.000000;0.817758
6762.000000;0.814536
6761.000000;0.811490
6760.000000;0.808538
6759.000000;0.805759
6758.000000;0.803212
6757.000000;0.800632
6756.000000;0.797691
6755.000000;0.794448
6754.000000;0.791231
6753.000000;0.788229
6752.000000;0.785476
6751.000000;0.783005
6750.000000;0.780662
6749.000000;0.778014
6748.000000;0.774816
6747.000000;0.771389
6746.000000;0.768203
6745.000000;0.765298
6744.000000;0.762433
6743.000000;0.759557
6742.000000;0.756740
6741.000000;0.753886
6740.000000;0.750929
6739.000000;0.748111
6738.000000;0.745635
6737.000000;0.743249
6736.000000;0.740535
6735.000000;0.737463
6734.000000;0.734284
6733.000000;0.731070
6732.000000;0.727765
6731.000000;0.724548
6730.000000;0.721703
6729.000000;0.719228
6728.000000;0.716886
6727.000000;0.714531
6726.000000;0.712075
6725.000000;0.709336
6724.000000;0.706249
6723.000000;0.703079
6722.000000;0.700097
6721.000000;0.697201
6720.000000;0.694182
6719.000000;0.691177
6718.000000;0.688478
6717.000000;0.686050
6716.000000;0.683589
6715.000000;0.680924
6714.000000;0.678061
6713.000000;0.674967
6712.000000;0.671676
6711.000000;0.668497
6710.000000;0.665714
6709.000000;0.663272
6708.000000;0.660934
6707.000000;0.658570
6706.000000;0.656205
6705.000000;0.653698
6704.000000;0.650875
6703.000000;0.647842
6702.000000;0.644860
6701.000000;0.641947
6700.000000;0.639060
6699.000000;0.636236
6698.000000;0.633663
6697.000000;0.631271
6696.000000;0.628841
6695.000000;0.626329
6694.000000;0.623748
6693.000000;0.620963
6692.000000;0.617873
6691.000000;0.614709
6690.000000;0.611807
6689.000000;0.609182
6688.000000;0.606608
6687.000000;0.604004
6686.000000;0.601436
6685.000000;0.598855
6684.000000;0.596163
6683.000000;0.593455
6682.000000;0.590889
6681.000000;0.588393
6680.000000;0.585778
6679.000000;0.583066
6678.000000;0.580420
6677.000000;0.577841
6676.000000;0.575218
6675.000000;0.572602
6674.000000;0.570149
6673.000000;0.567816
6672.000000;0.565395
6671.000000;0.562790
6670.000000;0.560052
6669.000000;0.557221
6668.000000;0.554359
6667.000000;0.551665
6666.000000;0.549291
6665.000000;0.547113
6664.000000;0.544883
6663.000000;0.542546
6662.000000;0.540189
6661.000000;0.537789
6660.000000;0.535268
6659.000000;0.532700
6658.000000;0.530213
6657.000000;0.527758
6656.000000;0.525219
6655.000000;0.522669
6654.000000;0.520269
6653.000000;0.517979
6652.000000;0.515614
6651.000000;0.513137
6650.000000;0.510673
6649.000000;0.508286
6648.000000;0.505950
6647.000000;0.503667
6646.000000;0.501420
6645.000000;0.499073
6644.000000;0.496533
6643.000000;0.493927
6642.000000;0.491428
6641.000000;0.488994
6640.000000;0.486486
6639.000000;0.483950
6638.000000;0.481544
6637.000000;0.479253
6636.000000;0.476915
6635.000000;0.474508
6634.000000;0.472164
6633.000000;0.469933
6632.000000;0.467722
6631.000000;0.465456
6630.000000;0.463133
6629.000000;0.460751
6628.000000;0.458327
6627.000000;0.455956
6626.000000;0.453707
6625.000000;0.451514
6624.000000;0.449296
6623.000000;0.447085
6622.000000;0.444908
6621.000000;0.442651
6620.000000;0.440230
6619.000000;0.437784
6618.000000;0.435511
6617.000000;0.433414
6616.000000;0.431359
6615.000000;0.429303
6614.000000;0.427275
6613.000000;0.425228
6612.000000;0.423097
6611.000000;0.420935
6610.000000;0.418831
6609.000000;0.416752
6608.000000;0.414636
6607.000000;0.412538
6606.000000;0.410511
6605.000000;0.408453
6604.000000;0.406250
6603.000000;0.403980
6602.000000;0.401794
6601.000000;0.399693
6600.000000;0.397589
6599.000000;0.395484
6598.000000;0.393412
6597.000000;0.391306
6596.000000;0.389119
6595.000000;0.386968
6594.000000;0.384980
6593.000000;0.383068
6592.000000;0.381060
6591.000000;0.378961
6590.000000;0.376880
6589.000000;0.374800
6588.000000;0.372619
6587.000000;0.370377
6586.000000;0.368220
6585.000000;0.366185
6584.000000;0.364208
6583.000000;0.362289
6582.000000;0.360460
6581.000000;0.358654
6580.000000;0.356771
6579.000000;0.354848
6578.000000;0.352976
6577.000000;0.351121
6576.000000;0.349183
6575.000000;0.347183
6574.000000;0.345220
6573.000000;0.343292
6572.000000;0.341338
6571.000000;0.339385
6570.000000;0.337502
6569.000000;0.335641
6568.000000;0.333702
6567.000000;0.331710
6566.000000;0.329770
6565.000000;0.327890
6564.000000;0.326003
6563.000000;0.324108
6562.000000;0.322250
6561.000000;0.320414
6560.000000;0.318578
6559.000000;0.316795
6558.000000;0.315086
6557.000000;0.313324
6556.000000;0.311396
6555.000000;0.309396
6554.000000;0.307500
6553.000000;0.305712
6552.000000;0.303915
6551.000000;0.302094
6550.000000;0.300331
6549.000000;0.298637
6548.000000;0.296948
6547.000000;0.295254
6546.000000;0.293564
6545.000000;0.291809
6544.000000;0.289930
6543.000000;0.288034
6542.000000;0.286262
6541.000000;0.284582
6540.000000;0.282856
6539.000000;0.281071
6538.000000;0.279328
6537.000000;0.277636
6536.000000;0.275904
6535.000000;0.274132
6534.000000;0.272409
6533.000000;0.270756
6532.000000;0.269098
6531.000000;0.267406
6530.000000;0.265707
6529.000000;0.264000
6528.000000;0.262273
6527.000000;0.260609
6526.000000;0.259097
6525.000000;0.257674
6524.000000;0.256182
6523.000000;0.254559
6522.000000;0.252864
6521.000000;0.251137
6520.000000;0.249382
6519.000000;0.247664
6518.000000;0.246066
6517.000000;0.244567
6516.000000;0.243078
6515.000000;0.241580
6514.000000;0.240111
6513.000000;0.238653
6512.000000;0.237150
6511.000000;0.235612
6510.000000;0.234079
6509.000000;0.232513
6508.000000;0.230844
6507.000000;0.229108
6506.000000;0.227410
6505.000000;0.225778
6504.000000;0.224155
6503.000000;0.222532
6502.000000;0.220965
6501.000000;0.219467
6500.000000;0.218005
6499.000000;0.216572
6498.000000;0.215165
6497.000000;0.213732
6496.000000;0.212226
6495.000000;0.210713
6494.000000;0.209295
6493.000000;0.207974
6492.000000;0.206660
6491.000000;0.205297
6490.000000;0.203871
6489.000000;0.202353
6488.000000;0.200750
6487.000000;0.199170
6486.000000;0.197728
6485.000000;0.196397
6484.000000;0.195043
6483.000000;0.193593
6482.000000;0.192083
6481.000000;0.190568
6480.000000;0.189091
6479.000000;0.187692
6478.000000;0.186370
6477.000000;0.185057
6476.000000;0.183707
6475.000000;0.182359
6474.000000;0.181041
6473.000000;0.179689
6472.000000;0.178242
6471.000000;0.176759
6470.000000;0.175330
6469.000000;0.173951
6468.000000;0.172578
6467.000000;0.171229
6466.000000;0.169920
6465.000000;0.168580
6464.000000;0.167151
6463.000000;0.165713
6462.000000;0.164383
6461.000000;0.163142
6460.000000;0.161882
6459.000000;0.160581
6458.000000;0.159299
6457.000000;0.158040
6456.000000;0.156761
6455.000000;0.155485
6454.000000;0.154273
6453.000000;0.153104
6452.000000;0.151895
6451.000000;0.150625
6450.000000;0.149340
6449.000000;0.148063
6448.000000;0.146782
6447.000000;0.145509
6446.000000;0.144263
6445.000000;0.143014
6444.000000;0.141739
6443.000000;0.140482
6442.000000;0.139287
6441.000000;0.138112
6440.000000;0.136895
6439.000000;0.135652
6438.000000;0.134414
6437.000000;0.133157
6436.000000;0.131863
6435.000000;0.130606
6434.000000;0.129445
6433.000000;0.128313
6432.000000;0.127117
6431.000000;0.125896
6430.000000;0.124745
6429.000000;0.123648
6428.000000;0.122505
6427.000000;0.121296
6426.000000;0.120087
6425.000000;0.118912
6424.000000;0.117758
6423.000000;0.116644
6422.000000;0.115583
6421.000000;0.114509
6420.000000;0.113344
6419.000000;0.112120
6418.000000;0.110926
6417.000000;0.109771
6416.000000;0.108605
6415.000000;0.107443
6414.000000;0.106353
6413.000000;0.105342
6412.000000;0.104350
6411.000000;0.103343
6410.000000;0.102318
6409.000000;0.101237
6408.000000;0.100074
6407.000000;0.098894
6406.000000;0.097787
6405.000000;0.096748
6404.000000;0.095702
6403.000000;0.094632
6402.000000;0.093573
6401.000000;0.092515
6400.000000;0.091422
6399.000000;0.090321
6398.000000;0.089279
6397.000000;0.088288
6396.000000;0.087278
6395.000000;0.086223
6394.000000;0.085147
6393.000000;0.084060
6392.000000;0.082968
6391.000000;0.081927
6390.000000;0.080983
6389.000000;0.080085
6388.000000;0.079138
6387.000000;0.078124
6386.000000;0.077098
6385.000000;0.076091
6384.000000;0.075088
6383.000000;0.074086
6382.000000;0.073082
6381.000000;0.072050
6380.000000;0.070991
6379.000000;0.069968
6378.000000;0.069017
6377.000000;0.068078
6376.000000;0.067085
6375.000000;0.066072
6374.000000;0.065115
6373.000000;0.064200
6372.000000;0.063267
6371.000000;0.062318
6370.000000;0.061396
6369.000000;0.060490
6368.000000;0.059559
6367.000000;0.058616
6366.000000;0.057699
6365.000000;0.056788
6364.000000;0.055845
6363.000000;0.054898
6362.000000;0.053986
6361.000000;0.053076
6360.000000;0.052112
6359.000000;0.051127
6358.000000;0.050190
6357.000000;0.049298
6356.000000;0.048406
6355.000000;0.047524
6354.000000;0.046687
6353.000000;0.045856
6352.000000;0.044965
6351.000000;0.044030
6350.000000;0.043119
6349.000000;0.042229
6348.000000;0.041317
6347.000000;0.040401
6346.000000;0.039546
6345.000000;0.038753
6344.000000;0.037961
6343.000000;0.037160
6342.000000;0.036381
6341.000000;0.035618
6340.000000;0.034825
6339.000000;0.033996
6338.000000;0.033155
6337.000000;0.032289
6336.000000;0.031369
6335.000000;0.030433
6334.000000;0.029549
6333.000000;0.028716
6332.000000;0.027882
6331.000000;0.027036
6330.000000;0.026205
6329.000000;0.025383
6328.000000;0.024545
6327.000000;0.023712
6326.000000;0.022924
6325.000000;0.022161
6324.000000;0.021374
6323.000000;0.020572
6322.000000;0.019798
6321.000000;0.019058
6320.000000;0.018315
6319.000000;0.017558
6318.000000;0.016790
6317.000000;0.015990
6316.000000;0.015157
6315.000000;0.014341
6314.000000;0.013576
6313.000000;0.012814
6312.000000;0.012005
6311.000000;0.011192
6310.000000;0.010435
6309.000000;0.009709
6308.000000;0.008951
6307.000000;0.008177
6306.000000;0.007448
6305.000000;0.006753
6304.000000;0.006033
6303.000000;0.005286
6302.000000;0.004556
6301.000000;0.003827
6300.000000;0.003050
6299.000000;0.002238
6298.000000;0.001468
6297.000000;0.000771
6296.000000;0.000108
6295.000000;-0.000556
6294.000000;-0.001227
6293.000000;-0.001923
6292.000000;-0.002657
6291.000000;-0.003398
6290.000000;-0.004104
6289.000000;-0.004789
6288.000000;-0.005491
6287.000000;-0.006203
6286.000000;-0.006891
6285.000000;-0.007567
6284.000000;-0.008261
6283.000000;-0.008962
6282.000000;-0.009646
6281.000000;-0.010321
6280.000000;-0.011000
6279.000000;-0.011658
6278.000000;-0.012287
6277.000000;-0.012938
6276.000000;-0.013657
6275.000000;-0.014396
6274.000000;-0.015094
6273.000000;-0.015767
6272.000000;-0.016459
6271.000000;-0.017142
6270.000000;-0.017758
6269.000000;-0.018326
6268.000000;-0.018920
6267.000000;-0.019563
6266.000000;-0.020234
6265.000000;-0.020943
6264.000000;-0.021702
6263.000000;-0.022462
6262.000000;-0.023158
6261.000000;-0.023798
6260.000000;-0.024431
6259.000000;-0.025047
6258.000000;-0.025610
6257.000000;-0.026149
6256.000000;-0.026735
6255.000000;-0.027375
6254.000000;-0.028016
6253.000000;-0.028633
6252.000000;-0.029253
6251.000000;-0.029892
6250.000000;-0.030548
6249.000000;-0.031230
6248.000000;-0.031925
6247.000000;-0.032569
6246.000000;-0.033123
6245.000000;-0.033631
6244.000000;-0.034152
6243.000000;-0.034677
6242.000000;-0.035180
6241.000000;-0.035712
6240.000000;-0.036336
6239.000000;-0.037018
6238.000000;-0.037668
6237.000000;-0.038269
6236.000000;-0.038864
6235.000000;-0.039457
6234.000000;-0.040010
6233.000000;-0.040542
6232.000000;-0.041115
6231.000000;-0.041748
6230.000000;-0.042406
6229.000000;-0.043059
6228.000000;-0.043693
6227.000000;-0.044269
6226.000000;-0.044764
6225.000000;-0.045236
6224.000000;-0.045769
6223.000000;-0.046367
6222.000000;-0.046980
6221.000000;-0.047591
6220.000000;-0.048213
6219.000000;-0.048826
6218.000000;-0.049395
6217.000000;-0.049935
6216.000000;-0.050474
6215.000000;-0.050984
6214.000000;-0.051440
6213.000000;-0.051896
6212.000000;-0.052437
6211.000000;-0.053058
6210.000000;-0.053679
6209.000000;-0.054262
6208.000000;-0.054832
6207.000000;-0.055395
6206.000000;-0.055923
6205.000000;-0.056416
6204.000000;-0.056902
6203.000000;-0.057388
6202.000000;-0.057872
6201.000000;-0.058388
6200.000000;-0.058966
6199.000000;-0.059564
6198.000000;-0.060113
6197.000000;-0.060612
6196.000000;-0.061116
6195.000000;-0.061641
6194.000000;-0.062160
6193.000000;-0.062662
6192.000000;-0.063153
6191.000000;-0.063621
6190.000000;-0.064057
6189.000000;-0.064505
6188.000000;-0.065009
6187.000000;-0.065539
6186.000000;-0.066046
6185.000000;-0.066548
6184.000000;-0.067090
6183.000000;-0.067650
6182.000000;-0.068159
6181.000000;-0.068609
6180.000000;-0.069066
6179.000000;-0.069567
6178.000000;-0.070087
6177.000000;-0.070599
6176.000000;-0.071105
6175.000000;-0.071604
6174.000000;-0.072093
6173.000000;-0.072582
6172.000000;-0.073076
6171.000000;-0.073550
6170.000000;-0.073991
6169.000000;-0.074428
6168.000000;-0.074887
6167.000000;-0.075349
6166.000000;-0.075799
6165.000000;-0.076277
6164.000000;-0.076817
6163.000000;-0.077373
6162.000000;-0.077876
6161.000000;-0.078333
6160.000000;-0.078793
6159.000000;-0.079255
6158.000000;-0.079692
6157.000000;-0.080113
6156.000000;-0.080550
6155.000000;-0.080991
6154.000000;-0.081412
6153.000000;-0.081840
6152.000000;-0.082321
6151.000000;-0.082831
6150.000000;-0.083309
6149.000000;-0.083746
6148.000000;-0.084184
6147.000000;-0.084641
6146.000000;-0.085102
6145.000000;-0.085570
6144.000000;-0.086050
6143.000000;-0.086506
6142.000000;-0.086896
6141.000000;-0.087236
6140.000000;-0.087584
6139.000000;-0.087968
6138.000000;-0.088385
6137.000000;-0.088837
6136.000000;-0.089312
6135.000000;-0.089765
6134.000000;-0.090174
6133.000000;-0.090578
6132.000000;-0.091019
6131.000000;-0.091469
6130.000000;-0.091887
6129.000000;-0.092288
6128.000000;-0.092704
6127.000000;-0.093120
6126.000000;-0.093505
6125.000000;-0.093879
6124.000000;-0.094277
6123.000000;-0.094688
6122.000000;-0.095087
6121.000000;-0.095491
6120.000000;-0.095926
6119.000000;-0.096372
6118.000000;-0.096806
6117.000000;-0.097255
6116.000000;-0.097734
6115.000000;-0.098184
6114.000000;-0.098551
6113.000000;-0.098880
6112.000000;-0.099251
6111.000000;-0.099656
6110.000000;-0.100040
6109.000000;-0.100401
6108.000000;-0.100782
6107.000000;-0.101176
6106.000000;-0.101541
6105.000000;-0.101884
6104.000000;-0.102246
6103.000000;-0.102623
6102.000000;-0.102979
6101.000000;-0.103321
6100.000000;-0.103688
6099.000000;-0.104083
6098.000000;-0.104489
6097.000000;-0.104919
6096.000000;-0.105383
6095.000000;-0.105825
6094.000000;-0.106183
6093.000000;-0.106473
6092.000000;-0.106763
6091.000000;-0.107078
6090.000000;-0.107402
6089.000000;-0.107743
6088.000000;-0.108114
6087.000000;-0.108479
6086.000000;-0.108797
6085.000000;-0.109099
6084.000000;-0.109450
6083.000000;-0.109853
6082.000000;-0.110261
6081.000000;-0.110671
6080.000000;-0.111102
6079.000000;-0.111536
6078.000000;-0.111923
6077.000000;-0.112268
6076.000000;-0.112609
6075.000000;-0.112949
6074.000000;-0.113269
6073.000000;-0.113586
6072.000000;-0.113930
6071.000000;-0.114285
6070.000000;-0.114619
6069.000000;-0.114954
6068.000000;-0.115329
6067.000000;-0.115720
6066.000000;-0.116072
6065.000000;-0.116388
6064.000000;-0.116720
6063.000000;-0.117076
6062.000000;-0.117423
6061.000000;-0.117753
6060.000000;-0.118082
6059.000000;-0.118400
6058.000000;-0.118690
6057.000000;-0.118980
6056.000000;-0.119309
6055.000000;-0.119659
6054.000000;-0.119987
6053.000000;-0.120296
6052.000000;-0.120613
6051.000000;-0.120923
6050.000000;-0.121191
6049.000000;-0.121445
6048.000000;-0.121733
6047.000000;-0.122051
6046.000000;-0.122352
6045.000000;-0.122630
6044.000000;-0.122914
6043.000000;-0.123207
6042.000000;-0.123493
6041.000000;-0.123788
6040.000000;-0.124121
6039.000000;-0.124472
6038.000000;-0.124801
6037.000000;-0.125109
6036.000000;-0.125419
6035.000000;-0.125720
6034.000000;-0.125993
6033.000000;-0.126257
6032.000000;-0.126537
6031.000000;-0.126808
6030.000000;-0.127042
6029.000000;-0.127272
6028.000000;-0.127541
6027.000000;-0.127818
6026.000000;-0.128044
6025.000000;-0.128236
6024.000000;-0.128460
6023.000000;-0.128729
6022.000000;-0.128998
6021.000000;-0.129253
6020.000000;-0.129515
6019.000000;-0.129783
6018.000000;-0.130036
6017.000000;-0.130279
6016.000000;-0.130536
6015.000000;-0.130791
6014.000000;-0.131020
6013.000000;-0.131240
6012.000000;-0.131488
6011.000000;-0.131749
6010.000000;-0.131990
6009.000000;-0.132225
6008.000000;-0.132498
6007.000000;-0.132805
6006.000000;-0.133114
6005.000000;-0.133415
6004.000000;-0.133699
6003.000000;-0.133922
6002.000000;-0.134061
6001.000000;-0.134191
6000.000000;-0.134410
5999.000000;-0.134711
5998.000000;-0.134999
5997.000000;-0.135219
5996.000000;-0.135403
5995.000000;-0.135590
5994.000000;-0.135790
5993.000000;-0.136010
5992.000000;-0.136253
5991.000000;-0.136488
5990.000000;-0.136687
5989.000000;-0.136878
5988.000000;-0.137108
5987.000000;-0.137365
5986.000000;-0.137596
5985.000000;-0.137782
5984.000000;-0.137944
5983.000000;-0.138095
5982.000000;-0.138246
5981.000000;-0.138424
5980.000000;-0.138648
5979.000000;-0.138879
5978.000000;-0.139074
5977.000000;-0.139250
5976.000000;-0.139441
5975.000000;-0.139637
5974.000000;-0.139808
5973.000000;-0.139961
5972.000000;-0.140119
5971.000000;-0.140268
5970.000000;-0.140396
5969.000000;-0.140542
5968.000000;-0.140751
5967.000000;-0.140996
5966.000000;-0.141222
5965.000000;-0.141420
5964.000000;-0.141611
5963.000000;-0.141785
5962.000000;-0.141931
5961.000000;-0.142085
5960.000000;-0.142273
5959.000000;-0.142449
5958.000000;-0.142561
5957.000000;-0.142650
5956.000000;-0.142797
5955.000000;-0.142998
5954.000000;-0.143182
5953.000000;-0.143324
5952.000000;-0.143452
5951.000000;-0.143577
5950.000000;-0.143686
5949.000000;-0.143806
5948.000000;-0.143975
5947.000000;-0.144160
5946.000000;-0.144297
5945.000000;-0.144391
5944.000000;-0.144498
5943.000000;-0.144632
5942.000000;-0.144746
5941.000000;-0.144817
5940.000000;-0.144878
5939.000000;-0.144954
5938.000000;-0.145048
5937.000000;-0.145166
5936.000000;-0.145314
5935.000000;-0.145458
5934.000000;-0.145556
5933.000000;-0.145619
5932.000000;-0.145686
5931.000000;-0.145768
5930.000000;-0.145854
5929.000000;-0.145963
5928.000000;-0.146117
5927.000000;-0.146280
5926.000000;-0.146398
5925.000000;-0.146468
5924.000000;-0.146518
5923.000000;-0.146558
5922.000000;-0.146592
5921.000000;-0.146658
5920.000000;-0.146787
5919.000000;-0.146938
5918.000000;-0.147053
5917.000000;-0.147139
5916.000000;-0.147238
5915.000000;-0.147345
5914.000000;-0.147427
5913.000000;-0.147498
5912.000000;-0.147601
5911.000000;-0.147728
5910.000000;-0.147837
5909.000000;-0.147929
5908.000000;-0.148029
5907.000000;-0.148125
5906.000000;-0.148176
5905.000000;-0.148186
5904.000000;-0.148195
5903.000000;-0.148212
5902.000000;-0.148229
5901.000000;-0.148262
5900.000000;-0.148335
5899.000000;-0.148427
5898.000000;-0.148506
5897.000000;-0.148579
5896.000000;-0.148669
5895.000000;-0.148753
5894.000000;-0.148795
5893.000000;-0.148824
5892.000000;-0.148892
5891.000000;-0.148981
5890.000000;-0.149030
5889.000000;-0.149022
5888.000000;-0.148998
5887.000000;-0.148977
5886.000000;-0.148944
5885.000000;-0.148910
5884.000000;-0.148906
5883.000000;-0.148938
5882.000000;-0.148992
5881.000000;-0.149072
5880.000000;-0.149181
5879.000000;-0.149282
5878.000000;-0.149333
5877.000000;-0.149355
5876.000000;-0.149393
5875.000000;-0.149445
5874.000000;-0.149474
5873.000000;-0.149473
5872.000000;-0.149452
5871.000000;-0.149398
5870.000000;-0.149295
5869.000000;-0.149182
5868.000000;-0.149110
5867.000000;-0.149073
5866.000000;-0.149039
5865.000000;-0.149013
5864.000000;-0.149023
5863.000000;-0.149052
5862.000000;-0.149055
5861.000000;-0.149031
5860.000000;-0.149012
5859.000000;-0.148996
5858.000000;-0.148961
5857.000000;-0.148917
5856.000000;-0.148887
5855.000000;-0.148854
5854.000000;-0.148785
5853.000000;-0.148694
5852.000000;-0.148611
5851.000000;-0.148528
5850.000000;-0.148420
5849.000000;-0.148302
5848.000000;-0.148211
5847.000000;-0.148147
5846.000000;-0.148087
5845.000000;-0.148037
5844.000000;-0.148001
5843.000000;-0.147940
5842.000000;-0.147819
5841.000000;-0.147666
5840.000000;-0.147535
5839.000000;-0.147428
5838.000000;-0.147317
5837.000000;-0.147201
5836.000000;-0.147090
5835.000000;-0.146961
5834.000000;-0.146797
5833.000000;-0.146640
5832.000000;-0.146542
5831.000000;-0.146477
5830.000000;-0.146384
5829.000000;-0.146258
5828.000000;-0.146132
5827.000000;-0.146008
5826.000000;-0.145859
5825.000000;-0.145689
5824.000000;-0.145521
5823.000000;-0.145343
5822.000000;-0.145133
5821.000000;-0.144924
5820.000000;-0.144761
5819.000000;-0.144634
5818.000000;-0.144502
5817.000000;-0.144352
5816.000000;-0.144191
5815.000000;-0.144002
5814.000000;-0.143772
5813.000000;-0.143544
5812.000000;-0.143355
5811.000000;-0.143178
5810.000000;-0.142980
5809.000000;-0.142795
5808.000000;-0.142665
5807.000000;-0.142553
5806.000000;-0.142378
5805.000000;-0.142135
5804.000000;-0.141882
5803.000000;-0.141647
5802.000000;-0.141417
5801.000000;-0.141201
5800.000000;-0.141009
5799.000000;-0.140798
5798.000000;-0.140516
5797.000000;-0.140192
5796.000000;-0.139898
5795.000000;-0.139651
5794.000000;-0.139415
5793.000000;-0.139184
5792.000000;-0.138975
5791.000000;-0.138768
5790.000000;-0.138518
5789.000000;-0.138227
5788.000000;-0.137934
5787.000000;-0.137639
5786.000000;-0.137314
5785.000000;-0.136967
5784.000000;-0.136628
5783.000000;-0.136298
5782.000000;-0.135966
5781.000000;-0.135653
5780.000000;-0.135387
5779.000000;-0.135139
5778.000000;-0.134863
5777.000000;-0.134562
5776.000000;-0.134267
5775.000000;-0.133962
5774.000000;-0.133613
5773.000000;-0.133239
5772.000000;-0.132890
5771.000000;-0.132567
5770.000000;-0.132225
5769.000000;-0.131851
5768.000000;-0.131468
5767.000000;-0.131087
5766.000000;-0.130715
5765.000000;-0.130374
5764.000000;-0.130068
5763.000000;-0.129734
5762.000000;-0.129308
5761.000000;-0.128814
5760.000000;-0.128330
5759.000000;-0.127882
5758.000000;-0.127456
5757.000000;-0.127062
5756.000000;-0.126720
5755.000000;-0.126396
5754.000000;-0.126023
5753.000000;-0.125592
5752.000000;-0.125146
5751.000000;-0.124710
5750.000000;-0.124274
5749.000000;-0.123845
5748.000000;-0.123427
5747.000000;-0.122994
5746.000000;-0.122519
5745.000000;-0.122029
5744.000000;-0.121559
5743.000000;-0.121090
5742.000000;-0.120590
5741.000000;-0.120078
5740.000000;-0.119597
5739.000000;-0.119136
5738.000000;-0.118655
5737.000000;-0.118159
5736.000000;-0.117679
5735.000000;-0.117203
5734.000000;-0.116698
5733.000000;-0.116170
5732.000000;-0.115645
5731.000000;-0.115108
5730.000000;-0.114532
5729.000000;-0.113949
5728.000000;-0.113418
5727.000000;-0.112946
5726.000000;-0.112495
5725.000000;-0.112032
5724.000000;-0.111534
5723.000000;-0.110963
5722.000000;-0.110310
5721.000000;-0.109643
5720.000000;-0.109041
5719.000000;-0.108500
5718.000000;-0.107967
5717.000000;-0.107418
5716.000000;-0.106856
5715.000000;-0.106264
5714.000000;-0.105639
5713.000000;-0.105024
5712.000000;-0.104449
5711.000000;-0.103869
5710.000000;-0.103234
5709.000000;-0.102569
5708.000000;-0.101929
5707.000000;-0.101309
5706.000000;-0.100667
5705.000000;-0.100011
5704.000000;-0.099377
5703.000000;-0.098755
5702.000000;-0.098119
5701.000000;-0.097489
5700.000000;-0.096888
5699.000000;-0.096282
5698.000000;-0.095631
5697.000000;-0.094947
5696.000000;-0.094300
5695.000000;-0.093666
5694.000000;-0.092964
5693.000000;-0.092240
5692.000000;-0.091519
5691.000000;-0.090831
5690.000000;-0.090192
5689.000000;-0.089646
5688.000000;-0.089181
5687.000000;-0.088685
5686.000000;-0.088049
5685.000000;-0.087299
5684.000000;-0.086546
5683.000000;-0.085838
5682.000000;-0.085146
5681.000000;-0.084454
5680.000000;-0.083774
5679.000000;-0.083095
5678.000000;-0.082398
5677.000000;-0.081704
5676.000000;-0.081042
5675.000000;-0.080386
5674.000000;-0.079701
5673.000000;-0.079010
5672.000000;-0.078365
5671.000000;-0.077767
5670.000000;-0.077165
5669.000000;-0.076529
5668.000000;-0.075847
5667.000000;-0.075105
5666.000000;-0.074330
5665.000000;-0.073604
5664.000000;-0.072981
5663.000000;-0.072411
5662.000000;-0.071825
5661.000000;-0.071218
5660.000000;-0.070623
5659.000000;-0.070023
5658.000000;-0.069393
5657.000000;-0.068762
5656.000000;-0.068165
5655.000000;-0.067577
5654.000000;-0.066953
5653.000000;-0.066303
5652.000000;-0.065655
5651.000000;-0.065001
5650.000000;-0.064338
5649.000000;-0.063712
5648.000000;-0.063146
5647.000000;-0.062571
5646.000000;-0.061926
5645.000000;-0.061256
5644.000000;-0.060653
5643.000000;-0.060134
5642.000000;-0.059659
5641.000000;-0.059207
5640.000000;-0.058753
5639.000000;-0.058239
5638.000000;-0.057648
5637.000000;-0.057064
5636.000000;-0.056567
5635.000000;-0.056117
5634.000000;-0.055630
5633.000000;-0.055103
5632.000000;-0.054594
5631.000000;-0.054117
5630.000000;-0.053653
5629.000000;-0.053214
5628.000000;-0.052813
5627.000000;-0.052408
5626.000000;-0.051957
5625.000000;-0.051483
5624.000000;-0.051025
5623.000000;-0.050577
5622.000000;-0.050127
5621.000000;-0.049719
5620.000000;-0.049378
5619.000000;-0.049043
5618.000000;-0.048651
5617.000000;-0.048237
5616.000000;-0.047874
5615.000000;-0.047557
5614.000000;-0.047246
5613.000000;-0.046949
5612.000000;-0.046687
5611.000000;-0.046420
5610.000000;-0.046100
5609.000000;-0.045757
5608.000000;-0.045431
5607.000000;-0.045100
5606.000000;-0.044736
5605.000000;-0.044391
5604.000000;-0.044115
5603.000000;-0.043872
5602.000000;-0.043615
5601.000000;-0.043379
5600.000000;-0.043214
5599.000000;-0.043077
5598.000000;-0.042893
5597.000000;-0.042678
5596.000000;-0.042503
5595.000000;-0.042380
5594.000000;-0.042274
5593.000000;-0.042172
5592.000000;-0.042064
5591.000000;-0.041902
5590.000000;-0.041675
5589.000000;-0.041452
5588.000000;-0.041283
5587.000000;-0.041125
5586.000000;-0.040942
5585.000000;-0.040797
5584.000000;-0.040747
5583.000000;-0.040737
5582.000000;-0.040693
5581.000000;-0.040635
5580.000000;-0.040613
5579.000000;-0.040592
5578.000000;-0.040516
5577.000000;-0.040412
5576.000000;-0.040329
5575.000000;-0.040242
5574.000000;-0.040129
5573.000000;-0.040047
5572.000000;-0.040052
5571.000000;-0.040087
5570.000000;-0.040080
5569.000000;-0.040057
5568.000000;-0.040085
5567.000000;-0.040145
5566.000000;-0.040187
5565.000000;-0.040227
5564.000000;-0.040301
5563.000000;-0.040377
5562.000000;-0.040425
5561.000000;-0.040489
5560.000000;-0.040592
5559.000000;-0.040656
5558.000000;-0.040630
5557.000000;-0.040593
5556.000000;-0.040632
5555.000000;-0.040708
5554.000000;-0.040741
5553.000000;-0.040756
5552.000000;-0.040807
5551.000000;-0.040869
5550.000000;-0.040900
5549.000000;-0.040944
5548.000000;-0.041053
5547.000000;-0.041192
5546.000000;-0.041316
5545.000000;-0.041454
5544.000000;-0.041614
5543.000000;-0.041713
5542.000000;-0.041709
5541.000000;-0.041682
5540.000000;-0.041711
5539.000000;-0.041762
5538.000000;-0.041796
5537.000000;-0.041864
5536.000000;-0.041999
5535.000000;-0.042134
5534.000000;-0.042215
5533.000000;-0.042297
5532.000000;-0.042424
5531.000000;-0.042528
5530.000000;-0.042550
5529.000000;-0.042550
5528.000000;-0.042604
5527.000000;-0.042680
5526.000000;-0.042718
5525.000000;-0.042763
5524.000000;-0.042871
5523.000000;-0.042987
5522.000000;-0.043053
5521.000000;-0.043094
5520.000000;-0.043149
5519.000000;-0.043183
5518.000000;-0.043177
5517.000000;-0.043216
5516.000000;-0.043348
5515.000000;-0.043466
5514.000000;-0.043476
5513.000000;-0.043424
5512.000000;-0.043382
5511.000000;-0.043325
5510.000000;-0.043239
5509.000000;-0.043215
5508.000000;-0.043311
5507.000000;-0.043416
5506.000000;-0.043399
5505.000000;-0.043323
5504.000000;-0.043313
5503.000000;-0.043361
5502.000000;-0.043398
5501.000000;-0.043399
5500.000000;-0.043376
5499.000000;-0.043339
5498.000000;-0.043267
5497.000000;-0.043167
5496.000000;-0.043071
5495.000000;-0.042989
5494.000000;-0.042936
5493.000000;-0.042911
5492.000000;-0.042861
5491.000000;-0.042721
5490.000000;-0.042554
5489.000000;-0.042519
5488.000000;-0.042629
5487.000000;-0.042697
5486.000000;-0.042585
5485.000000;-0.042393
5484.000000;-0.042246
5483.000000;-0.042066
5482.000000;-0.041815
5481.000000;-0.041588
5480.000000;-0.041385
5479.000000;-0.041075
5478.000000;-0.040602
5477.000000;-0.040140
5476.000000;-0.039894
5475.000000;-0.039846
5474.000000;-0.039831
5473.000000;-0.039751
5472.000000;-0.039608
5471.000000;-0.039385
5470.000000;-0.039077
5469.000000;-0.038688
5468.000000;-0.038216
5467.000000;-0.037707
5466.000000;-0.037271
5465.000000;-0.036946
5464.000000;-0.036572
5463.000000;-0.036000
5462.000000;-0.035395
5461.000000;-0.034988
5460.000000;-0.034650
5459.000000;-0.034168
5458.000000;-0.033648
5457.000000;-0.033261
5456.000000;-0.032877
5455.000000;-0.032305
5454.000000;-0.031589
5453.000000;-0.030875
5452.000000;-0.030178
5451.000000;-0.029467
5450.000000;-0.028810
5449.000000;-0.028155
5448.000000;-0.027364
5447.000000;-0.026565
5446.000000;-0.025979
5445.000000;-0.025500
5444.000000;-0.024837
5443.000000;-0.023949
5442.000000;-0.023107
5441.000000;-0.022437
5440.000000;-0.021663
5439.000000;-0.020544
5438.000000;-0.019276
5437.000000;-0.018126
5436.000000;-0.017064
5435.000000;-0.015992
5434.000000;-0.014888
5433.000000;-0.013700
5432.000000;-0.012456
5431.000000;-0.011333
5430.000000;-0.010333
5429.000000;-0.009216
5428.000000;-0.007852
5427.000000;-0.006378
5426.000000;-0.005003
5425.000000;-0.003798
5424.000000;-0.002630
5423.000000;-0.001303
5422.000000;0.000283
5421.000000;0.002031
5420.000000;0.003758
5419.000000;0.005472
5418.000000;0.007317
5417.000000;0.009352
5416.000000;0.011492
5415.000000;0.013612
5414.000000;0.015663
5413.000000;0.017663
5412.000000;0.019665
5411.000000;0.021669
5410.000000;0.023635
5409.000000;0.025646
5408.000000;0.027854
5407.000000;0.030260
5406.000000;0.032688
5405.000000;0.035069
5404.000000;0.037583
5403.000000;0.040311
5402.000000;0.043214
5401.000000;0.046229
5400.000000;0.049221
5399.000000;0.052234
5398.000000;0.055428
5397.000000;0.058784
5396.000000;0.062176
5395.000000;0.065577
5394.000000;0.069082
5393.000000;0.072705
5392.000000;0.076377
5391.000000;0.080148
5390.000000;0.084083
5389.000000;0.088119
5388.000000;0.092204
5387.000000;0.096437
5386.000000;0.100879
5385.000000;0.105503
5384.000000;0.110274
5383.000000;0.115133
5382.000000;0.120108
5381.000000;0.125271
5380.000000;0.130570
5379.000000;0.136012
5378.000000;0.141699
5377.000000;0.147542
5376.000000;0.153334
5375.000000;0.159179
5374.000000;0.165408
5373.000000;0.171989
5372.000000;0.178597
5371.000000;0.185232
5370.000000;0.192205
5369.000000;0.199576
5368.000000;0.207110
5367.000000;0.214768
5366.000000;0.222740
5365.000000;0.231080
5364.000000;0.239577
5363.000000;0.248128
5362.000000;0.256972
5361.000000;0.266182
5360.000000;0.275502
5359.000000;0.284943
5358.000000;0.294901
5357.000000;0.305490
5356.000000;0.316342
5355.000000;0.327277
5354.000000;0.338555
5353.000000;0.350347
5352.000000;0.362395
5351.000000;0.374421
5350.000000;0.386610
5349.000000;0.399353
5348.000000;0.412663
5347.000000;0.426415
5346.000000;0.440769
5345.000000;0.455748
5344.000000;0.470990
5343.000000;0.486372
5342.000000;0.502195
5341.000000;0.518417
5340.000000;0.534719
5339.000000;0.551325
5338.000000;0.568805
5337.000000;0.587185
5336.000000;0.605875
5335.000000;0.624634
5334.000000;0.643946
5333.000000;0.664247
5332.000000;0.685187
5331.000000;0.706173
5330.000000;0.727348
5329.000000;0.749128
5328.000000;0.771423
5327.000000;0.794214
5326.000000;0.817964
5325.000000;0.842584
5324.000000;0.867192
5323.000000;0.891606
5322.000000;0.916856
5321.000000;0.943469
5320.000000;0.970516
5319.000000;0.997227
5318.000000;1.024218
5317.000000;1.052062
5316.000000;1.080121
5315.000000;1.108012
5314.000000;1.136481
5313.000000;1.165657
5312.000000;1.194221
5311.000000;1.221616
5310.000000;1.249330
5309.000000;1.278440
5308.000000;1.307832
5307.000000;1.336387
5306.000000;1.364767
5305.000000;1.393140
5304.000000;1.419824
5303.000000;1.444337
5302.000000;1.468835
5301.000000;1.494398
5300.000000;1.519111
5299.000000;1.541971
5298.000000;1.564688
5297.000000;1.587208
5296.000000;1.606425
5295.000000;1.621801
5294.000000;1.636768
5293.000000;1.652269
5292.000000;1.664981
5291.000000;1.674328
5290.000000;1.684689
5289.000000;1.697864
5288.000000;1.710271
5287.000000;1.720035
5286.000000;1.729636
5285.000000;1.739215
5284.000000;1.745316
5283.000000;1.748610
5282.000000;1.754077
5281.000000;1.761383
5280.000000;1.764317
5279.000000;1.762330
5278.000000;1.762763
5277.000000;1.768481
5276.000000;1.773222
5275.000000;1.772431
5274.000000;1.769902
5273.000000;1.769452
5272.000000;1.769294
5271.000000;1.768059
5270.000000;1.768408
5269.000000;1.771190
5268.000000;1.773190
5267.000000;1.773822
5266.000000;1.776801
5265.000000;1.782619
5264.000000;1.786269
5263.000000;1.785258
5262.000000;1.783037
5261.000000;1.781614
5260.000000;1.779075
5259.000000;1.776047
5258.000000;1.776317
5257.000000;1.779789
5256.000000;1.781987
5255.000000;1.781704
5254.000000;1.782268
5253.000000;1.783977
5252.000000;1.783114
5251.000000;1.779438
5250.000000;1.777106
5249.000000;1.777629
5248.000000;1.778648
5247.000000;1.780167
5246.000000;1.784476
5245.000000;1.789189
5244.000000;1.788606
5243.000000;1.783095
5242.000000;1.778666
5241.000000;1.777161
5240.000000;1.775832
5239.000000;1.775487
5238.000000;1.779939
5237.000000;1.787226
5236.000000;1.789911
5235.000000;1.785559
5234.000000;1.778727
5233.000000;1.772173
5232.000000;1.765382
5231.000000;1.761231
5230.000000;1.764724
5229.000000;1.774216
5228.000000;1.781682
5227.000000;1.783718
5226.000000;1.784509
5225.000000;1.786321
5224.000000;1.786235
5223.000000;1.783654
5222.000000;1.782090
5221.000000;1.782018
5220.000000;1.780339
5219.000000;1.777637
5218.000000;1.778074
5217.000000;1.781580
5216.000000;1.783732
5215.000000;1.783956
5214.000000;1.786056
5213.000000;1.789846
5212.000000;1.790523
5211.000000;1.787243
5210.000000;1.783964
5209.000000;1.781429
5208.000000;1.777122
5207.000000;1.773072
5206.000000;1.774615
5205.000000;1.780897
5204.000000;1.785027
5203.000000;1.784604
5202.000000;1.783569
5201.000000;1.783172
5200.000000;1.780637
5199.000000;1.777032
5198.000000;1.777232
5197.000000;1.781281
5196.000000;1.783922
5195.000000;1.783591
5194.000000;1.783689
5193.000000;1.784321
5192.000000;1.782093
5191.000000;1.778472
5190.000000;1.779041
5189.000000;1.783790
5188.000000;1.786729
5187.000000;1.786184
5186.000000;1.786642
5185.000000;1.789094
5184.000000;1.788902
5183.000000;1.784770
5182.000000;1.781131
5181.000000;1.780155
5180.000000;1.779756
5179.000000;1.779692
5178.000000;1.781640
5177.000000;1.783232
5176.000000;1.780494
5175.000000;1.776496
5174.000000;1.778265
5173.000000;1.785236
5172.000000;1.789265
5171.000000;1.787097
5170.000000;1.784031
5169.000000;1.783341
5168.000000;1.782217
5167.000000;1.779589
5166.000000;1.778654
5165.000000;1.779958
5164.000000;1.780219
5163.000000;1.779509
5162.000000;1.781636
5161.000000;1.786029
5160.000000;1.787351
5159.000000;1.784758
5158.000000;1.783246
5157.000000;1.784355
5156.000000;1.783936
5155.000000;1.780657
5154.000000;1.778908
5153.000000;1.781193
5152.000000;1.784977
5151.000000;1.788245
5150.000000;1.791496
5149.000000;1.793434
5148.000000;1.791635
5147.000000;1.788133
5146.000000;1.787509
5145.000000;1.789684
5144.000000;1.790885
5143.000000;1.790861
5142.000000;1.792238
5141.000000;1.793791
5140.000000;1.792223
5139.000000;1.789502
5138.000000;1.790056
5137.000000;1.792139
5136.000000;1.790395
5135.000000;1.785952
5134.000000;1.784711
5133.000000;1.786597
5132.000000;1.785941
5131.000000;1.782296
5130.000000;1.781253
5129.000000;1.783952
5128.000000;1.785176
5127.000000;1.782955
5126.000000;1.781612
5125.000000;1.783671
5124.000000;1.786767
5123.000000;1.789412
5122.000000;1.792672
5121.000000;1.795322
5120.000000;1.794598
5119.000000;1.792442
5118.000000;1.793475
5117.000000;1.796939
5116.000000;1.797877
5115.000000;1.795807
5114.000000;1.794540
5113.000000;1.794103
5112.000000;1.791244
5111.000000;1.787115
5110.000000;1.785925
5109.000000;1.786874
5108.000000;1.785544
5107.000000;1.782609
5106.000000;1.782814
5105.000000;1.786065
5104.000000;1.787756
5103.000000;1.787327
5102.000000;1.788147
5101.000000;1.789560
5100.000000;1.787873
5099.000000;1.784704
5098.000000;1.785219
5097.000000;1.788638
5096.000000;1.789285
5095.000000;1.786763
5094.000000;1.785991
5093.000000;1.787305
5092.000000;1.786045
5091.000000;1.782234
5090.000000;1.781200
5089.000000;1.783911
5088.000000;1.785606
5087.000000;1.784813
5086.000000;1.785257
5085.000000;1.787647
5084.000000;1.788199
5083.000000;1.786454
5082.000000;1.786411
5081.000000;1.788607
5080.000000;1.788769
5079.000000;1.785422
5078.000000;1.781547
5077.000000;1.778148
5076.000000;1.773772
5075.000000;1.770270
5074.000000;1.771445
5073.000000;1.775909
5072.000000;1.778306
5071.000000;1.778081
5070.000000;1.779823
5069.000000;1.784354
5068.000000;1.787014
5067.000000;1.785667
5066.000000;1.782917
5065.000000;1.779673
5064.000000;1.774387
5063.000000;1.768789
5062.000000;1.767109
5061.000000;1.769486
5060.000000;1.772225
5059.000000;1.774227
5058.000000;1.776950
5057.000000;1.778722
5056.000000;1.776390
5055.000000;1.772168
5054.000000;1.771270
5053.000000;1.773510
5052.000000;1.774078
5051.000000;1.771814
5050.000000;1.769615
5049.000000;1.767514
5048.000000;1.763020
5047.000000;1.757555
5046.000000;1.755058
5045.000000;1.754946
5044.000000;1.753390
5043.000000;1.750762
5042.000000;1.750910
5041.000000;1.753850
5040.000000;1.756098
5039.000000;1.757534
5038.000000;1.760818
5037.000000;1.764672
5036.000000;1.765065
5035.000000;1.762497
5034.000000;1.760628
5033.000000;1.758723
5032.000000;1.753169
5031.000000;1.745549
5030.000000;1.741426
5029.000000;1.741935
5028.000000;1.743317
5027.000000;1.743732
5026.000000;1.744021
5025.000000;1.742725
5024.000000;1.737850
5023.000000;1.732596
5022.000000;1.731925
5021.000000;1.734527
5020.000000;1.734576
5019.000000;1.730862
5018.000000;1.727411
5017.000000;1.725851
5016.000000;1.724411
5015.000000;1.723368
5014.000000;1.724493
5013.000000;1.725768
5012.000000;1.723301
5011.000000;1.717961
5010.000000;1.713590
5009.000000;1.710118
5008.000000;1.705065
5007.000000;1.700047
5006.000000;1.698721
5005.000000;1.699678
5004.000000;1.698196
5003.000000;1.694208
5002.000000;1.691870
5001.000000;1.691920
5000.000000;1.691123
4999.000000;1.688639
4998.000000;1.686422
4997.000000;1.683990
4996.000000;1.679465
4995.000000;1.674711
4994.000000;1.673010
4993.000000;1.672811
4992.000000;1.669744
4991.000000;1.663963
4990.000000;1.659291
4989.000000;1.656341
4988.000000;1.652734
4987.000000;1.648683
4986.000000;1.646247
4985.000000;1.644308
4984.000000;1.640174
4983.000000;1.634968
4982.000000;1.631639
4981.000000;1.629232
4980.000000;1.624787
4979.000000;1.619337
4978.000000;1.616091
4977.000000;1.614361
4976.000000;1.611258
4975.000000;1.607750
4974.000000;1.606840
4973.000000;1.607061
4972.000000;1.604143
4971.000000;1.598231
4970.000000;1.593044
4969.000000;1.589056
4968.000000;1.583810
4967.000000;1.577804
4966.000000;1.573923
4965.000000;1.571690
4964.000000;1.567918
4963.000000;1.562674
4962.000000;1.559090
4961.000000;1.557670
4960.000000;1.555874
4959.000000;1.552835
4958.000000;1.549589
4957.000000;1.545357
4956.000000;1.538694
4955.000000;1.531497
4954.000000;1.526796
4953.000000;1.523589
4952.000000;1.518616
4951.000000;1.512152
4950.000000;1.506997
4949.000000;1.502908
4948.000000;1.497335
4947.000000;1.490790
4946.000000;1.486233
4945.000000;1.483701
4944.000000;1.480460
4943.000000;1.476093
4942.000000;1.472653
4941.000000;1.469981
4940.000000;1.465670
4939.000000;1.459705
4938.000000;1.454490
4937.000000;1.450195
4936.000000;1.444658
4935.000000;1.437825
4934.000000;1.432000
4933.000000;1.427703
4932.000000;1.423151
4931.000000;1.417832
4930.000000;1.412960
4929.000000;1.408443
4928.000000;1.403011
4927.000000;1.397159
4926.000000;1.392530
4925.000000;1.388622
4924.000000;1.383531
4923.000000;1.377700
4922.000000;1.373474
4921.000000;1.371052
4920.000000;1.368121
4919.000000;1.363506
4918.000000;1.358236
4917.000000;1.353052
4916.000000;1.347779
4915.000000;1.342930
4914.000000;1.339112
4913.000000;1.335139
4912.000000;1.329419
4911.000000;1.322791
4910.000000;1.317352
4909.000000;1.313145
4908.000000;1.308687
4907.000000;1.303958
4906.000000;1.300024
4905.000000;1.296350
4904.000000;1.291437
4903.000000;1.285670
4902.000000;1.280700
4901.000000;1.276479
4900.000000;1.271618
4899.000000;1.266174
4898.000000;1.261332
4897.000000;1.256864
4896.000000;1.251625
4895.000000;1.246105
4894.000000;1.241772
4893.000000;1.238305
4892.000000;1.234092
4891.000000;1.229153
4890.000000;1.224935
4889.000000;1.221517
4888.000000;1.217570
4887.000000;1.212864
4886.000000;1.208349
4885.000000;1.203930
4884.000000;1.198606
4883.000000;1.192659
4882.000000;1.187344
4881.000000;1.182628
4880.000000;1.177434
4879.000000;1.171910
4878.000000;1.167249
4877.000000;1.163445
4876.000000;1.159392
4875.000000;1.155017
4874.000000;1.151201
4873.000000;1.147718
4872.000000;1.143386
4871.000000;1.138263
4870.000000;1.133682
4869.000000;1.130073
4868.000000;1.126620
4867.000000;1.122945
4866.000000;1.119363
4865.000000;1.115524
4864.000000;1.110617
4863.000000;1.104936
4862.000000;1.099589
4861.000000;1.094770
4860.000000;1.089846
4859.000000;1.084915
4858.000000;1.080697
4857.000000;1.077077
4856.000000;1.073261
4855.000000;1.069180
4854.000000;1.065286
4853.000000;1.061270
4852.000000;1.056477
4851.000000;1.051319
4850.000000;1.046760
4849.000000;1.042702
4848.000000;1.038323
4847.000000;1.033678
4846.000000;1.029506
4845.000000;1.025754
4844.000000;1.021740
4843.000000;1.017522
4842.000000;1.013694
4841.000000;1.010111
4840.000000;1.006153
4839.000000;1.001951
4838.000000;0.998022
4837.000000;0.994106
4836.000000;0.989711
4835.000000;0.985357
4834.000000;0.981810
4833.000000;0.978520
4832.000000;0.974319
4831.000000;0.969378
4830.000000;0.964926
4829.000000;0.961287
4828.000000;0.957706
4827.000000;0.953897
4826.000000;0.950294
4825.000000;0.946859
4824.000000;0.943038
4823.000000;0.938891
4822.000000;0.934974
4821.000000;0.931211
4820.000000;0.927067
4819.000000;0.922725
4818.000000;0.918887
4817.000000;0.915523
4816.000000;0.911961
4815.000000;0.908102
4814.000000;0.904419
4813.000000;0.900928
4812.000000;0.897248
4811.000000;0.893514
4810.000000;0.890132
4809.000000;0.886810
4808.000000;0.882927
4807.000000;0.878709
4806.000000;0.874965
4805.000000;0.871831
4804.000000;0.868769
4803.000000;0.865588
4802.000000;0.862430
4801.000000;0.858976
4800.000000;0.854788
4799.000000;0.850282
4798.000000;0.846328
4797.000000;0.843024
4796.000000;0.839788
4795.000000;0.836431
4794.000000;0.833166
4793.000000;0.829817
4792.000000;0.826040
4791.000000;0.822146
4790.000000;0.818733
4789.000000;0.815700
4788.000000;0.812545
4787.000000;0.809354
4786.000000;0.806498
4785.000000;0.803650
4784.000000;0.800195
4783.000000;0.796392
4782.000000;0.793059
4781.000000;0.790232
4780.000000;0.787209
4779.000000;0.783778
4778.000000;0.780371
4777.000000;0.777087
4776.000000;0.773596
4775.000000;0.770001
4774.000000;0.766792
4773.000000;0.763962
4772.000000;0.761022
4771.000000;0.757891
4770.000000;0.754923
4769.000000;0.752108
4768.000000;0.749102
4767.000000;0.745981
4766.000000;0.743134
4765.000000;0.740463
4764.000000;0.737506
4763.000000;0.734303
4762.000000;0.731327
4761.000000;0.728625
4760.000000;0.725819
4759.000000;0.722895
4758.000000;0.720203
4757.000000;0.717714
4756.000000;0.715040
4755.000000;0.712162
4754.000000;0.709402
4753.000000;0.706743
4752.000000;0.703903
4751.000000;0.700994
4750.000000;0.698407
4749.000000;0.696089
4748.000000;0.693631
4747.000000;0.690960
4746.000000;0.688290
4745.000000;0.685540
4744.000000;0.682504
4743.000000;0.679469
4742.000000;0.676912
4741.000000;0.674700
4740.000000;0.672302
4739.000000;0.669672
4738.000000;0.667205
4737.000000;0.664907
4736.000000;0.662395
4735.000000;0.659664
4734.000000;0.657124
4733.000000;0.654887
4732.000000;0.652669
4731.000000;0.650380
4730.000000;0.648152
4729.000000;0.645847
4728.000000;0.643200
4727.000000;0.640419
4726.000000;0.638007
4725.000000;0.636010
4724.000000;0.634038
4723.000000;0.631948
4722.000000;0.629898
4721.000000;0.627820
4720.000000;0.625481
4719.000000;0.623008
4718.000000;0.620761
4717.000000;0.618744
4716.000000;0.616708
4715.000000;0.614708
4714.000000;0.612955
4713.000000;0.611224
4712.000000;0.609059
4711.000000;0.606513
4710.000000;0.604071
4709.000000;0.601912
4708.000000;0.599859
4707.000000;0.597941
4706.000000;0.596348
4705.000000;0.594888
4704.000000;0.593142
4703.000000;0.591154
4702.000000;0.589354
4701.000000;0.587801
4700.000000;0.586113
4699.000000;0.584138
4698.000000;0.582133
4697.000000;0.580254
4696.000000;0.578405
4695.000000;0.576623
4694.000000;0.575075
4693.000000;0.573666
4692.000000;0.572125
4691.000000;0.570454
4690.000000;0.568865
4689.000000;0.567328
4688.000000;0.565643
4687.000000;0.563887
4686.000000;0.562296
4685.000000;0.560813
4684.000000;0.559217
4683.000000;0.557598
4682.000000;0.556195
4681.000000;0.554890
4680.000000;0.553387
4679.000000;0.551777
4678.000000;0.550393
4677.000000;0.549196
4676.000000;0.547847
4675.000000;0.546309
4674.000000;0.544852
4673.000000;0.543526
4672.000000;0.542160
4671.000000;0.540803
4670.000000;0.539640
4669.000000;0.538540
4668.000000;0.537207
4667.000000;0.535731
4666.000000;0.534469
4665.000000;0.533457
4664.000000;0.532429
4663.000000;0.531356
4662.000000;0.530430
4661.000000;0.529575
4660.000000;0.528504
4659.000000;0.527222
4658.000000;0.526004
4657.000000;0.524891
4656.000000;0.523708
4655.000000;0.522501
4654.000000;0.521470
4653.000000;0.520529
4652.000000;0.519425
4651.000000;0.518239
4650.000000;0.517275
4649.000000;0.516504
4648.000000;0.515608
4647.000000;0.514550
4646.000000;0.513600
4645.000000;0.512823
4644.000000;0.512023
4643.000000;0.511163
4642.000000;0.510395
4641.000000;0.509692
4640.000000;0.508868
4639.000000;0.507967
4638.000000;0.507203
4637.000000;0.506576
4636.000000;0.505906
4635.000000;0.505174
4634.000000;0.504432
4633.000000;0.503542
4632.000000;0.502414
4631.000000;0.501347
4630.000000;0.500677
4629.000000;0.500232
4628.000000;0.499608
4627.000000;0.498841
4626.000000;0.498291
4625.000000;0.498000
4624.000000;0.497692
4623.000000;0.497301
4622.000000;0.496967
4621.000000;0.496578
4620.000000;0.495866
4619.000000;0.494917
4618.000000;0.494088
4617.000000;0.493445
4616.000000;0.492776
4615.000000;0.492087
4614.000000;0.491601
4613.000000;0.491292
4612.000000;0.490922
4611.000000;0.490482
4610.000000;0.490139
4609.000000;0.489821
4608.000000;0.489325
4607.000000;0.488761
4606.000000;0.488411
4605.000000;0.488219
4604.000000;0.487919
4603.000000;0.487585
4602.000000;0.487530
4601.000000;0.487710
4600.000000;0.487757
4599.000000;0.487578
4598.000000;0.487419
4597.000000;0.487351
4596.000000;0.487183
4595.000000;0.486906
4594.000000;0.486713
4593.000000;0.486589
4592.000000;0.486318
4591.000000;0.485938
4590.000000;0.485730
4589.000000;0.485754
4588.000000;0.485815
4587.000000;0.485853
4586.000000;0.485957
4585.000000;0.486020
4584.000000;0.485846
4583.000000;0.485581
4582.000000;0.485593
4581.000000;0.485921
4580.000000;0.486261
4579.000000;0.486468
4578.000000;0.486661
4577.000000;0.486873
4576.000000;0.487000
4575.000000;0.487110
4574.000000;0.487389
4573.000000;0.487809
4572.000000;0.488186
4571.000000;0.488515
4570.000000;0.488877
4569.000000;0.489139
4568.000000;0.489159
4567.000000;0.489176
4566.000000;0.489561
4565.000000;0.490273
4564.000000;0.490972
4563.000000;0.491570
4562.000000;0.492224
4561.000000;0.492883
4560.000000;0.493314
4559.000000;0.493529
4558.000000;0.493766
4557.000000;0.494109
4556.000000;0.494535
4555.000000;0.495193
4554.000000;0.496192
4553.000000;0.497252
4552.000000;0.498014
4551.000000;0.498588
4550.000000;0.499341
4549.000000;0.500278
4548.000000;0.501114
4547.000000;0.501840
4546.000000;0.502679
4545.000000;0.503610
4544.000000;0.504435
4543.000000;0.505249
4542.000000;0.506311
4541.000000;0.507517
4540.000000;0.508510
4539.000000;0.509250
4538.000000;0.510001
4537.000000;0.510827
4536.000000;0.511590
4535.000000;0.512376
4534.000000;0.513406
4533.000000;0.514595
4532.000000;0.515661
4531.000000;0.516599
4530.000000;0.517586
4529.000000;0.518534
4528.000000;0.519259
4527.000000;0.519956
4526.000000;0.520970
4525.000000;0.522178
4524.000000;0.523143
4523.000000;0.523791
4522.000000;0.524430
4521.000000;0.525181
4520.000000;0.525933
4519.000000;0.526775
4518.000000;0.527921
4517.000000;0.529226
4516.000000;0.530309
4515.000000;0.531108
4514.000000;0.531876
4513.000000;0.532694
4512.000000;0.533492
4511.000000;0.534390
4510.000000;0.535544
4509.000000;0.536739
4508.000000;0.537671
4507.000000;0.538489
4506.000000;0.539551
4505.000000;0.540792
4504.000000;0.541889
4503.000000;0.542891
4502.000000;0.544102
4501.000000;0.545451
4500.000000;0.546597
4499.000000;0.547545
4498.000000;0.548597
4497.000000;0.549778
4496.000000;0.550908
4495.000000;0.552106
4494.000000;0.553611
4493.000000;0.555188
4492.000000;0.556372
4491.000000;0.557222
4490.000000;0.558249
4489.000000;0.559657
4488.000000;0.561254
4487.000000;0.563002
4486.000000;0.564991
4485.000000;0.566924
4484.000000;0.568325
4483.000000;0.569263
4482.000000;0.570287
4481.000000;0.571636
4480.000000;0.573119
4479.000000;0.574696
4478.000000;0.576521
4477.000000;0.578425
4476.000000;0.580026
4475.000000;0.581400
4474.000000;0.583035
4473.000000;0.585066
4472.000000;0.587123
4471.000000;0.588975
4470.000000;0.590787
4469.000000;0.592695
4468.000000;0.594633
4467.000000;0.596590
4466.000000;0.598586
4465.000000;0.600435
4464.000000;0.601997
4463.000000;0.603566
4462.000000;0.605514
4461.000000;0.607700
4460.000000;0.609729
4459.000000;0.611615
4458.000000;0.613645
4457.000000;0.615759
4456.000000;0.617687
4455.000000;0.619522
4454.000000;0.621550
4453.000000;0.623688
4452.000000;0.625718
4451.000000;0.627862
4450.000000;0.630471
4449.000000;0.633281
4448.000000;0.635709
4447.000000;0.637741
4446.000000;0.639839
4445.000000;0.642118
4444.000000;0.644327
4443.000000;0.646518
4442.000000;0.649005
4441.000000;0.651705
4440.000000;0.654240
4439.000000;0.656610
4438.000000;0.659121
4437.000000;0.661760
4436.000000;0.664303
4435.000000;0.666883
4434.000000;0.669782
4433.000000;0.672797
4432.000000;0.675519
4431.000000;0.678063
4430.000000;0.680821
4429.000000;0.683701
4428.000000;0.686366
4427.000000;0.688983
4426.000000;0.691924
4425.000000;0.694936
4424.000000;0.697485
4423.000000;0.699750
4422.000000;0.702394
4421.000000;0.705482
4420.000000;0.708488
4419.000000;0.711279
4418.000000;0.714212
4417.000000;0.717332
4416.000000;0.720314
4415.000000;0.723162
4414.000000;0.726190
4413.000000;0.729373
4412.000000;0.732457
4411.000000;0.735567
4410.000000;0.738946
4409.000000;0.742340
4408.000000;0.745398
4407.000000;0.748425
4406.000000;0.751874
4405.000000;0.755407
4404.000000;0.758388
4403.000000;0.761021
4402.000000;0.764025
4401.000000;0.767435
4400.000000;0.770758
4399.000000;0.774034
4398.000000;0.777677
4397.000000;0.781459
4396.000000;0.784774
4395.000000;0.787747
4394.000000;0.791020
4393.000000;0.794614
4392.000000;0.798076
4391.000000;0.801542
4390.000000;0.805501
4389.000000;0.809674
4388.000000;0.813303
4387.000000;0.816431
4386.000000;0.819784
4385.000000;0.823497
4384.000000;0.827113
4383.000000;0.830655
4382.000000;0.834535
4381.000000;0.838534
4380.000000;0.842087
4379.000000;0.845476
4378.000000;0.849492
4377.000000;0.854014
4376.000000;0.858144
4375.000000;0.861683
4374.000000;0.865282
4373.000000;0.869173
4372.000000;0.872976
4371.000000;0.876679
4370.000000;0.880645
4369.000000;0.884736
4368.000000;0.888571
4367.000000;0.892477
4366.000000;0.897024
4365.000000;0.901826
4364.000000;0.906036
4363.000000;0.909772
4362.000000;0.913809
4361.000000;0.918159
4360.000000;0.922280
4359.000000;0.926394
4358.000000;0.931153
4357.000000;0.936276
4356.000000;0.940964
4355.000000;0.945445
4354.000000;0.950573
4353.000000;0.956123
4352.000000;0.961001
4351.000000;0.965013
4350.000000;0.968933
4349.000000;0.973046
4348.000000;0.977118
4347.000000;0.981522
4346.000000;0.986825
4345.000000;0.992515
4344.000000;0.997677
4343.000000;1.002590
4342.000000;1.008055
4341.000000;1.013615
4340.000000;1.018227
4339.000000;1.022269
4338.000000;1.026944
4337.000000;1.032104
4336.000000;1.036662
4335.000000;1.040807
4334.000000;1.045720
4333.000000;1.051371
4332.000000;1.056668
4331.000000;1.061597
4330.000000;1.067103
4329.000000;1.073032
4328.000000;1.078288
4327.000000;1.082966
4326.000000;1.088211
4325.000000;1.094065
4324.000000;1.099547
4323.000000;1.104700
4322.000000;1.110458
4321.000000;1.116707
4320.000000;1.122588
4319.000000;1.128405
4318.000000;1.135021
4317.000000;1.141731
4316.000000;1.147070
4315.000000;1.151418
4314.000000;1.156344
4313.000000;1.161816
4312.000000;1.166632
4311.000000;1.171137
4310.000000;1.176758
4309.000000;1.183194
4308.000000;1.188877
4307.000000;1.194012
4306.000000;1.200259
4305.000000;1.207518
4304.000000;1.213974
4303.000000;1.219308
4302.000000;1.224997
4301.000000;1.231409
4300.000000;1.237436
4299.000000;1.243006
4298.000000;1.249155
4297.000000;1.255699
4296.000000;1.261597
4295.000000;1.267381
4294.000000;1.274454
4293.000000;1.282266
4292.000000;1.289011
4291.000000;1.294685
4290.000000;1.300543
4289.000000;1.306286
4288.000000;1.311040
4287.000000;1.316260
4286.000000;1.324045
4285.000000;1.333293
4284.000000;1.341122
4283.000000;1.347439
4282.000000;1.354275
4281.000000;1.361389
4280.000000;1.366833
4279.000000;1.371252
4278.000000;1.377107
4277.000000;1.384173
4276.000000;1.390225
4275.000000;1.395603
4274.000000;1.402617
4273.000000;1.410897
4272.000000;1.417970
4271.000000;1.424036
4270.000000;1.431445
4269.000000;1.439828
4268.000000;1.446604
4267.000000;1.452013
4266.000000;1.458656
4265.000000;1.466491
4264.000000;1.473414
4263.000000;1.480019
4262.000000;1.488474
4261.000000;1.497330
4260.000000;1.503110
4259.000000;1.506744
4258.000000;1.512390
4257.000000;1.520447
4256.000000;1.527784
4255.000000;1.534232
4254.000000;1.542533
4253.000000;1.552062
4252.000000;1.559116
4251.000000;1.563777
4250.000000;1.570014
4249.000000;1.578726
4248.000000;1.587126
4247.000000;1.594878
4246.000000;1.604281
4245.000000;1.614159
4244.000000;1.620752
4243.000000;1.624554
4242.000000;1.629789
4241.000000;1.637115
4240.000000;1.643503
4239.000000;1.648879
4238.000000;1.656158
4237.000000;1.665295
4236.000000;1.673940
4235.000000;1.682916
4234.000000;1.694408
4233.000000;1.705977
4232.000000;1.713679
4231.000000;1.719655
4230.000000;1.728254
4229.000000;1.736896
4228.000000;1.739967
4227.000000;1.739913
4226.000000;1.744073
4225.000000;1.752981
4224.000000;1.761576
4223.000000;1.769666
4222.000000;1.781108
4221.000000;1.793793
4220.000000;1.801405
4219.000000;1.805157
4218.000000;1.812335
4217.000000;1.823668
4216.000000;1.833239
4215.000000;1.839747
4214.000000;1.846968
4213.000000;1.854108
4212.000000;1.857398
4211.000000;1.860333
4210.000000;1.870102
4209.000000;1.885424
4208.000000;1.898814
4207.000000;1.908819
4206.000000;1.918413
4205.000000;1.924289
4204.000000;1.922435
4203.000000;1.920337
4202.000000;1.928097
4201.000000;1.942648
4200.000000;1.953216
4199.000000;1.959725
4198.000000;1.970485
4197.000000;1.984580
4196.000000;1.993965
4195.000000;2.000037
4194.000000;2.010368
4193.000000;2.021247
4192.000000;2.023293
4191.000000;2.021664
4190.000000;2.028994
4189.000000;2.043760
4188.000000;2.054692
4187.000000;2.062989
4186.000000;2.079173
4185.000000;2.100149
4184.000000;2.111497
4183.000000;2.112501
4182.000000;2.114585
4181.000000;2.117383
4180.000000;2.113365
4179.000000;2.110381
4178.000000;2.122758
4177.000000;2.146007
4176.000000;2.161550
4175.000000;2.166671
4174.000000;2.174939
4173.000000;2.187308
4172.000000;2.192959
4171.000000;2.196296
4170.000000;2.211032
4169.000000;2.231986
4168.000000;2.241369
4167.000000;2.240439
4166.000000;2.244681
4165.000000;2.252236
4164.000000;2.251249
4163.000000;2.249628
4162.000000;2.262680
4161.000000;2.280189
4160.000000;2.278538
4159.000000;2.265048
4158.000000;2.266642
4157.000000;2.284950
4156.000000;2.299616
4155.000000;2.308859
4154.000000;2.330702
4153.000000;2.360990
4152.000000;2.371921
4151.000000;2.360214
4150.000000;2.349525
4149.000000;2.346273
4148.000000;2.340823
4147.000000;2.339152
4146.000000;2.355529
4145.000000;2.380134
4144.000000;2.388198
4143.000000;2.387326
4142.000000;2.407857
4141.000000;2.446229
4140.000000;2.467073
4139.000000;2.462185
4138.000000;2.454176
4137.000000;2.445886
4136.000000;2.428284
4135.000000;2.419888
4134.000000;2.446342
4133.000000;2.495259
4132.000000;2.525607
4131.000000;2.534333
4130.000000;2.551019
4129.000000;2.571145
4128.000000;2.567379
4127.000000;2.553629
4126.000000;2.567308
4125.000000;2.598912
4124.000000;2.602124
4123.000000;2.583773
4122.000000;2.591800
4121.000000;2.623806
4120.000000;2.635824
4119.000000;2.629456
4118.000000;2.644174
4117.000000;2.669076
4116.000000;2.647967
4115.000000;2.589042
4114.000000;2.551264
4113.000000;2.547111
4112.000000;2.551348
4111.000000;2.559571
4110.000000;2.589014
4109.000000;2.624912
4108.000000;2.629274
4107.000000;2.612770
4106.000000;2.614551
4105.000000;2.629127
4104.000000;2.627046
4103.000000;2.627020
4102.000000;2.671050
4101.000000;2.748223
4100.000000;2.787679
4099.000000;2.771981
4098.000000;2.754055
4097.000000;2.729377
4096.000000;2.667176
4095.000000;2.606007
4094.000000;2.597317
4093.000000;2.634096
4092.000000;2.667457
4091.000000;2.687621
4090.000000;2.732902
4089.000000;2.788604
4088.000000;2.781389
4087.000000;2.730180
4086.000000;2.721562
4085.000000;2.771278
4084.000000;2.822129
4083.000000;2.837914
4082.000000;2.848010
4081.000000;2.843570
4080.000000;2.794175
4079.000000;2.745053
4078.000000;2.746749
4077.000000;2.774549
4076.000000;2.762313
4075.000000;2.719388
4074.000000;2.716639
4073.000000;2.768862
4072.000000;2.826013
4071.000000;2.845330
4070.000000;2.854998
4069.000000;2.871053
4068.000000;2.858440
4067.000000;2.834903
4066.000000;2.850601
4065.000000;2.883289
4064.000000;2.861677
4063.000000;2.802986
4062.000000;2.771168
4061.000000;2.762079
4060.000000;2.739833
4059.000000;2.723004
4058.000000;2.753510
4057.000000;2.816599
4056.000000;2.844463
4055.000000;2.842474
4054.000000;2.892372
4053.000000;2.992899
4052.000000;3.023525
4051.000000;2.956148
4050.000000;2.906317
4049.000000;2.893241
4048.000000;2.876089
4047.000000;2.876192
4046.000000;2.930409
4045.000000;2.987847
4044.000000;2.959422
4043.000000;2.901127
4042.000000;2.900767
4041.000000;2.933950
4040.000000;2.918576
4039.000000;2.873895
4038.000000;2.872649
4037.000000;2.894134
4036.000000;2.867314
4035.000000;2.827930
4034.000000;2.859358
4033.000000;2.956851
4032.000000;3.020485
4031.000000;3.012008
4030.000000;3.010520
4029.000000;3.036305
4028.000000;3.019656
4027.000000;2.965694
4026.000000;2.957441
4025.000000;2.990972
4024.000000;2.980740
4023.000000;2.916549
4022.000000;2.875809
4021.000000;2.873512
4020.000000;2.877642
4019.000000;2.903115
4018.000000;2.986850
4017.000000;3.072332
4016.000000;3.032274
4015.000000;2.941545
4014.000000;2.941553
4013.000000;3.051382
4012.000000;3.178270
4011.000000;3.219181
4010.000000;3.221411
4009.000000;3.198929
4008.000000;3.127245
4007.000000;3.082035
4006.000000;3.126348
4005.000000;3.172231
4004.000000;3.071958
4003.000000;2.950701
4002.000000;2.939629
4001.000000;3.020432
4000.000000;3.076133
3999.000000;3.059276
3998.000000;3.055623
3997.000000;3.059890
3996.000000;3.019254
3995.000000;2.993222
3994.000000;3.047311
3993.000000;3.142966
3992.000000;3.186659
3991.000000;3.176311
3990.000000;3.212830
3989.000000;3.328574
3988.000000;3.398655
3987.000000;3.376069
3986.000000;3.387526
3985.000000;3.340153
3984.000000;3.209436
3983.000000;3.139441
3982.000000;3.190414
3981.000000;3.317703
3980.000000;3.354097
3979.000000;3.261002
3978.000000;3.198072
3977.000000;3.178127
3976.000000;3.090423
3975.000000;2.988614
3974.000000;3.008887
3973.000000;3.126996
3972.000000;3.219487
3971.000000;3.241358
3970.000000;3.249373
3969.000000;3.246465
3968.000000;3.222587
3967.000000;3.189416
3966.000000;3.163648
3965.000000;3.137937
3964.000000;3.087818
3963.000000;3.089648
3962.000000;3.247556
3961.000000;3.510349
3960.000000;3.576362
3959.000000;3.380018
3958.000000;3.285423
3957.000000;3.326202
3956.000000;3.361925
3955.000000;3.308747
3954.000000;3.201655
3953.000000;3.131360
3952.000000;3.122635
3951.000000;3.165187
3950.000000;3.294146
3949.000000;3.421390
3948.000000;3.373466
3947.000000;3.261279
3946.000000;3.236704
3945.000000;3.314515
3944.000000;3.321408
3943.000000;3.220926
3942.000000;3.194235
3941.000000;3.196578
3940.000000;3.130157
3939.000000;3.031810
3938.000000;3.002348
3937.000000;3.049337
3936.000000;3.092438
3935.000000;3.101381
3934.000000;3.141082
3933.000000;3.211159
3932.000000;3.243624
3931.000000;3.292315
3930.000000;3.470122
3929.000000;3.717263
3928.000000;3.551940
3927.000000;3.383014
3926.000000;3.413594
3925.000000;3.497110
3924.000000;3.419888
3923.000000;3.320903
3922.000000;3.275662
3921.000000;3.244380
3920.000000;3.154675
3919.000000;3.068401
3918.000000;3.081374
3917.000000;3.175815
3916.000000;3.238350
3915.000000;3.292277
3914.000000;3.500636
3913.000000;3.665935
3912.000000;3.757753
3911.000000;3.823577
3910.000000;3.706020
3909.000000;3.586773
3908.000000;3.456404
3907.000000;3.391182
3906.000000;3.458293
3905.000000;3.689421
3904.000000;4.296857
3903.000000;4.304626
3902.000000;3.759114
3901.000000;3.508871
3900.000000;3.575587
3899.000000;3.403123
3898.000000;3.260824
3897.000000;3.275032
3896.000000;3.256595
3895.000000;3.206149
3894.000000;3.212362
3893.000000;3.266103
3892.000000;3.284656
3891.000000;3.308789
3890.000000;3.451576
3889.000000;3.717111
3888.000000;3.875710
3887.000000;3.800768
3886.000000;3.380897
3885.000000;3.130722
3884.000000;3.200173
3883.000000;3.438353
3882.000000;3.531277
3881.000000;3.468643
3880.000000;3.522447
3879.000000;3.650697
3878.000000;3.520358
3877.000000;3.352989
3876.000000;3.463834
3875.000000;4.046013
3874.000000;3.912207
3873.000000;4.044465
3872.000000;3.833309
3871.000000;3.559344
3870.000000;3.563889
3869.000000;3.828415
3868.000000;4.216375
3867.000000;3.914980
3866.000000;3.384263
3865.000000;3.194104
3864.000000;3.260992
3863.000000;3.466448
3862.000000;3.596680
3861.000000;3.686149
3860.000000;4.115572
3859.000000;3.879193
3858.000000;3.819203
3857.000000;3.840143
3856.000000;3.612419
3855.000000;3.629663
3854.000000;3.634507
3853.000000;3.821636
3852.000000;3.956783
3851.000000;3.707170
3850.000000;3.784970
3849.000000;4.068492
3848.000000;4.335010
3847.000000;3.926238
3846.000000;4.073516
3845.000000;3.865216
3844.000000;3.646139
3843.000000;3.797567
3842.000000;3.737023
3841.000000;3.946671
3840.000000;4.027879
3839.000000;3.798239
3838.000000;4.213414
3837.000000;4.323450
3836.000000;3.890024
3835.000000;3.733783
3834.000000;3.695216
3833.000000;3.696733
3832.000000;3.917492
3831.000000;4.048208
3830.000000;3.794458
3829.000000;3.777988
3828.000000;3.896225
3827.000000;4.141560
3826.000000;4.197615
3825.000000;3.755229
3824.000000;3.729277
3823.000000;3.589197
3822.000000;3.414570
3821.000000;3.468848
3820.000000;3.703361
3819.000000;3.804516
3818.000000;3.680376
3817.000000;3.460941
3816.000000;3.426680
3815.000000;3.612833
3814.000000;3.791272
3813.000000;3.739937
3812.000000;3.805601
3811.000000;4.061911
3810.000000;3.642523
3809.000000;3.310857
3808.000000;3.240526
3807.000000;3.305871
3806.000000;3.355615
3805.000000;3.352776
3804.000000;3.455410
3803.000000;3.631201
3802.000000;3.658679
3801.000000;3.677072
3800.000000;3.808740
3799.000000;3.768341
3798.000000;3.858910
3797.000000;4.228852
3796.000000;3.858681
3795.000000;3.622788
3794.000000;3.390131
3793.000000;3.217659
3792.000000;3.223267
3791.000000;3.341825
3790.000000;3.376464
3789.000000;3.333333
3788.000000;3.459805
3787.000000;3.760944
3786.000000;3.791075
3785.000000;3.740894
3784.000000;3.586930
3783.000000;3.462892
3782.000000;3.580312
3781.000000;3.718392
3780.000000;3.567680
3779.000000;3.484349
3778.000000;3.565696
3777.000000;3.609539
3776.000000;3.544902
3775.000000;3.362953
3774.000000;3.300944
3773.000000;3.416753
3772.000000;3.444696
3771.000000;3.402915
3770.000000;3.531927
3769.000000;3.598369
3768.000000;3.630336
3767.000000;3.650961
3766.000000;3.572902
3765.000000;3.441820
3764.000000;3.516820
3763.000000;3.761252
3762.000000;4.044291
3761.000000;4.186892
3760.000000;3.546289
3759.000000;3.508072
3758.000000;3.603198
3757.000000;3.696312
3756.000000;3.803370
3755.000000;3.614015
3754.000000;3.563675
3753.000000;3.706991
3752.000000;3.673080
3751.000000;3.554113
3750.000000;3.583060
3749.000000;3.638992
3748.000000;3.536073
3747.000000;3.373886
3746.000000;3.389476
3745.000000;3.687414
3744.000000;3.521449
3743.000000;3.326131
3742.000000;3.402228
3741.000000;3.579873
3740.000000;3.692197
3739.000000;3.597894
3738.000000;3.649033
3737.000000;3.791638
3736.000000;3.965152
3735.000000;4.146309
3734.000000;3.811271
3733.000000;3.563021
3732.000000;3.491883
3731.000000;3.558526
3730.000000;3.548043
3729.000000;3.554912
3728.000000;3.831995
3727.000000;3.568486
3726.000000;3.354971
3725.000000;3.392480
3724.000000;3.365109
3723.000000;3.331874
3722.000000;3.382486
3721.000000;3.503407
3720.000000;3.511460
3719.000000;3.411286
3718.000000;3.382924
3717.000000;3.354370
3716.000000;3.337394
3715.000000;3.394521
3714.000000;3.525094
3713.000000;3.506327
3712.000000;3.218705
3711.000000;3.078389
3710.000000;3.148513
3709.000000;3.301805
3708.000000;3.606223
3707.000000;3.977459
3706.000000;3.399614
3705.000000;3.236742
3704.000000;3.327510
3703.000000;3.642987
3702.000000;3.629994
3701.000000;3.418053
3700.000000;3.463119
3699.000000;3.553848
3698.000000;3.707980
3697.000000;3.709470
3696.000000;3.929288
3695.000000;3.869953
3694.000000;3.604519
3693.000000;3.734559
3692.000000;3.704452
3691.000000;3.548807
3690.000000;3.666104
3689.000000;3.863896
3688.000000;3.964288
3687.000000;4.094722
3686.000000;4.366438
3685.000000;3.832565
3684.000000;3.786933
3683.000000;3.928609
3682.000000;3.655621
3681.000000;3.410794
3680.000000;3.389746
3679.000000;3.608657
3678.000000;3.726807
3677.000000;3.561859
3676.000000;3.656265
3675.000000;4.109045
3674.000000;3.905592
3673.000000;3.650881
3672.000000;3.783510
3671.000000;3.594695
3670.000000;3.373986
3669.000000;3.496000
3668.000000;3.565733
3667.000000;3.575300
3666.000000;3.799338
3665.000000;3.505011
3664.000000;3.346423
3663.000000;3.415241
3662.000000;3.355822
3661.000000;3.296848
3660.000000;3.473158
3659.000000;4.063941
3658.000000;3.888977
3657.000000;3.891542
3656.000000;3.587797
3655.000000;3.251024
3654.000000;3.223217
3653.000000;3.252540
3652.000000;3.248389
3651.000000;3.258250
3650.000000;3.235782
3649.000000;3.219704
3648.000000;3.292802
3647.000000;3.435931
3646.000000;3.523212
3645.000000;3.434003
3644.000000;3.450725
3643.000000;3.622789
3642.000000;3.593521
3641.000000;3.478564
3640.000000;3.346832
3639.000000;3.266888
3638.000000;3.258225
3637.000000;3.255075
3636.000000;3.280467
3635.000000;3.485179
3634.000000;4.000968
3633.000000;3.636221
3632.000000;3.418896
3631.000000;3.286281
3630.000000;3.366572
3629.000000;3.910090
3628.000000;3.735206
3627.000000;3.580930
3626.000000;3.863415
3625.000000;3.957285
3624.000000;3.704409
3623.000000;3.652622
3622.000000;3.539841
3621.000000;3.904022
3620.000000;3.623449
3619.000000;3.202070
3618.000000;3.254452
3617.000000;3.457809
3616.000000;3.842724
3615.000000;3.905329
3614.000000;3.688196
3613.000000;3.730214
3612.000000;3.905960
3611.000000;3.800335
3610.000000;3.408397
3609.000000;3.218702
3608.000000;3.357908
3607.000000;3.820258
3606.000000;3.769394
3605.000000;3.577588
3604.000000;3.443606
3603.000000;3.325453
3602.000000;3.473240
3601.000000;3.811733
3600.000000;3.868022
3599.000000;4.101334
3598.000000;3.648529
3597.000000;3.428356
3596.000000;3.470171
3595.000000;3.504710
3594.000000;3.467938
3593.000000;3.499967
3592.000000;3.600615
3591.000000;3.679560
3590.000000;3.442545
3589.000000;3.248892
3588.000000;3.345188
3587.000000;3.573250
3586.000000;3.620544
3585.000000;3.578408
3584.000000;3.505909
3583.000000;3.516605
3582.000000;3.664523
3581.000000;3.997164
3580.000000;4.600050
3579.000000;4.070491
3578.000000;3.771162
3577.000000;3.739674
3576.000000;3.846461
3575.000000;3.786753
3574.000000;3.914304
3573.000000;3.567884
3572.000000;3.382756
3571.000000;3.436578
3570.000000;3.381000
3569.000000;3.360047
3568.000000;3.592645
3567.000000;4.004123
3566.000000;4.170339
3565.000000;4.021474
3564.000000;4.006502
3563.000000;4.037356
3562.000000;4.097780
3561.000000;3.841021
3560.000000;3.699614
3559.000000;3.854482
3558.000000;3.620823
3557.000000;3.317762
3556.000000;3.234939
3555.000000;3.277860
3554.000000;3.273980
3553.000000;3.282291
3552.000000;3.437451
3551.000000;3.559980
3550.000000;3.589025
3549.000000;3.617270
3548.000000;3.427481
3547.000000;3.366011
3546.000000;3.603088
3545.000000;3.683794
3544.000000;3.462032
3543.000000;3.406265
3542.000000;3.368072
3541.000000;3.419525
3540.000000;3.727956
3539.000000;3.857750
3538.000000;3.908923
3537.000000;3.579239
3536.000000;3.391744
3535.000000;3.752820
3534.000000;4.163470
3533.000000;3.683657
3532.000000;3.358430
3531.000000;3.232365
3530.000000;3.383232
3529.000000;3.953433
3528.000000;3.963755
3527.000000;3.641909
3526.000000;3.662501
3525.000000;3.832353
3524.000000;3.796690
3523.000000;3.785082
3522.000000;4.129808
3521.000000;3.810478
3520.000000;3.814778
3519.000000;4.190709
3518.000000;3.968444
3517.000000;4.165490
3516.000000;3.868495
3515.000000;3.510436
3514.000000;3.580209
3513.000000;4.036274
3512.000000;4.202973
3511.000000;3.724709
3510.000000;3.384279
3509.000000;3.237306
3508.000000;3.356506
3507.000000;3.628264
3506.000000;3.756880
3505.000000;3.756030
3504.000000;3.747137
3503.000000;3.952126
3502.000000;3.688547
3501.000000;3.399928
3500.000000;3.442082
3499.000000;3.556431
3498.000000;3.436084
3497.000000;3.465805
3496.000000;3.524552
3495.000000;3.379963
3494.000000;3.422250
3493.000000;3.421815
3492.000000;3.333421
3491.000000;3.339520
3490.000000;3.289216
3489.000000;3.267723
3488.000000;3.450024
3487.000000;4.102452
3486.000000;4.382341
3485.000000;3.876240
3484.000000;3.859065
3483.000000;3.747448
3482.000000;3.696828
3481.000000;3.647697
3480.000000;3.548977
3479.000000;3.413069
3478.000000;3.499600
3477.000000;3.887951
3476.000000;3.892296
3475.000000;3.827958
3474.000000;3.551714
3473.000000;3.420430
3472.000000;3.409678
3471.000000;3.308118
3470.000000;3.256679
3469.000000;3.272033
3468.000000;3.283985
3467.000000;3.366281
3466.000000;3.686770
3465.000000;3.632918
3464.000000;3.760320
3463.000000;3.813159
3462.000000;3.331923
3461.000000;3.299217
3460.000000;3.270337
3459.000000;3.264984
3458.000000;3.510472
3457.000000;3.607803
3456.000000;3.432524
3455.000000;3.361254
3454.000000;3.327719
3453.000000;3.402092
3452.000000;3.412191
3451.000000;3.386704
3450.000000;3.669063
3449.000000;4.045438
3448.000000;3.685081
3447.000000;3.689378
3446.000000;4.095884
3445.000000;3.886299
3444.000000;3.801368
3443.000000;3.576477
3442.000000;3.521590
3441.000000;3.766750
3440.000000;3.757030
3439.000000;3.565673
3438.000000;3.469761
3437.000000;3.435555
3436.000000;3.448369
3435.000000;3.469822
3434.000000;3.689978
3433.000000;3.750900
3432.000000;3.635352
3431.000000;4.068574
3430.000000;3.751939
3429.000000;3.292734
3428.000000;3.133463
3427.000000;3.080202
3426.000000;3.169313
3425.000000;3.614727
3424.000000;3.657668
3423.000000;3.252622
3422.000000;3.213111
3421.000000;3.323854
3420.000000;3.366085
3419.000000;3.338597
3418.000000;3.383086
3417.000000;3.534372
3416.000000;3.464845
3415.000000;3.535969
3414.000000;3.939155
3413.000000;3.388989
3412.000000;3.279983
3411.000000;3.657889
3410.000000;4.343567
3409.000000;3.786000
3408.000000;3.427400
3407.000000;3.226493
3406.000000;3.154113
3405.000000;3.232444
3404.000000;3.382653
3403.000000;3.631584
3402.000000;3.757757
3401.000000;3.458334
3400.000000;3.411763
3399.000000;3.801784
3398.000000;3.987598
3397.000000;3.826247
3396.000000;4.090039
3395.000000;4.121779
3394.000000;4.146771
3393.000000;3.866202
3392.000000;3.746044
3391.000000;3.715037
3390.000000;3.603932
3389.000000;3.657761
3388.000000;3.656338
3387.000000;3.430435
3386.000000;3.607207
3385.000000;4.199502
3384.000000;3.530566
3383.000000;3.325237
3382.000000;3.269951
3381.000000;3.301019
3380.000000;3.532711
3379.000000;3.828796
3378.000000;3.567993
3377.000000;3.530550
3376.000000;3.854193
3375.000000;3.426569
3374.000000;3.157500
3373.000000;3.113366
3372.000000;3.087236
3371.000000;3.129023
3370.000000;3.282386
3369.000000;3.342900
3368.000000;3.217811
3367.000000;3.140565
3366.000000;3.113522
3365.000000;3.148886
3364.000000;3.296016
3363.000000;3.369554
3362.000000;3.561632
3361.000000;3.717644
3360.000000;3.602467
3359.000000;3.647821
3358.000000;3.385247
3357.000000;3.183780
3356.000000;3.081589
3355.000000;3.066130
3354.000000;3.151061
3353.000000;3.248234
3352.000000;3.317791
3351.000000;3.634249
3350.000000;3.706399
3349.000000;3.385469
3348.000000;3.330113
3347.000000;3.265331
3346.000000;3.424944
3345.000000;3.414796
3344.000000;3.145295
3343.000000;3.080792
3342.000000;3.050008
3341.000000;3.039336
3340.000000;3.102522
3339.000000;3.181623
3338.000000;3.144254
3337.000000;3.110514
3336.000000;3.218695
3335.000000;3.491155
3334.000000;3.869150
3333.000000;3.683437
3332.000000;3.528098
3331.000000;3.521155
3330.000000;3.559320
3329.000000;3.939511
3328.000000;3.967084
3327.000000;3.566197
3326.000000;3.562257
3325.000000;3.826705
3324.000000;4.006403
3323.000000;4.010645
3322.000000;3.873767
3321.000000;3.569842
3320.000000;3.648373
3319.000000;3.629513
3318.000000;3.530660
3317.000000;3.744766
3316.000000;3.682591
3315.000000;3.752764
3314.000000;3.698663
3313.000000;3.271637
3312.000000;3.134391
3311.000000;3.126208
3310.000000;3.081005
3309.000000;3.008581
3308.000000;2.986285
3307.000000;3.007319
3306.000000;3.007170
3305.000000;3.016208
3304.000000;3.164036
3303.000000;3.520413
3302.000000;3.814910
3301.000000;4.068222
3300.000000;4.062150
3299.000000;3.847282
3298.000000;3.428976
3297.000000;3.097292
3296.000000;3.068730
3295.000000;3.236926
3294.000000;3.373285
3293.000000;3.353254
3292.000000;3.369894
3291.000000;3.453027
3290.000000;3.355561
3289.000000;3.228630
3288.000000;3.185214
3287.000000;3.362726
3286.000000;3.768641
3285.000000;3.558973
3284.000000;3.679946
3283.000000;4.457060
3282.000000;4.186831
3281.000000;3.874222
3280.000000;3.655618
3279.000000;3.426059
3278.000000;3.173737
3277.000000;3.077391
3276.000000;3.162186
3275.000000;3.328258
3274.000000;3.455204
3273.000000;3.571126
3272.000000;3.623294
3271.000000;3.528417
3270.000000;3.348303
3269.000000;3.201693
3268.000000;3.212095
3267.000000;3.318533
3266.000000;3.269434
3265.000000;3.232605
3264.000000;3.471643
3263.000000;4.259750
3262.000000;3.860164
3261.000000;3.495871
3260.000000;3.408234
3259.000000;3.652313
3258.000000;4.027879
3257.000000;3.641764
3256.000000;3.744412
3255.000000;3.619769
3254.000000;3.745890
3253.000000;3.923261
3252.000000;3.606101
3251.000000;3.570368
3250.000000;3.340715
3249.000000;3.175770
3248.000000;3.157951
3247.000000;3.225962
3246.000000;3.213950
3245.000000;3.189260
3244.000000;3.252736
3243.000000;3.294160
3242.000000;3.492081
3241.000000;3.634903
3240.000000;3.467435
3239.000000;3.439118
3238.000000;3.336969
3237.000000;3.298361
3236.000000;3.571764
3235.000000;4.313948
3234.000000;4.323921
3233.000000;3.935103
3232.000000;3.448122
3231.000000;3.164185
3230.000000;3.172551
3229.000000;3.314406
3228.000000;3.286480
3227.000000;3.183083
3226.000000;3.307077
3225.000000;3.516765
3224.000000;3.346393
3223.000000;3.278178
3222.000000;3.304353
3221.000000;3.361825
3220.000000;3.596498
3219.000000;3.690839
3218.000000;3.481082
3217.000000;3.319432
3216.000000;3.170204
3215.000000;3.082229
3214.000000;3.035804
3213.000000;3.055672
3212.000000;3.186099
3211.000000;3.263427
3210.000000;3.175610
3209.000000;3.105744
3208.000000;3.106361
3207.000000;3.192864
3206.000000;3.412560
3205.000000;3.477366
3204.000000;3.490968
3203.000000;3.615332
3202.000000;3.820670
3201.000000;4.705238
3200.000000;3.991239
3199.000000;3.677137
3198.000000;3.950568
3197.000000;4.793219
3196.000000;3.774757
3195.000000;3.354828
3194.000000;3.326162
3193.000000;3.427477
3192.000000;3.422425
3191.000000;3.631084
3190.000000;3.564503
3189.000000;3.188561
3188.000000;3.184460
3187.000000;3.525515
3186.000000;3.600925
3185.000000;3.358098
3184.000000;3.378630
3183.000000;3.495867
3182.000000;3.520479
3181.000000;3.589049
3180.000000;3.477435
3179.000000;3.425491
3178.000000;3.819007
3177.000000;3.724461
3176.000000;3.476829
3175.000000;3.694839
3174.000000;4.123009
3173.000000;4.031438
3172.000000;3.943674
3171.000000;3.834236
3170.000000;3.559417
3169.000000;3.303585
3168.000000;3.235052
3167.000000;3.304177
3166.000000;3.261078
3165.000000;3.266720
3164.000000;3.347277
3163.000000;3.336655
3162.000000;3.357257
3161.000000;3.477196
3160.000000;3.948628
3159.000000;3.666010
3158.000000;3.345344
3157.000000;3.388420
3156.000000;3.280019
3155.000000;3.189244
3154.000000;3.234226
3153.000000;3.303074
3152.000000;3.278228
3151.000000;3.275490
3150.000000;3.396236
3149.000000;3.389367
3148.000000;3.600867
3147.000000;3.898045
3146.000000;3.575088
3145.000000;3.524536
3144.000000;3.276948
3143.000000;3.093821
3142.000000;3.094941
3141.000000;3.189785
3140.000000;3.294761
3139.000000;3.532165
3138.000000;3.820790
3137.000000;3.416125
3136.000000;3.305230
3135.000000;3.431485
3134.000000;3.448977
3133.000000;3.487430
3132.000000;3.654437
3131.000000;3.765307
3130.000000;3.663663
3129.000000;3.387554
3128.000000;3.288831
3127.000000;3.345237
3126.000000;3.319590
3125.000000;3.355009
3124.000000;3.409058
3123.000000;3.542257
3122.000000;4.025137
3121.000000;4.048883
3120.000000;3.610175
3119.000000;3.464052
3118.000000;3.638763
3117.000000;3.380457
3116.000000;3.177340
3115.000000;3.175454
3114.000000;3.092631
3113.000000;3.014001
3112.000000;3.120694
3111.000000;3.597950
3110.000000;3.985555
3109.000000;3.542415
3108.000000;3.431297
3107.000000;3.483659
3106.000000;3.472949
3105.000000;3.583646
3104.000000;3.931552
3103.000000;3.718751
3102.000000;3.381619
3101.000000;3.307254
3100.000000;3.328043
3099.000000;3.497626
3098.000000;3.826517
3097.000000;3.838736
3096.000000;4.013467
3095.000000;3.491448
3094.000000;3.449891
3093.000000;3.843234
3092.000000;3.576465
3091.000000;3.302791
3090.000000;3.314428
3089.000000;3.623764
3088.000000;3.631447
3087.000000;3.404071
3086.000000;3.471224
3085.000000;3.866063
3084.000000;4.019222
3083.000000;3.824324
3082.000000;3.567704
3081.000000;3.442243
3080.000000;3.574365
3079.000000;3.613069
3078.000000;3.439286
3077.000000;3.307644
3076.000000;3.211520
3075.000000;3.371167
3074.000000;3.806337
3073.000000;3.334231
3072.000000;3.148113
3071.000000;3.243705
3070.000000;3.499147
3069.000000;3.603079
3068.000000;3.224600
3067.000000;3.172615
3066.000000;3.407417
3065.000000;3.400670
3064.000000;3.311874
3063.000000;3.376614
3062.000000;3.401689
3061.000000;3.453420
3060.000000;3.530755
3059.000000;3.508949
3058.000000;3.409163
3057.000000;3.347842
3056.000000;3.575978
3055.000000;3.633290
3054.000000;3.302083
3053.000000;3.204656
3052.000000;3.149892
3051.000000;3.104430
3050.000000;3.089308
3049.000000;3.091285
3048.000000;3.090037
3047.000000;3.085495
3046.000000;3.305841
3045.000000;4.248077
3044.000000;4.068215
3043.000000;3.785966
3042.000000;3.767178
3041.000000;3.555641
3040.000000;3.637718
3039.000000;3.573497
3038.000000;3.700103
3037.000000;5.181306
3036.000000;4.241981
3035.000000;3.755863
3034.000000;3.484887
3033.000000;3.338294
3032.000000;3.206366
3031.000000;3.118485
3030.000000;3.226412
3029.000000;3.464808
3028.000000;3.408969
3027.000000;3.284714
3026.000000;3.263132
3025.000000;3.341376
3024.000000;3.519289
3023.000000;3.443011
3022.000000;3.316113
3021.000000;3.272501
3020.000000;3.253340
3019.000000;3.206623
3018.000000;3.132345
3017.000000;3.160383
3016.000000;3.137687
3015.000000;3.207222
3014.000000;3.527489
3013.000000;3.256487
3012.000000;3.095299
3011.000000;3.153742
3010.000000;3.188941
3009.000000;3.252875
3008.000000;3.291285
3007.000000;3.240023
3006.000000;3.280223
3005.000000;3.659066
3004.000000;3.672038
3003.000000;3.287131
3002.000000;3.430147
3001.000000;3.708707
3000.000000;3.571039
2999.000000;3.542868
2998.000000;3.321157
2997.000000;3.156563
2996.000000;3.213349
2995.000000;3.429220
2994.000000;3.533240
2993.000000;3.478839
2992.000000;3.578287
2991.000000;3.843556
2990.000000;3.656316
2989.000000;3.479980
2988.000000;3.558356
2987.000000;3.382758
2986.000000;3.501368
2985.000000;4.341546
2984.000000;3.891128
2983.000000;3.881251
2982.000000;3.534843
2981.000000;3.295612
2980.000000;3.430246
2979.000000;3.509491
2978.000000;3.379613
2977.000000;3.532489
2976.000000;3.710950
2975.000000;3.448981
2974.000000;3.198211
2973.000000;3.130217
2972.000000;3.353442
2971.000000;3.667115
2970.000000;3.757824
2969.000000;4.586832
2968.000000;4.095296
2967.000000;3.654265
2966.000000;3.622192
2965.000000;3.513321
2964.000000;3.417944
2963.000000;3.289028
2962.000000;3.288851
2961.000000;3.275970
2960.000000;3.143384
2959.000000;3.077392
2958.000000;3.035308
2957.000000;3.076832
2956.000000;3.313416
2955.000000;3.506015
2954.000000;3.609493
2953.000000;4.038124
2952.000000;3.655079
2951.000000;3.398349
2950.000000;3.455213
2949.000000;3.603317
2948.000000;3.635935
2947.000000;3.573279
2946.000000;3.478335
2945.000000;3.379839
2944.000000;3.324316
2943.000000;3.345839
2942.000000;3.569955
2941.000000;3.939573
2940.000000;3.963368
2939.000000;3.560092
2938.000000;3.395428
2937.000000;3.452846
2936.000000;3.319987
2935.000000;3.254869
2934.000000;3.518514
2933.000000;3.542557
2932.000000;3.486000
2931.000000;3.493175
2930.000000;3.682868
2929.000000;4.386502
2928.000000;3.540534
2927.000000;3.329401
2926.000000;3.129823
2925.000000;2.994404
2924.000000;3.053045
2923.000000;3.234224
2922.000000;3.369546
2921.000000;3.412040
2920.000000;3.395252
2919.000000;3.228729
2918.000000;3.205378
2917.000000;3.332977
2916.000000;3.412670
2915.000000;3.647033
2914.000000;3.720917
2913.000000;3.362100
2912.000000;3.227023
2911.000000;3.177045
2910.000000;3.242598
2909.000000;3.448330
2908.000000;3.504240
2907.000000;3.501050
2906.000000;3.633737
2905.000000;3.957305
2904.000000;3.985517
2903.000000;3.989938
2902.000000;4.143222
2901.000000;3.846882
2900.000000;3.763117
2899.000000;3.458465
2898.000000;3.401989
2897.000000;3.200781
2896.000000;3.098931
2895.000000;3.238741
2894.000000;3.349108
2893.000000;3.649820
2892.000000;3.877055
2891.000000;3.477302
2890.000000;3.529459
2889.000000;3.519500
2888.000000;3.403725
2887.000000;3.598956
2886.000000;3.429825
2885.000000;3.177864
2884.000000;3.180908
2883.000000;3.255477
2882.000000;3.195595
2881.000000;3.169570
2880.000000;3.459242
2879.000000;4.138376
2878.000000;3.972226
2877.000000;3.632997
2876.000000;3.452339
2875.000000;3.451401
2874.000000;3.336790
2873.000000;3.282102
2872.000000;3.364154
2871.000000;3.279134
2870.000000;3.207540
2869.000000;3.358429
2868.000000;3.440974
2867.000000;3.330117
2866.000000;3.440848
2865.000000;3.528144
2864.000000;3.406585
2863.000000;3.517173
2862.000000;3.890090
2861.000000;3.850702
2860.000000;4.023946
2859.000000;3.809110
2858.000000;3.411369
2857.000000;3.259156
2856.000000;3.200389
2855.000000;3.322275
2854.000000;3.519922
2853.000000;3.556366
2852.000000;3.911090
2851.000000;3.688744
2850.000000;3.493667
2849.000000;3.545336
2848.000000;3.401575
2847.000000;3.339069
2846.000000;3.322697
2845.000000;3.114389
2844.000000;3.038383
2843.000000;3.156554
2842.000000;3.404704
2841.000000;3.341653
2840.000000;3.136498
2839.000000;3.170742
2838.000000;3.372043
2837.000000;3.837480
2836.000000;3.735531
2835.000000;3.348052
2834.000000;3.225212
2833.000000;3.192296
2832.000000;3.223604
2831.000000;3.359034
2830.000000;3.498550
2829.000000;3.518412
2828.000000;3.640293
2827.000000;3.721816
2826.000000;4.061079
2825.000000;3.537283
2824.000000;3.386377
2823.000000;3.631892
2822.000000;3.704474
2821.000000;3.928337
2820.000000;3.900883
2819.000000;3.682872
2818.000000;3.975121
2817.000000;3.601588
2816.000000;3.781205
2815.000000;4.199188
2814.000000;3.874009
2813.000000;3.908333
2812.000000;3.671825
2811.000000;3.771206
2810.000000;3.522840
2809.000000;3.599842
2808.000000;3.830558
2807.000000;3.500720
2806.000000;3.859065
2805.000000;3.649220
2804.000000;3.397792
2803.000000;3.548927
2802.000000;3.496485
2801.000000;3.397830
2800.000000;3.466571
2799.000000;3.587502
2798.000000;3.427733
2797.000000;3.313980
2796.000000;3.326942
2795.000000;3.543738
2794.000000;4.075181
2793.000000;3.606215
2792.000000;3.763218
2791.000000;3.770571
2790.000000;3.420396
2789.000000;3.351102
2788.000000;3.228115
2787.000000;3.252925
2786.000000;3.517902
2785.000000;3.475377
2784.000000;3.415516
2783.000000;3.553326
2782.000000;3.354641
2781.000000;3.223641
2780.000000;3.382203
2779.000000;3.778618
2778.000000;3.640016
2777.000000;3.353031
2776.000000;3.344966
2775.000000;3.475182
2774.000000;3.427713
2773.000000;3.329611
2772.000000;3.511861
2771.000000;3.886717
2770.000000;3.695097
2769.000000;3.543530
2768.000000;3.447943
2767.000000;3.420670
2766.000000;3.343495
2765.000000;3.196133
2764.000000;3.198077
2763.000000;3.317854
2762.000000;3.549885
2761.000000;3.659949
2760.000000;3.670645
2759.000000;3.768133
2758.000000;3.699622
2757.000000;3.815629
2756.000000;4.180062
2755.000000;4.087965
2754.000000;3.392606
2753.000000;3.101248
2752.000000;3.090732
2751.000000;3.181921
2750.000000;3.156643
2749.000000;3.139978
2748.000000;3.376376
2747.000000;3.734039
2746.000000;3.621462
2745.000000;3.517699
2744.000000;3.433584
2743.000000;3.359193
2742.000000;3.340175
2741.000000;3.361776
2740.000000;3.378164
2739.000000;3.688167
2738.000000;3.788889
2737.000000;3.254641
2736.000000;3.231610
2735.000000;3.289027
2734.000000;3.303272
2733.000000;3.343858
2732.000000;3.455600
2731.000000;3.648371
2730.000000;3.595591
2729.000000;3.814119
2728.000000;3.710574
2727.000000;3.492435
2726.000000;3.687285
2725.000000;3.318672
2724.000000;3.228193
2723.000000;3.548854
2722.000000;3.832478
2721.000000;4.033562
2720.000000;3.634250
2719.000000;3.221534
2718.000000;3.115886
2717.000000;3.195854
2716.000000;3.491427
2715.000000;3.846737
2714.000000;3.560999
2713.000000;3.433644
2712.000000;3.530072
2711.000000;3.723779
2710.000000;3.482207
2709.000000;3.169288
2708.000000;3.172038
2707.000000;3.421729
2706.000000;3.560274
2705.000000;3.448895
2704.000000;3.483381
2703.000000;3.650084
2702.000000;3.534559
2701.000000;3.353332
2700.000000;3.311043
2699.000000;3.317949
2698.000000;3.281009
2697.000000;3.215326
2696.000000;3.238303
2695.000000;3.290565
2694.000000;3.376687
2693.000000;3.450051
2692.000000;3.518969
2691.000000;3.526428
2690.000000;3.373559
2689.000000;3.496826
2688.000000;3.597779
2687.000000;3.248738
2686.000000;3.312094
2685.000000;3.772848
2684.000000;4.150116
2683.000000;3.774918
2682.000000;3.914345
2681.000000;4.449049
2680.000000;4.362176
2679.000000;4.335868
2678.000000;3.551433
2677.000000;3.333815
2676.000000;3.717956
2675.000000;3.671746
2674.000000;3.376515
2673.000000;3.478761
2672.000000;3.542148
2671.000000;3.586878
2670.000000;3.984387
2669.000000;3.501624
2668.000000;3.305176
2667.000000;3.320744
2666.000000;3.331901
2665.000000;3.224182
2664.000000;3.143197
2663.000000;3.156392
2662.000000;3.146721
2661.000000;3.179303
2660.000000;3.391122
2659.000000;3.666778
2658.000000;3.403029
2657.000000;3.197784
2656.000000;3.263847
2655.000000;3.462825
2654.000000;3.374879
2653.000000;3.236264
2652.000000;3.280265
2651.000000;3.349712
2650.000000;3.337131
2649.000000;3.402520
2648.000000;3.915786
2647.000000;3.664678
2646.000000;3.558791
2645.000000;4.076403
2644.000000;3.851291
2643.000000;3.792238
2642.000000;3.466318
2641.000000;3.284629
2640.000000;3.390104
2639.000000;3.432637
2638.000000;3.536730
2637.000000;3.588469
2636.000000;3.486565
2635.000000;3.431084
2634.000000;3.234324
2633.000000;3.081789
2632.000000;3.087582
2631.000000;3.210515
2630.000000;3.279449
2629.000000;3.284916
2628.000000;3.305556
2627.000000;3.349929
2626.000000;3.531525
2625.000000;3.694777
2624.000000;3.904492
2623.000000;5.056171
2622.000000;3.692784
2621.000000;3.273903
2620.000000;3.231268
2619.000000;3.389258
2618.000000;4.126285
2617.000000;3.621422
2616.000000;3.217579
2615.000000;3.122451
2614.000000;3.108609
2613.000000;3.161143
2612.000000;3.316886
2611.000000;3.567256
2610.000000;3.641640
2609.000000;3.362159
2608.000000;3.335498
2607.000000;3.477979
2606.000000;3.798711
2605.000000;3.907454
2604.000000;3.580365
2603.000000;3.438846
2602.000000;3.210546
2601.000000;3.082060
2600.000000;3.157928
2599.000000;3.334653
2598.000000;3.551087
2597.000000;3.699029
2596.000000;3.406311
2595.000000;3.354435
2594.000000;3.367381
2593.000000;3.219922
2592.000000;3.343128
2591.000000;3.648980
2590.000000;3.643873
2589.000000;3.671791
2588.000000;3.425334
2587.000000;3.312792
2586.000000;3.511508
2585.000000;4.124993
2584.000000;4.040634
2583.000000;3.769592
2582.000000;4.055472
2581.000000;3.647229
2580.000000;3.805730
2579.000000;3.801420
2578.000000;3.631382
2577.000000;3.688055
2576.000000;3.441124
2575.000000;3.321556
2574.000000;3.308307
2573.000000;3.325168
2572.000000;3.468585
2571.000000;3.520102
2570.000000;3.441154
2569.000000;3.348082
2568.000000;3.334960
2567.000000;3.450693
2566.000000;3.314625
2565.000000;3.189694
2564.000000;3.328156
2563.000000;3.473553
2562.000000;3.295409
2561.000000;3.151302
2560.000000;3.214001
2559.000000;3.461721
2558.000000;3.544318
2557.000000;3.489010
2556.000000;3.785529
2555.000000;4.078960
2554.000000;3.806064
2553.000000;3.628503
2552.000000;3.641027
2551.000000;3.584213
2550.000000;3.606688
2549.000000;3.726820
2548.000000;3.499948
2547.000000;3.308668
2546.000000;3.515717
2545.000000;3.774393
2544.000000;3.346554
2543.000000;3.256059
2542.000000;3.191289
2541.000000;3.025168
2540.000000;2.991538
2539.000000;3.115650
2538.000000;3.290265
2537.000000;3.632080
2536.000000;3.701867
2535.000000;3.396721
2534.000000;3.475819
2533.000000;3.539809
2532.000000;3.569420
2531.000000;3.760597
2530.000000;3.628715
2529.000000;3.263398
2528.000000;3.235603
2527.000000;3.333797
2526.000000;3.365225
2525.000000;3.357782
2524.000000;3.624557
2523.000000;4.143267
2522.000000;3.473430
2521.000000;3.307548
2520.000000;3.366106
2519.000000;3.602676
2518.000000;3.569020
2517.000000;3.441673
2516.000000;3.670211
2515.000000;3.879860
2514.000000;3.642777
2513.000000;3.427187
2512.000000;3.251377
2511.000000;3.240413
2510.000000;3.563831
2509.000000;4.175802
2508.000000;4.010676
2507.000000;3.630586
2506.000000;3.462284
2505.000000;3.208188
2504.000000;3.144074
2503.000000;3.192087
2502.000000;3.216585
2501.000000;3.226652
2500.000000;3.333716
2499.000000;3.485403
2498.000000;3.299657
2497.000000;3.245490
2496.000000;3.519682
2495.000000;4.460968
2494.000000;3.866478
2493.000000;3.413974
2492.000000;3.495841
2491.000000;3.927384
2490.000000;3.792588
2489.000000;3.508456
2488.000000;3.676895
2487.000000;3.765880
2486.000000;3.468739
2485.000000;3.267758
2484.000000;3.271676
2483.000000;3.496946
2482.000000;3.591861
2481.000000;3.548904
2480.000000;3.793129
2479.000000;3.956011
2478.000000;3.666687
2477.000000;3.372412
2476.000000;3.446418
2475.000000;3.923451
2474.000000;3.829195
2473.000000;3.682772
2472.000000;3.966889
2471.000000;3.717161
2470.000000;3.485414
2469.000000;3.312209
2468.000000;3.373677
2467.000000;3.828319
2466.000000;3.812295
2465.000000;3.514703
2464.000000;3.700565
2463.000000;3.620908
2462.000000;3.432086
2461.000000;3.372615
2460.000000;3.401694
2459.000000;3.446805
2458.000000;3.678243
2457.000000;3.886873
2456.000000;3.710529
2455.000000;3.683189
2454.000000;3.776474
2453.000000;3.660435
2452.000000;3.636508
2451.000000;3.653247
2450.000000;3.389555
2449.000000;3.206372
2448.000000;3.296130
2447.000000;3.578724
2446.000000;3.553156
2445.000000;3.380495
2444.000000;3.439410
2443.000000;3.572730
2442.000000;3.348331
2441.000000;3.171382
2440.000000;3.233557
2439.000000;3.490414
2438.000000;3.674718
2437.000000;3.741461
2436.000000;3.673357
2435.000000;3.524414
2434.000000;3.616979
2433.000000;3.499504
2432.000000;3.610575
2431.000000;3.694306
2430.000000;3.530673
2429.000000;3.363130
2428.000000;3.184447
2427.000000;3.158579
2426.000000;3.335753
2425.000000;3.739367
2424.000000;3.779636
2423.000000;3.634808
2422.000000;4.180310
2421.000000;3.653312
2420.000000;3.739960
2419.000000;4.154604
2418.000000;3.507367
2417.000000;3.319227
2416.000000;3.311194
2415.000000;3.182903
2414.000000;3.170420
2413.000000;3.426780
2412.000000;3.633905
2411.000000;3.525813
2410.000000;3.674541
2409.000000;3.672516
2408.000000;3.592136
2407.000000;3.380918
2406.000000;3.235574
2405.000000;3.228766
2404.000000;3.290766
2403.000000;3.362977
2402.000000;4.082464
2401.000000;3.721740
2400.000000;3.415126
2399.000000;3.482477
2398.000000;3.670122
2397.000000;3.640694
2396.000000;3.915729
2395.000000;3.504753
2394.000000;3.361107
2393.000000;3.310223
2392.000000;3.623727
2391.000000;3.681476
2390.000000;3.411526
2389.000000;3.630140
2388.000000;3.790400
2387.000000;3.550311
2386.000000;3.419069
2385.000000;3.236312
2384.000000;3.254982
2383.000000;3.514825
2382.000000;3.847318
2381.000000;3.442694
2380.000000;3.199384
2379.000000;3.196702
2378.000000;3.267914
2377.000000;3.201896
2376.000000;3.187287
2375.000000;3.216286
2374.000000;3.184941
2373.000000;3.220369
2372.000000;3.092404
2371.000000;2.939573
2370.000000;3.364535
2369.000000;3.267568
2368.000000;3.143802
2367.000000;3.288828
2366.000000;3.146265
2365.000000;2.971463
2364.000000;3.123998
2363.000000;3.415718
2362.000000;3.172194
2361.000000;2.943178
2360.000000;2.916467
2359.000000;3.030740
2358.000000;3.132222
2357.000000;3.081823
2356.000000;3.060803
2355.000000;3.085670
2354.000000;3.042536
2353.000000;3.186862
2352.000000;3.418452
2351.000000;3.246665
2350.000000;3.316763
2349.000000;3.122223
2348.000000;3.059774
2347.000000;3.176222
2346.000000;3.177871
2345.000000;3.097692
2344.000000;3.096425
2343.000000;3.090209
2342.000000;2.964800
2341.000000;2.962700
2340.000000;3.176123
2339.000000;3.103387
2338.000000;3.140431
2337.000000;3.585157
2336.000000;3.968786
2335.000000;3.647574
2334.000000;3.531437
2333.000000;3.094119
2332.000000;3.062756
2331.000000;3.220321
2330.000000;3.185168
2329.000000;3.024104
2328.000000;3.109268
2327.000000;3.073399
2326.000000;2.988468
2325.000000;3.150463
2324.000000;3.447125
2323.000000;3.421453
2322.000000;3.918265
2321.000000;3.525666
2320.000000;3.760125
2319.000000;3.712901
2318.000000;3.284209
2317.000000;3.004570
2316.000000;3.032198
2315.000000;3.289654
2314.000000;3.347783
2313.000000;3.276978
2312.000000;3.415996
2311.000000;3.700981
2310.000000;3.547051
2309.000000;3.179572
2308.000000;3.442378
2307.000000;3.927253
2306.000000;3.374548
2305.000000;3.395104
2304.000000;3.253783
2303.000000;3.250951
2302.000000;3.459776
2301.000000;3.623382
2300.000000;3.926893
2299.000000;3.833143
2298.000000;3.519433
2297.000000;3.474673
2296.000000;3.504122
2295.000000;3.503483
2294.000000;3.632077
2293.000000;3.564052
2292.000000;3.524882
2291.000000;3.371804
2290.000000;3.204073
2289.000000;3.065434
2288.000000;3.056968
2287.000000;3.229890
2286.000000;3.836318
2285.000000;3.440954
2284.000000;3.384937
2283.000000;3.488545
2282.000000;3.363547
2281.000000;3.291300
2280.000000;3.511822
2279.000000;4.251775
2278.000000;3.947590
2277.000000;3.562309
2276.000000;3.624969
2275.000000;3.346013
2274.000000;3.428272
2273.000000;3.667887
2272.000000;3.636132
2271.000000;3.790699
2270.000000;3.713236
2269.000000;3.718151
2268.000000;3.650409
2267.000000;3.433574
2266.000000;3.749579
2265.000000;3.685687
2264.000000;3.515855
2263.000000;3.615002
2262.000000;3.841902
2261.000000;3.597934
2260.000000;3.411636
2259.000000;3.290201
2258.000000;3.348433
2257.000000;3.434727
2256.000000;3.633906
2255.000000;3.562129
2254.000000;3.506558
2253.000000;3.500401
2252.000000;3.425851
2251.000000;3.426730
2250.000000;3.386772
2249.000000;3.644258
2248.000000;4.062359
2247.000000;4.028045
2246.000000;3.511883
2245.000000;3.202409
2244.000000;3.357891
2243.000000;3.983639
2242.000000;4.592910
2241.000000;4.029818
2240.000000;3.735730
2239.000000;3.358443
2238.000000;3.342447
2237.000000;3.594170
2236.000000;3.668662
2235.000000;3.560559
2234.000000;4.046468
2233.000000;3.817794
2232.000000;3.639840
2231.000000;3.645740
2230.000000;4.043591
2229.000000;3.787519
2228.000000;3.819536
2227.000000;3.251899
2226.000000;3.183041
2225.000000;3.306428
2224.000000;3.382370
2223.000000;3.397639
2222.000000;3.558844
2221.000000;3.628711
2220.000000;3.615144
2219.000000;3.482485
2218.000000;3.471193
2217.000000;3.533541
2216.000000;3.567152
2215.000000;3.752907
2214.000000;3.561310
2213.000000;3.316541
2212.000000;3.502726
2211.000000;4.117825
2210.000000;4.045024
2209.000000;3.995797
2208.000000;3.832086
2207.000000;3.846102
2206.000000;3.352215
2205.000000;3.118148
2204.000000;3.176573
2203.000000;3.315044
2202.000000;3.308509
2201.000000;3.396414
2200.000000;3.779281
2199.000000;3.985831
2198.000000;3.533677
2197.000000;3.489885
2196.000000;3.503330
2195.000000;3.441326
2194.000000;3.558624
2193.000000;3.671210
2192.000000;3.767598
2191.000000;3.760537
2190.000000;3.334516
2189.000000;3.158113
2188.000000;3.221329
2187.000000;3.215975
2186.000000;3.461709
2185.000000;3.606441
2184.000000;3.262264
2183.000000;3.241362
2182.000000;3.312929
2181.000000;3.293689
2180.000000;3.356885
2179.000000;3.322825
2178.000000;3.271198
2177.000000;3.243296
2176.000000;3.195321
2175.000000;3.282956
2174.000000;3.707360
2173.000000;3.501434
2172.000000;3.494477
2171.000000;3.658802
2170.000000;3.776497
2169.000000;3.879158
2168.000000;3.732651
2167.000000;3.480324
2166.000000;3.419990
2165.000000;3.453609
2164.000000;3.540008
2163.000000;3.504829
2162.000000;3.505678
2161.000000;3.806783
2160.000000;3.506036
2159.000000;3.253126
2158.000000;3.347954
2157.000000;3.696890
2156.000000;3.768025
2155.000000;3.564472
2154.000000;3.615859
2153.000000;3.745266
2152.000000;3.970935
2151.000000;3.533929
2150.000000;3.835269
2149.000000;3.616800
2148.000000;3.392059
2147.000000;3.479106
2146.000000;3.421299
2145.000000;3.329136
2144.000000;3.451256
2143.000000;3.442624
2142.000000;3.215195
2141.000000;3.080504
2140.000000;3.175011
2139.000000;3.384770
2138.000000;3.648662
2137.000000;3.826929
2136.000000;3.438624
2135.000000;3.323165
2134.000000;3.512160
2133.000000;3.865358
2132.000000;3.476605
2131.000000;3.182425
2130.000000;3.173313
2129.000000;3.301510
2128.000000;3.317781
2127.000000;3.271533
2126.000000;3.453284
2125.000000;3.854823
2124.000000;4.035449
2123.000000;4.013298
2122.000000;3.806350
2121.000000;3.306665
2120.000000;3.309926
2119.000000;3.370781
2118.000000;3.475701
2117.000000;3.586776
2116.000000;3.475212
2115.000000;3.433599
2114.000000;3.288735
2113.000000;3.314934
2112.000000;3.599419
2111.000000;3.442952
2110.000000;3.396234
2109.000000;3.596364
2108.000000;3.467779
2107.000000;3.500575
2106.000000;3.342203
2105.000000;3.128580
2104.000000;3.306223
2103.000000;3.836191
2102.000000;3.569072
2101.000000;3.735256
2100.000000;4.108200
2099.000000;4.518164
2098.000000;3.656360
2097.000000;3.366050
2096.000000;3.520300
2095.000000;3.989574
2094.000000;4.198789
2093.000000;3.570889
2092.000000;3.410703
2091.000000;3.418490
2090.000000;3.311983
2089.000000;3.347946
2088.000000;3.574821
2087.000000;3.851719
2086.000000;3.781114
2085.000000;3.257947
2084.000000;3.152197
2083.000000;3.230507
2082.000000;3.310361
2081.000000;3.468587
2080.000000;4.087827
2079.000000;4.037703
2078.000000;3.844840
2077.000000;3.432277
2076.000000;3.848029
2075.000000;3.566039
2074.000000;3.343370
2073.000000;3.462556
2072.000000;3.766621
2071.000000;3.580137
2070.000000;3.443792
2069.000000;3.213461
2068.000000;3.186932
2067.000000;3.331192
2066.000000;3.428770
2065.000000;3.412665
2064.000000;3.555771
2063.000000;3.776553
2062.000000;3.602185
2061.000000;3.314237
2060.000000;3.623754
2059.000000;3.671920
2058.000000;3.333754
2057.000000;3.301231
2056.000000;3.352685
2055.000000;3.800305
2054.000000;3.800989
2053.000000;3.458788
2052.000000;3.440758
2051.000000;3.787953
2050.000000;3.522801
2049.000000;3.407952
2048.000000;3.735627
2047.000000;4.018307
2046.000000;3.449225
2045.000000;3.213953
2044.000000;3.278062
2043.000000;3.383614
2042.000000;3.281098
2041.000000;3.270951
2040.000000;3.464715
2039.000000;3.390665
2038.000000;3.580222
2037.000000;3.951931
2036.000000;3.567858
2035.000000;3.559760
2034.000000;3.329783
2033.000000;3.545477
2032.000000;3.699240
2031.000000;3.242281
2030.000000;3.254895
2029.000000;3.493506
2028.000000;3.655966
2027.000000;3.862720
2026.000000;3.895874
2025.000000;3.453840
2024.000000;3.550872
2023.000000;3.560553
2022.000000;3.493150
2021.000000;3.480498
2020.000000;3.392060
2019.000000;3.383810
2018.000000;3.426375
2017.000000;3.425697
2016.000000;3.430879
2015.000000;3.171765
2014.000000;3.169722
2013.000000;3.444917
2012.000000;3.845709
2011.000000;4.271732
2010.000000;3.825800
2009.000000;3.365919
2008.000000;3.288839
2007.000000;3.369977
2006.000000;3.305894
2005.000000;3.175344
2004.000000;3.424337
2003.000000;3.557759
2002.000000;3.622499
2001.000000;3.907819
2000.000000;3.685551
1999.000000;3.551190
1998.000000;3.323883
1997.000000;3.302475
1996.000000;3.589047
1995.000000;3.549174
1994.000000;3.550935
1993.000000;3.316575
1992.000000;3.362812
1991.000000;3.545498
1990.000000;3.544052
1989.000000;3.462697
1988.000000;3.696200
1987.000000;3.488955
1986.000000;3.248169
1985.000000;3.208571
1984.000000;3.252900
1983.000000;3.271615
1982.000000;3.554995
1981.000000;4.111712
1980.000000;3.446903
1979.000000;3.397569
1978.000000;3.256634
1977.000000;3.100572
1976.000000;3.157616
1975.000000;3.496288
1974.000000;3.759345
1973.000000;3.775861
1972.000000;3.548185
1971.000000;3.357729
1970.000000;3.562547
1969.000000;4.147758
1968.000000;3.886472
1967.000000;3.894390
1966.000000;3.627959
1965.000000;3.595978
1964.000000;3.547704
1963.000000;3.258629
1962.000000;3.299321
1961.000000;3.341028
1960.000000;3.492852
1959.000000;4.026706
1958.000000;3.685185
1957.000000;3.502769
1956.000000;3.803657
1955.000000;3.813563
1954.000000;3.531464
1953.000000;3.580035
1952.000000;3.314617
1951.000000;3.113559
1950.000000;3.143823
1949.000000;3.288130
1948.000000;3.290734
1947.000000;3.323063
1946.000000;3.488282
1945.000000;3.238286
1944.000000;3.212995
1943.000000;3.401228
1942.000000;3.938909
1941.000000;3.573080
1940.000000;3.358850
1939.000000;3.536910
1938.000000;3.469713
1937.000000;3.393701
1936.000000;3.645442
1935.000000;3.666418
1934.000000;3.699198
1933.000000;3.727211
1932.000000;4.065639
1931.000000;3.565553
1930.000000;3.501978
1929.000000;3.420812
1928.000000;3.321259
1927.000000;3.188479
1926.000000;3.337143
1925.000000;3.898331
1924.000000;3.922792
1923.000000;3.787427
1922.000000;3.640015
1921.000000;3.408500
1920.000000;3.383968
1919.000000;3.665425
1918.000000;3.649359
1917.000000;3.429316
1916.000000;3.687157
1915.000000;4.095696
1914.000000;3.866570
1913.000000;3.671587
1912.000000;3.418374
1911.000000;3.330247
1910.000000;3.784212
1909.000000;3.435065
1908.000000;3.354459
1907.000000;3.588917
1906.000000;3.857778
1905.000000;3.622843
1904.000000;3.629891
1903.000000;3.572746
1902.000000;3.369990
1901.000000;3.392311
1900.000000;3.555111
1899.000000;3.520692
1898.000000;3.473510
1897.000000;3.671402
1896.000000;3.527468
1895.000000;3.300297
1894.000000;3.280596
1893.000000;3.235828
1892.000000;3.298966
1891.000000;3.493351
1890.000000;4.117957
1889.000000;3.794194
1888.000000;3.730652
1887.000000;3.862591
1886.000000;3.559090
1885.000000;3.654385
1884.000000;3.930654
1883.000000;3.550498
1882.000000;3.491598
1881.000000;3.254461
1880.000000;3.351839
1879.000000;3.690768
1878.000000;3.551851
1877.000000;3.425110
1876.000000;3.281581
1875.000000;3.170280
1874.000000;3.231779
1873.000000;3.319077
1872.000000;3.219598
1871.000000;3.123938
1870.000000;3.334578
1869.000000;3.698000
1868.000000;3.633310
1867.000000;3.810694
1866.000000;3.886815
1865.000000;3.540538
1864.000000;3.534522
1863.000000;3.557794
1862.000000;3.495950
1861.000000;3.491069
1860.000000;3.461312
1859.000000;3.338734
1858.000000;3.492414
1857.000000;3.730753
1856.000000;3.895660
1855.000000;3.659048
1854.000000;3.513510
1853.000000;3.846811
1852.000000;3.576781
1851.000000;3.367762
1850.000000;3.475411
1849.000000;3.237694
1848.000000;3.267030
1847.000000;3.425119
1846.000000;3.336405
1845.000000;3.451703
1844.000000;3.835777
1843.000000;3.868208
1842.000000;3.459672
1841.000000;3.174990
1840.000000;3.208496
1839.000000;3.406111
1838.000000;3.488258
1837.000000;3.351168
1836.000000;3.214186
1835.000000;3.168868
1834.000000;3.171615
1833.000000;3.226152
1832.000000;3.617133
1831.000000;3.954710
1830.000000;3.563138
1829.000000;3.249955
1828.000000;3.284430
1827.000000;3.551804
1826.000000;3.640415
1825.000000;3.488852
1824.000000;3.403333
1823.000000;3.629531
1822.000000;3.563560
1821.000000;3.222689
1820.000000;3.343088
1819.000000;3.504391
1818.000000;3.481233
1817.000000;3.566426
1816.000000;3.555473
1815.000000;3.570018
1814.000000;3.912810
1813.000000;3.635835
1812.000000;3.467279
1811.000000;3.546860
1810.000000;3.616148
1809.000000;3.379461
1808.000000;3.420479
1807.000000;3.720988
1806.000000;4.000720
1805.000000;3.914644
1804.000000;3.811554
1803.000000;4.031384
1802.000000;3.645052
1801.000000;3.596181
1800.000000;3.516693
1799.000000;3.258479
1798.000000;3.227043
1797.000000;3.337162
1796.000000;3.301986
1795.000000;3.315947
1794.000000;3.483819
1793.000000;3.562066
1792.000000;3.549671
1791.000000;3.434445
1790.000000;3.476172
1789.000000;3.434357
1788.000000;3.381481
1787.000000;3.449414
1786.000000;3.239760
1785.000000;3.175152
1784.000000;3.161835
1783.000000;3.119779
1782.000000;3.454289
1781.000000;3.686216
1780.000000;3.503205
1779.000000;3.991388
1778.000000;3.982219
1777.000000;3.853315
1776.000000;3.612216
1775.000000;3.422403
1774.000000;3.463364
1773.000000;3.465288
1772.000000;3.505161
1771.000000;3.809339
1770.000000;3.649232
1769.000000;3.238519
1768.000000;3.301438
1767.000000;3.424814
1766.000000;3.439236
1765.000000;3.880366
1764.000000;4.052752
1763.000000;3.574370
1762.000000;3.890071
1761.000000;3.940723
1760.000000;3.503447
1759.000000;3.283906
1758.000000;3.540937
1757.000000;3.867803
1756.000000;3.710856
1755.000000;3.437799
1754.000000;3.295905
1753.000000;3.241802
1752.000000;3.310349
1751.000000;3.552139
1750.000000;3.808539
1749.000000;3.694290
1748.000000;3.789724
1747.000000;3.810775
1746.000000;3.792243
1745.000000;4.075368
1744.000000;3.958877
1743.000000;3.675849
1742.000000;3.458103
1741.000000;3.306462
1740.000000;3.461616
1739.000000;3.801395
1738.000000;3.262073
1737.000000;3.006977
1736.000000;3.019391
1735.000000;3.224549
1734.000000;3.474906
1733.000000;3.831591
1732.000000;3.881857
1731.000000;3.636264
1730.000000;3.755966
1729.000000;3.900210
1728.000000;3.873844
1727.000000;3.468072
1726.000000;3.197524
1725.000000;3.117606
1724.000000;3.088967
1723.000000;3.078137
1722.000000;3.169373
1721.000000;3.302761
1720.000000;3.405930
1719.000000;3.389927
1718.000000;3.264556
1717.000000;3.313042
1716.000000;3.569120
1715.000000;4.007879
1714.000000;3.863482
1713.000000;3.647151
1712.000000;3.667979
1711.000000;3.874395
1710.000000;3.604294
1709.000000;3.278221
1708.000000;3.282429
1707.000000;3.427552
1706.000000;3.478130
1705.000000;3.390090
1704.000000;3.624133
1703.000000;3.643099
1702.000000;3.595073
1701.000000;3.469101
1700.000000;3.457122
1699.000000;3.524733
1698.000000;3.248466
1697.000000;3.184575
1696.000000;3.308464
1695.000000;3.498890
1694.000000;3.558647
1693.000000;3.663427
1692.000000;3.851306
1691.000000;3.377188
1690.000000;3.563266
1689.000000;4.167654
1688.000000;3.924966
1687.000000;3.784045
1686.000000;3.807373
1685.000000;3.522649
1684.000000;3.511211
1683.000000;3.671341
1682.000000;3.645176
1681.000000;3.375147
1680.000000;3.316779
1679.000000;3.431448
1678.000000;3.326454
1677.000000;3.170640
1676.000000;3.149291
1675.000000;3.063995
1674.000000;2.851484
1673.000000;2.781109
1672.000000;2.940604
1671.000000;3.116593
1670.000000;3.215389
1669.000000;3.490677
1668.000000;3.587021
1667.000000;3.462451
1666.000000;3.204656
1665.000000;3.088993
1664.000000;3.183886
1663.000000;3.194385
1662.000000;3.247356
1661.000000;3.733520
1660.000000;3.709813
1659.000000;3.804450
1658.000000;3.904663
1657.000000;3.392055
1656.000000;3.301412
1655.000000;3.374995
1654.000000;3.420080
1653.000000;3.257841
1652.000000;3.307830
1651.000000;3.366117
1650.000000;3.390734
1649.000000;3.449332
1648.000000;3.236907
1647.000000;3.161713
1646.000000;3.179122
1645.000000;3.214472
1644.000000;3.480350
1643.000000;3.366995
1642.000000;3.328409
1641.000000;3.403062
1640.000000;3.268663
1639.000000;3.135989
1638.000000;3.117158
1637.000000;3.167107
1636.000000;3.166582
1635.000000;3.129346
1634.000000;3.336338
1633.000000;3.683397
1632.000000;3.756532
1631.000000;3.751952
1630.000000;3.705851
1629.000000;3.429138
1628.000000;3.102050
1627.000000;3.129793
1626.000000;3.171129
1625.000000;3.192843
1624.000000;3.535263
1623.000000;3.332878
1622.000000;3.230882
1621.000000;3.155633
1620.000000;3.027225
1619.000000;3.039296
1618.000000;3.094313
1617.000000;3.183381
1616.000000;3.549112
1615.000000;3.730332
1614.000000;3.423862
1613.000000;3.424205
1612.000000;3.441721
1611.000000;3.657517
1610.000000;3.563992
1609.000000;3.169612
1608.000000;3.379799
1607.000000;3.993786
1606.000000;3.707839
1605.000000;3.543040
1604.000000;3.407847
1603.000000;3.495556
1602.000000;3.224946
1601.000000;3.045077
1600.000000;3.075874
1599.000000;3.097734
1598.000000;3.175054
1597.000000;3.206579
1596.000000;3.160749
1595.000000;3.216780
1594.000000;3.387688
1593.000000;3.342961
1592.000000;3.305436
1591.000000;3.251574
1590.000000;3.181261
1589.000000;3.336521
1588.000000;3.426021
1587.000000;3.258133
1586.000000;3.302078
1585.000000;3.288700
1584.000000;3.295823
1583.000000;3.434433
1582.000000;3.314627
1581.000000;3.158473
1580.000000;3.357955
1579.000000;3.610749
1578.000000;3.437506
1577.000000;3.587498
1576.000000;3.700135
1575.000000;3.945252
1574.000000;4.071851
1573.000000;3.748699
1572.000000;3.290977
1571.000000;3.137253
1570.000000;3.160872
1569.000000;3.055575
1568.000000;3.181016
1567.000000;3.714085
1566.000000;3.482665
1565.000000;3.138441
1564.000000;3.074566
1563.000000;3.197171
1562.000000;3.332378
1561.000000;3.401810
1560.000000;3.362889
1559.000000;3.104693
1558.000000;2.979226
1557.000000;2.912470
1556.000000;3.030780
1555.000000;3.287470
1554.000000;3.236913
1553.000000;3.176400
1552.000000;3.425236
1551.000000;3.874557
1550.000000;3.629225
1549.000000;3.436603
1548.000000;3.489272
1547.000000;3.640530
1546.000000;3.792631
1545.000000;3.951428
1544.000000;3.600565
1543.000000;3.453925
1542.000000;3.553096
1541.000000;3.861424
1540.000000;3.855188
1539.000000;3.526724
1538.000000;3.595459
1537.000000;3.584825
1536.000000;3.418259
1535.000000;3.476874
1534.000000;3.717572
1533.000000;4.008712
1532.000000;3.888527
1531.000000;3.588194
1530.000000;3.709672
1529.000000;4.196881
1528.000000;3.979054
1527.000000;3.832920
1526.000000;3.762993
1525.000000;3.488947
1524.000000;3.291263
1523.000000;3.236766
1522.000000;3.489644
1521.000000;3.821309
1520.000000;3.760537
1519.000000;3.545022
1518.000000;3.590282
1517.000000;3.685021
1516.000000;3.510487
1515.000000;3.594982
1514.000000;3.755147
1513.000000;3.666885
1512.000000;3.411828
1511.000000;3.385529
1510.000000;3.625757
1509.000000;3.973767
1508.000000;3.907802
1507.000000;3.856666
1506.000000;3.835382
1505.000000;4.014711
1504.000000;3.873103
1503.000000;3.246076
1502.000000;3.170003
1501.000000;3.314130
1500.000000;3.376626
1499.000000;3.695891
1498.000000;3.969662
1497.000000;3.338763
1496.000000;3.254556
1495.000000;3.273273
1494.000000;3.330245
1493.000000;3.418592
1492.000000;3.549878
1491.000000;3.867759
1490.000000;3.424993
1489.000000;3.231962
1488.000000;3.259832
1487.000000;3.281304
1486.000000;3.329994
1485.000000;3.337474
1484.000000;3.110690
1483.000000;2.954252
1482.000000;2.983622
1481.000000;3.130471
1480.000000;3.181466
1479.000000;3.310671
1478.000000;3.456993
1477.000000;3.140281
1476.000000;3.213963
1475.000000;3.523588
1474.000000;3.720958
1473.000000;4.163604
1472.000000;3.624022
1471.000000;3.316672
1470.000000;3.161131
1469.000000;3.034689
1468.000000;3.031276
1467.000000;3.199155
1466.000000;3.208887
1465.000000;3.088923
1464.000000;3.151568
1463.000000;3.193553
1462.000000;3.034006
1461.000000;3.004843
1460.000000;3.380208
1459.000000;3.770315
1458.000000;3.609826
1457.000000;3.556286
1456.000000;3.484863
1455.000000;3.359772
1454.000000;3.307520
1453.000000;3.364096
1452.000000;3.592924
1451.000000;3.748299
1450.000000;3.344012
1449.000000;3.254395
1448.000000;3.376335
1447.000000;3.436033
1446.000000;3.155413
1445.000000;2.892079
1444.000000;2.824692
1443.000000;2.892754
1442.000000;3.031648
1441.000000;3.262304
1440.000000;3.752295
1439.000000;3.745925
1438.000000;3.574141
1437.000000;3.755445
1436.000000;3.458165
1435.000000;3.340446
1434.000000;3.225333
1433.000000;3.003065
1432.000000;2.930990
1431.000000;3.035605
1430.000000;3.198297
1429.000000;3.060678
1428.000000;2.942177
1427.000000;2.951374
1426.000000;3.035917
1425.000000;3.175245
1424.000000;3.270146
1423.000000;3.260131
1422.000000;3.356922
1421.000000;3.667202
1420.000000;3.567266
1419.000000;3.835726
1418.000000;4.251790
1417.000000;3.530978
1416.000000;3.461248
1415.000000;3.516932
1414.000000;3.476045
1413.000000;3.352320
1412.000000;3.313249
1411.000000;3.149480
1410.000000;2.971370
1409.000000;3.043299
1408.000000;3.133137
1407.000000;3.275525
1406.000000;3.515211
1405.000000;3.203895
1404.000000;3.245811
1403.000000;3.610608
1402.000000;3.513110
1401.000000;3.646498
1400.000000;4.123711
1399.000000;3.678482
1398.000000;3.700196
1397.000000;3.434501
1396.000000;3.297994
1395.000000;3.577947
1394.000000;4.167682
1393.000000;3.468528
1392.000000;3.340357
1391.000000;3.398039
1390.000000;3.268408
1389.000000;3.049311
1388.000000;2.943617
1387.000000;2.948336
1386.000000;2.927684
1385.000000;2.996170
1384.000000;3.272712
1383.000000;3.257027
1382.000000;3.055020
1381.000000;3.100799
1380.000000;3.298601
1379.000000;3.511340
1378.000000;3.511904
1377.000000;3.221047
1376.000000;3.150826
1375.000000;3.209258
1374.000000;3.182299
1373.000000;3.249864
1372.000000;3.370683
1371.000000;3.380114
1370.000000;3.477483
1369.000000;3.352946
1368.000000;3.085089
1367.000000;3.022532
1366.000000;3.133576
1365.000000;3.290575
1364.000000;3.287868
1363.000000;3.482676
1362.000000;3.842390
1361.000000;3.575267
1360.000000;3.557845
1359.000000;3.583660
1358.000000;3.482208
1357.000000;3.194132
1356.000000;3.053951
1355.000000;3.160183
1354.000000;3.223780
1353.000000;3.333696
1352.000000;3.287887
1351.000000;3.088129
1350.000000;3.073267
1349.000000;3.127779
1348.000000;3.241790
1347.000000;3.386105
1346.000000;3.349699
1345.000000;3.426686
1344.000000;3.425784
1343.000000;3.146950
1342.000000;3.061043
1341.000000;3.140984
1340.000000;3.268292
1339.000000;3.300294
1338.000000;3.329614
1337.000000;3.298666
1336.000000;3.092942
1335.000000;2.898134
1334.000000;2.867241
1333.000000;2.984295
1332.000000;3.117516
1331.000000;3.182585
1330.000000;3.128820
1329.000000;3.114837
1328.000000;3.360451
1327.000000;4.026920
1326.000000;3.683033
1325.000000;3.207326
1324.000000;3.160663
1323.000000;3.392865
1322.000000;3.654969
1321.000000;3.526900
1320.000000;3.162108
1319.000000;2.976865
1318.000000;2.927497
1317.000000;2.904624
1316.000000;2.864582
1315.000000;2.855307
1314.000000;2.982150
1313.000000;3.186524
1312.000000;3.147843
1311.000000;2.964625
1310.000000;2.843169
1309.000000;2.738494
1308.000000;2.637222
1307.000000;2.633197
1306.000000;2.824163
1305.000000;3.277033
1304.000000;3.513343
1303.000000;3.264971
1302.000000;3.175432
1301.000000;3.168592
1300.000000;3.073925
1299.000000;2.939809
1298.000000;2.873077
1297.000000;2.927233
1296.000000;2.998864
1295.000000;3.023191
1294.000000;3.177543
1293.000000;3.184159
1292.000000;3.147261
1291.000000;3.257784
1290.000000;3.222986
1289.000000;3.102777
1288.000000;3.125377
1287.000000;3.287675
1286.000000;3.155284
1285.000000;3.297478
1284.000000;3.643402
1283.000000;3.229235
1282.000000;3.208268
1281.000000;3.122103
1280.000000;3.039188
1279.000000;3.045432
1278.000000;3.076964
1277.000000;3.122424
1276.000000;3.190485
1275.000000;3.368668
1274.000000;3.078945
1273.000000;2.861984
1272.000000;2.834349
1271.000000;2.852323
1270.000000;3.060985
1269.000000;3.539372
1268.000000;3.577490
1267.000000;3.499007
1266.000000;3.438651
1265.000000;3.264954
1264.000000;3.026173
1263.000000;2.912629
1262.000000;3.012463
1261.000000;3.176835
1260.000000;3.091683
1259.000000;2.967106
1258.000000;3.052638
1257.000000;3.526879
1256.000000;3.416600
1255.000000;2.979253
1254.000000;2.834508
1253.000000;2.876049
1252.000000;3.300723
1251.000000;3.505789
1250.000000;3.200910
1249.000000;3.182742
1248.000000;3.209006
1247.000000;3.265230
1246.000000;3.045257
1245.000000;2.909500
1244.000000;2.938438
1243.000000;2.913634
1242.000000;2.842471
1241.000000;2.822032
1240.000000;2.806445
1239.000000;2.812802
1238.000000;2.922280
1237.000000;3.169341
1236.000000;3.351335
1235.000000;3.278559
1234.000000;3.315497
1233.000000;3.256864
1232.000000;3.459207
1231.000000;4.158780
1230.000000;3.629731
1229.000000;3.428501
1228.000000;3.035198
1227.000000;2.790614
1226.000000;2.807357
1225.000000;2.931779
1224.000000;3.040221
1223.000000;3.200374
1222.000000;3.323442
1221.000000;3.340343
1220.000000;3.379032
1219.000000;3.469911
1218.000000;3.159009
1217.000000;2.874086
1216.000000;2.877949
1215.000000;2.950412
1214.000000;2.907621
1213.000000;2.957332
1212.000000;3.160484
1211.000000;3.345568
1210.000000;3.103041
1209.000000;3.038297
1208.000000;3.476361
1207.000000;3.283111
1206.000000;3.301177
1205.000000;3.844401
1204.000000;3.121305
1203.000000;2.910444
1202.000000;2.775374
1201.000000;2.723283
1200.000000;2.779502
