Criado como novo conjunto de dados;"e2410_daniel_v2.spp","94146.6 Secs"
cm-1;Abs
10000.000000;0.120149
9999.000000;0.120972
9998.000000;0.121673
9997.000000;0.122164
9996.000000;0.122401
9995.000000;0.122472
9994.000000;0.122595
9993.000000;0.123008
9992.000000;0.123816
9991.000000;0.124901
9990.000000;0.125979
9989.000000;0.126836
9988.000000;0.127524
9987.000000;0.128278
9986.000000;0.129206
9985.000000;0.130109
9984.000000;0.130693
9983.000000;0.130925
9982.000000;0.131097
9981.000000;0.131536
9980.000000;0.132308
9979.000000;0.133227
9978.000000;0.134094
9977.000000;0.134853
9976.000000;0.135561
9975.000000;0.136264
9974.000000;0.136947
9973.000000;0.137564
9972.000000;0.138090
9971.000000;0.138562
9970.000000;0.139078
9969.000000;0.139740
9968.000000;0.140558
9967.000000;0.141425
9966.000000;0.142203
9965.000000;0.142830
9964.000000;0.143325
9963.000000;0.143703
9962.000000;0.143963
9961.000000;0.144172
9960.000000;0.144488
9959.000000;0.145027
9958.000000;0.145748
9957.000000;0.146518
9956.000000;0.147254
9955.000000;0.147959
9954.000000;0.148628
9953.000000;0.149212
9952.000000;0.149687
9951.000000;0.150090
9950.000000;0.150479
9949.000000;0.150924
9948.000000;0.151529
9947.000000;0.152388
9946.000000;0.153432
9945.000000;0.154393
9944.000000;0.155012
9943.000000;0.155278
9942.000000;0.155435
9941.000000;0.155757
9940.000000;0.156385
9939.000000;0.157324
9938.000000;0.158488
9937.000000;0.159703
9936.000000;0.160733
9935.000000;0.161419
9934.000000;0.161827
9933.000000;0.162235
9932.000000;0.162916
9931.000000;0.163914
9930.000000;0.165016
9929.000000;0.165949
9928.000000;0.166600
9927.000000;0.167071
9926.000000;0.167548
9925.000000;0.168172
9924.000000;0.168985
9923.000000;0.169928
9922.000000;0.170847
9921.000000;0.171551
9920.000000;0.171955
9919.000000;0.172160
9918.000000;0.172359
9917.000000;0.172669
9916.000000;0.173082
9915.000000;0.173592
9914.000000;0.174287
9913.000000;0.175268
9912.000000;0.176479
9911.000000;0.177692
9910.000000;0.178693
9909.000000;0.179474
9908.000000;0.180178
9907.000000;0.180886
9906.000000;0.181507
9905.000000;0.181938
9904.000000;0.182262
9903.000000;0.182701
9902.000000;0.183376
9901.000000;0.184204
9900.000000;0.185045
9899.000000;0.185887
9898.000000;0.186803
9897.000000;0.187788
9896.000000;0.188729
9895.000000;0.189529
9894.000000;0.190195
9893.000000;0.190770
9892.000000;0.191259
9891.000000;0.191690
9890.000000;0.192167
9889.000000;0.192816
9888.000000;0.193659
9887.000000;0.194623
9886.000000;0.195647
9885.000000;0.196715
9884.000000;0.197744
9883.000000;0.198553
9882.000000;0.199025
9881.000000;0.199285
9880.000000;0.199614
9879.000000;0.200176
9878.000000;0.200915
9877.000000;0.201732
9876.000000;0.202662
9875.000000;0.203779
9874.000000;0.204975
9873.000000;0.205973
9872.000000;0.206602
9871.000000;0.207003
9870.000000;0.207487
9869.000000;0.208210
9868.000000;0.209055
9867.000000;0.209823
9866.000000;0.210444
9865.000000;0.210956
9864.000000;0.211371
9863.000000;0.211713
9862.000000;0.212198
9861.000000;0.213171
9860.000000;0.214718
9859.000000;0.216419
9858.000000;0.217671
9857.000000;0.218292
9856.000000;0.218670
9855.000000;0.219278
9854.000000;0.220205
9853.000000;0.221202
9852.000000;0.222053
9851.000000;0.222727
9850.000000;0.223273
9849.000000;0.223721
9848.000000;0.224118
9847.000000;0.224544
9846.000000;0.225068
9845.000000;0.225743
9844.000000;0.226620
9843.000000;0.227716
9842.000000;0.228974
9841.000000;0.230286
9840.000000;0.231539
9839.000000;0.232587
9838.000000;0.233269
9837.000000;0.233579
9836.000000;0.233780
9835.000000;0.234208
9834.000000;0.234953
9833.000000;0.235830
9832.000000;0.236676
9831.000000;0.237530
9830.000000;0.238487
9829.000000;0.239504
9828.000000;0.240423
9827.000000;0.241140
9826.000000;0.241665
9825.000000;0.242089
9824.000000;0.242542
9823.000000;0.243148
9822.000000;0.243960
9821.000000;0.244933
9820.000000;0.245945
9819.000000;0.246824
9818.000000;0.247404
9817.000000;0.247683
9816.000000;0.247923
9815.000000;0.248479
9814.000000;0.249474
9813.000000;0.250697
9812.000000;0.251841
9811.000000;0.252773
9810.000000;0.253533
9809.000000;0.254242
9808.000000;0.255075
9807.000000;0.256193
9806.000000;0.257541
9805.000000;0.258763
9804.000000;0.259486
9803.000000;0.259717
9802.000000;0.259868
9801.000000;0.260380
9800.000000;0.261385
9799.000000;0.262689
9798.000000;0.263999
9797.000000;0.265122
9796.000000;0.266029
9795.000000;0.266791
9794.000000;0.267473
9793.000000;0.268084
9792.000000;0.268644
9791.000000;0.269240
9790.000000;0.269981
9789.000000;0.270891
9788.000000;0.271889
9787.000000;0.272844
9786.000000;0.273665
9785.000000;0.274366
9784.000000;0.275080
9783.000000;0.275950
9782.000000;0.276964
9781.000000;0.277944
9780.000000;0.278755
9779.000000;0.279472
9778.000000;0.280255
9777.000000;0.281097
9776.000000;0.281816
9775.000000;0.282313
9774.000000;0.282737
9773.000000;0.283375
9772.000000;0.284405
9771.000000;0.285800
9770.000000;0.287373
9769.000000;0.288853
9768.000000;0.289957
9767.000000;0.290523
9766.000000;0.290644
9765.000000;0.290668
9764.000000;0.290987
9763.000000;0.291752
9762.000000;0.292776
9761.000000;0.293751
9760.000000;0.294562
9759.000000;0.295371
9758.000000;0.296371
9757.000000;0.297530
9756.000000;0.298613
9755.000000;0.299421
9754.000000;0.299956
9753.000000;0.300382
9752.000000;0.300881
9751.000000;0.301577
9750.000000;0.302497
9749.000000;0.303566
9748.000000;0.304645
9747.000000;0.305623
9746.000000;0.306516
9745.000000;0.307463
9744.000000;0.308592
9743.000000;0.309862
9742.000000;0.311065
9741.000000;0.312030
9740.000000;0.312796
9739.000000;0.313530
9738.000000;0.314285
9737.000000;0.314957
9736.000000;0.315490
9735.000000;0.316022
9734.000000;0.316745
9733.000000;0.317704
9732.000000;0.318801
9731.000000;0.319925
9730.000000;0.320968
9729.000000;0.321790
9728.000000;0.322317
9727.000000;0.322681
9726.000000;0.323138
9725.000000;0.323830
9724.000000;0.324727
9723.000000;0.325792
9722.000000;0.327030
9721.000000;0.328327
9720.000000;0.329410
9719.000000;0.330125
9718.000000;0.330674
9717.000000;0.331395
9716.000000;0.332325
9715.000000;0.333118
9714.000000;0.333466
9713.000000;0.333492
9712.000000;0.333694
9711.000000;0.334533
9710.000000;0.336117
9709.000000;0.338147
9708.000000;0.340101
9707.000000;0.341497
9706.000000;0.342158
9705.000000;0.342301
9704.000000;0.342359
9703.000000;0.342694
9702.000000;0.343406
9701.000000;0.344380
9700.000000;0.345413
9699.000000;0.346335
9698.000000;0.347079
9697.000000;0.347710
9696.000000;0.348369
9695.000000;0.349129
9694.000000;0.349902
9693.000000;0.350529
9692.000000;0.350962
9691.000000;0.351333
9690.000000;0.351839
9689.000000;0.352590
9688.000000;0.353577
9687.000000;0.354761
9686.000000;0.356114
9685.000000;0.357540
9684.000000;0.358799
9683.000000;0.359606
9682.000000;0.359907
9681.000000;0.360041
9680.000000;0.360507
9679.000000;0.361496
9678.000000;0.362701
9677.000000;0.363634
9676.000000;0.364133
9675.000000;0.364479
9674.000000;0.365031
9673.000000;0.365838
9672.000000;0.366653
9671.000000;0.367278
9670.000000;0.367807
9669.000000;0.368527
9668.000000;0.369581
9667.000000;0.370743
9666.000000;0.371605
9665.000000;0.372048
9664.000000;0.372481
9663.000000;0.373477
9662.000000;0.375139
9661.000000;0.376911
9660.000000;0.378123
9659.000000;0.378643
9658.000000;0.378896
9657.000000;0.379296
9656.000000;0.379852
9655.000000;0.380328
9654.000000;0.380643
9653.000000;0.380957
9652.000000;0.381464
9651.000000;0.382222
9650.000000;0.383192
9649.000000;0.384285
9648.000000;0.385337
9647.000000;0.386185
9646.000000;0.386892
9645.000000;0.387813
9644.000000;0.389264
9643.000000;0.391075
9642.000000;0.392608
9641.000000;0.393327
9640.000000;0.393319
9639.000000;0.393206
9638.000000;0.393578
9637.000000;0.394549
9636.000000;0.395771
9635.000000;0.396786
9634.000000;0.397405
9633.000000;0.397834
9632.000000;0.398458
9631.000000;0.399518
9630.000000;0.400969
9629.000000;0.402597
9628.000000;0.404164
9627.000000;0.405398
9626.000000;0.406022
9625.000000;0.405968
9624.000000;0.405539
9623.000000;0.405216
9622.000000;0.405292
9621.000000;0.405756
9620.000000;0.406474
9619.000000;0.407342
9618.000000;0.408262
9617.000000;0.409129
9616.000000;0.409906
9615.000000;0.410645
9614.000000;0.411370
9613.000000;0.412045
9612.000000;0.412674
9611.000000;0.413323
9610.000000;0.413988
9609.000000;0.414565
9608.000000;0.415045
9607.000000;0.415622
9606.000000;0.416456
9605.000000;0.417409
9604.000000;0.418181
9603.000000;0.418695
9602.000000;0.419219
9601.000000;0.420040
9600.000000;0.421131
9599.000000;0.422162
9598.000000;0.422820
9597.000000;0.423072
9596.000000;0.423190
9595.000000;0.423502
9594.000000;0.424129
9593.000000;0.424918
9592.000000;0.425640
9591.000000;0.426205
9590.000000;0.426680
9589.000000;0.427154
9588.000000;0.427668
9587.000000;0.428279
9586.000000;0.429083
9585.000000;0.430100
9584.000000;0.431185
9583.000000;0.432097
9582.000000;0.432680
9581.000000;0.432957
9580.000000;0.433093
9579.000000;0.433320
9578.000000;0.433843
9577.000000;0.434721
9576.000000;0.435746
9575.000000;0.436522
9574.000000;0.436788
9573.000000;0.436724
9572.000000;0.436819
9571.000000;0.437378
9570.000000;0.438227
9569.000000;0.438988
9568.000000;0.439567
9567.000000;0.440216
9566.000000;0.441105
9565.000000;0.442014
9564.000000;0.442550
9563.000000;0.442581
9562.000000;0.442369
9561.000000;0.442342
9560.000000;0.442788
9559.000000;0.443690
9558.000000;0.444731
9557.000000;0.445484
9556.000000;0.445714
9555.000000;0.445576
9554.000000;0.445500
9553.000000;0.445852
9552.000000;0.446676
9551.000000;0.447717
9550.000000;0.448645
9549.000000;0.449253
9548.000000;0.449517
9547.000000;0.449546
9546.000000;0.449502
9545.000000;0.449557
9544.000000;0.449852
9543.000000;0.450354
9542.000000;0.450758
9541.000000;0.450670
9540.000000;0.450046
9539.000000;0.449401
9538.000000;0.449421
9537.000000;0.450323
9536.000000;0.451694
9535.000000;0.452981
9534.000000;0.453989
9533.000000;0.454802
9532.000000;0.455412
9531.000000;0.455699
9530.000000;0.455773
9529.000000;0.456014
9528.000000;0.456582
9527.000000;0.457081
9526.000000;0.456994
9525.000000;0.456420
9524.000000;0.456136
9523.000000;0.456811
9522.000000;0.458320
9521.000000;0.459882
9520.000000;0.460770
9519.000000;0.460787
9518.000000;0.460206
9517.000000;0.459475
9516.000000;0.458962
9515.000000;0.458784
9514.000000;0.458792
9513.000000;0.458780
9512.000000;0.458768
9511.000000;0.458979
9510.000000;0.459540
9509.000000;0.460322
9508.000000;0.461125
9507.000000;0.461936
9506.000000;0.462850
9505.000000;0.463765
9504.000000;0.464312
9503.000000;0.464190
9502.000000;0.463518
9501.000000;0.462780
9500.000000;0.462413
9499.000000;0.462522
9498.000000;0.462946
9497.000000;0.463470
9496.000000;0.463921
9495.000000;0.464178
9494.000000;0.464211
9493.000000;0.464077
9492.000000;0.463804
9491.000000;0.463342
9490.000000;0.462719
9489.000000;0.462172
9488.000000;0.461953
9487.000000;0.462024
9486.000000;0.462133
9485.000000;0.462203
9484.000000;0.462415
9483.000000;0.462872
9482.000000;0.463380
9481.000000;0.463713
9480.000000;0.463895
9479.000000;0.464086
9478.000000;0.464362
9477.000000;0.464780
9476.000000;0.465446
9475.000000;0.466273
9474.000000;0.466832
9473.000000;0.466759
9472.000000;0.466244
9471.000000;0.465815
9470.000000;0.465672
9469.000000;0.465547
9468.000000;0.465238
9467.000000;0.464923
9466.000000;0.464835
9465.000000;0.464897
9464.000000;0.464888
9463.000000;0.464744
9462.000000;0.464531
9461.000000;0.464264
9460.000000;0.463934
9459.000000;0.463605
9458.000000;0.463327
9457.000000;0.463061
9456.000000;0.462817
9455.000000;0.462772
9454.000000;0.463049
9453.000000;0.463460
9452.000000;0.463654
9451.000000;0.463514
9450.000000;0.463259
9449.000000;0.463147
9448.000000;0.463230
9447.000000;0.463414
9446.000000;0.463636
9445.000000;0.463898
9444.000000;0.464190
9443.000000;0.464440
9442.000000;0.464531
9441.000000;0.464347
9440.000000;0.463835
9439.000000;0.463080
9438.000000;0.462338
9437.000000;0.461939
9436.000000;0.462030
9435.000000;0.462344
9434.000000;0.462327
9433.000000;0.461628
9432.000000;0.460473
9431.000000;0.459446
9430.000000;0.458952
9429.000000;0.458993
9428.000000;0.459403
9427.000000;0.460039
9426.000000;0.460696
9425.000000;0.461037
9424.000000;0.460809
9423.000000;0.460113
9422.000000;0.459348
9421.000000;0.458882
9420.000000;0.458787
9419.000000;0.458797
9418.000000;0.458516
9417.000000;0.457783
9416.000000;0.456886
9415.000000;0.456316
9414.000000;0.456268
9413.000000;0.456495
9412.000000;0.456682
9411.000000;0.456736
9410.000000;0.456618
9409.000000;0.456113
9408.000000;0.455058
9407.000000;0.453709
9406.000000;0.452599
9405.000000;0.452048
9404.000000;0.451942
9403.000000;0.451967
9402.000000;0.451885
9401.000000;0.451561
9400.000000;0.450955
9399.000000;0.450198
9398.000000;0.449579
9397.000000;0.449344
9396.000000;0.449503
9395.000000;0.449841
9394.000000;0.450091
9393.000000;0.450144
9392.000000;0.450100
9391.000000;0.450071
9390.000000;0.449938
9389.000000;0.449422
9388.000000;0.448470
9387.000000;0.447433
9386.000000;0.446704
9385.000000;0.446290
9384.000000;0.445925
9383.000000;0.445517
9382.000000;0.445236
9381.000000;0.445149
9380.000000;0.445029
9379.000000;0.444629
9378.000000;0.443981
9377.000000;0.443296
9376.000000;0.442682
9375.000000;0.442068
9374.000000;0.441345
9373.000000;0.440510
9372.000000;0.439665
9371.000000;0.438921
9370.000000;0.438264
9369.000000;0.437578
9368.000000;0.436896
9367.000000;0.436542
9366.000000;0.436841
9365.000000;0.437651
9364.000000;0.438374
9363.000000;0.438521
9362.000000;0.438150
9361.000000;0.437625
9360.000000;0.437121
9359.000000;0.436523
9358.000000;0.435699
9357.000000;0.434677
9356.000000;0.433537
9355.000000;0.432296
9354.000000;0.430952
9353.000000;0.429634
9352.000000;0.428653
9351.000000;0.428353
9350.000000;0.428782
9349.000000;0.429481
9348.000000;0.429745
9347.000000;0.429234
9346.000000;0.428286
9345.000000;0.427540
9344.000000;0.427287
9343.000000;0.427275
9342.000000;0.427055
9341.000000;0.426406
9340.000000;0.425466
9339.000000;0.424593
9338.000000;0.424120
9337.000000;0.424116
9336.000000;0.424316
9335.000000;0.424333
9334.000000;0.423934
9333.000000;0.423103
9332.000000;0.421942
9331.000000;0.420647
9330.000000;0.419499
9329.000000;0.418699
9328.000000;0.418172
9327.000000;0.417651
9326.000000;0.417016
9325.000000;0.416420
9324.000000;0.416037
9323.000000;0.415832
9322.000000;0.415642
9321.000000;0.415379
9320.000000;0.415038
9319.000000;0.414618
9318.000000;0.414151
9317.000000;0.413774
9316.000000;0.413580
9315.000000;0.413441
9314.000000;0.413111
9313.000000;0.412486
9312.000000;0.411649
9311.000000;0.410662
9310.000000;0.409507
9309.000000;0.408287
9308.000000;0.407324
9307.000000;0.406878
9306.000000;0.406822
9305.000000;0.406750
9304.000000;0.406385
9303.000000;0.405775
9302.000000;0.405104
9301.000000;0.404476
9300.000000;0.403940
9299.000000;0.403571
9298.000000;0.403383
9297.000000;0.403217
9296.000000;0.402838
9295.000000;0.402176
9294.000000;0.401410
9293.000000;0.400819
9292.000000;0.400554
9291.000000;0.400501
9290.000000;0.400311
9289.000000;0.399633
9288.000000;0.398449
9287.000000;0.397144
9286.000000;0.396184
9285.000000;0.395708
9284.000000;0.395488
9283.000000;0.395211
9282.000000;0.394698
9281.000000;0.393916
9280.000000;0.393001
9279.000000;0.392278
9278.000000;0.392041
9277.000000;0.392187
9276.000000;0.392243
9275.000000;0.391868
9274.000000;0.391176
9273.000000;0.390401
9272.000000;0.389478
9271.000000;0.388227
9270.000000;0.386857
9269.000000;0.385908
9268.000000;0.385622
9267.000000;0.385627
9266.000000;0.385382
9265.000000;0.384774
9264.000000;0.384114
9263.000000;0.383681
9262.000000;0.383423
9261.000000;0.383058
9260.000000;0.382353
9259.000000;0.381353
9258.000000;0.380404
9257.000000;0.379877
9256.000000;0.379782
9255.000000;0.379708
9254.000000;0.379229
9253.000000;0.378308
9252.000000;0.377216
9251.000000;0.376173
9250.000000;0.375218
9249.000000;0.374406
9248.000000;0.373898
9247.000000;0.373780
9246.000000;0.373876
9245.000000;0.373843
9244.000000;0.373430
9243.000000;0.372616
9242.000000;0.371551
9241.000000;0.370424
9240.000000;0.369376
9239.000000;0.368489
9238.000000;0.367782
9237.000000;0.367185
9236.000000;0.366552
9235.000000;0.365782
9234.000000;0.364984
9233.000000;0.364437
9232.000000;0.364319
9231.000000;0.364515
9230.000000;0.364738
9229.000000;0.364772
9228.000000;0.364539
9227.000000;0.364008
9226.000000;0.363204
9225.000000;0.362279
9224.000000;0.361413
9223.000000;0.360607
9222.000000;0.359699
9221.000000;0.358647
9220.000000;0.357666
9219.000000;0.357019
9218.000000;0.356742
9217.000000;0.356641
9216.000000;0.356478
9215.000000;0.356094
9214.000000;0.355444
9213.000000;0.354625
9212.000000;0.353826
9211.000000;0.353169
9210.000000;0.352600
9209.000000;0.352009
9208.000000;0.351419
9207.000000;0.350963
9206.000000;0.350694
9205.000000;0.350502
9204.000000;0.350250
9203.000000;0.349888
9202.000000;0.349422
9201.000000;0.348856
9200.000000;0.348202
9199.000000;0.347499
9198.000000;0.346774
9197.000000;0.346023
9196.000000;0.345269
9195.000000;0.344588
9194.000000;0.344035
9193.000000;0.343590
9192.000000;0.343210
9191.000000;0.342890
9190.000000;0.342619
9189.000000;0.342306
9188.000000;0.341850
9187.000000;0.341274
9186.000000;0.340719
9185.000000;0.340266
9184.000000;0.339823
9183.000000;0.339210
9182.000000;0.338353
9181.000000;0.337348
9180.000000;0.336401
9179.000000;0.335695
9178.000000;0.335286
9177.000000;0.335047
9176.000000;0.334769
9175.000000;0.334354
9174.000000;0.333904
9173.000000;0.333531
9172.000000;0.333129
9171.000000;0.332456
9170.000000;0.331482
9169.000000;0.330528
9168.000000;0.329940
9167.000000;0.329715
9166.000000;0.329552
9165.000000;0.329209
9164.000000;0.328660
9163.000000;0.327947
9162.000000;0.327071
9161.000000;0.326110
9160.000000;0.325284
9159.000000;0.324744
9158.000000;0.324386
9157.000000;0.323965
9156.000000;0.323373
9155.000000;0.322682
9154.000000;0.321969
9153.000000;0.321252
9152.000000;0.320616
9151.000000;0.320238
9150.000000;0.320187
9149.000000;0.320278
9148.000000;0.320239
9147.000000;0.319961
9146.000000;0.319516
9145.000000;0.318982
9144.000000;0.318382
9143.000000;0.317799
9142.000000;0.317401
9141.000000;0.317266
9140.000000;0.317207
9139.000000;0.316890
9138.000000;0.316117
9137.000000;0.314993
9136.000000;0.313835
9135.000000;0.312959
9134.000000;0.312492
9133.000000;0.312315
9132.000000;0.312178
9131.000000;0.311933
9130.000000;0.311658
9129.000000;0.311472
9128.000000;0.311271
9127.000000;0.310767
9126.000000;0.309840
9125.000000;0.308735
9124.000000;0.307815
9123.000000;0.307234
9122.000000;0.306921
9121.000000;0.306779
9120.000000;0.306728
9119.000000;0.306621
9118.000000;0.306315
9117.000000;0.305847
9116.000000;0.305389
9115.000000;0.304968
9114.000000;0.304403
9113.000000;0.303596
9112.000000;0.302730
9111.000000;0.302049
9110.000000;0.301555
9109.000000;0.301078
9108.000000;0.300578
9107.000000;0.300214
9106.000000;0.300093
9105.000000;0.300102
9104.000000;0.300012
9103.000000;0.299663
9102.000000;0.299001
9101.000000;0.298058
9100.000000;0.296965
9099.000000;0.295940
9098.000000;0.295185
9097.000000;0.294735
9096.000000;0.294457
9095.000000;0.294186
9094.000000;0.293863
9093.000000;0.293534
9092.000000;0.293232
9091.000000;0.292925
9090.000000;0.292567
9089.000000;0.292158
9088.000000;0.291690
9087.000000;0.291116
9086.000000;0.290446
9085.000000;0.289836
9084.000000;0.289433
9083.000000;0.289149
9082.000000;0.288729
9081.000000;0.288118
9080.000000;0.287581
9079.000000;0.287359
9078.000000;0.287339
9077.000000;0.287221
9076.000000;0.286924
9075.000000;0.286613
9074.000000;0.286372
9073.000000;0.286070
9072.000000;0.285574
9071.000000;0.284915
9070.000000;0.284185
9069.000000;0.283384
9068.000000;0.282498
9067.000000;0.281616
9066.000000;0.280881
9065.000000;0.280379
9064.000000;0.280133
9063.000000;0.280133
9062.000000;0.280290
9061.000000;0.280400
9060.000000;0.280250
9059.000000;0.279763
9058.000000;0.279012
9057.000000;0.278137
9056.000000;0.277277
9055.000000;0.276551
9054.000000;0.275987
9053.000000;0.275480
9052.000000;0.274885
9051.000000;0.274204
9050.000000;0.273651
9049.000000;0.273464
9048.000000;0.273649
9047.000000;0.273925
9046.000000;0.273956
9045.000000;0.273646
9044.000000;0.273186
9043.000000;0.272827
9042.000000;0.272609
9041.000000;0.272340
9040.000000;0.271836
9039.000000;0.271151
9038.000000;0.270568
9037.000000;0.270338
9036.000000;0.270396
9035.000000;0.270379
9034.000000;0.269966
9033.000000;0.269231
9032.000000;0.268572
9031.000000;0.268282
9030.000000;0.268254
9029.000000;0.268131
9028.000000;0.267686
9027.000000;0.266974
9026.000000;0.266205
9025.000000;0.265570
9024.000000;0.265141
9023.000000;0.264834
9022.000000;0.264468
9021.000000;0.263930
9020.000000;0.263286
9019.000000;0.262674
9018.000000;0.262150
9017.000000;0.261722
9016.000000;0.261441
9015.000000;0.261318
9014.000000;0.261191
9013.000000;0.260862
9012.000000;0.260366
9011.000000;0.259948
9010.000000;0.259727
9009.000000;0.259565
9008.000000;0.259317
9007.000000;0.259064
9006.000000;0.258964
9005.000000;0.259004
9004.000000;0.259010
9003.000000;0.258832
9002.000000;0.258438
9001.000000;0.257879
9000.000000;0.257270
8999.000000;0.256732
8998.000000;0.256229
8997.000000;0.255559
8996.000000;0.254613
8995.000000;0.253608
8994.000000;0.252933
8993.000000;0.252739
8992.000000;0.252797
8991.000000;0.252768
8990.000000;0.252546
8989.000000;0.252282
8988.000000;0.252165
8987.000000;0.252218
8986.000000;0.252313
8985.000000;0.252316
8984.000000;0.252167
8983.000000;0.251853
8982.000000;0.251366
8981.000000;0.250744
8980.000000;0.250089
8979.000000;0.249479
8978.000000;0.248872
8977.000000;0.248199
8976.000000;0.247521
8975.000000;0.246994
8974.000000;0.246688
8973.000000;0.246545
8972.000000;0.246518
8971.000000;0.246603
8970.000000;0.246686
8969.000000;0.246534
8968.000000;0.246053
8967.000000;0.245447
8966.000000;0.245011
8965.000000;0.244817
8964.000000;0.244701
8963.000000;0.244476
8962.000000;0.244060
8961.000000;0.243481
8960.000000;0.242864
8959.000000;0.242363
8958.000000;0.242012
8957.000000;0.241690
8956.000000;0.241326
8955.000000;0.241039
8954.000000;0.240965
8953.000000;0.241016
8952.000000;0.240946
8951.000000;0.240617
8950.000000;0.240082
8949.000000;0.239464
8948.000000;0.238884
8947.000000;0.238475
8946.000000;0.238316
8945.000000;0.238330
8944.000000;0.238358
8943.000000;0.238318
8942.000000;0.238205
8941.000000;0.237994
8940.000000;0.237674
8939.000000;0.237350
8938.000000;0.237145
8937.000000;0.236991
8936.000000;0.236681
8935.000000;0.236139
8934.000000;0.235529
8933.000000;0.235052
8932.000000;0.234791
8931.000000;0.234749
8930.000000;0.234889
8929.000000;0.235060
8928.000000;0.235039
8927.000000;0.234771
8926.000000;0.234444
8925.000000;0.234245
8924.000000;0.234097
8923.000000;0.233748
8922.000000;0.233096
8921.000000;0.232342
8920.000000;0.231826
8919.000000;0.231714
8918.000000;0.231842
8917.000000;0.231875
8916.000000;0.231670
8915.000000;0.231441
8914.000000;0.231457
8913.000000;0.231624
8912.000000;0.231544
8911.000000;0.231004
8910.000000;0.230259
8909.000000;0.229727
8908.000000;0.229542
8907.000000;0.229523
8906.000000;0.229459
8905.000000;0.229275
8904.000000;0.228958
8903.000000;0.228509
8902.000000;0.227982
8901.000000;0.227484
8900.000000;0.227090
8899.000000;0.226798
8898.000000;0.226556
8897.000000;0.226306
8896.000000;0.226021
8895.000000;0.225731
8894.000000;0.225497
8893.000000;0.225340
8892.000000;0.225202
8891.000000;0.225015
8890.000000;0.224775
8889.000000;0.224532
8888.000000;0.224354
8887.000000;0.224337
8886.000000;0.224547
8885.000000;0.224864
8884.000000;0.224935
8883.000000;0.224412
8882.000000;0.223300
8881.000000;0.222022
8880.000000;0.221081
8879.000000;0.220679
8878.000000;0.220638
8877.000000;0.220652
8876.000000;0.220574
8875.000000;0.220471
8874.000000;0.220452
8873.000000;0.220486
8872.000000;0.220457
8871.000000;0.220332
8870.000000;0.220193
8869.000000;0.220097
8868.000000;0.219983
8867.000000;0.219780
8866.000000;0.219522
8865.000000;0.219294
8864.000000;0.219096
8863.000000;0.218842
8862.000000;0.218477
8861.000000;0.218048
8860.000000;0.217658
8859.000000;0.217388
8858.000000;0.217243
8857.000000;0.217143
8856.000000;0.216970
8855.000000;0.216692
8854.000000;0.216430
8853.000000;0.216338
8852.000000;0.216421
8851.000000;0.216497
8850.000000;0.216359
8849.000000;0.215944
8848.000000;0.215350
8847.000000;0.214728
8846.000000;0.214168
8845.000000;0.213669
8844.000000;0.213198
8843.000000;0.212790
8842.000000;0.212553
8841.000000;0.212558
8840.000000;0.212714
8839.000000;0.212822
8838.000000;0.212767
8837.000000;0.212624
8836.000000;0.212542
8835.000000;0.212560
8834.000000;0.212592
8833.000000;0.212569
8832.000000;0.212496
8831.000000;0.212351
8830.000000;0.212016
8829.000000;0.211420
8828.000000;0.210714
8827.000000;0.210199
8826.000000;0.210055
8825.000000;0.210192
8824.000000;0.210403
8823.000000;0.210547
8822.000000;0.210547
8821.000000;0.210307
8820.000000;0.209783
8819.000000;0.209101
8818.000000;0.208486
8817.000000;0.208090
8816.000000;0.207969
8815.000000;0.208188
8814.000000;0.208779
8813.000000;0.209537
8812.000000;0.210037
8811.000000;0.209978
8810.000000;0.209446
8809.000000;0.208763
8808.000000;0.208133
8807.000000;0.207553
8806.000000;0.207008
8805.000000;0.206596
8804.000000;0.206412
8803.000000;0.206397
8802.000000;0.206369
8801.000000;0.206192
8800.000000;0.205883
8799.000000;0.205553
8798.000000;0.205289
8797.000000;0.205101
8796.000000;0.204981
8795.000000;0.204941
8794.000000;0.204958
8793.000000;0.204920
8792.000000;0.204717
8791.000000;0.204374
8790.000000;0.204035
8789.000000;0.203775
8788.000000;0.203515
8787.000000;0.203184
8786.000000;0.202882
8785.000000;0.202790
8784.000000;0.202912
8783.000000;0.202998
8782.000000;0.202777
8781.000000;0.202232
8780.000000;0.201629
8779.000000;0.201260
8778.000000;0.201180
8777.000000;0.201209
8776.000000;0.201178
8775.000000;0.201117
8774.000000;0.201154
8773.000000;0.201283
8772.000000;0.201325
8771.000000;0.201144
8770.000000;0.200800
8769.000000;0.200482
8768.000000;0.200348
8767.000000;0.200463
8766.000000;0.200751
8765.000000;0.200967
8764.000000;0.200828
8763.000000;0.200288
8762.000000;0.199609
8761.000000;0.199085
8760.000000;0.198758
8759.000000;0.198520
8758.000000;0.198366
8757.000000;0.198366
8756.000000;0.198433
8755.000000;0.198347
8754.000000;0.198040
8753.000000;0.197686
8752.000000;0.197459
8751.000000;0.197372
8750.000000;0.197398
8749.000000;0.197571
8748.000000;0.197819
8747.000000;0.197888
8746.000000;0.197603
8745.000000;0.197135
8744.000000;0.196812
8743.000000;0.196727
8742.000000;0.196715
8741.000000;0.196680
8740.000000;0.196721
8739.000000;0.196887
8738.000000;0.197021
8737.000000;0.196956
8736.000000;0.196714
8735.000000;0.196395
8734.000000;0.195991
8733.000000;0.195454
8732.000000;0.194876
8731.000000;0.194433
8730.000000;0.194195
8729.000000;0.194117
8728.000000;0.194177
8727.000000;0.194349
8726.000000;0.194470
8725.000000;0.194339
8724.000000;0.194016
8723.000000;0.193837
8722.000000;0.194023
8721.000000;0.194386
8720.000000;0.194555
8719.000000;0.194393
8718.000000;0.194049
8717.000000;0.193667
8716.000000;0.193252
8715.000000;0.192829
8714.000000;0.192551
8713.000000;0.192553
8712.000000;0.192772
8711.000000;0.192988
8710.000000;0.193013
8709.000000;0.192815
8708.000000;0.192498
8707.000000;0.192208
8706.000000;0.192018
8705.000000;0.191890
8704.000000;0.191743
8703.000000;0.191555
8702.000000;0.191354
8701.000000;0.191137
8700.000000;0.190883
8699.000000;0.190630
8698.000000;0.190461
8697.000000;0.190373
8696.000000;0.190261
8695.000000;0.190066
8694.000000;0.189869
8693.000000;0.189762
8692.000000;0.189693
8691.000000;0.189524
8690.000000;0.189222
8689.000000;0.188909
8688.000000;0.188736
8687.000000;0.188734
8686.000000;0.188818
8685.000000;0.188875
8684.000000;0.188863
8683.000000;0.188819
8682.000000;0.188773
8681.000000;0.188654
8680.000000;0.188364
8679.000000;0.187963
8678.000000;0.187698
8677.000000;0.187737
8676.000000;0.187930
8675.000000;0.187966
8674.000000;0.187759
8673.000000;0.187548
8672.000000;0.187554
8671.000000;0.187679
8670.000000;0.187642
8669.000000;0.187354
8668.000000;0.187018
8667.000000;0.186853
8666.000000;0.186873
8665.000000;0.186942
8664.000000;0.186947
8663.000000;0.186841
8662.000000;0.186581
8661.000000;0.186167
8660.000000;0.185744
8659.000000;0.185533
8658.000000;0.185615
8657.000000;0.185825
8656.000000;0.185932
8655.000000;0.185880
8654.000000;0.185797
8653.000000;0.185790
8652.000000;0.185817
8651.000000;0.185762
8650.000000;0.185583
8649.000000;0.185329
8648.000000;0.185053
8647.000000;0.184757
8646.000000;0.184438
8645.000000;0.184158
8644.000000;0.184025
8643.000000;0.184076
8642.000000;0.184187
8641.000000;0.184168
8640.000000;0.183961
8639.000000;0.183718
8638.000000;0.183635
8637.000000;0.183755
8636.000000;0.183954
8635.000000;0.184097
8634.000000;0.184103
8633.000000;0.183910
8632.000000;0.183486
8631.000000;0.182935
8630.000000;0.182497
8629.000000;0.182359
8628.000000;0.182463
8627.000000;0.182566
8626.000000;0.182452
8625.000000;0.182096
8624.000000;0.181638
8623.000000;0.181263
8622.000000;0.181078
8621.000000;0.181072
8620.000000;0.181151
8619.000000;0.181226
8618.000000;0.181249
8617.000000;0.181204
8616.000000;0.181111
8615.000000;0.181018
8614.000000;0.180961
8613.000000;0.180908
8612.000000;0.180804
8611.000000;0.180667
8610.000000;0.180593
8609.000000;0.180630
8608.000000;0.180723
8607.000000;0.180799
8606.000000;0.180843
8605.000000;0.180830
8604.000000;0.180669
8603.000000;0.180296
8602.000000;0.179808
8601.000000;0.179407
8600.000000;0.179218
8599.000000;0.179208
8598.000000;0.179270
8597.000000;0.179321
8596.000000;0.179330
8595.000000;0.179291
8594.000000;0.179203
8593.000000;0.179036
8592.000000;0.178743
8591.000000;0.178327
8590.000000;0.177893
8589.000000;0.177586
8588.000000;0.177487
8587.000000;0.177583
8586.000000;0.177807
8585.000000;0.178055
8584.000000;0.178230
8583.000000;0.178305
8582.000000;0.178332
8581.000000;0.178345
8580.000000;0.178286
8579.000000;0.178100
8578.000000;0.177842
8577.000000;0.177619
8576.000000;0.177428
8575.000000;0.177191
8574.000000;0.176924
8573.000000;0.176751
8572.000000;0.176721
8571.000000;0.176727
8570.000000;0.176685
8569.000000;0.176664
8568.000000;0.176764
8567.000000;0.176937
8566.000000;0.177030
8565.000000;0.176967
8564.000000;0.176789
8563.000000;0.176551
8562.000000;0.176282
8561.000000;0.176033
8560.000000;0.175868
8559.000000;0.175798
8558.000000;0.175794
8557.000000;0.175851
8556.000000;0.175976
8555.000000;0.176080
8554.000000;0.176010
8553.000000;0.175723
8552.000000;0.175356
8551.000000;0.175077
8550.000000;0.174899
8549.000000;0.174720
8548.000000;0.174498
8547.000000;0.174295
8546.000000;0.174170
8545.000000;0.174099
8544.000000;0.174039
8543.000000;0.174006
8542.000000;0.174039
8541.000000;0.174110
8540.000000;0.174114
8539.000000;0.173989
8538.000000;0.173814
8537.000000;0.173758
8536.000000;0.173904
8535.000000;0.174134
8534.000000;0.174229
8533.000000;0.174089
8532.000000;0.173830
8531.000000;0.173632
8530.000000;0.173526
8529.000000;0.173391
8528.000000;0.173149
8527.000000;0.172886
8526.000000;0.172734
8525.000000;0.172691
8524.000000;0.172637
8523.000000;0.172506
8522.000000;0.172380
8521.000000;0.172381
8520.000000;0.172507
8519.000000;0.172615
8518.000000;0.172553
8517.000000;0.172311
8516.000000;0.172023
8515.000000;0.171830
8514.000000;0.171742
8513.000000;0.171660
8512.000000;0.171539
8511.000000;0.171482
8510.000000;0.171617
8509.000000;0.171906
8508.000000;0.172135
8507.000000;0.172118
8506.000000;0.171862
8505.000000;0.171508
8504.000000;0.171176
8503.000000;0.170926
8502.000000;0.170810
8501.000000;0.170864
8500.000000;0.171040
8499.000000;0.171222
8498.000000;0.171323
8497.000000;0.171333
8496.000000;0.171270
8495.000000;0.171132
8494.000000;0.170938
8493.000000;0.170754
8492.000000;0.170622
8491.000000;0.170493
8490.000000;0.170283
8489.000000;0.169995
8488.000000;0.169726
8487.000000;0.169552
8486.000000;0.169453
8485.000000;0.169378
8484.000000;0.169331
8483.000000;0.169344
8482.000000;0.169391
8481.000000;0.169381
8480.000000;0.169245
8479.000000;0.169013
8478.000000;0.168789
8477.000000;0.168657
8476.000000;0.168621
8475.000000;0.168605
8474.000000;0.168522
8473.000000;0.168342
8472.000000;0.168118
8471.000000;0.167937
8470.000000;0.167831
8469.000000;0.167741
8468.000000;0.167578
8467.000000;0.167306
8466.000000;0.166980
8465.000000;0.166700
8464.000000;0.166537
8463.000000;0.166477
8462.000000;0.166463
8461.000000;0.166447
8460.000000;0.166426
8459.000000;0.166403
8458.000000;0.166387
8457.000000;0.166409
8456.000000;0.166517
8455.000000;0.166704
8454.000000;0.166867
8453.000000;0.166904
8452.000000;0.166832
8451.000000;0.166744
8450.000000;0.166653
8449.000000;0.166466
8448.000000;0.166147
8447.000000;0.165817
8446.000000;0.165628
8445.000000;0.165575
8444.000000;0.165514
8443.000000;0.165342
8442.000000;0.165072
8441.000000;0.164762
8440.000000;0.164461
8439.000000;0.164241
8438.000000;0.164191
8437.000000;0.164347
8436.000000;0.164643
8435.000000;0.164958
8434.000000;0.165154
8433.000000;0.165101
8432.000000;0.164767
8431.000000;0.164310
8430.000000;0.164003
8429.000000;0.163970
8428.000000;0.164043
8427.000000;0.163952
8426.000000;0.163629
8425.000000;0.163272
8424.000000;0.163121
8423.000000;0.163237
8422.000000;0.163483
8421.000000;0.163629
8420.000000;0.163493
8419.000000;0.163067
8418.000000;0.162538
8417.000000;0.162137
8416.000000;0.161932
8415.000000;0.161813
8414.000000;0.161696
8413.000000;0.161660
8412.000000;0.161835
8411.000000;0.162202
8410.000000;0.162577
8409.000000;0.162782
8408.000000;0.162773
8407.000000;0.162608
8406.000000;0.162371
8405.000000;0.162129
8404.000000;0.161927
8403.000000;0.161764
8402.000000;0.161592
8401.000000;0.161355
8400.000000;0.161054
8399.000000;0.160756
8398.000000;0.160553
8397.000000;0.160499
8396.000000;0.160571
8395.000000;0.160685
8394.000000;0.160749
8393.000000;0.160707
8392.000000;0.160556
8391.000000;0.160332
8390.000000;0.160109
8389.000000;0.159963
8388.000000;0.159905
8387.000000;0.159863
8386.000000;0.159770
8385.000000;0.159673
8384.000000;0.159707
8383.000000;0.159917
8382.000000;0.160138
8381.000000;0.160111
8380.000000;0.159726
8379.000000;0.159138
8378.000000;0.158652
8377.000000;0.158468
8376.000000;0.158552
8375.000000;0.158714
8374.000000;0.158788
8373.000000;0.158724
8372.000000;0.158547
8371.000000;0.158301
8370.000000;0.158092
8369.000000;0.158079
8368.000000;0.158309
8367.000000;0.158553
8366.000000;0.158461
8365.000000;0.157935
8364.000000;0.157291
8363.000000;0.156948
8362.000000;0.157024
8361.000000;0.157283
8360.000000;0.157432
8359.000000;0.157380
8358.000000;0.157225
8357.000000;0.157099
8356.000000;0.157050
8355.000000;0.157030
8354.000000;0.156944
8353.000000;0.156749
8352.000000;0.156496
8351.000000;0.156268
8350.000000;0.156092
8349.000000;0.155950
8348.000000;0.155860
8347.000000;0.155860
8346.000000;0.155922
8345.000000;0.155946
8344.000000;0.155853
8343.000000;0.155641
8342.000000;0.155365
8341.000000;0.155109
8340.000000;0.154961
8339.000000;0.154939
8338.000000;0.154934
8337.000000;0.154813
8336.000000;0.154576
8335.000000;0.154346
8334.000000;0.154189
8333.000000;0.154036
8332.000000;0.153838
8331.000000;0.153679
8330.000000;0.153644
8329.000000;0.153650
8328.000000;0.153506
8327.000000;0.153132
8326.000000;0.152664
8325.000000;0.152336
8324.000000;0.152307
8323.000000;0.152547
8322.000000;0.152846
8321.000000;0.152963
8320.000000;0.152816
8319.000000;0.152530
8318.000000;0.152289
8317.000000;0.152182
8316.000000;0.152197
8315.000000;0.152282
8314.000000;0.152347
8313.000000;0.152293
8312.000000;0.152094
8311.000000;0.151828
8310.000000;0.151569
8309.000000;0.151312
8308.000000;0.151077
8307.000000;0.150972
8306.000000;0.151036
8305.000000;0.151066
8304.000000;0.150798
8303.000000;0.150248
8302.000000;0.149741
8301.000000;0.149550
8300.000000;0.149635
8299.000000;0.149776
8298.000000;0.149826
8297.000000;0.149776
8296.000000;0.149672
8295.000000;0.149579
8294.000000;0.149570
8293.000000;0.149630
8292.000000;0.149611
8291.000000;0.149370
8290.000000;0.148943
8289.000000;0.148508
8288.000000;0.148190
8287.000000;0.147955
8286.000000;0.147707
8285.000000;0.147427
8284.000000;0.147191
8283.000000;0.147071
8282.000000;0.147046
8281.000000;0.147002
8280.000000;0.146827
8279.000000;0.146527
8278.000000;0.146238
8277.000000;0.146109
8276.000000;0.146169
8275.000000;0.146327
8274.000000;0.146470
8273.000000;0.146540
8272.000000;0.146508
8271.000000;0.146343
8270.000000;0.146044
8269.000000;0.145690
8268.000000;0.145403
8267.000000;0.145233
8266.000000;0.145110
8265.000000;0.144940
8264.000000;0.144725
8263.000000;0.144555
8262.000000;0.144483
8261.000000;0.144458
8260.000000;0.144396
8259.000000;0.144269
8258.000000;0.144114
8257.000000;0.143989
8256.000000;0.143941
8255.000000;0.143977
8254.000000;0.144020
8253.000000;0.143941
8252.000000;0.143692
8251.000000;0.143370
8250.000000;0.143101
8249.000000;0.142883
8248.000000;0.142627
8247.000000;0.142338
8246.000000;0.142144
8245.000000;0.142120
8244.000000;0.142179
8243.000000;0.142173
8242.000000;0.142063
8241.000000;0.141923
8240.000000;0.141834
8239.000000;0.141813
8238.000000;0.141837
8237.000000;0.141857
8236.000000;0.141806
8235.000000;0.141635
8234.000000;0.141354
8233.000000;0.141015
8232.000000;0.140669
8231.000000;0.140362
8230.000000;0.140160
8229.000000;0.140110
8228.000000;0.140157
8227.000000;0.140143
8226.000000;0.139923
8225.000000;0.139511
8224.000000;0.139077
8223.000000;0.138778
8222.000000;0.138616
8221.000000;0.138461
8220.000000;0.138222
8219.000000;0.137920
8218.000000;0.137622
8217.000000;0.137346
8216.000000;0.137106
8215.000000;0.136978
8214.000000;0.137031
8213.000000;0.137192
8212.000000;0.137264
8211.000000;0.137123
8210.000000;0.136854
8209.000000;0.136643
8208.000000;0.136588
8207.000000;0.136629
8206.000000;0.136650
8205.000000;0.136559
8204.000000;0.136321
8203.000000;0.135952
8202.000000;0.135511
8201.000000;0.135092
8200.000000;0.134793
8199.000000;0.134678
8198.000000;0.134720
8197.000000;0.134786
8196.000000;0.134726
8195.000000;0.134499
8194.000000;0.134191
8193.000000;0.133897
8192.000000;0.133623
8191.000000;0.133345
8190.000000;0.133115
8189.000000;0.133020
8188.000000;0.133053
8187.000000;0.133083
8186.000000;0.132964
8185.000000;0.132653
8184.000000;0.132218
8183.000000;0.131782
8182.000000;0.131452
8181.000000;0.131258
8180.000000;0.131140
8179.000000;0.131024
8178.000000;0.130915
8177.000000;0.130880
8176.000000;0.130926
8175.000000;0.130971
8174.000000;0.130940
8173.000000;0.130853
8172.000000;0.130751
8171.000000;0.130592
8170.000000;0.130294
8169.000000;0.129865
8168.000000;0.129451
8167.000000;0.129210
8166.000000;0.129171
8165.000000;0.129207
8164.000000;0.129157
8163.000000;0.128953
8162.000000;0.128657
8161.000000;0.128371
8160.000000;0.128118
8159.000000;0.127853
8158.000000;0.127585
8157.000000;0.127422
8156.000000;0.127444
8155.000000;0.127553
8154.000000;0.127545
8153.000000;0.127332
8152.000000;0.127015
8151.000000;0.126729
8150.000000;0.126498
8149.000000;0.126271
8148.000000;0.126027
8147.000000;0.125782
8146.000000;0.125541
8145.000000;0.125305
8144.000000;0.125121
8143.000000;0.125042
8142.000000;0.125055
8141.000000;0.125081
8140.000000;0.125039
8139.000000;0.124886
8138.000000;0.124617
8137.000000;0.124276
8136.000000;0.123952
8135.000000;0.123702
8134.000000;0.123491
8133.000000;0.123252
8132.000000;0.122999
8131.000000;0.122809
8130.000000;0.122702
8129.000000;0.122598
8128.000000;0.122404
8127.000000;0.122110
8126.000000;0.121784
8125.000000;0.121524
8124.000000;0.121403
8123.000000;0.121396
8122.000000;0.121358
8121.000000;0.121134
8120.000000;0.120736
8119.000000;0.120351
8118.000000;0.120143
8117.000000;0.120111
8116.000000;0.120126
8115.000000;0.120071
8114.000000;0.119887
8113.000000;0.119572
8112.000000;0.119174
8111.000000;0.118768
8110.000000;0.118387
8109.000000;0.118006
8108.000000;0.117633
8107.000000;0.117351
8106.000000;0.117223
8105.000000;0.117192
8104.000000;0.117137
8103.000000;0.117014
8102.000000;0.116880
8101.000000;0.116798
8100.000000;0.116776
8099.000000;0.116787
8098.000000;0.116794
8097.000000;0.116738
8096.000000;0.116559
8095.000000;0.116247
8094.000000;0.115857
8093.000000;0.115471
8092.000000;0.115148
8091.000000;0.114908
8090.000000;0.114724
8089.000000;0.114546
8088.000000;0.114334
8087.000000;0.114099
8086.000000;0.113881
8085.000000;0.113700
8084.000000;0.113536
8083.000000;0.113358
8082.000000;0.113148
8081.000000;0.112902
8080.000000;0.112622
8079.000000;0.112305
8078.000000;0.111968
8077.000000;0.111673
8076.000000;0.111515
8075.000000;0.111519
8074.000000;0.111573
8073.000000;0.111503
8072.000000;0.111262
8071.000000;0.110982
8070.000000;0.110806
8069.000000;0.110718
8068.000000;0.110588
8067.000000;0.110354
8066.000000;0.110079
8065.000000;0.109834
8064.000000;0.109601
8063.000000;0.109321
8062.000000;0.108998
8061.000000;0.108701
8060.000000;0.108461
8059.000000;0.108229
8058.000000;0.107944
8057.000000;0.107621
8056.000000;0.107325
8055.000000;0.107087
8054.000000;0.106885
8053.000000;0.106725
8052.000000;0.106652
8051.000000;0.106658
8050.000000;0.106615
8049.000000;0.106395
8048.000000;0.106014
8047.000000;0.105595
8046.000000;0.105204
8045.000000;0.104830
8044.000000;0.104508
8043.000000;0.104342
8042.000000;0.104343
8041.000000;0.104371
8040.000000;0.104284
8039.000000;0.104092
8038.000000;0.103880
8037.000000;0.103664
8036.000000;0.103387
8035.000000;0.103037
8034.000000;0.102668
8033.000000;0.102342
8032.000000;0.102096
8031.000000;0.101945
8030.000000;0.101868
8029.000000;0.101796
8028.000000;0.101679
8027.000000;0.101533
8026.000000;0.101383
8025.000000;0.101195
8024.000000;0.100926
8023.000000;0.100598
8022.000000;0.100266
8021.000000;0.099925
8020.000000;0.099554
8019.000000;0.099217
8018.000000;0.099027
8017.000000;0.098976
8016.000000;0.098899
8015.000000;0.098650
8014.000000;0.098260
8013.000000;0.097880
8012.000000;0.097603
8011.000000;0.097383
8010.000000;0.097120
8009.000000;0.096786
8008.000000;0.096442
8007.000000;0.096166
8006.000000;0.095984
8005.000000;0.095857
8004.000000;0.095718
8003.000000;0.095501
8002.000000;0.095163
8001.000000;0.094728
8000.000000;0.094290
7999.000000;0.093939
7998.000000;0.093659
7997.000000;0.093364
7996.000000;0.093003
7995.000000;0.092611
7994.000000;0.092240
7993.000000;0.091937
7992.000000;0.091761
7991.000000;0.091753
7990.000000;0.091834
7989.000000;0.091834
7988.000000;0.091661
7987.000000;0.091389
7986.000000;0.091124
7985.000000;0.090873
7984.000000;0.090598
7983.000000;0.090319
7982.000000;0.090073
7981.000000;0.089827
7980.000000;0.089539
7979.000000;0.089255
7978.000000;0.089051
7977.000000;0.088915
7976.000000;0.088771
7975.000000;0.088598
7974.000000;0.088428
7973.000000;0.088256
7972.000000;0.088036
7971.000000;0.087759
7970.000000;0.087454
7969.000000;0.087120
7968.000000;0.086736
7967.000000;0.086340
7966.000000;0.086011
7965.000000;0.085783
7964.000000;0.085630
7963.000000;0.085520
7962.000000;0.085422
7961.000000;0.085271
7960.000000;0.085021
7959.000000;0.084715
7958.000000;0.084433
7957.000000;0.084177
7956.000000;0.083893
7955.000000;0.083576
7954.000000;0.083273
7953.000000;0.082986
7952.000000;0.082668
7951.000000;0.082327
7950.000000;0.082027
7949.000000;0.081777
7948.000000;0.081510
7947.000000;0.081209
7946.000000;0.080957
7945.000000;0.080819
7944.000000;0.080730
7943.000000;0.080554
7942.000000;0.080206
7941.000000;0.079706
7940.000000;0.079153
7939.000000;0.078682
7938.000000;0.078384
7937.000000;0.078233
7936.000000;0.078110
7935.000000;0.077910
7934.000000;0.077593
7933.000000;0.077185
7932.000000;0.076760
7931.000000;0.076422
7930.000000;0.076220
7929.000000;0.076074
7928.000000;0.075858
7927.000000;0.075549
7926.000000;0.075229
7925.000000;0.074960
7924.000000;0.074732
7923.000000;0.074539
7922.000000;0.074415
7921.000000;0.074350
7920.000000;0.074284
7919.000000;0.074184
7918.000000;0.074064
7917.000000;0.073895
7916.000000;0.073597
7915.000000;0.073168
7914.000000;0.072721
7913.000000;0.072352
7912.000000;0.072023
7911.000000;0.071658
7910.000000;0.071264
7909.000000;0.070920
7908.000000;0.070679
7907.000000;0.070525
7906.000000;0.070383
7905.000000;0.070126
7904.000000;0.069661
7903.000000;0.069062
7902.000000;0.068542
7901.000000;0.068236
7900.000000;0.068067
7899.000000;0.067895
7898.000000;0.067708
7897.000000;0.067587
7896.000000;0.067517
7895.000000;0.067368
7894.000000;0.067045
7893.000000;0.066597
7892.000000;0.066148
7891.000000;0.065787
7890.000000;0.065524
7889.000000;0.065304
7888.000000;0.065063
7887.000000;0.064794
7886.000000;0.064559
7885.000000;0.064401
7884.000000;0.064263
7883.000000;0.064038
7882.000000;0.063687
7881.000000;0.063290
7880.000000;0.062960
7879.000000;0.062748
7878.000000;0.062593
7877.000000;0.062374
7876.000000;0.062012
7875.000000;0.061546
7874.000000;0.061105
7873.000000;0.060770
7872.000000;0.060517
7871.000000;0.060290
7870.000000;0.060093
7869.000000;0.059950
7868.000000;0.059823
7867.000000;0.059633
7866.000000;0.059354
7865.000000;0.059027
7864.000000;0.058695
7863.000000;0.058367
7862.000000;0.058051
7861.000000;0.057765
7860.000000;0.057501
7859.000000;0.057209
7858.000000;0.056855
7857.000000;0.056474
7856.000000;0.056139
7855.000000;0.055888
7854.000000;0.055674
7853.000000;0.055423
7852.000000;0.055105
7851.000000;0.054774
7850.000000;0.054498
7849.000000;0.054274
7848.000000;0.054031
7847.000000;0.053706
7846.000000;0.053315
7845.000000;0.052937
7844.000000;0.052645
7843.000000;0.052442
7842.000000;0.052257
7841.000000;0.052010
7840.000000;0.051719
7839.000000;0.051503
7838.000000;0.051440
7837.000000;0.051436
7836.000000;0.051309
7835.000000;0.050983
7834.000000;0.050546
7833.000000;0.050119
7832.000000;0.049741
7831.000000;0.049400
7830.000000;0.049089
7829.000000;0.048782
7828.000000;0.048442
7827.000000;0.048104
7826.000000;0.047870
7825.000000;0.047750
7824.000000;0.047584
7823.000000;0.047205
7822.000000;0.046661
7821.000000;0.046159
7820.000000;0.045834
7819.000000;0.045651
7818.000000;0.045515
7817.000000;0.045368
7816.000000;0.045175
7815.000000;0.044917
7814.000000;0.044641
7813.000000;0.044443
7812.000000;0.044334
7811.000000;0.044186
7810.000000;0.043871
7809.000000;0.043425
7808.000000;0.043015
7807.000000;0.042783
7806.000000;0.042728
7805.000000;0.042733
7804.000000;0.042652
7803.000000;0.042384
7802.000000;0.041911
7801.000000;0.041320
7800.000000;0.040757
7799.000000;0.040343
7798.000000;0.040104
7797.000000;0.039979
7796.000000;0.039889
7795.000000;0.039784
7794.000000;0.039631
7793.000000;0.039384
7792.000000;0.038999
7791.000000;0.038514
7790.000000;0.038069
7789.000000;0.037796
7788.000000;0.037692
7787.000000;0.037618
7786.000000;0.037448
7785.000000;0.037172
7784.000000;0.036861
7783.000000;0.036561
7782.000000;0.036257
7781.000000;0.035930
7780.000000;0.035601
7779.000000;0.035316
7778.000000;0.035100
7777.000000;0.034941
7776.000000;0.034817
7775.000000;0.034708
7774.000000;0.034596
7773.000000;0.034459
7772.000000;0.034267
7771.000000;0.033998
7770.000000;0.033656
7769.000000;0.033262
7768.000000;0.032844
7767.000000;0.032425
7766.000000;0.032037
7765.000000;0.031721
7764.000000;0.031490
7763.000000;0.031295
7762.000000;0.031052
7761.000000;0.030728
7760.000000;0.030388
7759.000000;0.030119
7758.000000;0.029929
7757.000000;0.029735
7756.000000;0.029468
7755.000000;0.029137
7754.000000;0.028803
7753.000000;0.028518
7752.000000;0.028315
7751.000000;0.028196
7750.000000;0.028097
7749.000000;0.027894
7748.000000;0.027521
7747.000000;0.027060
7746.000000;0.026673
7745.000000;0.026437
7744.000000;0.026281
7743.000000;0.026090
7742.000000;0.025834
7741.000000;0.025564
7740.000000;0.025338
7739.000000;0.025159
7738.000000;0.024995
7737.000000;0.024810
7736.000000;0.024578
7735.000000;0.024281
7734.000000;0.023904
7733.000000;0.023469
7732.000000;0.023053
7731.000000;0.022734
7730.000000;0.022501
7729.000000;0.022236
7728.000000;0.021866
7727.000000;0.021480
7726.000000;0.021251
7725.000000;0.021209
7724.000000;0.021185
7723.000000;0.021015
7722.000000;0.020731
7721.000000;0.020496
7720.000000;0.020371
7719.000000;0.020248
7718.000000;0.020011
7717.000000;0.019690
7716.000000;0.019398
7715.000000;0.019173
7714.000000;0.018950
7713.000000;0.018665
7712.000000;0.018350
7711.000000;0.018068
7710.000000;0.017820
7709.000000;0.017538
7708.000000;0.017160
7707.000000;0.016697
7706.000000;0.016215
7705.000000;0.015801
7704.000000;0.015519
7703.000000;0.015367
7702.000000;0.015267
7701.000000;0.015115
7700.000000;0.014882
7699.000000;0.014634
7698.000000;0.014443
7697.000000;0.014300
7696.000000;0.014131
7695.000000;0.013887
7694.000000;0.013580
7693.000000;0.013261
7692.000000;0.012971
7691.000000;0.012721
7690.000000;0.012497
7689.000000;0.012262
7688.000000;0.011971
7687.000000;0.011608
7686.000000;0.011204
7685.000000;0.010831
7684.000000;0.010550
7683.000000;0.010348
7682.000000;0.010142
7681.000000;0.009870
7680.000000;0.009571
7679.000000;0.009352
7678.000000;0.009271
7677.000000;0.009283
7676.000000;0.009293
7675.000000;0.009218
7674.000000;0.009012
7673.000000;0.008684
7672.000000;0.008311
7671.000000;0.007992
7670.000000;0.007754
7669.000000;0.007529
7668.000000;0.007255
7667.000000;0.006937
7666.000000;0.006594
7665.000000;0.006208
7664.000000;0.005778
7663.000000;0.005367
7662.000000;0.005045
7661.000000;0.004812
7660.000000;0.004625
7659.000000;0.004474
7658.000000;0.004369
7657.000000;0.004277
7656.000000;0.004146
7655.000000;0.003962
7654.000000;0.003755
7653.000000;0.003536
7652.000000;0.003293
7651.000000;0.003041
7650.000000;0.002804
7649.000000;0.002577
7648.000000;0.002336
7647.000000;0.002090
7646.000000;0.001870
7645.000000;0.001679
7644.000000;0.001484
7643.000000;0.001265
7642.000000;0.001024
7641.000000;0.000758
7640.000000;0.000490
7639.000000;0.000284
7638.000000;0.000183
7637.000000;0.000129
7636.000000;-0.000002
7635.000000;-0.000267
7634.000000;-0.000607
7633.000000;-0.000925
7632.000000;-0.001162
7631.000000;-0.001313
7630.000000;-0.001430
7629.000000;-0.001624
7628.000000;-0.001982
7627.000000;-0.002463
7626.000000;-0.002910
7625.000000;-0.003194
7624.000000;-0.003325
7623.000000;-0.003415
7622.000000;-0.003566
7621.000000;-0.003808
7620.000000;-0.004102
7619.000000;-0.004386
7618.000000;-0.004624
7617.000000;-0.004819
7616.000000;-0.004995
7615.000000;-0.005171
7614.000000;-0.005364
7613.000000;-0.005593
7612.000000;-0.005851
7611.000000;-0.006112
7610.000000;-0.006374
7609.000000;-0.006685
7608.000000;-0.007056
7607.000000;-0.007413
7606.000000;-0.007671
7605.000000;-0.007852
7604.000000;-0.008041
7603.000000;-0.008260
7602.000000;-0.008457
7601.000000;-0.008612
7600.000000;-0.008775
7599.000000;-0.008979
7598.000000;-0.009194
7597.000000;-0.009393
7596.000000;-0.009600
7595.000000;-0.009841
7594.000000;-0.010071
7593.000000;-0.010216
7592.000000;-0.010268
7591.000000;-0.010313
7590.000000;-0.010461
7589.000000;-0.010734
7588.000000;-0.011044
7587.000000;-0.011288
7586.000000;-0.011467
7585.000000;-0.011660
7584.000000;-0.011894
7583.000000;-0.012113
7582.000000;-0.012298
7581.000000;-0.012539
7580.000000;-0.012916
7579.000000;-0.013368
7578.000000;-0.013751
7577.000000;-0.014006
7576.000000;-0.014173
7575.000000;-0.014302
7574.000000;-0.014433
7573.000000;-0.014626
7572.000000;-0.014923
7571.000000;-0.015257
7570.000000;-0.015522
7569.000000;-0.015701
7568.000000;-0.015861
7567.000000;-0.016039
7566.000000;-0.016231
7565.000000;-0.016473
7564.000000;-0.016806
7563.000000;-0.017160
7562.000000;-0.017395
7561.000000;-0.017486
7560.000000;-0.017565
7559.000000;-0.017736
7558.000000;-0.017963
7557.000000;-0.018171
7556.000000;-0.018381
7555.000000;-0.018655
7554.000000;-0.018993
7553.000000;-0.019341
7552.000000;-0.019660
7551.000000;-0.019930
7550.000000;-0.020125
7549.000000;-0.020230
7548.000000;-0.020270
7547.000000;-0.020291
7546.000000;-0.020343
7545.000000;-0.020465
7544.000000;-0.020658
7543.000000;-0.020877
7542.000000;-0.021075
7541.000000;-0.021269
7540.000000;-0.021508
7539.000000;-0.021783
7538.000000;-0.022036
7537.000000;-0.022242
7536.000000;-0.022428
7535.000000;-0.022608
7534.000000;-0.022797
7533.000000;-0.023053
7532.000000;-0.023430
7531.000000;-0.023866
7530.000000;-0.024206
7529.000000;-0.024375
7528.000000;-0.024445
7527.000000;-0.024532
7526.000000;-0.024692
7525.000000;-0.024926
7524.000000;-0.025206
7523.000000;-0.025465
7522.000000;-0.025656
7521.000000;-0.025817
7520.000000;-0.026031
7519.000000;-0.026301
7518.000000;-0.026557
7517.000000;-0.026786
7516.000000;-0.027039
7515.000000;-0.027307
7514.000000;-0.027493
7513.000000;-0.027559
7512.000000;-0.027593
7511.000000;-0.027692
7510.000000;-0.027866
7509.000000;-0.028090
7508.000000;-0.028364
7507.000000;-0.028660
7506.000000;-0.028905
7505.000000;-0.029082
7504.000000;-0.029276
7503.000000;-0.029566
7502.000000;-0.029922
7501.000000;-0.030250
7500.000000;-0.030483
7499.000000;-0.030602
7498.000000;-0.030638
7497.000000;-0.030759
7496.000000;-0.030946
7495.000000;-0.031273
7494.000000;-0.031632
7493.000000;-0.031911
7492.000000;-0.032086
7491.000000;-0.032184
7490.000000;-0.032239
7489.000000;-0.032299
7488.000000;-0.032407
7487.000000;-0.032549
7486.000000;-0.032692
7485.000000;-0.032872
7484.000000;-0.033156
7483.000000;-0.033519
7482.000000;-0.033854
7481.000000;-0.034114
7480.000000;-0.034346
7479.000000;-0.034576
7478.000000;-0.034776
7477.000000;-0.034961
7476.000000;-0.035197
7475.000000;-0.035470
7474.000000;-0.035676
7473.000000;-0.035775
7472.000000;-0.035841
7471.000000;-0.035941
7470.000000;-0.036065
7469.000000;-0.036239
7468.000000;-0.036552
7467.000000;-0.037002
7466.000000;-0.037439
7465.000000;-0.037729
7464.000000;-0.037901
7463.000000;-0.038042
7462.000000;-0.038178
7461.000000;-0.038297
7460.000000;-0.038424
7459.000000;-0.038571
7458.000000;-0.038719
7457.000000;-0.038874
7456.000000;-0.039081
7455.000000;-0.039324
7454.000000;-0.039524
7453.000000;-0.039673
7452.000000;-0.039872
7451.000000;-0.040174
7450.000000;-0.040501
7449.000000;-0.040779
7448.000000;-0.041020
7447.000000;-0.041240
7446.000000;-0.041406
7445.000000;-0.041539
7444.000000;-0.041734
7443.000000;-0.042002
7442.000000;-0.042230
7441.000000;-0.042379
7440.000000;-0.042556
7439.000000;-0.042812
7438.000000;-0.043031
7437.000000;-0.043130
7436.000000;-0.043222
7435.000000;-0.043447
7434.000000;-0.043756
7433.000000;-0.044016
7432.000000;-0.044220
7431.000000;-0.044448
7430.000000;-0.044687
7429.000000;-0.044849
7428.000000;-0.044913
7427.000000;-0.044948
7426.000000;-0.045025
7425.000000;-0.045202
7424.000000;-0.045500
7423.000000;-0.045802
7422.000000;-0.045887
7421.000000;-0.045697
7420.000000;-0.045478
7419.000000;-0.045532
7418.000000;-0.045879
7417.000000;-0.046302
7416.000000;-0.046628
7415.000000;-0.046857
7414.000000;-0.047082
7413.000000;-0.047375
7412.000000;-0.047726
7411.000000;-0.048056
7410.000000;-0.048310
7409.000000;-0.048547
7408.000000;-0.048830
7407.000000;-0.049066
7406.000000;-0.049113
7405.000000;-0.049046
7404.000000;-0.049120
7403.000000;-0.049435
7402.000000;-0.049802
7401.000000;-0.049985
7400.000000;-0.049920
7399.000000;-0.049734
7398.000000;-0.049649
7397.000000;-0.049808
7396.000000;-0.050114
7395.000000;-0.050358
7394.000000;-0.050570
7393.000000;-0.051044
7392.000000;-0.051856
7391.000000;-0.052618
7390.000000;-0.052936
7389.000000;-0.052931
7388.000000;-0.052960
7387.000000;-0.053031
7386.000000;-0.052929
7385.000000;-0.052772
7384.000000;-0.052838
7383.000000;-0.052871
7382.000000;-0.052324
7381.000000;-0.051478
7380.000000;-0.051488
7379.000000;-0.052740
7378.000000;-0.053961
7377.000000;-0.053732
7376.000000;-0.052338
7375.000000;-0.051389
7374.000000;-0.051895
7373.000000;-0.053385
7372.000000;-0.054768
7371.000000;-0.055341
7370.000000;-0.055068
7369.000000;-0.054510
7368.000000;-0.054435
7367.000000;-0.055042
7366.000000;-0.055728
7365.000000;-0.055974
7364.000000;-0.056041
7363.000000;-0.056320
7362.000000;-0.056569
7361.000000;-0.056510
7360.000000;-0.056659
7359.000000;-0.057483
7358.000000;-0.058208
7357.000000;-0.057704
7356.000000;-0.056288
7355.000000;-0.055522
7354.000000;-0.056176
7353.000000;-0.057512
7352.000000;-0.058556
7351.000000;-0.058930
7350.000000;-0.058492
7349.000000;-0.057450
7348.000000;-0.056793
7347.000000;-0.057324
7346.000000;-0.058326
7345.000000;-0.058466
7344.000000;-0.057783
7343.000000;-0.057258
7342.000000;-0.056700
7341.000000;-0.055001
7340.000000;-0.052785
7339.000000;-0.052625
7338.000000;-0.055517
7337.000000;-0.059234
7336.000000;-0.061298
7335.000000;-0.061644
7334.000000;-0.061515
7333.000000;-0.061501
7332.000000;-0.061680
7331.000000;-0.062112
7330.000000;-0.062149
7329.000000;-0.060763
7328.000000;-0.058583
7327.000000;-0.057976
7326.000000;-0.059858
7325.000000;-0.062111
7324.000000;-0.062636
7323.000000;-0.062178
7322.000000;-0.062696
7321.000000;-0.064280
7320.000000;-0.065348
7319.000000;-0.065190
7318.000000;-0.064513
7317.000000;-0.063954
7316.000000;-0.063691
7315.000000;-0.064000
7314.000000;-0.064717
7313.000000;-0.064652
7312.000000;-0.063160
7311.000000;-0.061727
7310.000000;-0.062144
7309.000000;-0.063677
7308.000000;-0.064081
7307.000000;-0.063045
7306.000000;-0.062632
7305.000000;-0.064076
7304.000000;-0.066163
7303.000000;-0.067423
7302.000000;-0.067865
7301.000000;-0.067946
7300.000000;-0.067629
7299.000000;-0.067268
7298.000000;-0.067840
7297.000000;-0.069146
7296.000000;-0.069384
7295.000000;-0.067629
7294.000000;-0.065561
7293.000000;-0.065435
7292.000000;-0.067042
7291.000000;-0.068247
7290.000000;-0.067867
7289.000000;-0.066607
7288.000000;-0.065709
7287.000000;-0.065757
7286.000000;-0.066683
7285.000000;-0.068048
7284.000000;-0.069167
7283.000000;-0.069590
7282.000000;-0.069551
7281.000000;-0.069624
7280.000000;-0.069958
7279.000000;-0.070247
7278.000000;-0.070333
7277.000000;-0.070317
7276.000000;-0.070194
7275.000000;-0.069821
7274.000000;-0.069268
7273.000000;-0.068914
7272.000000;-0.069069
7271.000000;-0.069623
7270.000000;-0.070141
7269.000000;-0.070242
7268.000000;-0.069952
7267.000000;-0.069722
7266.000000;-0.069898
7265.000000;-0.070159
7264.000000;-0.069787
7263.000000;-0.068684
7262.000000;-0.067750
7261.000000;-0.067919
7260.000000;-0.069021
7259.000000;-0.070086
7258.000000;-0.070544
7257.000000;-0.070583
7256.000000;-0.070398
7255.000000;-0.069794
7254.000000;-0.068755
7253.000000;-0.067862
7252.000000;-0.067821
7251.000000;-0.068663
7250.000000;-0.069612
7249.000000;-0.069871
7248.000000;-0.069490
7247.000000;-0.069248
7246.000000;-0.069380
7245.000000;-0.068885
7244.000000;-0.066763
7243.000000;-0.063828
7242.000000;-0.062416
7241.000000;-0.063744
7240.000000;-0.066366
7239.000000;-0.068037
7238.000000;-0.068282
7237.000000;-0.068339
7236.000000;-0.068985
7235.000000;-0.069278
7234.000000;-0.067783
7233.000000;-0.064654
7232.000000;-0.062156
7231.000000;-0.062634
7230.000000;-0.065860
7229.000000;-0.069163
7228.000000;-0.070284
7227.000000;-0.069446
7226.000000;-0.068568
7225.000000;-0.069090
7224.000000;-0.070815
7223.000000;-0.072481
7222.000000;-0.073022
7221.000000;-0.072353
7220.000000;-0.071383
7219.000000;-0.071255
7218.000000;-0.072274
7217.000000;-0.073662
7216.000000;-0.074482
7215.000000;-0.074629
7214.000000;-0.074727
7213.000000;-0.075167
7212.000000;-0.075658
7211.000000;-0.075846
7210.000000;-0.075885
7209.000000;-0.076046
7208.000000;-0.076108
7207.000000;-0.075546
7206.000000;-0.074249
7205.000000;-0.072836
7204.000000;-0.072249
7203.000000;-0.072979
7202.000000;-0.074625
7201.000000;-0.076246
7200.000000;-0.077206
7199.000000;-0.077659
7198.000000;-0.078117
7197.000000;-0.078663
7196.000000;-0.078913
7195.000000;-0.078789
7194.000000;-0.078850
7193.000000;-0.079491
7192.000000;-0.080297
7191.000000;-0.080633
7190.000000;-0.080568
7189.000000;-0.080586
7188.000000;-0.080700
7187.000000;-0.080637
7186.000000;-0.080640
7185.000000;-0.081189
7184.000000;-0.081890
7183.000000;-0.081669
7182.000000;-0.080405
7181.000000;-0.079470
7180.000000;-0.080043
7179.000000;-0.081585
7178.000000;-0.082733
7177.000000;-0.083042
7176.000000;-0.083050
7175.000000;-0.083225
7174.000000;-0.083590
7173.000000;-0.084049
7172.000000;-0.084383
7171.000000;-0.084077
7170.000000;-0.082909
7169.000000;-0.081524
7168.000000;-0.080826
7167.000000;-0.081049
7166.000000;-0.081917
7165.000000;-0.083287
7164.000000;-0.084838
7163.000000;-0.085687
7162.000000;-0.085269
7161.000000;-0.084406
7160.000000;-0.084573
7159.000000;-0.085944
7158.000000;-0.087200
7157.000000;-0.087461
7156.000000;-0.087321
7155.000000;-0.087674
7154.000000;-0.088471
7153.000000;-0.089082
7152.000000;-0.089284
7151.000000;-0.089353
7150.000000;-0.089564
7149.000000;-0.089924
7148.000000;-0.090237
7147.000000;-0.090220
7146.000000;-0.089689
7145.000000;-0.088906
7144.000000;-0.088550
7143.000000;-0.088977
7142.000000;-0.089570
7141.000000;-0.089376
7140.000000;-0.088449
7139.000000;-0.087999
7138.000000;-0.088869
7137.000000;-0.090375
7136.000000;-0.091265
7135.000000;-0.091344
7134.000000;-0.091469
7133.000000;-0.092180
7132.000000;-0.093056
7131.000000;-0.093556
7130.000000;-0.093788
7129.000000;-0.094101
7128.000000;-0.094439
7127.000000;-0.094614
7126.000000;-0.094781
7125.000000;-0.095080
7124.000000;-0.095191
7123.000000;-0.094871
7122.000000;-0.094626
7121.000000;-0.095078
7120.000000;-0.095808
7119.000000;-0.095708
7118.000000;-0.094668
7117.000000;-0.094040
7116.000000;-0.094865
7115.000000;-0.096392
7114.000000;-0.097187
7113.000000;-0.097015
7112.000000;-0.096781
7111.000000;-0.097054
7110.000000;-0.097474
7109.000000;-0.097555
7108.000000;-0.097325
7107.000000;-0.097061
7106.000000;-0.096996
7105.000000;-0.097362
7104.000000;-0.098246
7103.000000;-0.099301
7102.000000;-0.099970
7101.000000;-0.100100
7100.000000;-0.100121
7099.000000;-0.100497
7098.000000;-0.101121
7097.000000;-0.101479
7096.000000;-0.101347
7095.000000;-0.101078
7094.000000;-0.101148
7093.000000;-0.101605
7092.000000;-0.102114
7091.000000;-0.102427
7090.000000;-0.102628
7089.000000;-0.102928
7088.000000;-0.103342
7087.000000;-0.103690
7086.000000;-0.103890
7085.000000;-0.104101
7084.000000;-0.104492
7083.000000;-0.104970
7082.000000;-0.105286
7081.000000;-0.105378
7080.000000;-0.105489
7079.000000;-0.105803
7078.000000;-0.106124
7077.000000;-0.106153
7076.000000;-0.105987
7075.000000;-0.106025
7074.000000;-0.106383
7073.000000;-0.106743
7072.000000;-0.106853
7071.000000;-0.106872
7070.000000;-0.107066
7069.000000;-0.107401
7068.000000;-0.107662
7067.000000;-0.107815
7066.000000;-0.108020
7065.000000;-0.108362
7064.000000;-0.108762
7063.000000;-0.109156
7062.000000;-0.109573
7061.000000;-0.109985
7060.000000;-0.110303
7059.000000;-0.110540
7058.000000;-0.110813
7057.000000;-0.111139
7056.000000;-0.111397
7055.000000;-0.111511
7054.000000;-0.111549
7053.000000;-0.111665
7052.000000;-0.111955
7051.000000;-0.112366
7050.000000;-0.112726
7049.000000;-0.112884
7048.000000;-0.112873
7047.000000;-0.112911
7046.000000;-0.113159
7045.000000;-0.113516
7044.000000;-0.113761
7043.000000;-0.113869
7042.000000;-0.114036
7041.000000;-0.114381
7040.000000;-0.114806
7039.000000;-0.115183
7038.000000;-0.115530
7037.000000;-0.115922
7036.000000;-0.116354
7035.000000;-0.116773
7034.000000;-0.117138
7033.000000;-0.117414
7032.000000;-0.117566
7031.000000;-0.117627
7030.000000;-0.117700
7029.000000;-0.117834
7028.000000;-0.117989
7027.000000;-0.118151
7026.000000;-0.118359
7025.000000;-0.118589
7024.000000;-0.118738
7023.000000;-0.118820
7022.000000;-0.119025
7021.000000;-0.119495
7020.000000;-0.120103
7019.000000;-0.120603
7018.000000;-0.120907
7017.000000;-0.121108
7016.000000;-0.121291
7015.000000;-0.121467
7014.000000;-0.121672
7013.000000;-0.121971
7012.000000;-0.122367
7011.000000;-0.122795
7010.000000;-0.123207
7009.000000;-0.123559
7008.000000;-0.123765
7007.000000;-0.123787
7006.000000;-0.123750
7005.000000;-0.123855
7004.000000;-0.124153
7003.000000;-0.124513
7002.000000;-0.124811
7001.000000;-0.125043
7000.000000;-0.125252
6999.000000;-0.125454
6998.000000;-0.125687
6997.000000;-0.126013
6996.000000;-0.126412
6995.000000;-0.126765
6994.000000;-0.126998
6993.000000;-0.127184
6992.000000;-0.127442
6991.000000;-0.127777
6990.000000;-0.128081
6989.000000;-0.128265
6988.000000;-0.128327
6987.000000;-0.128336
6986.000000;-0.128408
6985.000000;-0.128639
6984.000000;-0.128995
6983.000000;-0.129325
6982.000000;-0.129536
6981.000000;-0.129723
6980.000000;-0.130063
6979.000000;-0.130582
6978.000000;-0.131110
6977.000000;-0.131481
6976.000000;-0.131713
6975.000000;-0.131921
6974.000000;-0.132114
6973.000000;-0.132223
6972.000000;-0.132283
6971.000000;-0.132450
6970.000000;-0.132795
6969.000000;-0.133206
6968.000000;-0.133553
6967.000000;-0.133851
6966.000000;-0.134174
6965.000000;-0.134482
6964.000000;-0.134682
6963.000000;-0.134817
6962.000000;-0.135054
6961.000000;-0.135443
6960.000000;-0.135862
6959.000000;-0.136186
6958.000000;-0.136397
6957.000000;-0.136504
6956.000000;-0.136521
6955.000000;-0.136553
6954.000000;-0.136764
6953.000000;-0.137192
6952.000000;-0.137697
6951.000000;-0.138152
6950.000000;-0.138556
6949.000000;-0.138918
6948.000000;-0.139156
6947.000000;-0.139239
6946.000000;-0.139324
6945.000000;-0.139594
6944.000000;-0.140018
6943.000000;-0.140416
6942.000000;-0.140710
6941.000000;-0.140947
6940.000000;-0.141114
6939.000000;-0.141145
6938.000000;-0.141105
6937.000000;-0.141214
6936.000000;-0.141593
6935.000000;-0.142118
6934.000000;-0.142574
6933.000000;-0.142858
6932.000000;-0.143003
6931.000000;-0.143086
6930.000000;-0.143188
6929.000000;-0.143380
6928.000000;-0.143687
6927.000000;-0.144048
6926.000000;-0.144382
6925.000000;-0.144668
6924.000000;-0.144943
6923.000000;-0.145255
6922.000000;-0.145643
6921.000000;-0.146079
6920.000000;-0.146408
6919.000000;-0.146459
6918.000000;-0.146277
6917.000000;-0.146160
6916.000000;-0.146381
6915.000000;-0.146922
6914.000000;-0.147527
6913.000000;-0.147976
6912.000000;-0.148241
6911.000000;-0.148419
6910.000000;-0.148604
6909.000000;-0.148840
6908.000000;-0.149131
6907.000000;-0.149442
6906.000000;-0.149736
6905.000000;-0.150003
6904.000000;-0.150252
6903.000000;-0.150477
6902.000000;-0.150676
6901.000000;-0.150882
6900.000000;-0.151128
6899.000000;-0.151414
6898.000000;-0.151709
6897.000000;-0.151959
6896.000000;-0.152099
6895.000000;-0.152112
6894.000000;-0.152091
6893.000000;-0.152210
6892.000000;-0.152567
6891.000000;-0.153088
6890.000000;-0.153600
6889.000000;-0.153996
6888.000000;-0.154289
6887.000000;-0.154554
6886.000000;-0.154841
6885.000000;-0.155145
6884.000000;-0.155427
6883.000000;-0.155655
6882.000000;-0.155849
6881.000000;-0.156078
6880.000000;-0.156390
6879.000000;-0.156758
6878.000000;-0.157094
6877.000000;-0.157342
6876.000000;-0.157544
6875.000000;-0.157796
6874.000000;-0.158127
6873.000000;-0.158463
6872.000000;-0.158729
6871.000000;-0.158939
6870.000000;-0.159164
6869.000000;-0.159425
6868.000000;-0.159679
6867.000000;-0.159901
6866.000000;-0.160117
6865.000000;-0.160344
6864.000000;-0.160560
6863.000000;-0.160749
6862.000000;-0.160936
6861.000000;-0.161149
6860.000000;-0.161400
6859.000000;-0.161692
6858.000000;-0.162027
6857.000000;-0.162388
6856.000000;-0.162743
6855.000000;-0.163073
6854.000000;-0.163368
6853.000000;-0.163610
6852.000000;-0.163794
6851.000000;-0.163958
6850.000000;-0.164161
6849.000000;-0.164421
6848.000000;-0.164712
6847.000000;-0.165016
6846.000000;-0.165343
6845.000000;-0.165685
6844.000000;-0.166001
6843.000000;-0.166264
6842.000000;-0.166488
6841.000000;-0.166684
6840.000000;-0.166840
6839.000000;-0.166982
6838.000000;-0.167176
6837.000000;-0.167427
6836.000000;-0.167652
6835.000000;-0.167797
6834.000000;-0.167939
6833.000000;-0.168199
6832.000000;-0.168571
6831.000000;-0.168937
6830.000000;-0.169228
6829.000000;-0.169480
6828.000000;-0.169728
6827.000000;-0.169949
6826.000000;-0.170142
6825.000000;-0.170387
6824.000000;-0.170755
6823.000000;-0.171193
6822.000000;-0.171566
6821.000000;-0.171786
6820.000000;-0.171879
6819.000000;-0.171948
6818.000000;-0.172099
6817.000000;-0.172393
6816.000000;-0.172798
6815.000000;-0.173217
6814.000000;-0.173555
6813.000000;-0.173802
6812.000000;-0.174021
6811.000000;-0.174274
6810.000000;-0.174575
6809.000000;-0.174907
6808.000000;-0.175227
6807.000000;-0.175461
6806.000000;-0.175553
6805.000000;-0.175547
6804.000000;-0.175588
6803.000000;-0.175792
6802.000000;-0.176121
6801.000000;-0.176441
6800.000000;-0.176685
6799.000000;-0.176925
6798.000000;-0.177245
6797.000000;-0.177627
6796.000000;-0.177981
6795.000000;-0.178249
6794.000000;-0.178432
6793.000000;-0.178553
6792.000000;-0.178655
6791.000000;-0.178827
6790.000000;-0.179146
6789.000000;-0.179575
6788.000000;-0.179967
6787.000000;-0.180230
6786.000000;-0.180431
6785.000000;-0.180705
6784.000000;-0.181085
6783.000000;-0.181475
6782.000000;-0.181763
6781.000000;-0.181928
6780.000000;-0.182041
6779.000000;-0.182193
6778.000000;-0.182419
6777.000000;-0.182687
6776.000000;-0.182951
6775.000000;-0.183211
6774.000000;-0.183497
6773.000000;-0.183796
6772.000000;-0.184048
6771.000000;-0.184236
6770.000000;-0.184413
6769.000000;-0.184625
6768.000000;-0.184838
6767.000000;-0.185019
6766.000000;-0.185219
6765.000000;-0.185510
6764.000000;-0.185867
6763.000000;-0.186189
6762.000000;-0.186421
6761.000000;-0.186603
6760.000000;-0.186799
6759.000000;-0.187036
6758.000000;-0.187297
6757.000000;-0.187549
6756.000000;-0.187763
6755.000000;-0.187965
6754.000000;-0.188237
6753.000000;-0.188630
6752.000000;-0.189070
6751.000000;-0.189428
6750.000000;-0.189657
6749.000000;-0.189826
6748.000000;-0.190022
6747.000000;-0.190265
6746.000000;-0.190528
6745.000000;-0.190794
6744.000000;-0.191060
6743.000000;-0.191331
6742.000000;-0.191616
6741.000000;-0.191916
6740.000000;-0.192210
6739.000000;-0.192474
6738.000000;-0.192704
6737.000000;-0.192929
6736.000000;-0.193165
6735.000000;-0.193408
6734.000000;-0.193650
6733.000000;-0.193889
6732.000000;-0.194114
6731.000000;-0.194316
6730.000000;-0.194494
6729.000000;-0.194655
6728.000000;-0.194799
6727.000000;-0.194945
6726.000000;-0.195138
6725.000000;-0.195411
6724.000000;-0.195735
6723.000000;-0.196051
6722.000000;-0.196346
6721.000000;-0.196649
6720.000000;-0.196966
6719.000000;-0.197260
6718.000000;-0.197501
6717.000000;-0.197694
6716.000000;-0.197856
6715.000000;-0.197990
6714.000000;-0.198134
6713.000000;-0.198347
6712.000000;-0.198680
6711.000000;-0.199073
6710.000000;-0.199399
6709.000000;-0.199601
6708.000000;-0.199709
6707.000000;-0.199791
6706.000000;-0.199942
6705.000000;-0.200232
6704.000000;-0.200614
6703.000000;-0.200861
6702.000000;-0.201210
6701.000000;-0.201499
6700.000000;-0.201735
6699.000000;-0.201943
6698.000000;-0.202164
6697.000000;-0.202429
6696.000000;-0.202729
6695.000000;-0.203020
6694.000000;-0.203271
6693.000000;-0.203493
6692.000000;-0.203704
6691.000000;-0.203902
6690.000000;-0.204073
6689.000000;-0.204232
6688.000000;-0.204419
6687.000000;-0.204673
6686.000000;-0.204993
6685.000000;-0.205324
6684.000000;-0.205590
6683.000000;-0.205757
6682.000000;-0.205869
6681.000000;-0.206016
6680.000000;-0.206259
6679.000000;-0.206591
6678.000000;-0.206959
6677.000000;-0.207302
6676.000000;-0.207578
6675.000000;-0.207788
6674.000000;-0.207970
6673.000000;-0.208177
6672.000000;-0.208436
6671.000000;-0.208736
6670.000000;-0.209046
6669.000000;-0.209327
6668.000000;-0.209560
6667.000000;-0.209754
6666.000000;-0.209943
6665.000000;-0.210147
6664.000000;-0.210365
6663.000000;-0.210588
6662.000000;-0.210825
6661.000000;-0.211076
6660.000000;-0.211318
6659.000000;-0.211530
6658.000000;-0.211739
6657.000000;-0.211992
6656.000000;-0.212291
6655.000000;-0.212586
6654.000000;-0.212833
6653.000000;-0.213036
6652.000000;-0.213225
6651.000000;-0.213430
6650.000000;-0.213673
6649.000000;-0.213954
6648.000000;-0.214244
6647.000000;-0.214510
6646.000000;-0.214748
6645.000000;-0.214992
6644.000000;-0.215262
6643.000000;-0.215536
6642.000000;-0.215778
6641.000000;-0.215981
6640.000000;-0.216183
6639.000000;-0.216432
6638.000000;-0.216743
6637.000000;-0.217072
6636.000000;-0.217354
6635.000000;-0.217567
6634.000000;-0.217762
6633.000000;-0.218007
6632.000000;-0.218306
6631.000000;-0.218599
6630.000000;-0.218830
6629.000000;-0.219009
6628.000000;-0.219189
6627.000000;-0.219416
6626.000000;-0.219684
6625.000000;-0.219950
6624.000000;-0.220169
6623.000000;-0.220331
6622.000000;-0.220464
6621.000000;-0.220607
6620.000000;-0.220783
6619.000000;-0.221000
6618.000000;-0.221254
6617.000000;-0.221529
6616.000000;-0.221797
6615.000000;-0.222051
6614.000000;-0.222304
6613.000000;-0.222565
6612.000000;-0.222812
6611.000000;-0.223023
6610.000000;-0.223215
6609.000000;-0.223428
6608.000000;-0.223670
6607.000000;-0.223919
6606.000000;-0.224156
6605.000000;-0.224381
6604.000000;-0.224604
6603.000000;-0.224835
6602.000000;-0.225086
6601.000000;-0.225367
6600.000000;-0.225662
6599.000000;-0.225937
6598.000000;-0.226171
6597.000000;-0.226372
6596.000000;-0.226559
6595.000000;-0.226750
6594.000000;-0.226956
6593.000000;-0.227177
6592.000000;-0.227399
6591.000000;-0.227614
6590.000000;-0.227838
6589.000000;-0.228095
6588.000000;-0.228388
6587.000000;-0.228692
6586.000000;-0.228982
6585.000000;-0.229257
6584.000000;-0.229538
6583.000000;-0.229852
6582.000000;-0.230196
6581.000000;-0.230529
6580.000000;-0.230804
6579.000000;-0.231012
6578.000000;-0.231193
6577.000000;-0.231381
6576.000000;-0.231573
6575.000000;-0.231761
6574.000000;-0.231967
6573.000000;-0.232213
6572.000000;-0.232492
6571.000000;-0.232776
6570.000000;-0.233058
6569.000000;-0.233340
6568.000000;-0.233601
6567.000000;-0.233806
6566.000000;-0.233961
6565.000000;-0.234120
6564.000000;-0.234327
6563.000000;-0.234583
6562.000000;-0.234846
6561.000000;-0.235083
6560.000000;-0.235292
6559.000000;-0.235507
6558.000000;-0.235763
6557.000000;-0.236061
6556.000000;-0.236362
6555.000000;-0.236629
6554.000000;-0.236860
6553.000000;-0.237075
6552.000000;-0.237285
6551.000000;-0.237492
6550.000000;-0.237700
6549.000000;-0.237917
6548.000000;-0.238145
6547.000000;-0.238383
6546.000000;-0.238623
6545.000000;-0.238847
6544.000000;-0.239045
6543.000000;-0.239243
6542.000000;-0.239487
6541.000000;-0.239774
6540.000000;-0.240053
6539.000000;-0.240287
6538.000000;-0.240504
6537.000000;-0.240745
6536.000000;-0.240989
6535.000000;-0.241187
6534.000000;-0.241339
6533.000000;-0.241502
6532.000000;-0.241721
6531.000000;-0.241985
6530.000000;-0.242258
6529.000000;-0.242532
6528.000000;-0.242814
6527.000000;-0.243115
6526.000000;-0.243422
6525.000000;-0.243709
6524.000000;-0.243949
6523.000000;-0.244147
6522.000000;-0.244338
6521.000000;-0.244546
6520.000000;-0.244763
6519.000000;-0.244979
6518.000000;-0.245208
6517.000000;-0.245462
6516.000000;-0.245713
6515.000000;-0.245922
6514.000000;-0.246089
6513.000000;-0.246257
6512.000000;-0.246457
6511.000000;-0.246683
6510.000000;-0.246914
6509.000000;-0.247135
6508.000000;-0.247350
6507.000000;-0.247574
6506.000000;-0.247824
6505.000000;-0.248102
6504.000000;-0.248383
6503.000000;-0.248644
6502.000000;-0.248875
6501.000000;-0.249070
6500.000000;-0.249225
6499.000000;-0.249360
6498.000000;-0.249534
6497.000000;-0.249796
6496.000000;-0.250127
6495.000000;-0.250451
6494.000000;-0.250705
6493.000000;-0.250889
6492.000000;-0.251063
6491.000000;-0.251296
6490.000000;-0.251616
6489.000000;-0.251977
6488.000000;-0.252292
6487.000000;-0.252499
6486.000000;-0.252607
6485.000000;-0.252679
6484.000000;-0.252782
6483.000000;-0.252964
6482.000000;-0.253231
6481.000000;-0.253535
6480.000000;-0.253815
6479.000000;-0.254052
6478.000000;-0.254277
6477.000000;-0.254511
6476.000000;-0.254733
6475.000000;-0.254927
6474.000000;-0.255119
6473.000000;-0.255343
6472.000000;-0.255593
6471.000000;-0.255848
6470.000000;-0.256106
6469.000000;-0.256369
6468.000000;-0.256618
6467.000000;-0.256831
6466.000000;-0.257023
6465.000000;-0.257223
6464.000000;-0.257439
6463.000000;-0.257665
6462.000000;-0.257905
6461.000000;-0.258148
6460.000000;-0.258364
6459.000000;-0.258541
6458.000000;-0.258722
6457.000000;-0.258954
6456.000000;-0.259233
6455.000000;-0.259520
6454.000000;-0.259800
6453.000000;-0.260079
6452.000000;-0.260338
6451.000000;-0.260557
6450.000000;-0.260754
6449.000000;-0.260974
6448.000000;-0.261229
6447.000000;-0.261489
6446.000000;-0.261725
6445.000000;-0.261931
6444.000000;-0.262114
6443.000000;-0.262284
6442.000000;-0.262468
6441.000000;-0.262681
6440.000000;-0.262902
6439.000000;-0.263107
6438.000000;-0.263314
6437.000000;-0.263555
6436.000000;-0.263825
6435.000000;-0.264085
6434.000000;-0.264320
6433.000000;-0.264545
6432.000000;-0.264764
6431.000000;-0.264958
6430.000000;-0.265124
6429.000000;-0.265285
6428.000000;-0.265451
6427.000000;-0.265617
6426.000000;-0.265785
6425.000000;-0.265974
6424.000000;-0.266197
6423.000000;-0.266440
6422.000000;-0.266675
6421.000000;-0.266886
6420.000000;-0.267073
6419.000000;-0.267259
6418.000000;-0.267480
6417.000000;-0.267755
6416.000000;-0.268070
6415.000000;-0.268396
6414.000000;-0.268706
6413.000000;-0.268969
6412.000000;-0.269149
6411.000000;-0.269258
6410.000000;-0.269375
6409.000000;-0.269581
6408.000000;-0.269881
6407.000000;-0.270219
6406.000000;-0.270546
6405.000000;-0.270838
6404.000000;-0.271078
6403.000000;-0.271270
6402.000000;-0.271456
6401.000000;-0.271677
6400.000000;-0.271922
6399.000000;-0.272152
6398.000000;-0.272367
6397.000000;-0.272598
6396.000000;-0.272843
6395.000000;-0.273056
6394.000000;-0.273205
6393.000000;-0.273310
6392.000000;-0.273410
6391.000000;-0.273539
6390.000000;-0.273725
6389.000000;-0.273974
6388.000000;-0.274249
6387.000000;-0.274496
6386.000000;-0.274696
6385.000000;-0.274869
6384.000000;-0.275044
6383.000000;-0.275234
6382.000000;-0.275463
6381.000000;-0.275747
6380.000000;-0.276064
6379.000000;-0.276362
6378.000000;-0.276612
6377.000000;-0.276825
6376.000000;-0.277021
6375.000000;-0.277215
6374.000000;-0.277414
6373.000000;-0.277624
6372.000000;-0.277831
6371.000000;-0.278022
6370.000000;-0.278220
6369.000000;-0.278456
6368.000000;-0.278732
6367.000000;-0.279019
6366.000000;-0.279291
6365.000000;-0.279538
6364.000000;-0.279748
6363.000000;-0.279920
6362.000000;-0.280088
6361.000000;-0.280296
6360.000000;-0.280547
6359.000000;-0.280802
6358.000000;-0.281040
6357.000000;-0.281278
6356.000000;-0.281535
6355.000000;-0.281795
6354.000000;-0.282033
6353.000000;-0.282239
6352.000000;-0.282417
6351.000000;-0.282581
6350.000000;-0.282752
6349.000000;-0.282949
6348.000000;-0.283172
6347.000000;-0.283409
6346.000000;-0.283652
6345.000000;-0.283891
6344.000000;-0.284097
6343.000000;-0.284239
6342.000000;-0.284331
6341.000000;-0.284425
6340.000000;-0.284566
6339.000000;-0.284763
6338.000000;-0.284994
6337.000000;-0.285237
6336.000000;-0.285486
6335.000000;-0.285755
6334.000000;-0.286055
6333.000000;-0.286358
6332.000000;-0.286602
6331.000000;-0.286760
6330.000000;-0.286883
6329.000000;-0.287053
6328.000000;-0.287293
6327.000000;-0.287562
6326.000000;-0.287805
6325.000000;-0.288002
6324.000000;-0.288171
6323.000000;-0.288348
6322.000000;-0.288560
6321.000000;-0.288789
6320.000000;-0.288988
6319.000000;-0.289140
6318.000000;-0.289284
6317.000000;-0.289452
6316.000000;-0.289624
6315.000000;-0.289777
6314.000000;-0.289951
6313.000000;-0.290207
6312.000000;-0.290535
6311.000000;-0.290858
6310.000000;-0.291118
6309.000000;-0.291328
6308.000000;-0.291522
6307.000000;-0.291723
6306.000000;-0.291942
6305.000000;-0.292185
6304.000000;-0.292434
6303.000000;-0.292659
6302.000000;-0.292858
6301.000000;-0.293045
6300.000000;-0.293219
6299.000000;-0.293368
6298.000000;-0.293505
6297.000000;-0.293663
6296.000000;-0.293860
6295.000000;-0.294102
6294.000000;-0.294403
6293.000000;-0.294764
6292.000000;-0.295139
6291.000000;-0.295454
6290.000000;-0.295682
6289.000000;-0.295856
6288.000000;-0.296024
6287.000000;-0.296216
6286.000000;-0.296445
6285.000000;-0.296699
6284.000000;-0.296938
6283.000000;-0.297135
6282.000000;-0.297312
6281.000000;-0.297503
6280.000000;-0.297700
6279.000000;-0.297857
6278.000000;-0.297975
6277.000000;-0.298105
6276.000000;-0.298290
6275.000000;-0.298534
6274.000000;-0.298829
6273.000000;-0.299158
6272.000000;-0.299465
6271.000000;-0.299679
6270.000000;-0.299779
6269.000000;-0.299827
6268.000000;-0.299902
6267.000000;-0.300060
6266.000000;-0.300318
6265.000000;-0.300640
6264.000000;-0.300929
6263.000000;-0.301096
6262.000000;-0.301154
6261.000000;-0.301219
6260.000000;-0.301382
6259.000000;-0.301626
6258.000000;-0.301876
6257.000000;-0.302093
6256.000000;-0.302292
6255.000000;-0.302501
6254.000000;-0.302738
6253.000000;-0.303001
6252.000000;-0.303271
6251.000000;-0.303529
6250.000000;-0.303781
6249.000000;-0.304049
6248.000000;-0.304325
6247.000000;-0.304572
6246.000000;-0.304768
6245.000000;-0.304941
6244.000000;-0.305132
6243.000000;-0.305351
6242.000000;-0.305574
6241.000000;-0.305780
6240.000000;-0.305967
6239.000000;-0.306156
6238.000000;-0.306372
6237.000000;-0.306609
6236.000000;-0.306830
6235.000000;-0.307011
6234.000000;-0.307175
6233.000000;-0.307360
6232.000000;-0.307563
6231.000000;-0.307755
6230.000000;-0.307949
6229.000000;-0.308188
6228.000000;-0.308467
6227.000000;-0.308725
6226.000000;-0.308921
6225.000000;-0.309089
6224.000000;-0.309289
6223.000000;-0.309538
6222.000000;-0.309815
6221.000000;-0.310092
6220.000000;-0.310347
6219.000000;-0.310562
6218.000000;-0.310745
6217.000000;-0.310933
6216.000000;-0.311160
6215.000000;-0.311410
6214.000000;-0.311639
6213.000000;-0.311819
6212.000000;-0.311968
6211.000000;-0.312132
6210.000000;-0.312342
6209.000000;-0.312590
6208.000000;-0.312828
6207.000000;-0.313020
6206.000000;-0.313174
6205.000000;-0.313330
6204.000000;-0.313507
6203.000000;-0.313704
6202.000000;-0.313922
6201.000000;-0.314176
6200.000000;-0.314459
6199.000000;-0.314729
6198.000000;-0.314951
6197.000000;-0.315128
6196.000000;-0.315290
6195.000000;-0.315474
6194.000000;-0.315690
6193.000000;-0.315921
6192.000000;-0.316135
6191.000000;-0.316318
6190.000000;-0.316495
6189.000000;-0.316695
6188.000000;-0.316916
6187.000000;-0.317133
6186.000000;-0.317335
6185.000000;-0.317532
6184.000000;-0.317741
6183.000000;-0.317978
6182.000000;-0.318252
6181.000000;-0.318553
6180.000000;-0.318836
6179.000000;-0.319057
6178.000000;-0.319217
6177.000000;-0.319358
6176.000000;-0.319518
6175.000000;-0.319703
6174.000000;-0.319912
6173.000000;-0.320131
6172.000000;-0.320346
6171.000000;-0.320549
6170.000000;-0.320765
6169.000000;-0.321018
6168.000000;-0.321291
6167.000000;-0.321536
6166.000000;-0.321731
6165.000000;-0.321897
6164.000000;-0.322065
6163.000000;-0.322250
6162.000000;-0.322464
6161.000000;-0.322709
6160.000000;-0.322965
6159.000000;-0.323207
6158.000000;-0.323437
6157.000000;-0.323682
6156.000000;-0.323945
6155.000000;-0.324189
6154.000000;-0.324381
6153.000000;-0.324533
6152.000000;-0.324686
6151.000000;-0.324876
6150.000000;-0.325115
6149.000000;-0.325386
6148.000000;-0.325655
6147.000000;-0.325896
6146.000000;-0.326103
6145.000000;-0.326291
6144.000000;-0.326471
6143.000000;-0.326653
6142.000000;-0.326855
6141.000000;-0.327093
6140.000000;-0.327362
6139.000000;-0.327632
6138.000000;-0.327877
6137.000000;-0.328094
6136.000000;-0.328294
6135.000000;-0.328501
6134.000000;-0.328732
6133.000000;-0.328980
6132.000000;-0.329218
6131.000000;-0.329431
6130.000000;-0.329631
6129.000000;-0.329836
6128.000000;-0.330044
6127.000000;-0.330247
6126.000000;-0.330452
6125.000000;-0.330662
6124.000000;-0.330868
6123.000000;-0.331054
6122.000000;-0.331220
6121.000000;-0.331373
6120.000000;-0.331521
6119.000000;-0.331685
6118.000000;-0.331904
6117.000000;-0.332188
6116.000000;-0.332507
6115.000000;-0.332824
6114.000000;-0.333128
6113.000000;-0.333403
6112.000000;-0.333623
6111.000000;-0.333784
6110.000000;-0.333925
6109.000000;-0.334075
6108.000000;-0.334225
6107.000000;-0.334357
6106.000000;-0.334490
6105.000000;-0.334654
6104.000000;-0.334841
6103.000000;-0.335040
6102.000000;-0.335274
6101.000000;-0.335563
6100.000000;-0.335872
6099.000000;-0.336153
6098.000000;-0.336411
6097.000000;-0.336681
6096.000000;-0.336955
6095.000000;-0.337198
6094.000000;-0.337404
6093.000000;-0.337600
6092.000000;-0.337792
6091.000000;-0.337971
6090.000000;-0.338159
6089.000000;-0.338389
6088.000000;-0.338650
6087.000000;-0.338889
6086.000000;-0.339087
6085.000000;-0.339268
6084.000000;-0.339445
6083.000000;-0.339607
6082.000000;-0.339756
6081.000000;-0.339927
6080.000000;-0.340141
6079.000000;-0.340383
6078.000000;-0.340629
6077.000000;-0.340858
6076.000000;-0.341049
6075.000000;-0.341185
6074.000000;-0.341289
6073.000000;-0.341410
6072.000000;-0.341592
6071.000000;-0.341851
6070.000000;-0.342183
6069.000000;-0.342541
6068.000000;-0.342841
6067.000000;-0.343033
6066.000000;-0.343168
6065.000000;-0.343347
6064.000000;-0.343602
6063.000000;-0.343884
6062.000000;-0.344142
6061.000000;-0.344373
6060.000000;-0.344574
6059.000000;-0.344736
6058.000000;-0.344883
6057.000000;-0.345070
6056.000000;-0.345314
6055.000000;-0.345565
6054.000000;-0.345783
6053.000000;-0.345983
6052.000000;-0.346190
6051.000000;-0.346405
6050.000000;-0.346620
6049.000000;-0.346855
6048.000000;-0.347127
6047.000000;-0.347418
6046.000000;-0.347696
6045.000000;-0.347945
6044.000000;-0.348173
6043.000000;-0.348388
6042.000000;-0.348597
6041.000000;-0.348808
6040.000000;-0.349022
6039.000000;-0.349228
6038.000000;-0.349429
6037.000000;-0.349633
6036.000000;-0.349844
6035.000000;-0.350054
6034.000000;-0.350257
6033.000000;-0.350454
6032.000000;-0.350647
6031.000000;-0.350843
6030.000000;-0.351055
6029.000000;-0.351278
6028.000000;-0.351479
6027.000000;-0.351631
6026.000000;-0.351769
6025.000000;-0.351956
6024.000000;-0.352214
6023.000000;-0.352501
6022.000000;-0.352771
6021.000000;-0.353015
6020.000000;-0.353241
6019.000000;-0.353446
6018.000000;-0.353624
6017.000000;-0.353778
6016.000000;-0.353924
6015.000000;-0.354084
6014.000000;-0.354273
6013.000000;-0.354481
6012.000000;-0.354673
6011.000000;-0.354828
6010.000000;-0.354976
6009.000000;-0.355174
6008.000000;-0.355453
6007.000000;-0.355794
6006.000000;-0.356148
6005.000000;-0.356455
6004.000000;-0.356679
6003.000000;-0.356835
6002.000000;-0.356992
6001.000000;-0.357199
6000.000000;-0.357441
5999.000000;-0.357678
5998.000000;-0.357911
5997.000000;-0.358164
5996.000000;-0.358433
5995.000000;-0.358684
5994.000000;-0.358916
5993.000000;-0.359163
5992.000000;-0.359438
5991.000000;-0.359710
5990.000000;-0.359947
5989.000000;-0.360138
5988.000000;-0.360293
5987.000000;-0.360434
5986.000000;-0.360600
5985.000000;-0.360810
5984.000000;-0.361036
5983.000000;-0.361233
5982.000000;-0.361400
5981.000000;-0.361580
5980.000000;-0.361804
5979.000000;-0.362062
5978.000000;-0.362325
5977.000000;-0.362568
5976.000000;-0.362778
5975.000000;-0.362953
5974.000000;-0.363110
5973.000000;-0.363271
5972.000000;-0.363443
5971.000000;-0.363629
5970.000000;-0.363829
5969.000000;-0.364035
5968.000000;-0.364223
5967.000000;-0.364392
5966.000000;-0.364568
5965.000000;-0.364775
5964.000000;-0.365005
5963.000000;-0.365256
5962.000000;-0.365556
5961.000000;-0.365910
5960.000000;-0.366263
5959.000000;-0.366552
5958.000000;-0.366776
5957.000000;-0.366965
5956.000000;-0.367115
5955.000000;-0.367213
5954.000000;-0.367300
5953.000000;-0.367445
5952.000000;-0.367661
5951.000000;-0.367907
5950.000000;-0.368162
5949.000000;-0.368436
5948.000000;-0.368714
5947.000000;-0.368951
5946.000000;-0.369137
5945.000000;-0.369313
5944.000000;-0.369517
5943.000000;-0.369749
5942.000000;-0.370003
5941.000000;-0.370275
5940.000000;-0.370546
5939.000000;-0.370792
5938.000000;-0.371010
5937.000000;-0.371220
5936.000000;-0.371430
5935.000000;-0.371631
5934.000000;-0.371831
5933.000000;-0.372041
5932.000000;-0.372249
5931.000000;-0.372433
5930.000000;-0.372615
5929.000000;-0.372840
5928.000000;-0.373112
5927.000000;-0.373389
5926.000000;-0.373634
5925.000000;-0.373843
5924.000000;-0.374029
5923.000000;-0.374211
5922.000000;-0.374419
5921.000000;-0.374664
5920.000000;-0.374900
5919.000000;-0.375070
5918.000000;-0.375189
5917.000000;-0.375326
5916.000000;-0.375520
5915.000000;-0.375745
5914.000000;-0.375970
5913.000000;-0.376193
5912.000000;-0.376415
5911.000000;-0.376627
5910.000000;-0.376835
5909.000000;-0.377060
5908.000000;-0.377299
5907.000000;-0.377527
5906.000000;-0.377735
5905.000000;-0.377955
5904.000000;-0.378214
5903.000000;-0.378502
5902.000000;-0.378786
5901.000000;-0.379040
5900.000000;-0.379266
5899.000000;-0.379488
5898.000000;-0.379736
5897.000000;-0.380008
5896.000000;-0.380261
5895.000000;-0.380468
5894.000000;-0.380658
5893.000000;-0.380873
5892.000000;-0.381109
5891.000000;-0.381338
5890.000000;-0.381559
5889.000000;-0.381793
5888.000000;-0.382045
5887.000000;-0.382301
5886.000000;-0.382568
5885.000000;-0.382850
5884.000000;-0.383111
5883.000000;-0.383316
5882.000000;-0.383491
5881.000000;-0.383700
5880.000000;-0.383961
5879.000000;-0.384232
5878.000000;-0.384482
5877.000000;-0.384715
5876.000000;-0.384935
5875.000000;-0.385131
5874.000000;-0.385313
5873.000000;-0.385511
5872.000000;-0.385731
5871.000000;-0.385942
5870.000000;-0.386129
5869.000000;-0.386309
5868.000000;-0.386507
5867.000000;-0.386741
5866.000000;-0.387024
5865.000000;-0.387351
5864.000000;-0.387680
5863.000000;-0.387964
5862.000000;-0.388204
5861.000000;-0.388424
5860.000000;-0.388627
5859.000000;-0.388793
5858.000000;-0.388940
5857.000000;-0.389113
5856.000000;-0.389340
5855.000000;-0.389613
5854.000000;-0.389910
5853.000000;-0.390198
5852.000000;-0.390426
5851.000000;-0.390583
5850.000000;-0.390731
5849.000000;-0.390946
5848.000000;-0.391221
5847.000000;-0.391492
5846.000000;-0.391738
5845.000000;-0.392000
5844.000000;-0.392289
5843.000000;-0.392554
5842.000000;-0.392761
5841.000000;-0.392942
5840.000000;-0.393142
5839.000000;-0.393370
5838.000000;-0.393603
5837.000000;-0.393814
5836.000000;-0.393982
5835.000000;-0.394105
5834.000000;-0.394221
5833.000000;-0.394386
5832.000000;-0.394612
5831.000000;-0.394862
5830.000000;-0.395104
5829.000000;-0.395350
5828.000000;-0.395634
5827.000000;-0.395981
5826.000000;-0.396383
5825.000000;-0.396788
5824.000000;-0.397118
5823.000000;-0.397340
5822.000000;-0.397501
5821.000000;-0.397678
5820.000000;-0.397887
5819.000000;-0.398110
5818.000000;-0.398349
5817.000000;-0.398619
5816.000000;-0.398884
5815.000000;-0.399080
5814.000000;-0.399209
5813.000000;-0.399343
5812.000000;-0.399541
5811.000000;-0.399785
5810.000000;-0.400036
5809.000000;-0.400278
5808.000000;-0.400514
5807.000000;-0.400750
5806.000000;-0.400996
5805.000000;-0.401256
5804.000000;-0.401503
5803.000000;-0.401713
5802.000000;-0.401906
5801.000000;-0.402134
5800.000000;-0.402417
5799.000000;-0.402723
5798.000000;-0.403014
5797.000000;-0.403271
5796.000000;-0.403491
5795.000000;-0.403685
5794.000000;-0.403885
5793.000000;-0.404119
5792.000000;-0.404377
5791.000000;-0.404627
5790.000000;-0.404858
5789.000000;-0.405078
5788.000000;-0.405298
5787.000000;-0.405532
5786.000000;-0.405804
5785.000000;-0.406107
5784.000000;-0.406386
5783.000000;-0.406611
5782.000000;-0.406834
5781.000000;-0.407121
5780.000000;-0.407458
5779.000000;-0.407765
5778.000000;-0.407996
5777.000000;-0.408170
5776.000000;-0.408319
5775.000000;-0.408469
5774.000000;-0.408667
5773.000000;-0.408945
5772.000000;-0.409267
5771.000000;-0.409557
5770.000000;-0.409786
5769.000000;-0.409985
5768.000000;-0.410190
5767.000000;-0.410417
5766.000000;-0.410680
5765.000000;-0.410985
5764.000000;-0.411304
5763.000000;-0.411596
5762.000000;-0.411852
5761.000000;-0.412079
5760.000000;-0.412270
5759.000000;-0.412433
5758.000000;-0.412628
5757.000000;-0.412905
5756.000000;-0.413231
5755.000000;-0.413526
5754.000000;-0.413774
5753.000000;-0.414019
5752.000000;-0.414277
5751.000000;-0.414518
5750.000000;-0.414736
5749.000000;-0.414962
5748.000000;-0.415205
5747.000000;-0.415447
5746.000000;-0.415700
5745.000000;-0.415996
5744.000000;-0.416321
5743.000000;-0.416616
5742.000000;-0.416852
5741.000000;-0.417058
5740.000000;-0.417265
5739.000000;-0.417481
5738.000000;-0.417721
5737.000000;-0.418002
5736.000000;-0.418301
5735.000000;-0.418574
5734.000000;-0.418820
5733.000000;-0.419068
5732.000000;-0.419326
5731.000000;-0.419576
5730.000000;-0.419829
5729.000000;-0.420111
5728.000000;-0.420412
5727.000000;-0.420701
5726.000000;-0.420977
5725.000000;-0.421266
5724.000000;-0.421550
5723.000000;-0.421793
5722.000000;-0.422011
5721.000000;-0.422261
5720.000000;-0.422554
5719.000000;-0.422846
5718.000000;-0.423117
5717.000000;-0.423394
5716.000000;-0.423681
5715.000000;-0.423952
5714.000000;-0.424206
5713.000000;-0.424469
5712.000000;-0.424728
5711.000000;-0.424940
5710.000000;-0.425105
5709.000000;-0.425284
5708.000000;-0.425512
5707.000000;-0.425765
5706.000000;-0.426015
5705.000000;-0.426267
5704.000000;-0.426525
5703.000000;-0.426774
5702.000000;-0.427016
5701.000000;-0.427266
5700.000000;-0.427512
5699.000000;-0.427725
5698.000000;-0.427960
5697.000000;-0.428185
5696.000000;-0.428446
5695.000000;-0.428734
5694.000000;-0.429038
5693.000000;-0.429348
5692.000000;-0.429625
5691.000000;-0.429840
5690.000000;-0.430026
5689.000000;-0.430252
5688.000000;-0.430531
5687.000000;-0.430835
5686.000000;-0.431156
5685.000000;-0.431503
5684.000000;-0.431837
5683.000000;-0.432098
5682.000000;-0.432291
5681.000000;-0.432490
5680.000000;-0.432720
5679.000000;-0.432934
5678.000000;-0.433101
5677.000000;-0.433254
5676.000000;-0.433432
5675.000000;-0.433644
5674.000000;-0.433899
5673.000000;-0.434209
5672.000000;-0.434543
5671.000000;-0.434840
5670.000000;-0.435077
5669.000000;-0.435295
5668.000000;-0.435534
5667.000000;-0.435804
5666.000000;-0.436101
5665.000000;-0.436404
5664.000000;-0.436664
5663.000000;-0.436856
5662.000000;-0.437037
5661.000000;-0.437290
5660.000000;-0.437616
5659.000000;-0.437942
5658.000000;-0.438231
5657.000000;-0.438509
5656.000000;-0.438790
5655.000000;-0.439045
5654.000000;-0.439268
5653.000000;-0.439489
5652.000000;-0.439722
5651.000000;-0.439952
5650.000000;-0.440180
5649.000000;-0.440430
5648.000000;-0.440693
5647.000000;-0.440937
5646.000000;-0.441170
5645.000000;-0.441428
5644.000000;-0.441714
5643.000000;-0.442003
5642.000000;-0.442296
5641.000000;-0.442601
5640.000000;-0.442878
5639.000000;-0.443075
5638.000000;-0.443226
5637.000000;-0.443423
5636.000000;-0.443685
5635.000000;-0.443941
5634.000000;-0.444140
5633.000000;-0.444314
5632.000000;-0.444504
5631.000000;-0.444725
5630.000000;-0.445000
5629.000000;-0.445350
5628.000000;-0.445732
5627.000000;-0.446059
5626.000000;-0.446311
5625.000000;-0.446552
5624.000000;-0.446830
5623.000000;-0.447120
5622.000000;-0.447393
5621.000000;-0.447658
5620.000000;-0.447919
5619.000000;-0.448163
5618.000000;-0.448393
5617.000000;-0.448636
5616.000000;-0.448889
5615.000000;-0.449116
5614.000000;-0.449321
5613.000000;-0.449555
5612.000000;-0.449841
5611.000000;-0.450142
5610.000000;-0.450415
5609.000000;-0.450645
5608.000000;-0.450841
5607.000000;-0.451031
5606.000000;-0.451265
5605.000000;-0.451561
5604.000000;-0.451861
5603.000000;-0.452099
5602.000000;-0.452283
5601.000000;-0.452469
5600.000000;-0.452670
5599.000000;-0.452859
5598.000000;-0.453046
5597.000000;-0.453265
5596.000000;-0.453508
5595.000000;-0.453747
5594.000000;-0.454002
5593.000000;-0.454305
5592.000000;-0.454622
5591.000000;-0.454896
5590.000000;-0.455149
5589.000000;-0.455434
5588.000000;-0.455721
5587.000000;-0.455934
5586.000000;-0.456089
5585.000000;-0.456287
5584.000000;-0.456565
5583.000000;-0.456863
5582.000000;-0.457131
5581.000000;-0.457376
5580.000000;-0.457598
5579.000000;-0.457789
5578.000000;-0.457986
5577.000000;-0.458230
5576.000000;-0.458473
5575.000000;-0.458638
5574.000000;-0.458758
5573.000000;-0.458949
5572.000000;-0.459226
5571.000000;-0.459499
5570.000000;-0.459738
5569.000000;-0.460015
5568.000000;-0.460350
5567.000000;-0.460656
5566.000000;-0.460897
5565.000000;-0.461138
5564.000000;-0.461407
5563.000000;-0.461633
5562.000000;-0.461782
5561.000000;-0.461928
5560.000000;-0.462130
5559.000000;-0.462345
5558.000000;-0.462524
5557.000000;-0.462704
5556.000000;-0.462936
5555.000000;-0.463202
5554.000000;-0.463477
5553.000000;-0.463790
5552.000000;-0.464144
5551.000000;-0.464461
5550.000000;-0.464661
5549.000000;-0.464773
5548.000000;-0.464879
5547.000000;-0.465043
5546.000000;-0.465290
5545.000000;-0.465606
5544.000000;-0.465923
5543.000000;-0.466170
5542.000000;-0.466371
5541.000000;-0.466627
5540.000000;-0.466972
5539.000000;-0.467315
5538.000000;-0.467588
5537.000000;-0.467841
5536.000000;-0.468137
5535.000000;-0.468434
5534.000000;-0.468653
5533.000000;-0.468803
5532.000000;-0.468963
5531.000000;-0.469182
5530.000000;-0.469459
5529.000000;-0.469778
5528.000000;-0.470096
5527.000000;-0.470375
5526.000000;-0.470633
5525.000000;-0.470891
5524.000000;-0.471107
5523.000000;-0.471220
5522.000000;-0.471277
5521.000000;-0.471439
5520.000000;-0.471764
5519.000000;-0.472122
5518.000000;-0.472399
5517.000000;-0.472635
5516.000000;-0.472929
5515.000000;-0.473262
5514.000000;-0.473510
5513.000000;-0.473641
5512.000000;-0.473770
5511.000000;-0.473992
5510.000000;-0.474264
5509.000000;-0.474481
5508.000000;-0.474636
5507.000000;-0.474847
5506.000000;-0.475195
5505.000000;-0.475559
5504.000000;-0.475797
5503.000000;-0.475977
5502.000000;-0.476276
5501.000000;-0.476718
5500.000000;-0.477057
5499.000000;-0.477099
5498.000000;-0.477054
5497.000000;-0.477246
5496.000000;-0.477605
5495.000000;-0.477770
5494.000000;-0.477649
5493.000000;-0.477626
5492.000000;-0.478034
5491.000000;-0.478621
5490.000000;-0.478921
5489.000000;-0.478913
5488.000000;-0.478994
5487.000000;-0.479407
5486.000000;-0.480002
5485.000000;-0.480499
5484.000000;-0.480854
5483.000000;-0.481191
5482.000000;-0.481435
5481.000000;-0.481468
5480.000000;-0.481462
5479.000000;-0.481689
5478.000000;-0.482098
5477.000000;-0.482305
5476.000000;-0.482137
5475.000000;-0.482048
5474.000000;-0.482510
5473.000000;-0.483234
5472.000000;-0.483615
5471.000000;-0.483613
5470.000000;-0.483707
5469.000000;-0.484162
5468.000000;-0.484671
5467.000000;-0.484846
5466.000000;-0.484824
5465.000000;-0.484939
5464.000000;-0.485188
5463.000000;-0.485376
5462.000000;-0.485453
5461.000000;-0.485539
5460.000000;-0.485767
5459.000000;-0.486142
5458.000000;-0.486577
5457.000000;-0.486954
5456.000000;-0.487183
5455.000000;-0.487371
5454.000000;-0.487789
5453.000000;-0.488368
5452.000000;-0.488640
5451.000000;-0.488397
5450.000000;-0.488074
5449.000000;-0.488194
5448.000000;-0.488555
5447.000000;-0.488503
5446.000000;-0.488097
5445.000000;-0.488112
5444.000000;-0.488813
5443.000000;-0.489580
5442.000000;-0.489802
5441.000000;-0.489636
5440.000000;-0.489777
5439.000000;-0.490493
5438.000000;-0.491297
5437.000000;-0.491659
5436.000000;-0.491498
5435.000000;-0.491160
5434.000000;-0.491178
5433.000000;-0.491671
5432.000000;-0.492178
5431.000000;-0.492274
5430.000000;-0.492043
5429.000000;-0.491977
5428.000000;-0.492476
5427.000000;-0.493393
5426.000000;-0.494286
5425.000000;-0.494929
5424.000000;-0.495390
5423.000000;-0.495865
5422.000000;-0.496465
5421.000000;-0.496928
5420.000000;-0.496886
5419.000000;-0.496499
5418.000000;-0.496315
5417.000000;-0.496458
5416.000000;-0.496405
5415.000000;-0.495800
5414.000000;-0.495188
5413.000000;-0.495323
5412.000000;-0.496012
5411.000000;-0.496484
5410.000000;-0.496632
5409.000000;-0.497055
5408.000000;-0.497956
5407.000000;-0.498852
5406.000000;-0.499362
5405.000000;-0.499728
5404.000000;-0.500252
5403.000000;-0.500702
5402.000000;-0.500883
5401.000000;-0.501002
5400.000000;-0.501086
5399.000000;-0.500955
5398.000000;-0.500694
5397.000000;-0.500645
5396.000000;-0.500854
5395.000000;-0.500893
5394.000000;-0.500669
5393.000000;-0.500701
5392.000000;-0.501223
5391.000000;-0.501776
5390.000000;-0.502020
5389.000000;-0.502238
5388.000000;-0.502725
5387.000000;-0.503210
5386.000000;-0.503359
5385.000000;-0.503506
5384.000000;-0.504003
5383.000000;-0.504375
5382.000000;-0.504219
5381.000000;-0.504034
5380.000000;-0.504356
5379.000000;-0.504849
5378.000000;-0.504864
5377.000000;-0.504596
5376.000000;-0.504803
5375.000000;-0.505474
5374.000000;-0.505921
5373.000000;-0.506049
5372.000000;-0.506423
5371.000000;-0.507193
5370.000000;-0.507840
5369.000000;-0.508080
5368.000000;-0.508296
5367.000000;-0.508733
5366.000000;-0.509052
5365.000000;-0.509065
5364.000000;-0.509093
5363.000000;-0.509312
5362.000000;-0.509500
5361.000000;-0.509466
5360.000000;-0.509320
5359.000000;-0.509238
5358.000000;-0.509274
5357.000000;-0.509502
5356.000000;-0.509931
5355.000000;-0.510217
5354.000000;-0.509996
5353.000000;-0.509627
5352.000000;-0.509766
5351.000000;-0.510146
5350.000000;-0.510025
5349.000000;-0.509577
5348.000000;-0.509661
5347.000000;-0.510372
5346.000000;-0.510719
5345.000000;-0.510149
5344.000000;-0.509580
5343.000000;-0.509970
5342.000000;-0.510721
5341.000000;-0.510833
5340.000000;-0.510449
5339.000000;-0.510351
5338.000000;-0.510788
5337.000000;-0.511352
5336.000000;-0.511801
5335.000000;-0.512270
5334.000000;-0.512648
5333.000000;-0.512737
5332.000000;-0.512852
5331.000000;-0.513360
5330.000000;-0.513966
5329.000000;-0.514111
5328.000000;-0.513826
5327.000000;-0.513761
5326.000000;-0.514217
5325.000000;-0.514730
5324.000000;-0.514928
5323.000000;-0.515035
5322.000000;-0.515302
5321.000000;-0.515651
5320.000000;-0.515948
5319.000000;-0.516216
5318.000000;-0.516494
5317.000000;-0.516711
5316.000000;-0.516847
5315.000000;-0.516991
5314.000000;-0.517071
5313.000000;-0.516922
5312.000000;-0.516684
5311.000000;-0.516670
5310.000000;-0.516888
5309.000000;-0.517025
5308.000000;-0.516967
5307.000000;-0.516992
5306.000000;-0.517256
5305.000000;-0.517520
5304.000000;-0.517580
5303.000000;-0.517618
5302.000000;-0.517867
5301.000000;-0.518227
5300.000000;-0.518440
5299.000000;-0.518509
5298.000000;-0.518660
5297.000000;-0.518877
5296.000000;-0.518934
5295.000000;-0.518869
5294.000000;-0.518929
5293.000000;-0.519132
5292.000000;-0.519191
5291.000000;-0.518941
5290.000000;-0.518688
5289.000000;-0.518801
5288.000000;-0.519158
5287.000000;-0.519323
5286.000000;-0.519170
5285.000000;-0.519036
5284.000000;-0.519225
5283.000000;-0.519591
5282.000000;-0.519818
5281.000000;-0.519879
5280.000000;-0.519970
5279.000000;-0.520137
5278.000000;-0.520268
5277.000000;-0.520339
5276.000000;-0.520407
5275.000000;-0.520478
5274.000000;-0.520491
5273.000000;-0.520452
5272.000000;-0.520464
5271.000000;-0.520458
5270.000000;-0.520231
5269.000000;-0.519869
5268.000000;-0.519695
5267.000000;-0.519734
5266.000000;-0.519669
5265.000000;-0.519373
5264.000000;-0.519164
5263.000000;-0.519370
5262.000000;-0.519772
5261.000000;-0.519890
5260.000000;-0.519733
5259.000000;-0.519744
5258.000000;-0.520073
5257.000000;-0.520414
5256.000000;-0.520468
5255.000000;-0.520306
5254.000000;-0.520171
5253.000000;-0.520129
5252.000000;-0.520142
5251.000000;-0.520162
5250.000000;-0.520070
5249.000000;-0.519882
5248.000000;-0.519855
5247.000000;-0.520158
5246.000000;-0.520550
5245.000000;-0.520651
5244.000000;-0.520517
5243.000000;-0.520649
5242.000000;-0.521228
5241.000000;-0.521755
5240.000000;-0.521783
5239.000000;-0.521576
5238.000000;-0.521595
5237.000000;-0.521762
5236.000000;-0.521748
5235.000000;-0.521606
5234.000000;-0.521638
5233.000000;-0.521809
5232.000000;-0.521741
5231.000000;-0.521371
5230.000000;-0.521128
5229.000000;-0.521229
5228.000000;-0.521328
5227.000000;-0.521112
5226.000000;-0.520798
5225.000000;-0.520762
5224.000000;-0.520981
5223.000000;-0.521158
5222.000000;-0.521228
5221.000000;-0.521350
5220.000000;-0.521563
5219.000000;-0.521788
5218.000000;-0.521984
5217.000000;-0.522157
5216.000000;-0.522241
5215.000000;-0.522134
5214.000000;-0.521940
5213.000000;-0.521834
5212.000000;-0.521758
5211.000000;-0.521574
5210.000000;-0.521334
5209.000000;-0.521163
5208.000000;-0.521016
5207.000000;-0.520797
5206.000000;-0.520670
5205.000000;-0.520909
5204.000000;-0.521408
5203.000000;-0.521744
5202.000000;-0.521786
5201.000000;-0.521834
5200.000000;-0.522087
5199.000000;-0.522306
5198.000000;-0.522208
5197.000000;-0.521971
5196.000000;-0.521928
5195.000000;-0.522007
5194.000000;-0.521943
5193.000000;-0.521770
5192.000000;-0.521704
5191.000000;-0.521752
5190.000000;-0.521746
5189.000000;-0.521714
5188.000000;-0.521833
5187.000000;-0.522016
5186.000000;-0.521965
5185.000000;-0.521705
5184.000000;-0.521619
5183.000000;-0.521848
5182.000000;-0.522087
5181.000000;-0.522103
5180.000000;-0.522053
5179.000000;-0.522120
5178.000000;-0.522171
5177.000000;-0.522029
5176.000000;-0.521819
5175.000000;-0.521751
5174.000000;-0.521766
5173.000000;-0.521679
5172.000000;-0.521508
5171.000000;-0.521393
5170.000000;-0.521341
5169.000000;-0.521272
5168.000000;-0.521213
5167.000000;-0.521217
5166.000000;-0.521191
5165.000000;-0.521024
5164.000000;-0.520795
5163.000000;-0.520656
5162.000000;-0.520588
5161.000000;-0.520487
5160.000000;-0.520390
5159.000000;-0.520407
5158.000000;-0.520495
5157.000000;-0.520499
5156.000000;-0.520405
5155.000000;-0.520347
5154.000000;-0.520365
5153.000000;-0.520352
5152.000000;-0.520276
5151.000000;-0.520236
5150.000000;-0.520291
5149.000000;-0.520360
5148.000000;-0.520354
5147.000000;-0.520277
5146.000000;-0.520179
5145.000000;-0.520087
5144.000000;-0.520013
5143.000000;-0.519962
5142.000000;-0.519914
5141.000000;-0.519838
5140.000000;-0.519726
5139.000000;-0.519588
5138.000000;-0.519438
5137.000000;-0.519320
5136.000000;-0.519292
5135.000000;-0.519343
5134.000000;-0.519369
5133.000000;-0.519300
5132.000000;-0.519189
5131.000000;-0.519111
5130.000000;-0.519057
5129.000000;-0.518996
5128.000000;-0.518963
5127.000000;-0.518990
5126.000000;-0.519013
5125.000000;-0.518949
5124.000000;-0.518825
5123.000000;-0.518718
5122.000000;-0.518620
5121.000000;-0.518479
5120.000000;-0.518322
5119.000000;-0.518207
5118.000000;-0.518110
5117.000000;-0.517960
5116.000000;-0.517769
5115.000000;-0.517625
5114.000000;-0.517557
5113.000000;-0.517518
5112.000000;-0.517472
5111.000000;-0.517411
5110.000000;-0.517310
5109.000000;-0.517138
5108.000000;-0.516940
5107.000000;-0.516798
5106.000000;-0.516735
5105.000000;-0.516711
5104.000000;-0.516705
5103.000000;-0.516704
5102.000000;-0.516665
5101.000000;-0.516557
5100.000000;-0.516436
5099.000000;-0.516384
5098.000000;-0.516395
5097.000000;-0.516386
5096.000000;-0.516307
5095.000000;-0.516173
5094.000000;-0.516002
5093.000000;-0.515808
5092.000000;-0.515633
5091.000000;-0.515527
5090.000000;-0.515479
5089.000000;-0.515433
5088.000000;-0.515367
5087.000000;-0.515285
5086.000000;-0.515167
5085.000000;-0.514997
5084.000000;-0.514822
5083.000000;-0.514705
5082.000000;-0.514631
5081.000000;-0.514530
5080.000000;-0.514374
5079.000000;-0.514201
5078.000000;-0.514046
5077.000000;-0.513924
5076.000000;-0.513855
5075.000000;-0.513843
5074.000000;-0.513836
5073.000000;-0.513761
5072.000000;-0.513603
5071.000000;-0.513389
5070.000000;-0.513140
5069.000000;-0.512892
5068.000000;-0.512722
5067.000000;-0.512689
5066.000000;-0.512745
5065.000000;-0.512772
5064.000000;-0.512703
5063.000000;-0.512551
5062.000000;-0.512351
5061.000000;-0.512145
5060.000000;-0.511998
5059.000000;-0.511936
5058.000000;-0.511888
5057.000000;-0.511758
5056.000000;-0.511547
5055.000000;-0.511342
5054.000000;-0.511193
5053.000000;-0.511082
5052.000000;-0.510986
5051.000000;-0.510911
5050.000000;-0.510840
5049.000000;-0.510731
5048.000000;-0.510574
5047.000000;-0.510391
5046.000000;-0.510199
5045.000000;-0.510002
5044.000000;-0.509818
5043.000000;-0.509660
5042.000000;-0.509505
5041.000000;-0.509331
5040.000000;-0.509163
5039.000000;-0.509033
5038.000000;-0.508928
5037.000000;-0.508816
5036.000000;-0.508724
5035.000000;-0.508691
5034.000000;-0.508682
5033.000000;-0.508616
5032.000000;-0.508470
5031.000000;-0.508294
5030.000000;-0.508129
5029.000000;-0.507969
5028.000000;-0.507801
5027.000000;-0.507615
5026.000000;-0.507396
5025.000000;-0.507150
5024.000000;-0.506940
5023.000000;-0.506826
5022.000000;-0.506783
5021.000000;-0.506727
5020.000000;-0.506613
5019.000000;-0.506458
5018.000000;-0.506266
5017.000000;-0.506028
5016.000000;-0.505773
5015.000000;-0.505561
5014.000000;-0.505418
5013.000000;-0.505326
5012.000000;-0.505258
5011.000000;-0.505188
5010.000000;-0.505065
5009.000000;-0.504851
5008.000000;-0.504594
5007.000000;-0.504386
5006.000000;-0.504255
5005.000000;-0.504139
5004.000000;-0.503981
5003.000000;-0.503787
5002.000000;-0.503556
5001.000000;-0.503362
5000.000000;-0.503159
4999.000000;-0.502954
4998.000000;-0.502751
4997.000000;-0.502548
4996.000000;-0.502353
4995.000000;-0.502164
4994.000000;-0.501966
4993.000000;-0.501743
4992.000000;-0.501514
4991.000000;-0.501305
4990.000000;-0.501115
4989.000000;-0.500940
4988.000000;-0.500800
4987.000000;-0.500710
4986.000000;-0.500639
4985.000000;-0.500544
4984.000000;-0.500440
4983.000000;-0.500365
4982.000000;-0.500310
4981.000000;-0.500225
4980.000000;-0.500091
4979.000000;-0.499940
4978.000000;-0.499800
4977.000000;-0.499671
4976.000000;-0.499547
4975.000000;-0.499423
4974.000000;-0.499274
4973.000000;-0.499075
4972.000000;-0.498839
4971.000000;-0.498597
4970.000000;-0.498355
4969.000000;-0.498099
4968.000000;-0.497842
4967.000000;-0.497617
4966.000000;-0.497427
4965.000000;-0.497247
4964.000000;-0.497068
4963.000000;-0.496895
4962.000000;-0.496720
4961.000000;-0.496528
4960.000000;-0.496340
4959.000000;-0.496188
4958.000000;-0.496059
4957.000000;-0.495910
4956.000000;-0.495728
4955.000000;-0.495541
4954.000000;-0.495368
4953.000000;-0.495203
4952.000000;-0.495046
4951.000000;-0.494907
4950.000000;-0.494769
4949.000000;-0.494597
4948.000000;-0.494388
4947.000000;-0.494188
4946.000000;-0.494044
4945.000000;-0.493962
4944.000000;-0.493907
4943.000000;-0.493833
4942.000000;-0.493701
4941.000000;-0.493521
4940.000000;-0.493338
4939.000000;-0.493189
4938.000000;-0.493069
4937.000000;-0.492967
4936.000000;-0.492889
4935.000000;-0.492820
4934.000000;-0.492704
4933.000000;-0.492500
4932.000000;-0.492237
4931.000000;-0.491973
4930.000000;-0.491715
4929.000000;-0.491441
4928.000000;-0.491166
4927.000000;-0.490945
4926.000000;-0.490799
4925.000000;-0.490682
4924.000000;-0.490543
4923.000000;-0.490373
4922.000000;-0.490189
4921.000000;-0.490009
4920.000000;-0.489839
4919.000000;-0.489664
4918.000000;-0.489456
4917.000000;-0.489218
4916.000000;-0.488993
4915.000000;-0.488819
4914.000000;-0.488678
4913.000000;-0.488520
4912.000000;-0.488324
4911.000000;-0.488107
4910.000000;-0.487881
4909.000000;-0.487661
4908.000000;-0.487487
4907.000000;-0.487391
4906.000000;-0.487347
4905.000000;-0.487288
4904.000000;-0.487160
4903.000000;-0.486959
4902.000000;-0.486709
4901.000000;-0.486457
4900.000000;-0.486264
4899.000000;-0.486155
4898.000000;-0.486086
4897.000000;-0.485980
4896.000000;-0.485801
4895.000000;-0.485562
4894.000000;-0.485297
4893.000000;-0.485055
4892.000000;-0.484885
4891.000000;-0.484788
4890.000000;-0.484701
4889.000000;-0.484563
4888.000000;-0.484385
4887.000000;-0.484206
4886.000000;-0.484013
4885.000000;-0.483766
4884.000000;-0.483475
4883.000000;-0.483209
4882.000000;-0.483010
4881.000000;-0.482853
4880.000000;-0.482687
4879.000000;-0.482489
4878.000000;-0.482258
4877.000000;-0.482019
4876.000000;-0.481814
4875.000000;-0.481660
4874.000000;-0.481516
4873.000000;-0.481312
4872.000000;-0.481028
4871.000000;-0.480712
4870.000000;-0.480430
4869.000000;-0.480219
4868.000000;-0.480080
4867.000000;-0.479984
4866.000000;-0.479879
4865.000000;-0.479724
4864.000000;-0.479509
4863.000000;-0.479248
4862.000000;-0.478969
4861.000000;-0.478715
4860.000000;-0.478528
4859.000000;-0.478395
4858.000000;-0.478234
4857.000000;-0.477979
4856.000000;-0.477649
4855.000000;-0.477323
4854.000000;-0.477058
4853.000000;-0.476871
4852.000000;-0.476756
4851.000000;-0.476660
4850.000000;-0.476489
4849.000000;-0.476187
4848.000000;-0.475823
4847.000000;-0.475532
4846.000000;-0.475369
4845.000000;-0.475258
4844.000000;-0.475092
4843.000000;-0.474831
4842.000000;-0.474515
4841.000000;-0.474212
4840.000000;-0.473972
4839.000000;-0.473796
4838.000000;-0.473636
4837.000000;-0.473436
4836.000000;-0.473183
4835.000000;-0.472903
4834.000000;-0.472628
4833.000000;-0.472378
4832.000000;-0.472164
4831.000000;-0.471973
4830.000000;-0.471776
4829.000000;-0.471559
4828.000000;-0.471342
4827.000000;-0.471145
4826.000000;-0.470947
4825.000000;-0.470721
4824.000000;-0.470475
4823.000000;-0.470230
4822.000000;-0.469985
4821.000000;-0.469731
4820.000000;-0.469476
4819.000000;-0.469236
4818.000000;-0.469008
4817.000000;-0.468789
4816.000000;-0.468609
4815.000000;-0.468475
4814.000000;-0.468323
4813.000000;-0.468069
4812.000000;-0.467701
4811.000000;-0.467289
4810.000000;-0.466902
4809.000000;-0.466574
4808.000000;-0.466319
4807.000000;-0.466130
4806.000000;-0.465964
4805.000000;-0.465763
4804.000000;-0.465505
4803.000000;-0.465202
4802.000000;-0.464855
4801.000000;-0.464462
4800.000000;-0.464062
4799.000000;-0.463722
4798.000000;-0.463468
4797.000000;-0.463257
4796.000000;-0.463038
4795.000000;-0.462792
4794.000000;-0.462529
4793.000000;-0.462251
4792.000000;-0.461963
4791.000000;-0.461673
4790.000000;-0.461384
4789.000000;-0.461083
4788.000000;-0.460752
4787.000000;-0.460385
4786.000000;-0.460001
4785.000000;-0.459645
4784.000000;-0.459359
4783.000000;-0.459135
4782.000000;-0.458907
4781.000000;-0.458608
4780.000000;-0.458221
4779.000000;-0.457784
4778.000000;-0.457363
4777.000000;-0.457026
4776.000000;-0.456812
4775.000000;-0.456691
4774.000000;-0.456558
4773.000000;-0.456310
4772.000000;-0.455923
4771.000000;-0.455457
4770.000000;-0.455013
4769.000000;-0.454682
4768.000000;-0.454483
4767.000000;-0.454331
4766.000000;-0.454091
4765.000000;-0.453701
4764.000000;-0.453229
4763.000000;-0.452778
4762.000000;-0.452395
4761.000000;-0.452068
4760.000000;-0.451784
4759.000000;-0.451517
4758.000000;-0.451208
4757.000000;-0.450820
4756.000000;-0.450391
4755.000000;-0.450000
4754.000000;-0.449686
4753.000000;-0.449441
4752.000000;-0.449239
4751.000000;-0.449047
4750.000000;-0.448806
4749.000000;-0.448467
4748.000000;-0.448049
4747.000000;-0.447621
4746.000000;-0.447245
4745.000000;-0.446937
4744.000000;-0.446672
4743.000000;-0.446388
4742.000000;-0.446018
4741.000000;-0.445551
4740.000000;-0.445062
4739.000000;-0.444640
4738.000000;-0.444303
4737.000000;-0.444007
4736.000000;-0.443715
4735.000000;-0.443401
4734.000000;-0.443039
4733.000000;-0.442621
4732.000000;-0.442200
4731.000000;-0.441840
4730.000000;-0.441554
4729.000000;-0.441306
4728.000000;-0.441065
4727.000000;-0.440806
4726.000000;-0.440487
4725.000000;-0.440071
4724.000000;-0.439587
4723.000000;-0.439111
4722.000000;-0.438692
4721.000000;-0.438328
4720.000000;-0.438004
4719.000000;-0.437702
4718.000000;-0.437385
4717.000000;-0.437018
4716.000000;-0.436614
4715.000000;-0.436216
4714.000000;-0.435841
4713.000000;-0.435473
4712.000000;-0.435102
4711.000000;-0.434741
4710.000000;-0.434388
4709.000000;-0.434018
4708.000000;-0.433615
4707.000000;-0.433200
4706.000000;-0.432810
4705.000000;-0.432467
4704.000000;-0.432159
4703.000000;-0.431828
4702.000000;-0.431412
4701.000000;-0.430920
4700.000000;-0.430450
4699.000000;-0.430083
4698.000000;-0.429769
4697.000000;-0.429374
4696.000000;-0.428830
4695.000000;-0.428206
4694.000000;-0.427624
4693.000000;-0.427147
4692.000000;-0.426764
4691.000000;-0.426422
4690.000000;-0.426071
4689.000000;-0.425674
4688.000000;-0.425220
4687.000000;-0.424724
4686.000000;-0.424221
4685.000000;-0.423752
4684.000000;-0.423348
4683.000000;-0.422998
4682.000000;-0.422653
4681.000000;-0.422266
4680.000000;-0.421828
4679.000000;-0.421360
4678.000000;-0.420892
4677.000000;-0.420464
4676.000000;-0.420107
4675.000000;-0.419795
4674.000000;-0.419444
4673.000000;-0.418992
4672.000000;-0.418451
4671.000000;-0.417882
4670.000000;-0.417327
4669.000000;-0.416797
4668.000000;-0.416298
4667.000000;-0.415809
4666.000000;-0.415287
4665.000000;-0.414712
4664.000000;-0.414127
4663.000000;-0.413589
4662.000000;-0.413096
4661.000000;-0.412601
4660.000000;-0.412070
4659.000000;-0.411498
4658.000000;-0.410883
4657.000000;-0.410240
4656.000000;-0.409621
4655.000000;-0.409072
4654.000000;-0.408586
4653.000000;-0.408122
4652.000000;-0.407664
4651.000000;-0.407217
4650.000000;-0.406760
4649.000000;-0.406254
4648.000000;-0.405694
4647.000000;-0.405120
4646.000000;-0.404565
4645.000000;-0.404031
4644.000000;-0.403503
4643.000000;-0.402965
4642.000000;-0.402392
4641.000000;-0.401768
4640.000000;-0.401108
4639.000000;-0.400440
4638.000000;-0.399787
4637.000000;-0.399165
4636.000000;-0.398586
4635.000000;-0.398032
4634.000000;-0.397452
4633.000000;-0.396810
4632.000000;-0.396132
4631.000000;-0.395461
4630.000000;-0.394811
4629.000000;-0.394183
4628.000000;-0.393601
4627.000000;-0.393074
4626.000000;-0.392563
4625.000000;-0.392014
4624.000000;-0.391421
4623.000000;-0.390806
4622.000000;-0.390175
4621.000000;-0.389523
4620.000000;-0.388877
4619.000000;-0.388263
4618.000000;-0.387658
4617.000000;-0.387017
4616.000000;-0.386338
4615.000000;-0.385658
4614.000000;-0.384988
4613.000000;-0.384310
4612.000000;-0.383617
4611.000000;-0.382914
4610.000000;-0.382174
4609.000000;-0.381366
4608.000000;-0.380514
4607.000000;-0.379697
4606.000000;-0.378959
4605.000000;-0.378276
4604.000000;-0.377592
4603.000000;-0.376872
4602.000000;-0.376107
4601.000000;-0.375316
4600.000000;-0.374540
4599.000000;-0.373804
4598.000000;-0.373076
4597.000000;-0.372310
4596.000000;-0.371513
4595.000000;-0.370719
4594.000000;-0.369924
4593.000000;-0.369083
4592.000000;-0.368182
4591.000000;-0.367271
4590.000000;-0.366412
4589.000000;-0.365615
4588.000000;-0.364841
4587.000000;-0.364023
4586.000000;-0.363115
4585.000000;-0.362131
4584.000000;-0.361135
4583.000000;-0.360166
4582.000000;-0.359185
4581.000000;-0.358133
4580.000000;-0.357024
4579.000000;-0.355931
4578.000000;-0.354899
4577.000000;-0.353912
4576.000000;-0.352944
4575.000000;-0.351970
4574.000000;-0.350949
4573.000000;-0.349838
4572.000000;-0.348649
4571.000000;-0.347448
4570.000000;-0.346277
4569.000000;-0.345130
4568.000000;-0.343986
4567.000000;-0.342833
4566.000000;-0.341644
4565.000000;-0.340392
4564.000000;-0.339090
4563.000000;-0.337798
4562.000000;-0.336557
4561.000000;-0.335345
4560.000000;-0.334106
4559.000000;-0.332792
4558.000000;-0.331370
4557.000000;-0.329833
4556.000000;-0.328228
4555.000000;-0.326628
4554.000000;-0.325081
4553.000000;-0.323574
4552.000000;-0.322069
4551.000000;-0.320538
4550.000000;-0.318973
4549.000000;-0.317383
4548.000000;-0.315783
4547.000000;-0.314181
4546.000000;-0.312571
4545.000000;-0.310954
4544.000000;-0.309354
4543.000000;-0.307783
4542.000000;-0.306224
4541.000000;-0.304652
4540.000000;-0.303077
4539.000000;-0.301530
4538.000000;-0.300030
4537.000000;-0.298580
4536.000000;-0.297169
4535.000000;-0.295768
4534.000000;-0.294340
4533.000000;-0.292891
4532.000000;-0.291480
4531.000000;-0.290149
4530.000000;-0.288851
4529.000000;-0.287518
4528.000000;-0.286144
4527.000000;-0.284771
4526.000000;-0.283424
4525.000000;-0.282110
4524.000000;-0.280879
4523.000000;-0.279782
4522.000000;-0.278790
4521.000000;-0.277789
4520.000000;-0.276692
4519.000000;-0.275503
4518.000000;-0.274278
4517.000000;-0.273063
4516.000000;-0.271888
4515.000000;-0.270771
4514.000000;-0.269703
4513.000000;-0.268654
4512.000000;-0.267587
4511.000000;-0.266465
4510.000000;-0.265267
4509.000000;-0.264039
4508.000000;-0.262891
4507.000000;-0.261908
4506.000000;-0.261036
4505.000000;-0.260140
4504.000000;-0.259137
4503.000000;-0.258035
4502.000000;-0.256864
4501.000000;-0.255627
4500.000000;-0.254355
4499.000000;-0.253125
4498.000000;-0.251987
4497.000000;-0.250910
4496.000000;-0.249818
4495.000000;-0.248683
4494.000000;-0.247531
4493.000000;-0.246395
4492.000000;-0.245270
4491.000000;-0.244122
4490.000000;-0.242929
4489.000000;-0.241715
4488.000000;-0.240523
4487.000000;-0.239352
4486.000000;-0.238150
4485.000000;-0.236888
4484.000000;-0.235610
4483.000000;-0.234376
4482.000000;-0.233184
4481.000000;-0.231971
4480.000000;-0.230686
4479.000000;-0.229307
4478.000000;-0.227824
4477.000000;-0.226254
4476.000000;-0.224669
4475.000000;-0.223149
4474.000000;-0.221720
4473.000000;-0.220338
4472.000000;-0.218939
4471.000000;-0.217471
4470.000000;-0.215915
4469.000000;-0.214314
4468.000000;-0.212761
4467.000000;-0.211309
4466.000000;-0.209905
4465.000000;-0.208447
4464.000000;-0.206894
4463.000000;-0.205273
4462.000000;-0.203614
4461.000000;-0.201941
4460.000000;-0.200294
4459.000000;-0.198703
4458.000000;-0.197136
4457.000000;-0.195535
4456.000000;-0.193904
4455.000000;-0.192301
4454.000000;-0.190744
4453.000000;-0.189183
4452.000000;-0.187570
4451.000000;-0.185911
4450.000000;-0.184239
4449.000000;-0.182576
4448.000000;-0.180937
4447.000000;-0.179324
4446.000000;-0.177713
4445.000000;-0.176084
4444.000000;-0.174448
4443.000000;-0.172826
4442.000000;-0.171188
4441.000000;-0.169468
4440.000000;-0.167649
4439.000000;-0.165792
4438.000000;-0.163988
4437.000000;-0.162295
4436.000000;-0.160707
4435.000000;-0.159131
4434.000000;-0.157425
4433.000000;-0.155512
4432.000000;-0.153470
4431.000000;-0.151461
4430.000000;-0.149570
4429.000000;-0.147764
4428.000000;-0.145981
4427.000000;-0.144199
4426.000000;-0.142395
4425.000000;-0.140514
4424.000000;-0.138517
4423.000000;-0.136437
4422.000000;-0.134367
4421.000000;-0.132389
4420.000000;-0.130509
4419.000000;-0.128641
4418.000000;-0.126666
4417.000000;-0.124535
4416.000000;-0.122309
4415.000000;-0.120090
4414.000000;-0.117928
4413.000000;-0.115824
4412.000000;-0.113776
4411.000000;-0.111760
4410.000000;-0.109706
4409.000000;-0.107551
4408.000000;-0.105307
4407.000000;-0.103040
4406.000000;-0.100798
4405.000000;-0.098593
4404.000000;-0.096412
4403.000000;-0.094211
4402.000000;-0.091913
4401.000000;-0.089486
4400.000000;-0.087008
4399.000000;-0.084578
4398.000000;-0.082189
4397.000000;-0.079750
4396.000000;-0.077221
4395.000000;-0.074646
4394.000000;-0.072079
4393.000000;-0.069532
4392.000000;-0.067017
4391.000000;-0.064557
4390.000000;-0.062147
4389.000000;-0.059742
4388.000000;-0.057299
4387.000000;-0.054778
4386.000000;-0.052130
4385.000000;-0.049344
4384.000000;-0.046487
4383.000000;-0.043660
4382.000000;-0.040906
4381.000000;-0.038202
4380.000000;-0.035504
4379.000000;-0.032745
4378.000000;-0.029823
4377.000000;-0.026687
4376.000000;-0.023419
4375.000000;-0.020174
4374.000000;-0.017024
4373.000000;-0.013920
4372.000000;-0.010795
4371.000000;-0.007630
4370.000000;-0.004419
4369.000000;-0.001154
4368.000000;0.002141
4367.000000;0.005417
4366.000000;0.008656
4365.000000;0.011872
4364.000000;0.015086
4363.000000;0.018338
4362.000000;0.021703
4361.000000;0.025210
4360.000000;0.028771
4359.000000;0.032271
4358.000000;0.035712
4357.000000;0.039203
4356.000000;0.042822
4355.000000;0.046557
4354.000000;0.050364
4353.000000;0.054198
4352.000000;0.058002
4351.000000;0.061750
4350.000000;0.065522
4349.000000;0.069438
4348.000000;0.073524
4347.000000;0.077703
4346.000000;0.081911
4345.000000;0.086146
4344.000000;0.090407
4343.000000;0.094676
4342.000000;0.098957
4341.000000;0.103260
4340.000000;0.107535
4339.000000;0.111736
4338.000000;0.115929
4337.000000;0.120267
4336.000000;0.124825
4335.000000;0.129541
4334.000000;0.134313
4333.000000;0.139079
4332.000000;0.143835
4331.000000;0.148651
4330.000000;0.153648
4329.000000;0.158841
4328.000000;0.164026
4327.000000;0.168953
4326.000000;0.173630
4325.000000;0.178337
4324.000000;0.183314
4323.000000;0.188558
4322.000000;0.193951
4321.000000;0.199459
4320.000000;0.205123
4319.000000;0.210919
4318.000000;0.216703
4317.000000;0.222301
4316.000000;0.227679
4315.000000;0.233040
4314.000000;0.238683
4313.000000;0.244703
4312.000000;0.250878
4311.000000;0.256943
4310.000000;0.262902
4309.000000;0.268957
4308.000000;0.275202
4307.000000;0.281561
4306.000000;0.287970
4305.000000;0.294464
4304.000000;0.301067
4303.000000;0.307770
4302.000000;0.314607
4301.000000;0.321594
4300.000000;0.328627
4299.000000;0.335603
4298.000000;0.342607
4297.000000;0.349802
4296.000000;0.357178
4295.000000;0.364625
4294.000000;0.372221
4293.000000;0.380185
4292.000000;0.388502
4291.000000;0.396864
4290.000000;0.405062
4289.000000;0.413198
4288.000000;0.421424
4287.000000;0.429724
4286.000000;0.438060
4285.000000;0.446545
4284.000000;0.455312
4283.000000;0.464385
4282.000000;0.473761
4281.000000;0.483441
4280.000000;0.493309
4279.000000;0.503179
4278.000000;0.513087
4277.000000;0.523369
4276.000000;0.534305
4275.000000;0.545817
4274.000000;0.557580
4273.000000;0.569294
4272.000000;0.580813
4271.000000;0.592249
4270.000000;0.604016
4269.000000;0.616542
4268.000000;0.629811
4267.000000;0.643349
4266.000000;0.656717
4265.000000;0.669839
4264.000000;0.682892
4263.000000;0.696208
4262.000000;0.710347
4261.000000;0.725827
4260.000000;0.742587
4259.000000;0.760017
4258.000000;0.777695
4257.000000;0.795791
4256.000000;0.814573
4255.000000;0.833977
4254.000000;0.854022
4253.000000;0.875245
4252.000000;0.898208
4251.000000;0.922733
4250.000000;0.947985
4249.000000;0.973306
4248.000000;0.998853
4247.000000;1.025587
4246.000000;1.054775
4245.000000;1.087236
4244.000000;1.123011
4243.000000;1.162089
4242.000000;1.205430
4241.000000;1.254502
4240.000000;1.309678
4239.000000;1.370233
4238.000000;1.436938
4237.000000;1.513729
4236.000000;1.605489
4235.000000;1.714176
4234.000000;1.832376
4233.000000;1.921696
4232.000000;1.908145
4231.000000;1.809166
4230.000000;1.698161
4229.000000;1.599384
4228.000000;1.514100
4227.000000;1.440942
4226.000000;1.377879
4225.000000;1.322059
4224.000000;1.271304
4223.000000;1.224752
4222.000000;1.181875
4221.000000;1.142040
4220.000000;1.105214
4219.000000;1.072024
4218.000000;1.042597
4217.000000;1.015843
4216.000000;0.990243
4215.000000;0.965040
4214.000000;0.940459
4213.000000;0.917120
4212.000000;0.895539
4211.000000;0.875896
4210.000000;0.857885
4209.000000;0.840800
4208.000000;0.823962
4207.000000;0.807154
4206.000000;0.790657
4205.000000;0.774912
4204.000000;0.760134
4203.000000;0.746220
4202.000000;0.732987
4201.000000;0.720418
4200.000000;0.708504
4199.000000;0.696868
4198.000000;0.684863
4197.000000;0.672310
4196.000000;0.659914
4195.000000;0.648619
4194.000000;0.638618
4193.000000;0.629248
4192.000000;0.619785
4191.000000;0.610039
4190.000000;0.600161
4189.000000;0.590289
4188.000000;0.580596
4187.000000;0.571410
4186.000000;0.562981
4185.000000;0.555167
4184.000000;0.547535
4183.000000;0.539780
4182.000000;0.531994
4181.000000;0.524508
4180.000000;0.517494
4179.000000;0.510731
4178.000000;0.503807
4177.000000;0.496564
4176.000000;0.489310
4175.000000;0.482496
4174.000000;0.476254
4173.000000;0.470319
4172.000000;0.464400
4171.000000;0.458484
4170.000000;0.452748
4169.000000;0.447263
4168.000000;0.441830
4167.000000;0.436156
4166.000000;0.430198
4165.000000;0.424310
4164.000000;0.418917
4163.000000;0.414024
4162.000000;0.409191
4161.000000;0.404086
4160.000000;0.398923
4159.000000;0.394154
4158.000000;0.389838
4157.000000;0.385571
4156.000000;0.381050
4155.000000;0.376461
4154.000000;0.372189
4153.000000;0.368316
4152.000000;0.364562
4151.000000;0.360637
4150.000000;0.356506
4149.000000;0.352339
4148.000000;0.348323
4147.000000;0.344568
4146.000000;0.341093
4145.000000;0.337815
4144.000000;0.334555
4143.000000;0.331133
4142.000000;0.327522
4141.000000;0.323897
4140.000000;0.320485
4139.000000;0.317372
4138.000000;0.314499
4137.000000;0.311806
4136.000000;0.309270
4135.000000;0.306796
4134.000000;0.304206
4133.000000;0.301394
4132.000000;0.298440
4131.000000;0.295525
4130.000000;0.292781
4129.000000;0.290263
4128.000000;0.287920
4127.000000;0.285554
4126.000000;0.282923
4125.000000;0.280029
4124.000000;0.277221
4123.000000;0.274867
4122.000000;0.272947
4121.000000;0.271104
4120.000000;0.269075
4119.000000;0.266946
4118.000000;0.264942
4117.000000;0.263093
4116.000000;0.261195
4115.000000;0.259069
4114.000000;0.256795
4113.000000;0.254648
4112.000000;0.252790
4111.000000;0.251087
4110.000000;0.249254
4109.000000;0.247175
4108.000000;0.245013
4107.000000;0.243017
4106.000000;0.241317
4105.000000;0.239883
4104.000000;0.238583
4103.000000;0.237237
4102.000000;0.235733
4101.000000;0.234134
4100.000000;0.232588
4099.000000;0.231119
4098.000000;0.229626
4097.000000;0.228107
4096.000000;0.226714
4095.000000;0.225511
4094.000000;0.224318
4093.000000;0.222951
4092.000000;0.221479
4091.000000;0.220112
4090.000000;0.218922
4089.000000;0.217814
4088.000000;0.216709
4087.000000;0.215584
4086.000000;0.214405
4085.000000;0.213168
4084.000000;0.211972
4083.000000;0.210925
4082.000000;0.209976
4081.000000;0.208968
4080.000000;0.207831
4079.000000;0.206637
4078.000000;0.205492
4077.000000;0.204474
4076.000000;0.203618
4075.000000;0.202865
4074.000000;0.202047
4073.000000;0.201047
4072.000000;0.199942
4071.000000;0.198899
4070.000000;0.197948
4069.000000;0.196981
4068.000000;0.195927
4067.000000;0.194830
4066.000000;0.193778
4065.000000;0.192843
4064.000000;0.192067
4063.000000;0.191401
4062.000000;0.190703
4061.000000;0.189886
4060.000000;0.189051
4059.000000;0.188361
4058.000000;0.187813
4057.000000;0.187254
4056.000000;0.186592
4055.000000;0.185881
4054.000000;0.185201
4053.000000;0.184564
4052.000000;0.183931
4051.000000;0.183237
4050.000000;0.182410
4049.000000;0.181448
4048.000000;0.180449
4047.000000;0.179501
4046.000000;0.178595
4045.000000;0.177739
4044.000000;0.177067
4043.000000;0.176689
4042.000000;0.176482
4041.000000;0.176182
4040.000000;0.175679
4039.000000;0.175082
4038.000000;0.174506
4037.000000;0.173965
4036.000000;0.173459
4035.000000;0.173003
4034.000000;0.172523
4033.000000;0.171891
4032.000000;0.171114
4031.000000;0.170369
4030.000000;0.169779
4029.000000;0.169293
4028.000000;0.168831
4027.000000;0.168430
4026.000000;0.168161
4025.000000;0.167973
4024.000000;0.167732
4023.000000;0.167360
4022.000000;0.166870
4021.000000;0.166316
4020.000000;0.165744
4019.000000;0.165190
4018.000000;0.164675
4017.000000;0.164217
4016.000000;0.163844
4015.000000;0.163552
4014.000000;0.163273
4013.000000;0.162946
4012.000000;0.162596
4011.000000;0.162283
4010.000000;0.161974
4009.000000;0.161560
4008.000000;0.161036
4007.000000;0.160552
4006.000000;0.160241
4005.000000;0.160042
4004.000000;0.159759
4003.000000;0.159274
4002.000000;0.158671
4001.000000;0.158164
4000.000000;0.157917
3999.000000;0.157912
3998.000000;0.157980
3997.000000;0.157944
3996.000000;0.157733
3995.000000;0.157368
3994.000000;0.156889
3993.000000;0.156358
3992.000000;0.155867
3991.000000;0.155497
3990.000000;0.155274
3989.000000;0.155185
3988.000000;0.155195
3987.000000;0.155223
3986.000000;0.155175
3985.000000;0.155056
3984.000000;0.154995
3983.000000;0.155070
3982.000000;0.155163
3981.000000;0.155081
3980.000000;0.154766
3979.000000;0.154317
3978.000000;0.153836
3977.000000;0.153387
3976.000000;0.153053
3975.000000;0.152920
3974.000000;0.152964
3973.000000;0.153049
3972.000000;0.153056
3971.000000;0.152958
3970.000000;0.152796
3969.000000;0.152629
3968.000000;0.152515
3967.000000;0.152450
3966.000000;0.152340
3965.000000;0.152092
3964.000000;0.151744
3963.000000;0.151447
3962.000000;0.151320
3961.000000;0.151361
3960.000000;0.151456
3959.000000;0.151450
3958.000000;0.151252
3957.000000;0.150931
3956.000000;0.150673
3955.000000;0.150563
3954.000000;0.150471
3953.000000;0.150225
3952.000000;0.149815
3951.000000;0.149359
3950.000000;0.148928
3949.000000;0.148566
3948.000000;0.148391
3947.000000;0.148501
3946.000000;0.148771
3945.000000;0.148937
3944.000000;0.148918
3943.000000;0.148884
3942.000000;0.148970
3941.000000;0.149070
3940.000000;0.149024
3939.000000;0.148866
3938.000000;0.148778
3937.000000;0.148821
3936.000000;0.148835
3935.000000;0.148592
3934.000000;0.148036
3933.000000;0.147358
3932.000000;0.146855
3931.000000;0.146702
3930.000000;0.146837
3929.000000;0.147043
3928.000000;0.147111
3927.000000;0.146942
3926.000000;0.146552
3925.000000;0.146045
3924.000000;0.145564
3923.000000;0.145200
3922.000000;0.144938
3921.000000;0.144702
3920.000000;0.144447
3919.000000;0.144197
3918.000000;0.143994
3917.000000;0.143900
3916.000000;0.143984
3915.000000;0.144259
3914.000000;0.144626
3913.000000;0.144934
3912.000000;0.145081
3911.000000;0.145027
3910.000000;0.144762
3909.000000;0.144326
3908.000000;0.143814
3907.000000;0.143296
3906.000000;0.142790
3905.000000;0.142339
3904.000000;0.142054
3903.000000;0.142012
3902.000000;0.142159
3901.000000;0.142403
3900.000000;0.142743
3899.000000;0.143226
3898.000000;0.143796
3897.000000;0.144304
3896.000000;0.144659
3895.000000;0.144859
3894.000000;0.144900
3893.000000;0.144786
3892.000000;0.144641
3891.000000;0.144687
3890.000000;0.145027
3889.000000;0.145482
3888.000000;0.145747
3887.000000;0.145744
3886.000000;0.145733
3885.000000;0.146013
3884.000000;0.146592
3883.000000;0.147190
3882.000000;0.147545
3881.000000;0.147695
3880.000000;0.147923
3879.000000;0.148408
3878.000000;0.148987
3877.000000;0.149343
3876.000000;0.149452
3875.000000;0.149647
3874.000000;0.150179
3873.000000;0.150935
3872.000000;0.151652
3871.000000;0.152226
3870.000000;0.152728
3869.000000;0.153234
3868.000000;0.153740
3867.000000;0.154195
3866.000000;0.154591
3865.000000;0.155020
3864.000000;0.155564
3863.000000;0.156173
3862.000000;0.156729
3861.000000;0.157228
3860.000000;0.157796
3859.000000;0.158539
3858.000000;0.159363
3857.000000;0.160038
3856.000000;0.160452
3855.000000;0.160780
3854.000000;0.161385
3853.000000;0.162325
3852.000000;0.163253
3851.000000;0.163896
3850.000000;0.164199
3849.000000;0.164286
3848.000000;0.164421
3847.000000;0.164783
3846.000000;0.165343
3845.000000;0.165992
3844.000000;0.166731
3843.000000;0.167629
3842.000000;0.168640
3841.000000;0.169598
3840.000000;0.170422
3839.000000;0.171177
3838.000000;0.171877
3837.000000;0.172403
3836.000000;0.172663
3835.000000;0.172741
3834.000000;0.172847
3833.000000;0.173166
3832.000000;0.173790
3831.000000;0.174705
3830.000000;0.175762
3829.000000;0.176719
3828.000000;0.177415
3827.000000;0.177919
3826.000000;0.178429
3825.000000;0.179067
3824.000000;0.179777
3823.000000;0.180452
3822.000000;0.181109
3821.000000;0.181825
3820.000000;0.182588
3819.000000;0.183355
3818.000000;0.184072
3817.000000;0.184686
3816.000000;0.185261
3815.000000;0.185894
3814.000000;0.186575
3813.000000;0.187206
3812.000000;0.187764
3811.000000;0.188321
3810.000000;0.188926
3809.000000;0.189556
3808.000000;0.190208
3807.000000;0.190918
3806.000000;0.191693
3805.000000;0.192513
3804.000000;0.193385
3803.000000;0.194344
3802.000000;0.195382
3801.000000;0.196408
3800.000000;0.197358
3799.000000;0.198210
3798.000000;0.198864
3797.000000;0.199225
3796.000000;0.199387
3795.000000;0.199607
3794.000000;0.200078
3793.000000;0.200789
3792.000000;0.201617
3791.000000;0.202467
3790.000000;0.203284
3789.000000;0.204056
3788.000000;0.204819
3787.000000;0.205612
3786.000000;0.206412
3785.000000;0.207180
3784.000000;0.207940
3783.000000;0.208751
3782.000000;0.209584
3781.000000;0.210332
3780.000000;0.210947
3779.000000;0.211474
3778.000000;0.211976
3777.000000;0.212507
3776.000000;0.213125
3775.000000;0.213878
3774.000000;0.214748
3773.000000;0.215630
3772.000000;0.216439
3771.000000;0.217205
3770.000000;0.218018
3769.000000;0.218908
3768.000000;0.219810
3767.000000;0.220635
3766.000000;0.221340
3765.000000;0.221982
3764.000000;0.222651
3763.000000;0.223353
3762.000000;0.224009
3761.000000;0.224600
3760.000000;0.225219
3759.000000;0.225942
3758.000000;0.226753
3757.000000;0.227649
3756.000000;0.228665
3755.000000;0.229769
3754.000000;0.230858
3753.000000;0.231898
3752.000000;0.232960
3751.000000;0.234014
3750.000000;0.234879
3749.000000;0.235533
3748.000000;0.236161
3747.000000;0.236868
3746.000000;0.237559
3745.000000;0.238124
3744.000000;0.238648
3743.000000;0.239286
3742.000000;0.240020
3741.000000;0.240795
3740.000000;0.241680
3739.000000;0.242720
3738.000000;0.243804
3737.000000;0.244803
3736.000000;0.245684
3735.000000;0.246416
3734.000000;0.246944
3733.000000;0.247342
3732.000000;0.247802
3731.000000;0.248431
3730.000000;0.249159
3729.000000;0.249890
3728.000000;0.250671
3727.000000;0.251602
3726.000000;0.252658
3725.000000;0.253699
3724.000000;0.254652
3723.000000;0.255540
3722.000000;0.256361
3721.000000;0.257056
3720.000000;0.257629
3719.000000;0.258173
3718.000000;0.258772
3717.000000;0.259440
3716.000000;0.260169
3715.000000;0.260959
3714.000000;0.261818
3713.000000;0.262760
3712.000000;0.263740
3711.000000;0.264576
3710.000000;0.265128
3709.000000;0.265585
3708.000000;0.266312
3707.000000;0.267435
3706.000000;0.268666
3705.000000;0.269586
3704.000000;0.270077
3703.000000;0.270415
3702.000000;0.270961
3701.000000;0.271856
3700.000000;0.272999
3699.000000;0.274153
3698.000000;0.275089
3697.000000;0.275782
3696.000000;0.276444
3695.000000;0.277275
3694.000000;0.278269
3693.000000;0.279327
3692.000000;0.280458
3691.000000;0.281705
3690.000000;0.282923
3689.000000;0.283864
3688.000000;0.284525
3687.000000;0.285157
3686.000000;0.285870
3685.000000;0.286571
3684.000000;0.287216
3683.000000;0.287856
3682.000000;0.288530
3681.000000;0.289268
3680.000000;0.290173
3679.000000;0.291333
3678.000000;0.292670
3677.000000;0.293973
3676.000000;0.295088
3675.000000;0.295908
3674.000000;0.296434
3673.000000;0.296861
3672.000000;0.297415
3671.000000;0.298229
3670.000000;0.299214
3669.000000;0.300063
3668.000000;0.300632
3667.000000;0.301092
3666.000000;0.301649
3665.000000;0.302388
3664.000000;0.303314
3663.000000;0.304384
3662.000000;0.305481
3661.000000;0.306480
3660.000000;0.307358
3659.000000;0.308193
3658.000000;0.309055
3657.000000;0.309965
3656.000000;0.310898
3655.000000;0.311780
3654.000000;0.312510
3653.000000;0.313074
3652.000000;0.313663
3651.000000;0.314565
3650.000000;0.315867
3649.000000;0.317293
3648.000000;0.318533
3647.000000;0.319553
3646.000000;0.320383
3645.000000;0.320987
3644.000000;0.321450
3643.000000;0.321962
3642.000000;0.322610
3641.000000;0.323362
3640.000000;0.324249
3639.000000;0.325376
3638.000000;0.326711
3637.000000;0.328053
3636.000000;0.329247
3635.000000;0.330278
3634.000000;0.331123
3633.000000;0.331683
3632.000000;0.331975
3631.000000;0.332276
3630.000000;0.332964
3629.000000;0.334173
3628.000000;0.335616
3627.000000;0.336914
3626.000000;0.337869
3625.000000;0.338475
3624.000000;0.338896
3623.000000;0.339316
3622.000000;0.339825
3621.000000;0.340517
3620.000000;0.341528
3619.000000;0.342825
3618.000000;0.344101
3617.000000;0.345106
3616.000000;0.345955
3615.000000;0.346969
3614.000000;0.348225
3613.000000;0.349428
3612.000000;0.350312
3611.000000;0.350984
3610.000000;0.351755
3609.000000;0.352772
3608.000000;0.353922
3607.000000;0.355021
3606.000000;0.356027
3605.000000;0.357018
3604.000000;0.358045
3603.000000;0.359050
3602.000000;0.359920
3601.000000;0.360614
3600.000000;0.361227
3599.000000;0.361895
3598.000000;0.362675
3597.000000;0.363565
3596.000000;0.364581
3595.000000;0.365694
3594.000000;0.366770
3593.000000;0.367689
3592.000000;0.368501
3591.000000;0.369323
3590.000000;0.370156
3589.000000;0.370941
3588.000000;0.371696
3587.000000;0.372463
3586.000000;0.373240
3585.000000;0.374037
3584.000000;0.374888
3583.000000;0.375797
3582.000000;0.376697
3581.000000;0.377529
3580.000000;0.378350
3579.000000;0.379263
3578.000000;0.380248
3577.000000;0.381211
3576.000000;0.382192
3575.000000;0.383351
3574.000000;0.384713
3573.000000;0.386069
3572.000000;0.387203
3571.000000;0.388092
3570.000000;0.388871
3569.000000;0.389707
3568.000000;0.390727
3567.000000;0.391907
3566.000000;0.393079
3565.000000;0.394137
3564.000000;0.395102
3563.000000;0.395972
3562.000000;0.396680
3561.000000;0.397253
3560.000000;0.397922
3559.000000;0.398947
3558.000000;0.400332
3557.000000;0.401827
3556.000000;0.403170
3555.000000;0.404176
3554.000000;0.404722
3553.000000;0.404888
3552.000000;0.405117
3551.000000;0.405927
3550.000000;0.407356
3549.000000;0.408886
3548.000000;0.410016
3547.000000;0.410729
3546.000000;0.411305
3545.000000;0.411914
3544.000000;0.412577
3543.000000;0.413313
3542.000000;0.414154
3541.000000;0.415084
3540.000000;0.416099
3539.000000;0.417250
3538.000000;0.418528
3537.000000;0.419804
3536.000000;0.420957
3535.000000;0.421979
3534.000000;0.422898
3533.000000;0.423728
3532.000000;0.424565
3531.000000;0.425606
3530.000000;0.426915
3529.000000;0.428252
3528.000000;0.429266
3527.000000;0.429854
3526.000000;0.430271
3525.000000;0.430911
3524.000000;0.432019
3523.000000;0.433520
3522.000000;0.435073
3521.000000;0.436331
3520.000000;0.437216
3519.000000;0.437926
3518.000000;0.438693
3517.000000;0.439619
3516.000000;0.440696
3515.000000;0.441842
3514.000000;0.442918
3513.000000;0.443825
3512.000000;0.444615
3511.000000;0.445400
3510.000000;0.446163
3509.000000;0.446827
3508.000000;0.447518
3507.000000;0.448516
3506.000000;0.449875
3505.000000;0.451290
3504.000000;0.452454
3503.000000;0.453376
3502.000000;0.454239
3501.000000;0.455104
3500.000000;0.455934
3499.000000;0.456823
3498.000000;0.457985
3497.000000;0.459496
3496.000000;0.461172
3495.000000;0.462694
3494.000000;0.463821
3493.000000;0.464518
3492.000000;0.464965
3491.000000;0.465419
3490.000000;0.466038
3489.000000;0.466854
3488.000000;0.467890
3487.000000;0.469175
3486.000000;0.470613
3485.000000;0.471981
3484.000000;0.473126
3483.000000;0.474092
3482.000000;0.474964
3481.000000;0.475723
3480.000000;0.476353
3479.000000;0.476989
3478.000000;0.477839
3477.000000;0.478981
3476.000000;0.480292
3475.000000;0.481536
3474.000000;0.482471
3473.000000;0.482999
3472.000000;0.483290
3471.000000;0.483698
3470.000000;0.484455
3469.000000;0.485520
3468.000000;0.486767
3467.000000;0.488179
3466.000000;0.489729
3465.000000;0.491200
3464.000000;0.492353
3463.000000;0.493236
3462.000000;0.494142
3461.000000;0.495226
3460.000000;0.496316
3459.000000;0.497165
3458.000000;0.497787
3457.000000;0.498448
3456.000000;0.499383
3455.000000;0.500586
3454.000000;0.501871
3453.000000;0.503072
3452.000000;0.504152
3451.000000;0.505155
3450.000000;0.506129
3449.000000;0.507118
3448.000000;0.508173
3447.000000;0.509288
3446.000000;0.510362
3445.000000;0.511297
3444.000000;0.512127
3443.000000;0.512987
3442.000000;0.513946
3441.000000;0.514961
3440.000000;0.516000
3439.000000;0.517124
3438.000000;0.518367
3437.000000;0.519632
3436.000000;0.520765
3435.000000;0.521707
3434.000000;0.522526
3433.000000;0.523348
3432.000000;0.524271
3431.000000;0.525269
3430.000000;0.526178
3429.000000;0.526880
3428.000000;0.527550
3427.000000;0.528585
3426.000000;0.530145
3425.000000;0.531838
3424.000000;0.533056
3423.000000;0.533632
3422.000000;0.534012
3421.000000;0.534727
3420.000000;0.535824
3419.000000;0.536903
3418.000000;0.537625
3417.000000;0.538057
3416.000000;0.538559
3415.000000;0.539440
3414.000000;0.540753
3413.000000;0.542300
3412.000000;0.543772
3411.000000;0.544953
3410.000000;0.545888
3409.000000;0.546817
3408.000000;0.547892
3407.000000;0.549025
3406.000000;0.550058
3405.000000;0.551045
3404.000000;0.552201
3403.000000;0.553594
3402.000000;0.555030
3401.000000;0.556262
3400.000000;0.557190
3399.000000;0.557816
3398.000000;0.558194
3397.000000;0.558533
3396.000000;0.559177
3395.000000;0.560276
3394.000000;0.561572
3393.000000;0.562674
3392.000000;0.563539
3391.000000;0.564476
3390.000000;0.565666
3389.000000;0.566854
3388.000000;0.567623
3387.000000;0.567903
3386.000000;0.568137
3385.000000;0.568899
3384.000000;0.570347
3383.000000;0.572044
3382.000000;0.573376
3381.000000;0.574173
3380.000000;0.574842
3379.000000;0.575841
3378.000000;0.577203
3377.000000;0.578670
3376.000000;0.580097
3375.000000;0.581450
3374.000000;0.582537
3373.000000;0.583059
3372.000000;0.583064
3371.000000;0.583126
3370.000000;0.583900
3369.000000;0.585566
3368.000000;0.587738
3367.000000;0.589793
3366.000000;0.591237
3365.000000;0.591894
3364.000000;0.591936
3363.000000;0.591755
3362.000000;0.591758
3361.000000;0.592211
3360.000000;0.593185
3359.000000;0.594537
3358.000000;0.595960
3357.000000;0.597154
3356.000000;0.598034
3355.000000;0.598741
3354.000000;0.599483
3353.000000;0.600377
3352.000000;0.601381
3351.000000;0.602282
3350.000000;0.602832
3349.000000;0.603043
3348.000000;0.603347
3347.000000;0.604290
3346.000000;0.605943
3345.000000;0.607702
3344.000000;0.608796
3343.000000;0.609008
3342.000000;0.608881
3341.000000;0.609233
3340.000000;0.610457
3339.000000;0.612213
3338.000000;0.613754
3337.000000;0.614614
3336.000000;0.614999
3335.000000;0.615488
3334.000000;0.616386
3333.000000;0.617468
3332.000000;0.618352
3331.000000;0.619006
3330.000000;0.619822
3329.000000;0.621207
3328.000000;0.623128
3327.000000;0.625077
3326.000000;0.626485
3325.000000;0.627211
3324.000000;0.627591
3323.000000;0.628014
3322.000000;0.628568
3321.000000;0.629167
3320.000000;0.629871
3319.000000;0.630841
3318.000000;0.631986
3317.000000;0.632899
3316.000000;0.633272
3315.000000;0.633262
3314.000000;0.633337
3313.000000;0.633849
3312.000000;0.634859
3311.000000;0.636268
3310.000000;0.637945
3309.000000;0.639665
3308.000000;0.641050
3307.000000;0.641752
3306.000000;0.641813
3305.000000;0.641785
3304.000000;0.642319
3303.000000;0.643572
3302.000000;0.645081
3301.000000;0.646296
3300.000000;0.647129
3299.000000;0.647862
3298.000000;0.648638
3297.000000;0.649296
3296.000000;0.649696
3295.000000;0.649969
3294.000000;0.650382
3293.000000;0.651117
3292.000000;0.652235
3291.000000;0.653684
3290.000000;0.655225
3289.000000;0.656497
3288.000000;0.657322
3287.000000;0.657884
3286.000000;0.658522
3285.000000;0.659407
3284.000000;0.660466
3283.000000;0.661501
3282.000000;0.662312
3281.000000;0.662810
3280.000000;0.663151
3279.000000;0.663660
3278.000000;0.664478
3277.000000;0.665330
3276.000000;0.665779
3275.000000;0.665733
3274.000000;0.665556
3273.000000;0.665668
3272.000000;0.666147
3271.000000;0.666796
3270.000000;0.667539
3269.000000;0.668635
3268.000000;0.670382
3267.000000;0.672605
3266.000000;0.674541
3265.000000;0.675396
3264.000000;0.675106
3263.000000;0.674437
3262.000000;0.674264
3261.000000;0.674859
3260.000000;0.675880
3259.000000;0.676791
3258.000000;0.677228
3257.000000;0.677183
3256.000000;0.677074
3255.000000;0.677533
3254.000000;0.678821
3253.000000;0.680445
3252.000000;0.681549
3251.000000;0.681763
3250.000000;0.681491
3249.000000;0.681335
3248.000000;0.681508
3247.000000;0.681929
3246.000000;0.682633
3245.000000;0.683803
3244.000000;0.685371
3243.000000;0.686829
3242.000000;0.687574
3241.000000;0.687463
3240.000000;0.686958
3239.000000;0.686721
3238.000000;0.687075
3237.000000;0.687836
3236.000000;0.688614
3235.000000;0.689221
3234.000000;0.689775
3233.000000;0.690512
3232.000000;0.691613
3231.000000;0.693145
3230.000000;0.694959
3229.000000;0.696605
3228.000000;0.697549
3227.000000;0.697631
3226.000000;0.697241
3225.000000;0.696915
3224.000000;0.696801
3223.000000;0.696622
3222.000000;0.696116
3221.000000;0.695414
3220.000000;0.694954
3219.000000;0.695041
3218.000000;0.695535
3217.000000;0.696007
3216.000000;0.696253
3215.000000;0.696587
3214.000000;0.697462
3213.000000;0.698843
3212.000000;0.700200
3211.000000;0.701195
3210.000000;0.702070
3209.000000;0.703111
3208.000000;0.704019
3207.000000;0.704244
3206.000000;0.703801
3205.000000;0.703326
3204.000000;0.703336
3203.000000;0.703804
3202.000000;0.704504
3201.000000;0.705322
3200.000000;0.706035
3199.000000;0.706230
3198.000000;0.705853
3197.000000;0.705582
3196.000000;0.706187
3195.000000;0.707554
3194.000000;0.708732
3193.000000;0.709022
3192.000000;0.708725
3191.000000;0.708682
3190.000000;0.709298
3189.000000;0.710197
3188.000000;0.710725
3187.000000;0.710654
3186.000000;0.710381
3185.000000;0.710475
3184.000000;0.711056
3183.000000;0.711709
3182.000000;0.712043
3181.000000;0.712184
3180.000000;0.712537
3179.000000;0.713176
3178.000000;0.713752
3177.000000;0.714013
3176.000000;0.714105
3175.000000;0.714247
3174.000000;0.714424
3173.000000;0.714593
3172.000000;0.714920
3171.000000;0.715538
3170.000000;0.716224
3169.000000;0.716646
3168.000000;0.716835
3167.000000;0.717070
3166.000000;0.717330
3165.000000;0.717254
3164.000000;0.716805
3163.000000;0.716571
3162.000000;0.717081
3161.000000;0.718047
3160.000000;0.718659
3159.000000;0.718548
3158.000000;0.718155
3157.000000;0.718108
3156.000000;0.718518
3155.000000;0.719018
3154.000000;0.719288
3153.000000;0.719342
3152.000000;0.719329
3151.000000;0.719228
3150.000000;0.718843
3149.000000;0.718140
3148.000000;0.717495
3147.000000;0.717475
3146.000000;0.718261
3145.000000;0.719339
3144.000000;0.719923
3143.000000;0.719697
3142.000000;0.719074
3141.000000;0.718719
3140.000000;0.718925
3139.000000;0.719450
3138.000000;0.719789
3137.000000;0.719568
3136.000000;0.718807
3135.000000;0.717932
3134.000000;0.717460
3133.000000;0.717592
3132.000000;0.718082
3131.000000;0.718458
3130.000000;0.718337
3129.000000;0.717641
3128.000000;0.716705
3127.000000;0.716207
3126.000000;0.716714
3125.000000;0.718119
3124.000000;0.719622
3123.000000;0.720419
3122.000000;0.720339
3121.000000;0.719721
3120.000000;0.718902
3119.000000;0.718069
3118.000000;0.717458
3117.000000;0.717312
3116.000000;0.717587
3115.000000;0.717938
3114.000000;0.718116
3113.000000;0.718198
3112.000000;0.718334
3111.000000;0.718459
3110.000000;0.718405
3109.000000;0.718145
3108.000000;0.717781
3107.000000;0.717399
3106.000000;0.717108
3105.000000;0.717141
3104.000000;0.717657
3103.000000;0.718398
3102.000000;0.718734
3101.000000;0.718258
3100.000000;0.717284
3099.000000;0.716561
3098.000000;0.716491
3097.000000;0.716751
3096.000000;0.716735
3095.000000;0.716229
3094.000000;0.715487
3093.000000;0.714788
3092.000000;0.714171
3091.000000;0.713659
3090.000000;0.713485
3089.000000;0.713877
3088.000000;0.714678
3087.000000;0.715384
3086.000000;0.715601
3085.000000;0.715304
3084.000000;0.714682
3083.000000;0.713955
3082.000000;0.713388
3081.000000;0.713304
3080.000000;0.713855
3079.000000;0.714776
3078.000000;0.715501
3077.000000;0.715624
3076.000000;0.715204
3075.000000;0.714570
3074.000000;0.713885
3073.000000;0.713051
3072.000000;0.712034
3071.000000;0.711137
3070.000000;0.710809
3069.000000;0.711191
3068.000000;0.711942
3067.000000;0.712527
3066.000000;0.712692
3065.000000;0.712647
3064.000000;0.712788
3063.000000;0.713188
3062.000000;0.713340
3061.000000;0.712593
3060.000000;0.710936
3059.000000;0.709214
3058.000000;0.708346
3057.000000;0.708431
3056.000000;0.708767
3055.000000;0.708674
3054.000000;0.708064
3053.000000;0.707251
3052.000000;0.706523
3051.000000;0.706010
3050.000000;0.705698
3049.000000;0.705382
3048.000000;0.704790
3047.000000;0.703926
3046.000000;0.703168
3045.000000;0.702885
3044.000000;0.703056
3043.000000;0.703386
3042.000000;0.703659
3041.000000;0.703821
3040.000000;0.703839
3039.000000;0.703628
3038.000000;0.703106
3037.000000;0.702257
3036.000000;0.701244
3035.000000;0.700468
3034.000000;0.700274
3033.000000;0.700521
3032.000000;0.700643
3031.000000;0.700342
3030.000000;0.699966
3029.000000;0.699961
3028.000000;0.700154
3027.000000;0.699945
3026.000000;0.699096
3025.000000;0.697958
3024.000000;0.696908
3023.000000;0.695959
3022.000000;0.695018
3021.000000;0.694195
3020.000000;0.693625
3019.000000;0.693227
3018.000000;0.692881
3017.000000;0.692747
3016.000000;0.693115
3015.000000;0.693922
3014.000000;0.694649
3013.000000;0.694802
3012.000000;0.694334
3011.000000;0.693506
3010.000000;0.692509
3009.000000;0.691460
3008.000000;0.690648
3007.000000;0.690462
3006.000000;0.690932
3005.000000;0.691607
3004.000000;0.692045
3003.000000;0.692261
3002.000000;0.692439
3001.000000;0.692402
3000.000000;0.691744
2999.000000;0.690459
2998.000000;0.689070
2997.000000;0.688027
2996.000000;0.687254
2995.000000;0.686387
2994.000000;0.685269
2993.000000;0.684066
2992.000000;0.683066
2991.000000;0.682471
2990.000000;0.682263
2989.000000;0.682211
2988.000000;0.682117
2987.000000;0.682024
2986.000000;0.682006
2985.000000;0.681824
2984.000000;0.681149
2983.000000;0.680171
2982.000000;0.679559
2981.000000;0.679636
2980.000000;0.679929
2979.000000;0.679773
2978.000000;0.679081
2977.000000;0.678256
2976.000000;0.677617
2975.000000;0.677218
2974.000000;0.677006
2973.000000;0.676807
2972.000000;0.676294
2971.000000;0.675311
2970.000000;0.674188
2969.000000;0.673468
2968.000000;0.673340
2967.000000;0.673520
2966.000000;0.673591
2965.000000;0.673265
2964.000000;0.672472
2963.000000;0.671436
2962.000000;0.670589
2961.000000;0.670143
2960.000000;0.669852
2959.000000;0.669393
2958.000000;0.668841
2957.000000;0.668494
2956.000000;0.668360
2955.000000;0.668145
2954.000000;0.667709
2953.000000;0.667185
2952.000000;0.666628
2951.000000;0.665888
2950.000000;0.664895
2949.000000;0.663843
2948.000000;0.662973
2947.000000;0.662356
2946.000000;0.661947
2945.000000;0.661680
2944.000000;0.661474
2943.000000;0.661274
2942.000000;0.661109
2941.000000;0.661022
2940.000000;0.660973
2939.000000;0.660878
2938.000000;0.660673
2937.000000;0.660208
2936.000000;0.659239
2935.000000;0.657743
2934.000000;0.656151
2933.000000;0.655029
2932.000000;0.654584
2931.000000;0.654616
2930.000000;0.654834
2929.000000;0.654970
2928.000000;0.654719
2927.000000;0.653922
2926.000000;0.652820
2925.000000;0.651828
2924.000000;0.651016
2923.000000;0.650113
2922.000000;0.649065
2921.000000;0.648247
2920.000000;0.647977
2919.000000;0.648101
2918.000000;0.648230
2917.000000;0.648187
2916.000000;0.648020
2915.000000;0.647763
2914.000000;0.647397
2913.000000;0.646945
2912.000000;0.646409
2911.000000;0.645658
2910.000000;0.644580
2909.000000;0.643350
2908.000000;0.642379
2907.000000;0.641927
2906.000000;0.641864
2905.000000;0.641849
2904.000000;0.641641
2903.000000;0.641177
2902.000000;0.640424
2901.000000;0.639399
2900.000000;0.638352
2899.000000;0.637716
2898.000000;0.637657
2897.000000;0.637797
2896.000000;0.637613
2895.000000;0.637078
2894.000000;0.636609
2893.000000;0.636439
2892.000000;0.636361
2891.000000;0.636168
2890.000000;0.635936
2889.000000;0.635698
2888.000000;0.635185
2887.000000;0.634211
2886.000000;0.633088
2885.000000;0.632275
2884.000000;0.631792
2883.000000;0.631300
2882.000000;0.630638
2881.000000;0.629911
2880.000000;0.629138
2879.000000;0.628230
2878.000000;0.627343
2877.000000;0.626842
2876.000000;0.626817
2875.000000;0.626883
2874.000000;0.626602
2873.000000;0.625894
2872.000000;0.624941
2871.000000;0.623921
2870.000000;0.622961
2869.000000;0.622176
2868.000000;0.621556
2867.000000;0.620894
2866.000000;0.619965
2865.000000;0.618785
2864.000000;0.617666
2863.000000;0.616997
2862.000000;0.616923
2861.000000;0.617187
2860.000000;0.617366
2859.000000;0.617280
2858.000000;0.617097
2857.000000;0.616965
2856.000000;0.616711
2855.000000;0.616062
2854.000000;0.615046
2853.000000;0.613991
2852.000000;0.613197
2851.000000;0.612766
2850.000000;0.612616
2849.000000;0.612469
2848.000000;0.611958
2847.000000;0.611002
2846.000000;0.610024
2845.000000;0.609548
2844.000000;0.609622
2843.000000;0.609805
2842.000000;0.609679
2841.000000;0.609136
2840.000000;0.608238
2839.000000;0.607135
2838.000000;0.606148
2837.000000;0.605649
2836.000000;0.605684
2835.000000;0.605859
2834.000000;0.605681
2833.000000;0.604961
2832.000000;0.603907
2831.000000;0.602976
2830.000000;0.602566
2829.000000;0.602639
2828.000000;0.602628
2827.000000;0.601912
2826.000000;0.600444
2825.000000;0.598781
2824.000000;0.597505
2823.000000;0.596798
2822.000000;0.596490
2821.000000;0.596283
2820.000000;0.595906
2819.000000;0.595291
2818.000000;0.594609
2817.000000;0.594034
2816.000000;0.593501
2815.000000;0.592864
2814.000000;0.592194
2813.000000;0.591641
2812.000000;0.591093
2811.000000;0.590335
2810.000000;0.589554
2809.000000;0.589242
2808.000000;0.589479
2807.000000;0.589686
2806.000000;0.589290
2805.000000;0.588353
2804.000000;0.587320
2803.000000;0.586455
2802.000000;0.585799
2801.000000;0.585427
2800.000000;0.585374
2799.000000;0.585390
2798.000000;0.585085
2797.000000;0.584336
2796.000000;0.583366
2795.000000;0.582427
2794.000000;0.581577
2793.000000;0.580774
2792.000000;0.580069
2791.000000;0.579636
2790.000000;0.579635
2789.000000;0.579986
2788.000000;0.580291
2787.000000;0.580121
2786.000000;0.579434
2785.000000;0.578599
2784.000000;0.577920
2783.000000;0.577319
2782.000000;0.576620
2781.000000;0.575961
2780.000000;0.575693
2779.000000;0.575892
2778.000000;0.576172
2777.000000;0.576025
2776.000000;0.575237
2775.000000;0.573988
2774.000000;0.572656
2773.000000;0.571593
2772.000000;0.570974
2771.000000;0.570732
2770.000000;0.570608
2769.000000;0.570298
2768.000000;0.569633
2767.000000;0.568668
2766.000000;0.567603
2765.000000;0.566576
2764.000000;0.565567
2763.000000;0.564553
2762.000000;0.563677
2761.000000;0.563181
2760.000000;0.563138
2759.000000;0.563340
2758.000000;0.563467
2757.000000;0.563281
2756.000000;0.562682
2755.000000;0.561725
2754.000000;0.560666
2753.000000;0.559855
2752.000000;0.559468
2751.000000;0.559368
2750.000000;0.559243
2749.000000;0.558838
2748.000000;0.558081
2747.000000;0.557102
2746.000000;0.556184
2745.000000;0.555623
2744.000000;0.555498
2743.000000;0.555574
2742.000000;0.555477
2741.000000;0.554995
2740.000000;0.554243
2739.000000;0.553555
2738.000000;0.553177
2737.000000;0.552995
2736.000000;0.552586
2735.000000;0.551633
2734.000000;0.550271
2733.000000;0.548959
2732.000000;0.548060
2731.000000;0.547614
2730.000000;0.547437
2729.000000;0.547293
2728.000000;0.546985
2727.000000;0.546493
2726.000000;0.546042
2725.000000;0.545879
2724.000000;0.545918
2723.000000;0.545775
2722.000000;0.545218
2721.000000;0.544414
2720.000000;0.543626
2719.000000;0.542869
2718.000000;0.542016
2717.000000;0.541101
2716.000000;0.540317
2715.000000;0.539786
2714.000000;0.539490
2713.000000;0.539383
2712.000000;0.539401
2711.000000;0.539365
2710.000000;0.539019
2709.000000;0.538229
2708.000000;0.537076
2707.000000;0.535792
2706.000000;0.534688
2705.000000;0.534023
2704.000000;0.533801
2703.000000;0.533690
2702.000000;0.533333
2701.000000;0.532757
2700.000000;0.532328
2699.000000;0.532229
2698.000000;0.532159
2697.000000;0.531663
2696.000000;0.530691
2695.000000;0.529659
2694.000000;0.528945
2693.000000;0.528470
2692.000000;0.527829
2691.000000;0.526811
2690.000000;0.525685
2689.000000;0.524926
2688.000000;0.524684
2687.000000;0.524621
2686.000000;0.524326
2685.000000;0.523827
2684.000000;0.523515
2683.000000;0.523517
2682.000000;0.523365
2681.000000;0.522460
2680.000000;0.520821
2679.000000;0.519151
2678.000000;0.518124
2677.000000;0.517810
2676.000000;0.517829
2675.000000;0.517843
2674.000000;0.517768
2673.000000;0.517625
2672.000000;0.517436
2671.000000;0.517243
2670.000000;0.517047
2669.000000;0.516688
2668.000000;0.515943
2667.000000;0.514798
2666.000000;0.513550
2665.000000;0.512559
2664.000000;0.511966
2663.000000;0.511648
2662.000000;0.511365
2661.000000;0.510923
2660.000000;0.510294
2659.000000;0.509637
2658.000000;0.509157
2657.000000;0.508897
2656.000000;0.508687
2655.000000;0.508341
2654.000000;0.507824
2653.000000;0.507227
2652.000000;0.506649
2651.000000;0.506103
2650.000000;0.505505
2649.000000;0.504770
2648.000000;0.503989
2647.000000;0.503465
2646.000000;0.503387
2645.000000;0.503511
2644.000000;0.503348
2643.000000;0.502714
2642.000000;0.501895
2641.000000;0.501183
2640.000000;0.500523
2639.000000;0.499758
2638.000000;0.498976
2637.000000;0.498348
2636.000000;0.497781
2635.000000;0.497047
2634.000000;0.496215
2633.000000;0.495638
2632.000000;0.495494
2631.000000;0.495545
2630.000000;0.495433
2629.000000;0.495035
2628.000000;0.494469
2627.000000;0.493907
2626.000000;0.493458
2625.000000;0.493120
2624.000000;0.492765
2623.000000;0.492251
2622.000000;0.491553
2621.000000;0.490750
2620.000000;0.489901
2619.000000;0.489051
2618.000000;0.488346
2617.000000;0.487956
2616.000000;0.487833
2615.000000;0.487658
2614.000000;0.487127
2613.000000;0.486251
2612.000000;0.485334
2611.000000;0.484698
2610.000000;0.484416
2609.000000;0.484262
2608.000000;0.483900
2607.000000;0.483191
2606.000000;0.482307
2605.000000;0.481507
2604.000000;0.480872
2603.000000;0.480354
2602.000000;0.479985
2601.000000;0.479815
2600.000000;0.479670
2599.000000;0.479250
2598.000000;0.478544
2597.000000;0.477946
2596.000000;0.477774
2595.000000;0.477820
2594.000000;0.477568
2593.000000;0.476790
2592.000000;0.475776
2591.000000;0.474967
2590.000000;0.474526
2589.000000;0.474276
2588.000000;0.473908
2587.000000;0.473220
2586.000000;0.472231
2585.000000;0.471155
2584.000000;0.470252
2583.000000;0.469667
2582.000000;0.469361
2581.000000;0.469165
2580.000000;0.468907
2579.000000;0.468522
2578.000000;0.468052
2577.000000;0.467525
2576.000000;0.466877
2575.000000;0.466040
2574.000000;0.465099
2573.000000;0.464271
2572.000000;0.463697
2571.000000;0.463337
2570.000000;0.463071
2569.000000;0.462834
2568.000000;0.462600
2567.000000;0.462300
2566.000000;0.461838
2565.000000;0.461192
2564.000000;0.460434
2563.000000;0.459662
2562.000000;0.458947
2561.000000;0.458336
2560.000000;0.457873
2559.000000;0.457590
2558.000000;0.457450
2557.000000;0.457282
2556.000000;0.456839
2555.000000;0.455990
2554.000000;0.454897
2553.000000;0.453913
2552.000000;0.453297
2551.000000;0.453057
2550.000000;0.453034
2549.000000;0.453030
2548.000000;0.452819
2547.000000;0.452220
2546.000000;0.451314
2545.000000;0.450494
2544.000000;0.450119
2543.000000;0.450141
2542.000000;0.450177
2541.000000;0.449935
2540.000000;0.449425
2539.000000;0.448742
2538.000000;0.447866
2537.000000;0.446777
2536.000000;0.445661
2535.000000;0.444803
2534.000000;0.444302
2533.000000;0.443990
2532.000000;0.443658
2531.000000;0.443259
2530.000000;0.442854
2529.000000;0.442448
2528.000000;0.441955
2527.000000;0.441330
2526.000000;0.440668
2525.000000;0.440125
2524.000000;0.439722
2523.000000;0.439287
2522.000000;0.438646
2521.000000;0.437865
2520.000000;0.437238
2519.000000;0.436960
2518.000000;0.436902
2517.000000;0.436782
2516.000000;0.436512
2515.000000;0.436264
2514.000000;0.436157
2513.000000;0.436033
2512.000000;0.435599
2511.000000;0.434732
2510.000000;0.433560
2509.000000;0.432327
2508.000000;0.431253
2507.000000;0.430478
2506.000000;0.429991
2505.000000;0.429600
2504.000000;0.429074
2503.000000;0.428375
2502.000000;0.427689
2501.000000;0.427217
2500.000000;0.427000
2499.000000;0.426955
2498.000000;0.426988
2497.000000;0.426977
2496.000000;0.426704
2495.000000;0.425933
2494.000000;0.424640
2493.000000;0.423156
2492.000000;0.421988
2491.000000;0.421443
2490.000000;0.421402
2489.000000;0.421463
2488.000000;0.421296
2487.000000;0.420829
2486.000000;0.420155
2485.000000;0.419398
2484.000000;0.418716
2483.000000;0.418284
2482.000000;0.418127
2481.000000;0.418016
2480.000000;0.417667
2479.000000;0.417029
2478.000000;0.416268
2477.000000;0.415499
2476.000000;0.414701
2475.000000;0.413913
2474.000000;0.413311
2473.000000;0.412999
2472.000000;0.412821
2471.000000;0.412504
2470.000000;0.411930
2469.000000;0.411173
2468.000000;0.410368
2467.000000;0.409630
2466.000000;0.409056
2465.000000;0.408667
2464.000000;0.408352
2463.000000;0.407966
2462.000000;0.407479
2461.000000;0.406961
2460.000000;0.406442
2459.000000;0.405909
2458.000000;0.405402
2457.000000;0.404994
2456.000000;0.404642
2455.000000;0.404180
2454.000000;0.403548
2453.000000;0.402921
2452.000000;0.402515
2451.000000;0.402301
2450.000000;0.402029
2449.000000;0.401532
2448.000000;0.400881
2447.000000;0.400214
2446.000000;0.399530
2445.000000;0.398757
2444.000000;0.397958
2443.000000;0.397327
2442.000000;0.396978
2441.000000;0.396816
2440.000000;0.396661
2439.000000;0.396384
2438.000000;0.395910
2437.000000;0.395184
2436.000000;0.394227
2435.000000;0.393200
2434.000000;0.392322
2433.000000;0.391733
2432.000000;0.391449
2431.000000;0.391360
2430.000000;0.391245
2429.000000;0.390873
2428.000000;0.390197
2427.000000;0.389409
2426.000000;0.388730
2425.000000;0.388203
2424.000000;0.387785
2423.000000;0.387507
2422.000000;0.387402
2421.000000;0.387324
2420.000000;0.387043
2419.000000;0.386525
2418.000000;0.385942
2417.000000;0.385388
2416.000000;0.384778
2415.000000;0.384052
2414.000000;0.383299
2413.000000;0.382593
2412.000000;0.381893
2411.000000;0.381166
2410.000000;0.380473
2409.000000;0.379838
2408.000000;0.379209
2407.000000;0.378642
2406.000000;0.378326
2405.000000;0.378272
2404.000000;0.378161
2403.000000;0.377695
2402.000000;0.376992
2401.000000;0.376383
2400.000000;0.375950
2399.000000;0.375522
2398.000000;0.375071
2397.000000;0.374769
2396.000000;0.374604
2395.000000;0.374247
2394.000000;0.373467
2393.000000;0.372484
2392.000000;0.371711
2391.000000;0.371267
2390.000000;0.370914
2389.000000;0.370425
2388.000000;0.369807
2387.000000;0.369183
2386.000000;0.368601
2385.000000;0.368029
2384.000000;0.367469
2383.000000;0.367001
2382.000000;0.366712
2381.000000;0.366593
2380.000000;0.366503
2379.000000;0.366255
2378.000000;0.365744
2377.000000;0.365002
2376.000000;0.364151
2375.000000;0.363330
2374.000000;0.362641
2373.000000;0.362097
2372.000000;0.361623
2371.000000;0.361153
2370.000000;0.360719
2369.000000;0.360384
2368.000000;0.360080
2367.000000;0.359612
2366.000000;0.358888
2365.000000;0.358088
2364.000000;0.357503
2363.000000;0.357185
2362.000000;0.356893
2361.000000;0.356400
2360.000000;0.355700
2359.000000;0.354957
2358.000000;0.354329
2357.000000;0.353845
2356.000000;0.353469
2355.000000;0.353077
2354.000000;0.352550
2353.000000;0.351905
2352.000000;0.351319
2351.000000;0.350923
2350.000000;0.350568
2349.000000;0.350057
2348.000000;0.349437
2347.000000;0.348940
2346.000000;0.348673
2345.000000;0.348427
2344.000000;0.348015
2343.000000;0.347440
2342.000000;0.346848
2341.000000;0.346265
2340.000000;0.345587
2339.000000;0.344827
2338.000000;0.344119
2337.000000;0.343625
2336.000000;0.343366
2335.000000;0.343233
2334.000000;0.342956
2333.000000;0.342318
2332.000000;0.341350
2331.000000;0.340446
2330.000000;0.339891
2329.000000;0.339646
2328.000000;0.339376
2327.000000;0.338895
2326.000000;0.338272
2325.000000;0.337615
2324.000000;0.336987
2323.000000;0.336427
2322.000000;0.336008
2321.000000;0.335703
2320.000000;0.335376
2319.000000;0.334994
2318.000000;0.334609
2317.000000;0.334255
2316.000000;0.333793
2315.000000;0.333188
2314.000000;0.332548
2313.000000;0.332018
2312.000000;0.331500
2311.000000;0.330855
2310.000000;0.330096
2309.000000;0.329434
2308.000000;0.328992
2307.000000;0.328724
2306.000000;0.328474
2305.000000;0.328107
2304.000000;0.327528
2303.000000;0.326790
2302.000000;0.326090
2301.000000;0.325634
2300.000000;0.325406
2299.000000;0.325221
2298.000000;0.324920
2297.000000;0.324492
2296.000000;0.323936
2295.000000;0.323204
2294.000000;0.322302
2293.000000;0.321402
2292.000000;0.320732
2291.000000;0.320381
2290.000000;0.320228
2289.000000;0.320050
2288.000000;0.319686
2287.000000;0.319118
2286.000000;0.318459
2285.000000;0.317852
2284.000000;0.317372
2283.000000;0.317001
2282.000000;0.316682
2281.000000;0.316352
2280.000000;0.315920
2279.000000;0.315274
2278.000000;0.314407
2277.000000;0.313521
2276.000000;0.312905
2275.000000;0.312672
2274.000000;0.312621
2273.000000;0.312430
2272.000000;0.311949
2271.000000;0.311271
2270.000000;0.310538
2269.000000;0.309774
2268.000000;0.308945
2267.000000;0.308084
2266.000000;0.307271
2265.000000;0.306561
2264.000000;0.305997
2263.000000;0.305641
2262.000000;0.305479
2261.000000;0.305323
2260.000000;0.304938
2259.000000;0.304287
2258.000000;0.303579
2257.000000;0.303037
2256.000000;0.302678
2255.000000;0.302364
2254.000000;0.301963
2253.000000;0.301434
2252.000000;0.300800
2251.000000;0.300138
2250.000000;0.299531
2249.000000;0.298989
2248.000000;0.298431
2247.000000;0.297807
2246.000000;0.297201
2245.000000;0.296750
2244.000000;0.296474
2243.000000;0.296246
2242.000000;0.295945
2241.000000;0.295566
2240.000000;0.295171
2239.000000;0.294768
2238.000000;0.294313
2237.000000;0.293787
2236.000000;0.293233
2235.000000;0.292687
2234.000000;0.292132
2233.000000;0.291548
2232.000000;0.290990
2231.000000;0.290545
2230.000000;0.290217
2229.000000;0.289896
2228.000000;0.289494
2227.000000;0.289026
2226.000000;0.288554
2225.000000;0.288093
2224.000000;0.287617
2223.000000;0.287113
2222.000000;0.286571
2221.000000;0.285983
2220.000000;0.285401
2219.000000;0.284932
2218.000000;0.284592
2217.000000;0.284229
2216.000000;0.283704
2215.000000;0.283102
2214.000000;0.282641
2213.000000;0.282369
2212.000000;0.282095
2211.000000;0.281617
2210.000000;0.280930
2209.000000;0.280176
2208.000000;0.279489
2207.000000;0.278932
2206.000000;0.278469
2205.000000;0.277961
2204.000000;0.277283
2203.000000;0.276486
2202.000000;0.275775
2201.000000;0.275276
2200.000000;0.274928
2199.000000;0.274612
2198.000000;0.274288
2197.000000;0.273955
2196.000000;0.273574
2195.000000;0.273135
2194.000000;0.272698
2193.000000;0.272277
2192.000000;0.271774
2191.000000;0.271109
2190.000000;0.270382
2189.000000;0.269776
2188.000000;0.269339
2187.000000;0.268957
2186.000000;0.268534
2185.000000;0.268100
2184.000000;0.267719
2183.000000;0.267363
2182.000000;0.266936
2181.000000;0.266400
2180.000000;0.265845
2179.000000;0.265396
2178.000000;0.265066
2177.000000;0.264743
2176.000000;0.264329
2175.000000;0.263831
2174.000000;0.263278
2173.000000;0.262640
2172.000000;0.261919
2171.000000;0.261272
2170.000000;0.260864
2169.000000;0.260607
2168.000000;0.260227
2167.000000;0.259626
2166.000000;0.259002
2165.000000;0.258545
2164.000000;0.258166
2163.000000;0.257664
2162.000000;0.257031
2161.000000;0.256445
2160.000000;0.256032
2159.000000;0.255768
2158.000000;0.255565
2157.000000;0.255316
2156.000000;0.254915
2155.000000;0.254343
2154.000000;0.253721
2153.000000;0.253171
2152.000000;0.252665
2151.000000;0.252105
2150.000000;0.251502
2149.000000;0.250945
2148.000000;0.250440
2147.000000;0.249937
2146.000000;0.249467
2145.000000;0.249100
2144.000000;0.248743
2143.000000;0.248157
2142.000000;0.247256
2141.000000;0.246272
2140.000000;0.245537
2139.000000;0.245158
2138.000000;0.244986
2137.000000;0.244817
2136.000000;0.244533
2135.000000;0.244106
2134.000000;0.243569
2133.000000;0.243021
2132.000000;0.242572
2131.000000;0.242254
2130.000000;0.241969
2129.000000;0.241568
2128.000000;0.240998
2127.000000;0.240373
2126.000000;0.239853
2125.000000;0.239444
2124.000000;0.238987
2123.000000;0.238373
2122.000000;0.237729
2121.000000;0.237300
2120.000000;0.237175
2119.000000;0.237177
2118.000000;0.237022
2117.000000;0.236529
2116.000000;0.235696
2115.000000;0.234681
2114.000000;0.233731
2113.000000;0.233048
2112.000000;0.232634
2111.000000;0.232299
2110.000000;0.231843
2109.000000;0.231251
2108.000000;0.230691
2107.000000;0.230328
2106.000000;0.230161
2105.000000;0.230015
2104.000000;0.229689
2103.000000;0.229130
2102.000000;0.228464
2101.000000;0.227869
2100.000000;0.227407
2099.000000;0.227006
2098.000000;0.226574
2097.000000;0.226105
2096.000000;0.225665
2095.000000;0.225298
2094.000000;0.224958
2093.000000;0.224547
2092.000000;0.224022
2091.000000;0.223442
2090.000000;0.222902
2089.000000;0.222435
2088.000000;0.222010
2087.000000;0.221604
2086.000000;0.221211
2085.000000;0.220781
2084.000000;0.220243
2083.000000;0.219625
2082.000000;0.219055
2081.000000;0.218595
2080.000000;0.218143
2079.000000;0.217571
2078.000000;0.216903
2077.000000;0.216271
2076.000000;0.215749
2075.000000;0.215317
2074.000000;0.214958
2073.000000;0.214649
2072.000000;0.214293
2071.000000;0.213772
2070.000000;0.213116
2069.000000;0.212514
2068.000000;0.212120
2067.000000;0.211892
2066.000000;0.211648
2065.000000;0.211236
2064.000000;0.210618
2063.000000;0.209884
2062.000000;0.209206
2061.000000;0.208714
2060.000000;0.208382
2059.000000;0.208067
2058.000000;0.207678
2057.000000;0.207247
2056.000000;0.206809
2055.000000;0.206303
2054.000000;0.205664
2053.000000;0.204959
2052.000000;0.204350
2051.000000;0.203924
2050.000000;0.203603
2049.000000;0.203236
2048.000000;0.202749
2047.000000;0.202201
2046.000000;0.201719
2045.000000;0.201367
2044.000000;0.201077
2043.000000;0.200730
2042.000000;0.200285
2041.000000;0.199806
2040.000000;0.199350
2039.000000;0.198900
2038.000000;0.198433
2037.000000;0.197975
2036.000000;0.197532
2035.000000;0.197012
2034.000000;0.196319
2033.000000;0.195524
2032.000000;0.194861
2031.000000;0.194520
2030.000000;0.194452
2029.000000;0.194421
2028.000000;0.194217
2027.000000;0.193815
2026.000000;0.193335
2025.000000;0.192867
2024.000000;0.192366
2023.000000;0.191740
2022.000000;0.191037
2021.000000;0.190467
2020.000000;0.190183
2019.000000;0.190072
2018.000000;0.189860
2017.000000;0.189416
2016.000000;0.188878
2015.000000;0.188430
2014.000000;0.188057
2013.000000;0.187601
2012.000000;0.187019
2011.000000;0.186452
2010.000000;0.186014
2009.000000;0.185623
2008.000000;0.185113
2007.000000;0.184447
2006.000000;0.183753
2005.000000;0.183166
2004.000000;0.182741
2003.000000;0.182467
2002.000000;0.182282
2001.000000;0.182031
2000.000000;0.181525
1999.000000;0.180728
1998.000000;0.179844
1997.000000;0.179139
1996.000000;0.178690
1995.000000;0.178357
1994.000000;0.177980
1993.000000;0.177531
1992.000000;0.177066
1991.000000;0.176618
1990.000000;0.176190
1989.000000;0.175789
1988.000000;0.175416
1987.000000;0.175040
1986.000000;0.174642
1985.000000;0.174263
1984.000000;0.173956
1983.000000;0.173679
1982.000000;0.173295
1981.000000;0.172714
1980.000000;0.172012
1979.000000;0.171376
1978.000000;0.170936
1977.000000;0.170653
1976.000000;0.170380
1975.000000;0.169998
1974.000000;0.169488
1973.000000;0.168905
1972.000000;0.168314
1971.000000;0.167757
1970.000000;0.167245
1969.000000;0.166758
1968.000000;0.166247
1967.000000;0.165692
1966.000000;0.165139
1965.000000;0.164679
1964.000000;0.164366
1963.000000;0.164150
1962.000000;0.163901
1961.000000;0.163486
1960.000000;0.162850
1959.000000;0.162051
1958.000000;0.161236
1957.000000;0.160559
1956.000000;0.160084
1955.000000;0.159769
1954.000000;0.159533
1953.000000;0.159321
1952.000000;0.159093
1951.000000;0.158797
1950.000000;0.158395
1949.000000;0.157915
1948.000000;0.157413
1947.000000;0.156903
1946.000000;0.156367
1945.000000;0.155822
1944.000000;0.155333
1943.000000;0.154930
1942.000000;0.154565
1941.000000;0.154169
1940.000000;0.153733
1939.000000;0.153309
1938.000000;0.152949
1937.000000;0.152667
1936.000000;0.152430
1935.000000;0.152146
1934.000000;0.151713
1933.000000;0.151109
1932.000000;0.150439
1931.000000;0.149843
1930.000000;0.149367
1929.000000;0.148947
1928.000000;0.148499
1927.000000;0.147991
1926.000000;0.147446
1925.000000;0.146921
1924.000000;0.146472
1923.000000;0.146108
1922.000000;0.145756
1921.000000;0.145334
1920.000000;0.144837
1919.000000;0.144324
1918.000000;0.143819
1917.000000;0.143297
1916.000000;0.142743
1915.000000;0.142191
1914.000000;0.141673
1913.000000;0.141192
1912.000000;0.140750
1911.000000;0.140352
1910.000000;0.139964
1909.000000;0.139550
1908.000000;0.139150
1907.000000;0.138872
1906.000000;0.138728
1905.000000;0.138568
1904.000000;0.138227
1903.000000;0.137703
1902.000000;0.137132
1901.000000;0.136606
1900.000000;0.136110
1899.000000;0.135620
1898.000000;0.135168
1897.000000;0.134777
1896.000000;0.134388
1895.000000;0.133908
1894.000000;0.133307
1893.000000;0.132646
1892.000000;0.132021
1891.000000;0.131494
1890.000000;0.131065
1889.000000;0.130687
1888.000000;0.130300
1887.000000;0.129872
1886.000000;0.129437
1885.000000;0.129071
1884.000000;0.128814
1883.000000;0.128599
1882.000000;0.128288
1881.000000;0.127798
1880.000000;0.127198
1879.000000;0.126643
1878.000000;0.126224
1877.000000;0.125903
1876.000000;0.125604
1875.000000;0.125291
1874.000000;0.124949
1873.000000;0.124543
1872.000000;0.124058
1871.000000;0.123550
1870.000000;0.123095
1869.000000;0.122701
1868.000000;0.122309
1867.000000;0.121864
1866.000000;0.121383
1865.000000;0.120929
1864.000000;0.120527
1863.000000;0.120110
1862.000000;0.119579
1861.000000;0.118909
1860.000000;0.118213
1859.000000;0.117654
1858.000000;0.117282
1857.000000;0.116986
1856.000000;0.116630
1855.000000;0.116187
1854.000000;0.115737
1853.000000;0.115345
1852.000000;0.114982
1851.000000;0.114578
1850.000000;0.114101
1849.000000;0.113583
1848.000000;0.113083
1847.000000;0.112631
1846.000000;0.112215
1845.000000;0.111823
1844.000000;0.111460
1843.000000;0.111127
1842.000000;0.110811
1841.000000;0.110508
1840.000000;0.110249
1839.000000;0.110042
1838.000000;0.109796
1837.000000;0.109387
1836.000000;0.108800
1835.000000;0.108138
1834.000000;0.107492
1833.000000;0.106889
1832.000000;0.106350
1831.000000;0.105900
1830.000000;0.105503
1829.000000;0.105140
1828.000000;0.104961
1827.000000;0.105183
1826.000000;0.105697
1825.000000;0.105941
1824.000000;0.105395
1823.000000;0.104145
1822.000000;0.102780
1821.000000;0.101785
1820.000000;0.101199
1819.000000;0.100823
1818.000000;0.100509
1817.000000;0.100183
1816.000000;0.099781
1815.000000;0.099299
1814.000000;0.098825
1813.000000;0.098428
1812.000000;0.098071
1811.000000;0.097692
1810.000000;0.097304
1809.000000;0.096941
1808.000000;0.096577
1807.000000;0.096177
1806.000000;0.095778
1805.000000;0.095434
1804.000000;0.095110
1803.000000;0.094697
1802.000000;0.094134
1801.000000;0.093463
1800.000000;0.092798
1799.000000;0.092239
1798.000000;0.091822
1797.000000;0.091492
1796.000000;0.091169
1795.000000;0.090834
1794.000000;0.090538
1793.000000;0.090290
1792.000000;0.089998
1791.000000;0.089576
1790.000000;0.089035
1789.000000;0.088467
1788.000000;0.087947
1787.000000;0.087512
1786.000000;0.087175
1785.000000;0.086918
1784.000000;0.086661
1783.000000;0.086304
1782.000000;0.085815
1781.000000;0.085249
1780.000000;0.084712
1779.000000;0.084287
1778.000000;0.083969
1777.000000;0.083630
1776.000000;0.083109
1775.000000;0.082393
1774.000000;0.081679
1773.000000;0.081181
1772.000000;0.080907
1771.000000;0.080685
1770.000000;0.080389
1769.000000;0.080063
1768.000000;0.079808
1767.000000;0.079609
1766.000000;0.079347
1765.000000;0.078946
1764.000000;0.078450
1763.000000;0.077950
1762.000000;0.077485
1761.000000;0.077025
1760.000000;0.076525
1759.000000;0.075962
1758.000000;0.075369
1757.000000;0.074832
1756.000000;0.074430
1755.000000;0.074143
1754.000000;0.073851
1753.000000;0.073463
1752.000000;0.073016
1751.000000;0.072609
1750.000000;0.072261
1749.000000;0.071898
1748.000000;0.071466
1747.000000;0.071004
1746.000000;0.070588
1745.000000;0.070230
1744.000000;0.069904
1743.000000;0.069617
1742.000000;0.069394
1741.000000;0.069189
1740.000000;0.068869
1739.000000;0.068323
1738.000000;0.067583
1737.000000;0.066806
1736.000000;0.066160
1735.000000;0.065709
1734.000000;0.065358
1733.000000;0.064990
1732.000000;0.064622
1731.000000;0.064340
1730.000000;0.064156
1729.000000;0.063972
1728.000000;0.063657
1727.000000;0.063183
1726.000000;0.062630
1725.000000;0.062094
1724.000000;0.061621
1723.000000;0.061222
1722.000000;0.060889
1721.000000;0.060581
1720.000000;0.060242
1719.000000;0.059853
1718.000000;0.059428
1717.000000;0.058976
1716.000000;0.058490
1715.000000;0.057979
1714.000000;0.057513
1713.000000;0.057158
1712.000000;0.056902
1711.000000;0.056669
1710.000000;0.056399
1709.000000;0.056072
1708.000000;0.055695
1707.000000;0.055306
1706.000000;0.054960
1705.000000;0.054678
1704.000000;0.054396
1703.000000;0.054032
1702.000000;0.053604
1701.000000;0.053178
1700.000000;0.052697
1699.000000;0.052113
1698.000000;0.051532
1697.000000;0.051053
1696.000000;0.050687
1695.000000;0.050335
1694.000000;0.049918
1693.000000;0.049474
1692.000000;0.049050
1691.000000;0.048633
1690.000000;0.048197
1689.000000;0.047760
1688.000000;0.047367
1687.000000;0.047021
1686.000000;0.046676
1685.000000;0.046281
1684.000000;0.045810
1683.000000;0.045303
1682.000000;0.044817
1681.000000;0.044414
1680.000000;0.044119
1679.000000;0.043901
1678.000000;0.043689
1677.000000;0.043432
1676.000000;0.043133
1675.000000;0.042782
1674.000000;0.042353
1673.000000;0.041859
1672.000000;0.041361
1671.000000;0.040911
1670.000000;0.040503
1669.000000;0.040100
1668.000000;0.039698
1667.000000;0.039335
1666.000000;0.039014
1665.000000;0.038687
1664.000000;0.038312
1663.000000;0.037866
1662.000000;0.037329
1661.000000;0.036723
1660.000000;0.036158
1659.000000;0.035762
1658.000000;0.035521
1657.000000;0.035265
1656.000000;0.034868
1655.000000;0.034404
1654.000000;0.034007
1653.000000;0.033664
1652.000000;0.033292
1651.000000;0.032967
1650.000000;0.032811
1649.000000;0.032707
1648.000000;0.032472
1647.000000;0.032054
1646.000000;0.031534
1645.000000;0.031009
1644.000000;0.030561
1643.000000;0.030208
1642.000000;0.029880
1641.000000;0.029499
1640.000000;0.029065
1639.000000;0.028649
1638.000000;0.028293
1637.000000;0.027946
1636.000000;0.027550
1635.000000;0.027135
1634.000000;0.026763
1633.000000;0.026454
1632.000000;0.026135
1631.000000;0.025747
1630.000000;0.025339
1629.000000;0.024981
1628.000000;0.024658
1627.000000;0.024313
1626.000000;0.023908
1625.000000;0.023440
1624.000000;0.022920
1623.000000;0.022388
1622.000000;0.021898
1621.000000;0.021469
1620.000000;0.021071
1619.000000;0.020677
1618.000000;0.020299
1617.000000;0.019945
1616.000000;0.019586
1615.000000;0.019207
1614.000000;0.018835
1613.000000;0.018507
1612.000000;0.018240
1611.000000;0.018022
1610.000000;0.017804
1609.000000;0.017525
1608.000000;0.017170
1607.000000;0.016790
1606.000000;0.016430
1605.000000;0.016052
1604.000000;0.015583
1603.000000;0.015027
1602.000000;0.014482
1601.000000;0.014031
1600.000000;0.013679
1599.000000;0.013392
1598.000000;0.013131
1597.000000;0.012834
1596.000000;0.012442
1595.000000;0.011978
1594.000000;0.011544
1593.000000;0.011201
1592.000000;0.010891
1591.000000;0.010523
1590.000000;0.010104
1589.000000;0.009717
1588.000000;0.009397
1587.000000;0.009084
1586.000000;0.008719
1585.000000;0.008326
1584.000000;0.007965
1583.000000;0.007634
1582.000000;0.007256
1581.000000;0.006780
1580.000000;0.006243
1579.000000;0.005728
1578.000000;0.005267
1577.000000;0.004824
1576.000000;0.004353
1575.000000;0.003865
1574.000000;0.003433
1573.000000;0.003134
1572.000000;0.002993
1571.000000;0.002963
1570.000000;0.002918
1569.000000;0.002713
1568.000000;0.002300
1567.000000;0.001769
1566.000000;0.001263
1565.000000;0.000849
1564.000000;0.000493
1563.000000;0.000133
1562.000000;-0.000249
1561.000000;-0.000617
1560.000000;-0.000968
1559.000000;-0.001399
1558.000000;-0.001867
1557.000000;-0.002343
1556.000000;-0.002745
1555.000000;-0.003024
1554.000000;-0.003248
1553.000000;-0.003518
1552.000000;-0.003874
1551.000000;-0.004289
1550.000000;-0.004715
1549.000000;-0.005114
1548.000000;-0.005464
1547.000000;-0.005750
1546.000000;-0.006015
1545.000000;-0.006351
1544.000000;-0.006806
1543.000000;-0.007330
1542.000000;-0.007826
1541.000000;-0.008221
1540.000000;-0.008462
1539.000000;-0.008580
1538.000000;-0.008729
1537.000000;-0.009003
1536.000000;-0.009383
1535.000000;-0.009772
1534.000000;-0.010115
1533.000000;-0.010486
1532.000000;-0.010959
1531.000000;-0.011492
1530.000000;-0.011966
1529.000000;-0.012334
1528.000000;-0.012640
1527.000000;-0.012926
1526.000000;-0.013193
1525.000000;-0.013452
1524.000000;-0.013727
1523.000000;-0.014021
1522.000000;-0.014329
1521.000000;-0.014672
1520.000000;-0.015076
1519.000000;-0.015518
1518.000000;-0.015961
1517.000000;-0.016417
1516.000000;-0.016900
1515.000000;-0.017375
1514.000000;-0.017777
1513.000000;-0.018090
1512.000000;-0.018364
1511.000000;-0.018655
1510.000000;-0.018986
1509.000000;-0.019356
1508.000000;-0.019728
1507.000000;-0.020006
1506.000000;-0.020149
1505.000000;-0.020342
1504.000000;-0.020673
1503.000000;-0.021092
1502.000000;-0.021518
1501.000000;-0.021888
1500.000000;-0.022221
1499.000000;-0.022577
1498.000000;-0.022972
1497.000000;-0.023365
1496.000000;-0.023731
1495.000000;-0.024102
1494.000000;-0.024504
1493.000000;-0.024905
1492.000000;-0.025234
1491.000000;-0.025459
1490.000000;-0.025653
1489.000000;-0.025934
1488.000000;-0.026360
1487.000000;-0.026868
1486.000000;-0.027342
1485.000000;-0.027720
1484.000000;-0.028026
1483.000000;-0.028302
1482.000000;-0.028580
1481.000000;-0.028899
1480.000000;-0.029275
1479.000000;-0.029667
1478.000000;-0.030026
1477.000000;-0.030364
1476.000000;-0.030728
1475.000000;-0.031115
1474.000000;-0.031463
1473.000000;-0.031746
1472.000000;-0.032004
1471.000000;-0.032289
1470.000000;-0.032626
1469.000000;-0.033019
1468.000000;-0.033451
1467.000000;-0.033861
1466.000000;-0.034188
1465.000000;-0.034465
1464.000000;-0.034790
1463.000000;-0.035193
1462.000000;-0.035606
1461.000000;-0.035967
1460.000000;-0.036312
1459.000000;-0.036691
1458.000000;-0.037080
1457.000000;-0.037417
1456.000000;-0.037702
1455.000000;-0.037973
1454.000000;-0.038262
1453.000000;-0.038637
1452.000000;-0.039133
1451.000000;-0.039681
1450.000000;-0.040153
1449.000000;-0.040470
1448.000000;-0.040669
1447.000000;-0.040861
1446.000000;-0.041136
1445.000000;-0.041493
1444.000000;-0.041843
1443.000000;-0.042092
1442.000000;-0.042247
1441.000000;-0.042425
1440.000000;-0.042729
1439.000000;-0.043158
1438.000000;-0.043635
1437.000000;-0.044121
1436.000000;-0.044612
1435.000000;-0.045063
1434.000000;-0.045424
1433.000000;-0.045733
1432.000000;-0.046059
1431.000000;-0.046402
1430.000000;-0.046707
1429.000000;-0.046968
1428.000000;-0.047247
1427.000000;-0.047589
1426.000000;-0.047965
1425.000000;-0.048336
1424.000000;-0.048691
1423.000000;-0.049016
1422.000000;-0.049293
1421.000000;-0.049530
1420.000000;-0.049765
1419.000000;-0.050029
1418.000000;-0.050307
1417.000000;-0.050591
1416.000000;-0.050914
1415.000000;-0.051288
1414.000000;-0.051668
1413.000000;-0.052015
1412.000000;-0.052340
1411.000000;-0.052675
1410.000000;-0.053034
1409.000000;-0.053421
1408.000000;-0.053817
1407.000000;-0.054170
1406.000000;-0.054437
1405.000000;-0.054664
1404.000000;-0.054957
1403.000000;-0.055349
1402.000000;-0.055744
1401.000000;-0.056048
1400.000000;-0.056295
1399.000000;-0.056598
1398.000000;-0.056999
1397.000000;-0.057435
1396.000000;-0.057813
1395.000000;-0.058088
1394.000000;-0.058288
1393.000000;-0.058490
1392.000000;-0.058768
1391.000000;-0.059131
1390.000000;-0.059518
1389.000000;-0.059869
1388.000000;-0.060187
1387.000000;-0.060515
1386.000000;-0.060873
1385.000000;-0.061241
1384.000000;-0.061599
1383.000000;-0.061940
1382.000000;-0.062265
1381.000000;-0.062584
1380.000000;-0.062919
1379.000000;-0.063262
1378.000000;-0.063564
1377.000000;-0.063793
1376.000000;-0.064007
1375.000000;-0.064307
1374.000000;-0.064709
1373.000000;-0.065104
1372.000000;-0.065388
1371.000000;-0.065579
1370.000000;-0.065796
1369.000000;-0.066127
1368.000000;-0.066555
1367.000000;-0.067019
1366.000000;-0.067480
1365.000000;-0.067905
1364.000000;-0.068223
1363.000000;-0.068385
1362.000000;-0.068463
1361.000000;-0.068615
1360.000000;-0.068924
1359.000000;-0.069310
1358.000000;-0.069653
1357.000000;-0.069931
1356.000000;-0.070214
1355.000000;-0.070560
1354.000000;-0.070978
1353.000000;-0.071445
1352.000000;-0.071904
1351.000000;-0.072264
1350.000000;-0.072459
1349.000000;-0.072533
1348.000000;-0.072597
1347.000000;-0.072726
1346.000000;-0.072941
1345.000000;-0.073283
1344.000000;-0.073806
1343.000000;-0.074462
1342.000000;-0.075061
1341.000000;-0.075425
1340.000000;-0.075571
1339.000000;-0.075704
1338.000000;-0.076006
1337.000000;-0.076466
1336.000000;-0.076900
1335.000000;-0.077161
1334.000000;-0.077290
1333.000000;-0.077445
1332.000000;-0.077716
1331.000000;-0.078057
1330.000000;-0.078407
1329.000000;-0.078799
1328.000000;-0.079297
1327.000000;-0.079860
1326.000000;-0.080349
1325.000000;-0.080662
1324.000000;-0.080795
1323.000000;-0.080798
1322.000000;-0.080748
1321.000000;-0.080765
1320.000000;-0.080966
1319.000000;-0.081345
1318.000000;-0.081778
1317.000000;-0.082156
1316.000000;-0.082499
1315.000000;-0.082871
1314.000000;-0.083263
1313.000000;-0.083614
1312.000000;-0.083918
1311.000000;-0.084243
1310.000000;-0.084644
1309.000000;-0.085108
1308.000000;-0.085591
1307.000000;-0.086052
1306.000000;-0.086436
1305.000000;-0.086684
1304.000000;-0.086807
1303.000000;-0.086931
1302.000000;-0.087205
1301.000000;-0.087637
1300.000000;-0.088071
1299.000000;-0.088357
1298.000000;-0.088524
1297.000000;-0.088736
1296.000000;-0.089091
1295.000000;-0.089524
1294.000000;-0.089920
1293.000000;-0.090253
1292.000000;-0.090568
1291.000000;-0.090879
1290.000000;-0.091161
1289.000000;-0.091411
1288.000000;-0.091655
1287.000000;-0.091900
1286.000000;-0.092124
1285.000000;-0.092344
1284.000000;-0.092618
1283.000000;-0.092975
1282.000000;-0.093370
1281.000000;-0.093734
1280.000000;-0.094033
1279.000000;-0.094263
1278.000000;-0.094444
1277.000000;-0.094630
1276.000000;-0.094896
1275.000000;-0.095275
1274.000000;-0.095705
1273.000000;-0.096081
1272.000000;-0.096345
1271.000000;-0.096541
1270.000000;-0.096757
1269.000000;-0.097047
1268.000000;-0.097395
1267.000000;-0.097743
1266.000000;-0.098047
1265.000000;-0.098303
1264.000000;-0.098541
1263.000000;-0.098811
1262.000000;-0.099150
1261.000000;-0.099547
1260.000000;-0.099927
1259.000000;-0.100215
1258.000000;-0.100412
1257.000000;-0.100601
1256.000000;-0.100855
1255.000000;-0.101175
1254.000000;-0.101533
1253.000000;-0.101940
1252.000000;-0.102420
1251.000000;-0.102934
1250.000000;-0.103372
1249.000000;-0.103642
1248.000000;-0.103747
1247.000000;-0.103775
1246.000000;-0.103838
1245.000000;-0.104008
1244.000000;-0.104289
1243.000000;-0.104643
1242.000000;-0.105022
1241.000000;-0.105389
1240.000000;-0.105707
1239.000000;-0.105965
1238.000000;-0.106209
1237.000000;-0.106512
1236.000000;-0.106891
1235.000000;-0.107281
1234.000000;-0.107609
1233.000000;-0.107859
1232.000000;-0.108057
1231.000000;-0.108241
1230.000000;-0.108459
1229.000000;-0.108756
1228.000000;-0.109111
1227.000000;-0.109436
1226.000000;-0.109676
1225.000000;-0.109889
1224.000000;-0.110153
1223.000000;-0.110458
1222.000000;-0.110737
1221.000000;-0.110988
1220.000000;-0.111268
1219.000000;-0.111587
1218.000000;-0.111882
1217.000000;-0.112115
1216.000000;-0.112337
1215.000000;-0.112611
1214.000000;-0.112944
1213.000000;-0.113301
1212.000000;-0.113645
1211.000000;-0.113950
1210.000000;-0.114208
1209.000000;-0.114438
1208.000000;-0.114681
1207.000000;-0.114963
1206.000000;-0.115288
1205.000000;-0.115646
1204.000000;-0.116008
1203.000000;-0.116310
1202.000000;-0.116512
1201.000000;-0.116662
1200.000000;-0.116860
