Criado como novo conjunto de dados;"e2410_daniel_v2.spp","11522.6 Secs"
cm-1;Abs
10000.000000;0.370856
9999.000000;0.370286
9998.000000;0.369586
9997.000000;0.368878
9996.000000;0.368294
9995.000000;0.367832
9994.000000;0.367422
9993.000000;0.367072
9992.000000;0.366804
9991.000000;0.366506
9990.000000;0.366000
9989.000000;0.365279
9988.000000;0.364563
9987.000000;0.364067
9986.000000;0.363770
9985.000000;0.363470
9984.000000;0.363016
9983.000000;0.362418
9982.000000;0.361767
9981.000000;0.361118
9980.000000;0.360489
9979.000000;0.359926
9978.000000;0.359500
9977.000000;0.359215
9976.000000;0.358948
9975.000000;0.358550
9974.000000;0.358007
9973.000000;0.357450
9972.000000;0.356983
9971.000000;0.356564
9970.000000;0.356094
9969.000000;0.355566
9968.000000;0.355053
9967.000000;0.354596
9966.000000;0.354174
9965.000000;0.353769
9964.000000;0.353408
9963.000000;0.353121
9962.000000;0.352892
9961.000000;0.352641
9960.000000;0.352254
9959.000000;0.351656
9958.000000;0.350908
9957.000000;0.350190
9956.000000;0.349627
9955.000000;0.349152
9954.000000;0.348589
9953.000000;0.347874
9952.000000;0.347129
9951.000000;0.346512
9950.000000;0.346050
9949.000000;0.345642
9948.000000;0.345189
9947.000000;0.344700
9946.000000;0.344270
9945.000000;0.343955
9944.000000;0.343675
9943.000000;0.343296
9942.000000;0.342806
9941.000000;0.342356
9940.000000;0.342063
9939.000000;0.341823
9938.000000;0.341401
9937.000000;0.340712
9936.000000;0.339942
9935.000000;0.339362
9934.000000;0.339051
9933.000000;0.338837
9932.000000;0.338456
9931.000000;0.337787
9930.000000;0.336953
9929.000000;0.336199
9928.000000;0.335656
9927.000000;0.335256
9926.000000;0.334886
9925.000000;0.334551
9924.000000;0.334334
9923.000000;0.334202
9922.000000;0.333991
9921.000000;0.333586
9920.000000;0.333055
9919.000000;0.332535
9918.000000;0.332058
9917.000000;0.331524
9916.000000;0.330831
9915.000000;0.330008
9914.000000;0.329214
9913.000000;0.328621
9912.000000;0.328256
9911.000000;0.327954
9910.000000;0.327492
9909.000000;0.326798
9908.000000;0.326002
9907.000000;0.325288
9906.000000;0.324743
9905.000000;0.324340
9904.000000;0.324023
9903.000000;0.323743
9902.000000;0.323442
9901.000000;0.323062
9900.000000;0.322590
9899.000000;0.322076
9898.000000;0.321596
9897.000000;0.321171
9896.000000;0.320738
9895.000000;0.320209
9894.000000;0.319565
9893.000000;0.318902
9892.000000;0.318341
9891.000000;0.317905
9890.000000;0.317500
9889.000000;0.317028
9888.000000;0.316499
9887.000000;0.316009
9886.000000;0.315629
9885.000000;0.315327
9884.000000;0.315018
9883.000000;0.314648
9882.000000;0.314222
9881.000000;0.313767
9880.000000;0.313285
9879.000000;0.312759
9878.000000;0.312186
9877.000000;0.311582
9876.000000;0.310958
9875.000000;0.310324
9874.000000;0.309703
9873.000000;0.309120
9872.000000;0.308571
9871.000000;0.308025
9870.000000;0.307465
9869.000000;0.306917
9868.000000;0.306439
9867.000000;0.306100
9866.000000;0.305956
9865.000000;0.305970
9864.000000;0.305967
9863.000000;0.305722
9862.000000;0.305159
9861.000000;0.304435
9860.000000;0.303765
9859.000000;0.303226
9858.000000;0.302753
9857.000000;0.302288
9856.000000;0.301839
9855.000000;0.301396
9854.000000;0.300888
9853.000000;0.300271
9852.000000;0.299625
9851.000000;0.299104
9850.000000;0.298788
9849.000000;0.298611
9848.000000;0.298423
9847.000000;0.298102
9846.000000;0.297608
9845.000000;0.296974
9844.000000;0.296299
9843.000000;0.295731
9842.000000;0.295376
9841.000000;0.295181
9840.000000;0.294945
9839.000000;0.294502
9838.000000;0.293897
9837.000000;0.293319
9836.000000;0.292880
9835.000000;0.292511
9834.000000;0.292077
9833.000000;0.291529
9832.000000;0.290919
9831.000000;0.290346
9830.000000;0.289897
9829.000000;0.289586
9828.000000;0.289284
9827.000000;0.288791
9826.000000;0.288055
9825.000000;0.287270
9824.000000;0.286697
9823.000000;0.286390
9822.000000;0.286171
9821.000000;0.285841
9820.000000;0.285342
9819.000000;0.284743
9818.000000;0.284134
9817.000000;0.283590
9816.000000;0.283146
9815.000000;0.282775
9814.000000;0.282392
9813.000000;0.281919
9812.000000;0.281350
9811.000000;0.280756
9810.000000;0.280234
9809.000000;0.279825
9808.000000;0.279464
9807.000000;0.279037
9806.000000;0.278522
9805.000000;0.278024
9804.000000;0.277645
9803.000000;0.277328
9802.000000;0.276912
9801.000000;0.276347
9800.000000;0.275771
9799.000000;0.275345
9798.000000;0.275056
9797.000000;0.274729
9796.000000;0.274239
9795.000000;0.273650
9794.000000;0.273147
9793.000000;0.272815
9792.000000;0.272540
9791.000000;0.272146
9790.000000;0.271600
9789.000000;0.271018
9788.000000;0.270499
9787.000000;0.270026
9786.000000;0.269561
9785.000000;0.269148
9784.000000;0.268832
9783.000000;0.268529
9782.000000;0.268082
9781.000000;0.267432
9780.000000;0.266691
9779.000000;0.266032
9778.000000;0.265559
9777.000000;0.265277
9776.000000;0.265099
9775.000000;0.264873
9774.000000;0.264470
9773.000000;0.263892
9772.000000;0.263273
9771.000000;0.262748
9770.000000;0.262360
9769.000000;0.262069
9768.000000;0.261827
9767.000000;0.261578
9766.000000;0.261260
9765.000000;0.260815
9764.000000;0.260219
9763.000000;0.259483
9762.000000;0.258663
9761.000000;0.257885
9760.000000;0.257323
9759.000000;0.257061
9758.000000;0.256981
9757.000000;0.256828
9756.000000;0.256429
9755.000000;0.255839
9754.000000;0.255260
9753.000000;0.254819
9752.000000;0.254481
9751.000000;0.254142
9750.000000;0.253759
9749.000000;0.253337
9748.000000;0.252853
9747.000000;0.252270
9746.000000;0.251638
9745.000000;0.251089
9744.000000;0.250718
9743.000000;0.250492
9742.000000;0.250295
9741.000000;0.250025
9740.000000;0.249636
9739.000000;0.249122
9738.000000;0.248534
9737.000000;0.247945
9736.000000;0.247383
9735.000000;0.246808
9734.000000;0.246189
9733.000000;0.245573
9732.000000;0.245040
9731.000000;0.244617
9730.000000;0.244276
9729.000000;0.243999
9728.000000;0.243785
9727.000000;0.243607
9726.000000;0.243403
9725.000000;0.243115
9724.000000;0.242716
9723.000000;0.242222
9722.000000;0.241690
9721.000000;0.241184
9720.000000;0.240718
9719.000000;0.240255
9718.000000;0.239783
9717.000000;0.239347
9716.000000;0.238968
9715.000000;0.238598
9714.000000;0.238199
9713.000000;0.237825
9712.000000;0.237520
9711.000000;0.237189
9710.000000;0.236672
9709.000000;0.235974
9708.000000;0.235291
9707.000000;0.234799
9706.000000;0.234465
9705.000000;0.234134
9704.000000;0.233715
9703.000000;0.233225
9702.000000;0.232701
9701.000000;0.232143
9700.000000;0.231556
9699.000000;0.230978
9698.000000;0.230464
9697.000000;0.230046
9696.000000;0.229712
9695.000000;0.229415
9694.000000;0.229097
9693.000000;0.228730
9692.000000;0.228322
9691.000000;0.227899
9690.000000;0.227491
9689.000000;0.227118
9688.000000;0.226780
9687.000000;0.226440
9686.000000;0.226058
9685.000000;0.225632
9684.000000;0.225193
9683.000000;0.224759
9682.000000;0.224325
9681.000000;0.223895
9680.000000;0.223503
9679.000000;0.223164
9678.000000;0.222824
9677.000000;0.222385
9676.000000;0.221794
9675.000000;0.221117
9674.000000;0.220513
9673.000000;0.220091
9672.000000;0.219794
9671.000000;0.219453
9670.000000;0.218982
9669.000000;0.218475
9668.000000;0.218057
9667.000000;0.217704
9666.000000;0.217266
9665.000000;0.216684
9664.000000;0.216077
9663.000000;0.215609
9662.000000;0.215312
9661.000000;0.215094
9660.000000;0.214848
9659.000000;0.214530
9658.000000;0.214149
9657.000000;0.213744
9656.000000;0.213351
9655.000000;0.212954
9654.000000;0.212488
9653.000000;0.211936
9652.000000;0.211399
9651.000000;0.211013
9650.000000;0.210790
9649.000000;0.210587
9648.000000;0.210240
9647.000000;0.209702
9646.000000;0.209051
9645.000000;0.208404
9644.000000;0.207852
9643.000000;0.207435
9642.000000;0.207129
9641.000000;0.206862
9640.000000;0.206567
9639.000000;0.206227
9638.000000;0.205845
9637.000000;0.205409
9636.000000;0.204922
9635.000000;0.204450
9634.000000;0.204072
9633.000000;0.203757
9632.000000;0.203369
9631.000000;0.202817
9630.000000;0.202178
9629.000000;0.201631
9628.000000;0.201304
9627.000000;0.201191
9626.000000;0.201175
9625.000000;0.201072
9624.000000;0.200720
9623.000000;0.200134
9622.000000;0.199522
9621.000000;0.199077
9620.000000;0.198750
9619.000000;0.198321
9618.000000;0.197688
9617.000000;0.196964
9616.000000;0.196302
9615.000000;0.195752
9614.000000;0.195341
9613.000000;0.195132
9612.000000;0.195097
9611.000000;0.195027
9610.000000;0.194707
9609.000000;0.194160
9608.000000;0.193608
9607.000000;0.193208
9606.000000;0.192938
9605.000000;0.192698
9604.000000;0.192427
9603.000000;0.192092
9602.000000;0.191672
9601.000000;0.191195
9600.000000;0.190732
9599.000000;0.190302
9598.000000;0.189832
9597.000000;0.189250
9596.000000;0.188600
9595.000000;0.188033
9594.000000;0.187670
9593.000000;0.187486
9592.000000;0.187320
9591.000000;0.187032
9590.000000;0.186637
9589.000000;0.186254
9588.000000;0.185938
9587.000000;0.185615
9586.000000;0.185215
9585.000000;0.184790
9584.000000;0.184417
9583.000000;0.184056
9582.000000;0.183610
9581.000000;0.183092
9580.000000;0.182614
9579.000000;0.182225
9578.000000;0.181866
9577.000000;0.181505
9576.000000;0.181197
9575.000000;0.180973
9574.000000;0.180753
9573.000000;0.180435
9572.000000;0.180018
9571.000000;0.179568
9570.000000;0.179123
9569.000000;0.178685
9568.000000;0.178251
9567.000000;0.177803
9566.000000;0.177306
9565.000000;0.176767
9564.000000;0.176266
9563.000000;0.175879
9562.000000;0.175590
9561.000000;0.175317
9560.000000;0.175015
9559.000000;0.174694
9558.000000;0.174351
9557.000000;0.173943
9556.000000;0.173445
9555.000000;0.172906
9554.000000;0.172424
9553.000000;0.172062
9552.000000;0.171798
9551.000000;0.171539
9550.000000;0.171209
9549.000000;0.170810
9548.000000;0.170407
9547.000000;0.170042
9546.000000;0.169686
9545.000000;0.169282
9544.000000;0.168822
9543.000000;0.168367
9542.000000;0.167992
9541.000000;0.167705
9540.000000;0.167421
9539.000000;0.167026
9538.000000;0.166500
9537.000000;0.165941
9536.000000;0.165452
9535.000000;0.165031
9534.000000;0.164608
9533.000000;0.164180
9532.000000;0.163832
9531.000000;0.163621
9530.000000;0.163490
9529.000000;0.163334
9528.000000;0.163087
9527.000000;0.162734
9526.000000;0.162277
9525.000000;0.161743
9524.000000;0.161200
9523.000000;0.160717
9522.000000;0.160321
9521.000000;0.159989
9520.000000;0.159676
9519.000000;0.159329
9518.000000;0.158915
9517.000000;0.158450
9516.000000;0.157986
9515.000000;0.157550
9514.000000;0.157136
9513.000000;0.156778
9512.000000;0.156549
9511.000000;0.156459
9510.000000;0.156405
9509.000000;0.156268
9508.000000;0.156038
9507.000000;0.155778
9506.000000;0.155486
9505.000000;0.155074
9504.000000;0.154494
9503.000000;0.153831
9502.000000;0.153257
9501.000000;0.152892
9500.000000;0.152710
9499.000000;0.152539
9498.000000;0.152199
9497.000000;0.151664
9496.000000;0.151092
9495.000000;0.150644
9494.000000;0.150308
9493.000000;0.149955
9492.000000;0.149535
9491.000000;0.149145
9490.000000;0.148872
9489.000000;0.148673
9488.000000;0.148445
9487.000000;0.148142
9486.000000;0.147786
9485.000000;0.147411
9484.000000;0.147058
9483.000000;0.146780
9482.000000;0.146579
9481.000000;0.146351
9480.000000;0.145973
9479.000000;0.145465
9478.000000;0.144977
9477.000000;0.144634
9476.000000;0.144412
9475.000000;0.144202
9474.000000;0.143928
9473.000000;0.143581
9472.000000;0.143174
9471.000000;0.142724
9470.000000;0.142264
9469.000000;0.141824
9468.000000;0.141413
9467.000000;0.141031
9466.000000;0.140706
9465.000000;0.140460
9464.000000;0.140244
9463.000000;0.139964
9462.000000;0.139592
9461.000000;0.139211
9460.000000;0.138897
9459.000000;0.138592
9458.000000;0.138160
9457.000000;0.137562
9456.000000;0.136914
9455.000000;0.136381
9454.000000;0.136034
9453.000000;0.135837
9452.000000;0.135711
9451.000000;0.135581
9450.000000;0.135389
9449.000000;0.135115
9448.000000;0.134780
9447.000000;0.134406
9446.000000;0.133988
9445.000000;0.133529
9444.000000;0.133091
9443.000000;0.132756
9442.000000;0.132542
9441.000000;0.132373
9440.000000;0.132150
9439.000000;0.131837
9438.000000;0.131455
9437.000000;0.131035
9436.000000;0.130599
9435.000000;0.130184
9434.000000;0.129842
9433.000000;0.129599
9432.000000;0.129406
9431.000000;0.129154
9430.000000;0.128757
9429.000000;0.128221
9428.000000;0.127636
9427.000000;0.127107
9426.000000;0.126697
9425.000000;0.126440
9424.000000;0.126343
9423.000000;0.126354
9422.000000;0.126343
9421.000000;0.126190
9420.000000;0.125873
9419.000000;0.125462
9418.000000;0.125032
9417.000000;0.124614
9416.000000;0.124200
9415.000000;0.123767
9414.000000;0.123285
9413.000000;0.122768
9412.000000;0.122317
9411.000000;0.122047
9410.000000;0.121951
9409.000000;0.121870
9408.000000;0.121634
9407.000000;0.121193
9406.000000;0.120627
9405.000000;0.120076
9404.000000;0.119674
9403.000000;0.119473
9402.000000;0.119365
9401.000000;0.119143
9400.000000;0.118707
9399.000000;0.118183
9398.000000;0.117792
9397.000000;0.117616
9396.000000;0.117544
9395.000000;0.117400
9394.000000;0.117075
9393.000000;0.116570
9392.000000;0.116009
9391.000000;0.115582
9390.000000;0.115403
9389.000000;0.115382
9388.000000;0.115311
9387.000000;0.115071
9386.000000;0.114709
9385.000000;0.114320
9384.000000;0.113953
9383.000000;0.113639
9382.000000;0.113419
9381.000000;0.113289
9380.000000;0.113151
9379.000000;0.112895
9378.000000;0.112490
9377.000000;0.111985
9376.000000;0.111448
9375.000000;0.110951
9374.000000;0.110541
9373.000000;0.110220
9372.000000;0.109944
9371.000000;0.109686
9370.000000;0.109447
9369.000000;0.109215
9368.000000;0.108950
9367.000000;0.108644
9366.000000;0.108341
9365.000000;0.108083
9364.000000;0.107865
9363.000000;0.107665
9362.000000;0.107453
9361.000000;0.107171
9360.000000;0.106761
9359.000000;0.106277
9358.000000;0.105879
9357.000000;0.105664
9356.000000;0.105546
9355.000000;0.105358
9354.000000;0.105041
9353.000000;0.104660
9352.000000;0.104302
9351.000000;0.104021
9350.000000;0.103832
9349.000000;0.103685
9348.000000;0.103462
9347.000000;0.103091
9346.000000;0.102633
9345.000000;0.102201
9344.000000;0.101821
9343.000000;0.101451
9342.000000;0.101091
9341.000000;0.100771
9340.000000;0.100455
9339.000000;0.100063
9338.000000;0.099601
9337.000000;0.099169
9336.000000;0.098832
9335.000000;0.098565
9334.000000;0.098349
9333.000000;0.098207
9332.000000;0.098116
9331.000000;0.097968
9330.000000;0.097689
9329.000000;0.097324
9328.000000;0.096960
9327.000000;0.096623
9326.000000;0.096301
9325.000000;0.096006
9324.000000;0.095754
9323.000000;0.095528
9322.000000;0.095315
9321.000000;0.095125
9320.000000;0.094938
9319.000000;0.094675
9318.000000;0.094283
9317.000000;0.093812
9316.000000;0.093366
9315.000000;0.092989
9314.000000;0.092673
9313.000000;0.092429
9312.000000;0.092301
9311.000000;0.092270
9310.000000;0.092221
9309.000000;0.092016
9308.000000;0.091619
9307.000000;0.091141
9306.000000;0.090752
9305.000000;0.090516
9304.000000;0.090316
9303.000000;0.089976
9302.000000;0.089478
9301.000000;0.089006
9300.000000;0.088740
9299.000000;0.088658
9298.000000;0.088574
9297.000000;0.088347
9296.000000;0.087975
9295.000000;0.087519
9294.000000;0.087035
9293.000000;0.086590
9292.000000;0.086276
9291.000000;0.086155
9290.000000;0.086187
9289.000000;0.086257
9288.000000;0.086242
9287.000000;0.086088
9286.000000;0.085832
9285.000000;0.085559
9284.000000;0.085318
9283.000000;0.085061
9282.000000;0.084695
9281.000000;0.084204
9280.000000;0.083684
9279.000000;0.083250
9278.000000;0.082925
9277.000000;0.082657
9276.000000;0.082412
9275.000000;0.082227
9274.000000;0.082144
9273.000000;0.082129
9272.000000;0.082078
9271.000000;0.081893
9270.000000;0.081551
9269.000000;0.081100
9268.000000;0.080618
9267.000000;0.080188
9266.000000;0.079870
9265.000000;0.079672
9264.000000;0.079528
9263.000000;0.079340
9262.000000;0.079055
9261.000000;0.078707
9260.000000;0.078372
9259.000000;0.078092
9258.000000;0.077848
9257.000000;0.077593
9256.000000;0.077300
9255.000000;0.076979
9254.000000;0.076653
9253.000000;0.076345
9252.000000;0.076082
9251.000000;0.075887
9250.000000;0.075746
9249.000000;0.075595
9248.000000;0.075381
9247.000000;0.075112
9246.000000;0.074832
9245.000000;0.074541
9244.000000;0.074195
9243.000000;0.073803
9242.000000;0.073468
9241.000000;0.073288
9240.000000;0.073233
9239.000000;0.073171
9238.000000;0.072998
9237.000000;0.072717
9236.000000;0.072394
9235.000000;0.072085
9234.000000;0.071803
9233.000000;0.071525
9232.000000;0.071226
9231.000000;0.070926
9230.000000;0.070690
9229.000000;0.070543
9228.000000;0.070404
9227.000000;0.070151
9226.000000;0.069750
9225.000000;0.069305
9224.000000;0.068969
9223.000000;0.068819
9222.000000;0.068799
9221.000000;0.068756
9220.000000;0.068549
9219.000000;0.068169
9218.000000;0.067749
9217.000000;0.067421
9216.000000;0.067184
9215.000000;0.066958
9214.000000;0.066738
9213.000000;0.066607
9212.000000;0.066589
9211.000000;0.066574
9210.000000;0.066418
9209.000000;0.066068
9208.000000;0.065587
9207.000000;0.065085
9206.000000;0.064670
9205.000000;0.064401
9204.000000;0.064242
9203.000000;0.064087
9202.000000;0.063868
9201.000000;0.063596
9200.000000;0.063311
9199.000000;0.063031
9198.000000;0.062774
9197.000000;0.062563
9196.000000;0.062373
9195.000000;0.062116
9194.000000;0.061757
9193.000000;0.061396
9192.000000;0.061172
9191.000000;0.061108
9190.000000;0.061099
9189.000000;0.061034
9188.000000;0.060873
9187.000000;0.060622
9186.000000;0.060288
9185.000000;0.059911
9184.000000;0.059572
9183.000000;0.059334
9182.000000;0.059197
9181.000000;0.059104
9180.000000;0.058999
9179.000000;0.058845
9178.000000;0.058617
9177.000000;0.058307
9176.000000;0.057951
9175.000000;0.057642
9174.000000;0.057464
9173.000000;0.057409
9172.000000;0.057363
9171.000000;0.057211
9170.000000;0.056937
9169.000000;0.056605
9168.000000;0.056271
9167.000000;0.055971
9166.000000;0.055742
9165.000000;0.055611
9164.000000;0.055523
9163.000000;0.055368
9162.000000;0.055095
9161.000000;0.054769
9160.000000;0.054477
9159.000000;0.054237
9158.000000;0.054012
9157.000000;0.053773
9156.000000;0.053512
9155.000000;0.053234
9154.000000;0.052964
9153.000000;0.052749
9152.000000;0.052587
9151.000000;0.052404
9150.000000;0.052145
9149.000000;0.051859
9148.000000;0.051643
9147.000000;0.051515
9146.000000;0.051391
9145.000000;0.051196
9144.000000;0.050926
9143.000000;0.050611
9142.000000;0.050279
9141.000000;0.049978
9140.000000;0.049783
9139.000000;0.049721
9138.000000;0.049714
9137.000000;0.049627
9136.000000;0.049382
9135.000000;0.049026
9134.000000;0.048686
9133.000000;0.048446
9132.000000;0.048289
9131.000000;0.048128
9130.000000;0.047906
9129.000000;0.047655
9128.000000;0.047456
9127.000000;0.047372
9126.000000;0.047388
9125.000000;0.047419
9124.000000;0.047352
9123.000000;0.047129
9122.000000;0.046787
9121.000000;0.046418
9120.000000;0.046068
9119.000000;0.045692
9118.000000;0.045242
9117.000000;0.044753
9116.000000;0.044335
9115.000000;0.044087
9114.000000;0.044023
9113.000000;0.044085
9112.000000;0.044175
9111.000000;0.044196
9110.000000;0.044093
9109.000000;0.043887
9108.000000;0.043654
9107.000000;0.043466
9106.000000;0.043327
9105.000000;0.043176
9104.000000;0.042955
9103.000000;0.042678
9102.000000;0.042401
9101.000000;0.042145
9100.000000;0.041869
9099.000000;0.041558
9098.000000;0.041281
9097.000000;0.041129
9096.000000;0.041108
9095.000000;0.041131
9094.000000;0.041111
9093.000000;0.041000
9092.000000;0.040770
9091.000000;0.040429
9090.000000;0.040073
9089.000000;0.039833
9088.000000;0.039722
9087.000000;0.039611
9086.000000;0.039394
9085.000000;0.039131
9084.000000;0.038966
9083.000000;0.038930
9082.000000;0.038895
9081.000000;0.038725
9080.000000;0.038397
9079.000000;0.038006
9078.000000;0.037665
9077.000000;0.037428
9076.000000;0.037260
9075.000000;0.037089
9074.000000;0.036880
9073.000000;0.036666
9072.000000;0.036494
9071.000000;0.036365
9070.000000;0.036247
9069.000000;0.036125
9068.000000;0.035993
9067.000000;0.035827
9066.000000;0.035595
9065.000000;0.035310
9064.000000;0.035029
9063.000000;0.034812
9062.000000;0.034668
9061.000000;0.034543
9060.000000;0.034352
9059.000000;0.034042
9058.000000;0.033650
9057.000000;0.033283
9056.000000;0.033025
9055.000000;0.032888
9054.000000;0.032834
9053.000000;0.032817
9052.000000;0.032781
9051.000000;0.032668
9050.000000;0.032477
9049.000000;0.032284
9048.000000;0.032151
9047.000000;0.032053
9046.000000;0.031918
9045.000000;0.031735
9044.000000;0.031546
9043.000000;0.031364
9042.000000;0.031154
9041.000000;0.030908
9040.000000;0.030680
9039.000000;0.030514
9038.000000;0.030385
9037.000000;0.030234
9036.000000;0.030040
9035.000000;0.029837
9034.000000;0.029674
9033.000000;0.029570
9032.000000;0.029498
9031.000000;0.029396
9030.000000;0.029200
9029.000000;0.028890
9028.000000;0.028517
9027.000000;0.028174
9026.000000;0.027939
9025.000000;0.027806
9024.000000;0.027688
9023.000000;0.027506
9022.000000;0.027289
9021.000000;0.027142
9020.000000;0.027116
9019.000000;0.027133
9018.000000;0.027089
9017.000000;0.026980
9016.000000;0.026869
9015.000000;0.026774
9014.000000;0.026636
9013.000000;0.026419
9012.000000;0.026151
9011.000000;0.025867
9010.000000;0.025553
9009.000000;0.025208
9008.000000;0.024896
9007.000000;0.024700
9006.000000;0.024626
9005.000000;0.024589
9004.000000;0.024511
9003.000000;0.024393
9002.000000;0.024283
9001.000000;0.024200
9000.000000;0.024108
8999.000000;0.023969
8998.000000;0.023778
8997.000000;0.023540
8996.000000;0.023249
8995.000000;0.022911
8994.000000;0.022590
8993.000000;0.022366
8992.000000;0.022251
8991.000000;0.022184
8990.000000;0.022112
8989.000000;0.022040
8988.000000;0.021967
8987.000000;0.021842
8986.000000;0.021630
8985.000000;0.021390
8984.000000;0.021236
8983.000000;0.021212
8982.000000;0.021245
8981.000000;0.021219
8980.000000;0.021059
8979.000000;0.020774
8978.000000;0.020445
8977.000000;0.020156
8976.000000;0.019927
8975.000000;0.019713
8974.000000;0.019501
8973.000000;0.019348
8972.000000;0.019295
8971.000000;0.019289
8970.000000;0.019245
8969.000000;0.019162
8968.000000;0.019095
8967.000000;0.019041
8966.000000;0.018928
8965.000000;0.018733
8964.000000;0.018519
8963.000000;0.018322
8962.000000;0.018094
8961.000000;0.017804
8960.000000;0.017529
8959.000000;0.017381
8958.000000;0.017357
8957.000000;0.017340
8956.000000;0.017219
8955.000000;0.016975
8954.000000;0.016665
8953.000000;0.016379
8952.000000;0.016201
8951.000000;0.016148
8950.000000;0.016158
8949.000000;0.016146
8948.000000;0.016085
8947.000000;0.015994
8946.000000;0.015881
8945.000000;0.015742
8944.000000;0.015596
8943.000000;0.015479
8942.000000;0.015373
8941.000000;0.015209
8940.000000;0.014957
8939.000000;0.014675
8938.000000;0.014448
8937.000000;0.014304
8936.000000;0.014225
8935.000000;0.014195
8934.000000;0.014190
8933.000000;0.014155
8932.000000;0.014028
8931.000000;0.013807
8930.000000;0.013553
8929.000000;0.013338
8928.000000;0.013198
8927.000000;0.013140
8926.000000;0.013136
8925.000000;0.013111
8924.000000;0.012973
8923.000000;0.012684
8922.000000;0.012310
8921.000000;0.011967
8920.000000;0.011747
8919.000000;0.011671
8918.000000;0.011692
8917.000000;0.011736
8916.000000;0.011752
8915.000000;0.011747
8914.000000;0.011748
8913.000000;0.011740
8912.000000;0.011664
8911.000000;0.011490
8910.000000;0.011272
8909.000000;0.011086
8908.000000;0.010949
8907.000000;0.010814
8906.000000;0.010638
8905.000000;0.010414
8904.000000;0.010165
8903.000000;0.009950
8902.000000;0.009854
8901.000000;0.009910
8900.000000;0.010030
8899.000000;0.010049
8898.000000;0.009870
8897.000000;0.009544
8896.000000;0.009197
8895.000000;0.008926
8894.000000;0.008753
8893.000000;0.008648
8892.000000;0.008560
8891.000000;0.008455
8890.000000;0.008355
8889.000000;0.008333
8888.000000;0.008431
8887.000000;0.008600
8886.000000;0.008729
8885.000000;0.008729
8884.000000;0.008580
8883.000000;0.008321
8882.000000;0.008024
8881.000000;0.007765
8880.000000;0.007580
8879.000000;0.007443
8878.000000;0.007289
8877.000000;0.007071
8876.000000;0.006818
8875.000000;0.006635
8874.000000;0.006624
8873.000000;0.006780
8872.000000;0.006967
8871.000000;0.007020
8870.000000;0.006894
8869.000000;0.006675
8868.000000;0.006467
8867.000000;0.006297
8866.000000;0.006138
8865.000000;0.005967
8864.000000;0.005807
8863.000000;0.005710
8862.000000;0.005739
8861.000000;0.005897
8860.000000;0.006082
8859.000000;0.006143
8858.000000;0.006010
8857.000000;0.005749
8856.000000;0.005474
8855.000000;0.005264
8854.000000;0.005164
8853.000000;0.005204
8852.000000;0.005330
8851.000000;0.005396
8850.000000;0.005290
8849.000000;0.005060
8848.000000;0.004855
8847.000000;0.004757
8846.000000;0.004734
8845.000000;0.004732
8844.000000;0.004731
8843.000000;0.004711
8842.000000;0.004657
8841.000000;0.004610
8840.000000;0.004633
8839.000000;0.004707
8838.000000;0.004730
8837.000000;0.004668
8836.000000;0.004619
8835.000000;0.004674
8834.000000;0.004760
8833.000000;0.004722
8832.000000;0.004529
8831.000000;0.004306
8830.000000;0.004170
8829.000000;0.004122
8828.000000;0.004116
8827.000000;0.004146
8826.000000;0.004227
8825.000000;0.004334
8824.000000;0.004427
8823.000000;0.004509
8822.000000;0.004607
8821.000000;0.004713
8820.000000;0.004787
8819.000000;0.004822
8818.000000;0.004855
8817.000000;0.004913
8816.000000;0.004983
8815.000000;0.005065
8814.000000;0.005195
8813.000000;0.005392
8812.000000;0.005580
8811.000000;0.005633
8810.000000;0.005483
8809.000000;0.005184
8808.000000;0.004868
8807.000000;0.004641
8806.000000;0.004540
8805.000000;0.004553
8804.000000;0.004657
8803.000000;0.004828
8802.000000;0.005017
8801.000000;0.005158
8800.000000;0.005199
8799.000000;0.005141
8798.000000;0.005032
8797.000000;0.004928
8796.000000;0.004872
8795.000000;0.004901
8794.000000;0.005050
8793.000000;0.005309
8792.000000;0.005592
8791.000000;0.005782
8790.000000;0.005809
8789.000000;0.005706
8788.000000;0.005578
8787.000000;0.005548
8786.000000;0.005690
8785.000000;0.005984
8784.000000;0.006319
8783.000000;0.006559
8782.000000;0.006631
8781.000000;0.006559
8780.000000;0.006436
8779.000000;0.006369
8778.000000;0.006427
8777.000000;0.006613
8776.000000;0.006855
8775.000000;0.007050
8774.000000;0.007152
8773.000000;0.007202
8772.000000;0.007282
8771.000000;0.007417
8770.000000;0.007546
8769.000000;0.007607
8768.000000;0.007640
8767.000000;0.007773
8766.000000;0.008078
8765.000000;0.008451
8764.000000;0.008698
8763.000000;0.008738
8762.000000;0.008662
8761.000000;0.008593
8760.000000;0.008556
8759.000000;0.008523
8758.000000;0.008523
8757.000000;0.008621
8756.000000;0.008811
8755.000000;0.009018
8754.000000;0.009200
8753.000000;0.009382
8752.000000;0.009571
8751.000000;0.009717
8750.000000;0.009777
8749.000000;0.009780
8748.000000;0.009801
8747.000000;0.009911
8746.000000;0.010147
8745.000000;0.010488
8744.000000;0.010824
8743.000000;0.011030
8742.000000;0.011111
8741.000000;0.011219
8740.000000;0.011481
8739.000000;0.011830
8738.000000;0.012074
8737.000000;0.012115
8736.000000;0.012041
8735.000000;0.012007
8734.000000;0.012091
8733.000000;0.012265
8732.000000;0.012458
8731.000000;0.012605
8730.000000;0.012678
8729.000000;0.012702
8728.000000;0.012746
8727.000000;0.012869
8726.000000;0.013061
8725.000000;0.013244
8724.000000;0.013346
8723.000000;0.013381
8722.000000;0.013429
8721.000000;0.013549
8720.000000;0.013723
8719.000000;0.013882
8718.000000;0.013993
8717.000000;0.014072
8716.000000;0.014153
8715.000000;0.014251
8714.000000;0.014378
8713.000000;0.014534
8712.000000;0.014683
8711.000000;0.014752
8710.000000;0.014697
8709.000000;0.014567
8708.000000;0.014494
8707.000000;0.014602
8706.000000;0.014902
8705.000000;0.015262
8704.000000;0.015492
8703.000000;0.015499
8702.000000;0.015354
8701.000000;0.015223
8700.000000;0.015222
8699.000000;0.015364
8698.000000;0.015586
8697.000000;0.015802
8696.000000;0.015937
8695.000000;0.015969
8694.000000;0.015950
8693.000000;0.015957
8692.000000;0.016003
8691.000000;0.016058
8690.000000;0.016112
8689.000000;0.016198
8688.000000;0.016330
8687.000000;0.016464
8686.000000;0.016539
8685.000000;0.016527
8684.000000;0.016440
8683.000000;0.016330
8682.000000;0.016269
8681.000000;0.016283
8680.000000;0.016310
8679.000000;0.016285
8678.000000;0.016266
8677.000000;0.016385
8676.000000;0.016640
8675.000000;0.016851
8674.000000;0.016861
8673.000000;0.016717
8672.000000;0.016579
8671.000000;0.016502
8670.000000;0.016432
8669.000000;0.016346
8668.000000;0.016306
8667.000000;0.016363
8666.000000;0.016483
8665.000000;0.016603
8664.000000;0.016690
8663.000000;0.016725
8662.000000;0.016685
8661.000000;0.016569
8660.000000;0.016410
8659.000000;0.016246
8658.000000;0.016081
8657.000000;0.015910
8656.000000;0.015738
8655.000000;0.015588
8654.000000;0.015484
8653.000000;0.015434
8652.000000;0.015415
8651.000000;0.015385
8650.000000;0.015319
8649.000000;0.015252
8648.000000;0.015240
8647.000000;0.015307
8646.000000;0.015412
8645.000000;0.015481
8644.000000;0.015458
8643.000000;0.015337
8642.000000;0.015159
8641.000000;0.014972
8640.000000;0.014789
8639.000000;0.014593
8638.000000;0.014395
8637.000000;0.014248
8636.000000;0.014178
8635.000000;0.014139
8634.000000;0.014062
8633.000000;0.013940
8632.000000;0.013827
8631.000000;0.013779
8630.000000;0.013797
8629.000000;0.013836
8628.000000;0.013825
8627.000000;0.013720
8626.000000;0.013546
8625.000000;0.013380
8624.000000;0.013267
8623.000000;0.013176
8622.000000;0.013078
8621.000000;0.013004
8620.000000;0.012994
8619.000000;0.013007
8618.000000;0.012961
8617.000000;0.012841
8616.000000;0.012705
8615.000000;0.012593
8614.000000;0.012481
8613.000000;0.012351
8612.000000;0.012226
8611.000000;0.012116
8610.000000;0.011999
8609.000000;0.011865
8608.000000;0.011751
8607.000000;0.011672
8606.000000;0.011571
8605.000000;0.011373
8604.000000;0.011081
8603.000000;0.010767
8602.000000;0.010503
8601.000000;0.010333
8600.000000;0.010279
8599.000000;0.010340
8598.000000;0.010447
8597.000000;0.010494
8596.000000;0.010410
8595.000000;0.010210
8594.000000;0.009963
8593.000000;0.009718
8592.000000;0.009485
8591.000000;0.009263
8590.000000;0.009067
8589.000000;0.008922
8588.000000;0.008838
8587.000000;0.008794
8586.000000;0.008759
8585.000000;0.008702
8584.000000;0.008600
8583.000000;0.008437
8582.000000;0.008213
8581.000000;0.007959
8580.000000;0.007725
8579.000000;0.007552
8578.000000;0.007437
8577.000000;0.007340
8576.000000;0.007230
8575.000000;0.007105
8574.000000;0.006980
8573.000000;0.006856
8572.000000;0.006716
8571.000000;0.006560
8570.000000;0.006417
8569.000000;0.006310
8568.000000;0.006209
8567.000000;0.006060
8566.000000;0.005857
8565.000000;0.005660
8564.000000;0.005523
8563.000000;0.005439
8562.000000;0.005361
8561.000000;0.005271
8560.000000;0.005180
8559.000000;0.005089
8558.000000;0.004981
8557.000000;0.004843
8556.000000;0.004685
8555.000000;0.004523
8554.000000;0.004362
8553.000000;0.004196
8552.000000;0.004009
8551.000000;0.003789
8550.000000;0.003554
8549.000000;0.003357
8548.000000;0.003251
8547.000000;0.003230
8546.000000;0.003236
8545.000000;0.003215
8544.000000;0.003151
8543.000000;0.003052
8542.000000;0.002909
8541.000000;0.002708
8540.000000;0.002459
8539.000000;0.002179
8538.000000;0.001887
8537.000000;0.001607
8536.000000;0.001389
8535.000000;0.001281
8534.000000;0.001258
8533.000000;0.001225
8532.000000;0.001105
8531.000000;0.000921
8530.000000;0.000773
8529.000000;0.000725
8528.000000;0.000735
8527.000000;0.000699
8526.000000;0.000550
8525.000000;0.000300
8524.000000;0.000024
8523.000000;-0.000193
8522.000000;-0.000305
8521.000000;-0.000347
8520.000000;-0.000414
8519.000000;-0.000575
8518.000000;-0.000802
8517.000000;-0.001002
8516.000000;-0.001124
8515.000000;-0.001207
8514.000000;-0.001325
8513.000000;-0.001500
8512.000000;-0.001709
8511.000000;-0.001931
8510.000000;-0.002165
8509.000000;-0.002405
8508.000000;-0.002616
8507.000000;-0.002765
8506.000000;-0.002854
8505.000000;-0.002923
8504.000000;-0.003009
8503.000000;-0.003118
8502.000000;-0.003229
8501.000000;-0.003341
8500.000000;-0.003468
8499.000000;-0.003611
8498.000000;-0.003741
8497.000000;-0.003832
8496.000000;-0.003885
8495.000000;-0.003922
8494.000000;-0.003966
8493.000000;-0.004043
8492.000000;-0.004171
8491.000000;-0.004341
8490.000000;-0.004511
8489.000000;-0.004667
8488.000000;-0.004857
8487.000000;-0.005113
8486.000000;-0.005376
8485.000000;-0.005546
8484.000000;-0.005618
8483.000000;-0.005701
8482.000000;-0.005890
8481.000000;-0.006148
8480.000000;-0.006362
8479.000000;-0.006464
8478.000000;-0.006491
8477.000000;-0.006528
8476.000000;-0.006634
8475.000000;-0.006815
8474.000000;-0.007030
8473.000000;-0.007230
8472.000000;-0.007398
8471.000000;-0.007535
8470.000000;-0.007642
8469.000000;-0.007725
8468.000000;-0.007807
8467.000000;-0.007916
8466.000000;-0.008046
8465.000000;-0.008165
8464.000000;-0.008279
8463.000000;-0.008430
8462.000000;-0.008638
8461.000000;-0.008863
8460.000000;-0.009052
8459.000000;-0.009186
8458.000000;-0.009274
8457.000000;-0.009328
8456.000000;-0.009378
8455.000000;-0.009477
8454.000000;-0.009651
8453.000000;-0.009852
8452.000000;-0.009985
8451.000000;-0.010009
8450.000000;-0.009979
8449.000000;-0.010000
8448.000000;-0.010141
8447.000000;-0.010376
8446.000000;-0.010609
8445.000000;-0.010763
8444.000000;-0.010842
8443.000000;-0.010914
8442.000000;-0.011034
8441.000000;-0.011196
8440.000000;-0.011362
8439.000000;-0.011500
8438.000000;-0.011601
8437.000000;-0.011686
8436.000000;-0.011791
8435.000000;-0.011937
8434.000000;-0.012099
8433.000000;-0.012242
8432.000000;-0.012371
8431.000000;-0.012516
8430.000000;-0.012665
8429.000000;-0.012763
8428.000000;-0.012805
8427.000000;-0.012859
8426.000000;-0.012990
8425.000000;-0.013180
8424.000000;-0.013368
8423.000000;-0.013530
8422.000000;-0.013680
8421.000000;-0.013822
8420.000000;-0.013953
8419.000000;-0.014088
8418.000000;-0.014241
8417.000000;-0.014401
8416.000000;-0.014539
8415.000000;-0.014638
8414.000000;-0.014699
8413.000000;-0.014732
8412.000000;-0.014765
8411.000000;-0.014839
8410.000000;-0.014959
8409.000000;-0.015066
8408.000000;-0.015108
8407.000000;-0.015104
8406.000000;-0.015124
8405.000000;-0.015217
8404.000000;-0.015385
8403.000000;-0.015607
8402.000000;-0.015848
8401.000000;-0.016057
8400.000000;-0.016208
8399.000000;-0.016331
8398.000000;-0.016470
8397.000000;-0.016639
8396.000000;-0.016826
8395.000000;-0.017033
8394.000000;-0.017273
8393.000000;-0.017528
8392.000000;-0.017751
8391.000000;-0.017908
8390.000000;-0.017996
8389.000000;-0.018045
8388.000000;-0.018118
8387.000000;-0.018281
8386.000000;-0.018528
8385.000000;-0.018754
8384.000000;-0.018855
8383.000000;-0.018838
8382.000000;-0.018809
8381.000000;-0.018851
8380.000000;-0.018971
8379.000000;-0.019147
8378.000000;-0.019360
8377.000000;-0.019569
8376.000000;-0.019718
8375.000000;-0.019807
8374.000000;-0.019891
8373.000000;-0.020006
8372.000000;-0.020127
8371.000000;-0.020224
8370.000000;-0.020320
8369.000000;-0.020449
8368.000000;-0.020601
8367.000000;-0.020750
8366.000000;-0.020909
8365.000000;-0.021119
8364.000000;-0.021377
8363.000000;-0.021625
8362.000000;-0.021807
8361.000000;-0.021923
8360.000000;-0.022012
8359.000000;-0.022105
8358.000000;-0.022208
8357.000000;-0.022316
8356.000000;-0.022429
8355.000000;-0.022562
8354.000000;-0.022723
8353.000000;-0.022910
8352.000000;-0.023115
8351.000000;-0.023330
8350.000000;-0.023536
8349.000000;-0.023696
8348.000000;-0.023784
8347.000000;-0.023825
8346.000000;-0.023884
8345.000000;-0.024011
8344.000000;-0.024194
8343.000000;-0.024386
8342.000000;-0.024557
8341.000000;-0.024719
8340.000000;-0.024901
8339.000000;-0.025121
8338.000000;-0.025365
8337.000000;-0.025610
8336.000000;-0.025834
8335.000000;-0.026034
8334.000000;-0.026222
8333.000000;-0.026416
8332.000000;-0.026625
8331.000000;-0.026832
8330.000000;-0.026992
8329.000000;-0.027069
8328.000000;-0.027082
8327.000000;-0.027095
8326.000000;-0.027159
8325.000000;-0.027277
8324.000000;-0.027430
8323.000000;-0.027617
8322.000000;-0.027834
8321.000000;-0.028051
8320.000000;-0.028221
8319.000000;-0.028342
8318.000000;-0.028462
8317.000000;-0.028638
8316.000000;-0.028885
8315.000000;-0.029166
8314.000000;-0.029430
8313.000000;-0.029637
8312.000000;-0.029782
8311.000000;-0.029884
8310.000000;-0.029953
8309.000000;-0.029981
8308.000000;-0.029973
8307.000000;-0.029976
8306.000000;-0.030050
8305.000000;-0.030224
8304.000000;-0.030471
8303.000000;-0.030746
8302.000000;-0.031013
8301.000000;-0.031246
8300.000000;-0.031434
8299.000000;-0.031593
8298.000000;-0.031761
8297.000000;-0.031962
8296.000000;-0.032171
8295.000000;-0.032333
8294.000000;-0.032429
8293.000000;-0.032505
8292.000000;-0.032632
8291.000000;-0.032827
8290.000000;-0.033031
8289.000000;-0.033178
8288.000000;-0.033278
8287.000000;-0.033405
8286.000000;-0.033617
8285.000000;-0.033896
8284.000000;-0.034173
8283.000000;-0.034387
8282.000000;-0.034512
8281.000000;-0.034564
8280.000000;-0.034609
8279.000000;-0.034720
8278.000000;-0.034920
8277.000000;-0.035152
8276.000000;-0.035349
8275.000000;-0.035498
8274.000000;-0.035635
8273.000000;-0.035788
8272.000000;-0.035948
8271.000000;-0.036107
8270.000000;-0.036274
8269.000000;-0.036458
8268.000000;-0.036656
8267.000000;-0.036844
8266.000000;-0.036992
8265.000000;-0.037087
8264.000000;-0.037178
8263.000000;-0.037348
8262.000000;-0.037624
8261.000000;-0.037925
8260.000000;-0.038145
8259.000000;-0.038280
8258.000000;-0.038419
8257.000000;-0.038618
8256.000000;-0.038830
8255.000000;-0.038986
8254.000000;-0.039097
8253.000000;-0.039233
8252.000000;-0.039431
8251.000000;-0.039654
8250.000000;-0.039842
8249.000000;-0.039977
8248.000000;-0.040096
8247.000000;-0.040250
8246.000000;-0.040462
8245.000000;-0.040699
8244.000000;-0.040905
8243.000000;-0.041049
8242.000000;-0.041147
8241.000000;-0.041244
8240.000000;-0.041384
8239.000000;-0.041591
8238.000000;-0.041848
8237.000000;-0.042095
8236.000000;-0.042267
8235.000000;-0.042363
8234.000000;-0.042451
8233.000000;-0.042603
8232.000000;-0.042818
8231.000000;-0.043036
8230.000000;-0.043203
8229.000000;-0.043308
8228.000000;-0.043383
8227.000000;-0.043483
8226.000000;-0.043658
8225.000000;-0.043910
8224.000000;-0.044179
8223.000000;-0.044386
8222.000000;-0.044514
8221.000000;-0.044614
8220.000000;-0.044754
8219.000000;-0.044954
8218.000000;-0.045186
8217.000000;-0.045410
8216.000000;-0.045598
8215.000000;-0.045742
8214.000000;-0.045856
8213.000000;-0.045971
8212.000000;-0.046116
8211.000000;-0.046307
8210.000000;-0.046532
8209.000000;-0.046758
8208.000000;-0.046933
8207.000000;-0.047030
8206.000000;-0.047085
8205.000000;-0.047184
8204.000000;-0.047393
8203.000000;-0.047691
8202.000000;-0.047996
8201.000000;-0.048235
8200.000000;-0.048388
8199.000000;-0.048479
8198.000000;-0.048553
8197.000000;-0.048655
8196.000000;-0.048806
8195.000000;-0.048982
8194.000000;-0.049152
8193.000000;-0.049322
8192.000000;-0.049528
8191.000000;-0.049778
8190.000000;-0.050022
8189.000000;-0.050210
8188.000000;-0.050346
8187.000000;-0.050474
8186.000000;-0.050631
8185.000000;-0.050833
8184.000000;-0.051077
8183.000000;-0.051333
8182.000000;-0.051542
8181.000000;-0.051663
8180.000000;-0.051722
8179.000000;-0.051790
8178.000000;-0.051917
8177.000000;-0.052096
8176.000000;-0.052286
8175.000000;-0.052449
8174.000000;-0.052572
8173.000000;-0.052675
8172.000000;-0.052798
8171.000000;-0.052978
8170.000000;-0.053213
8169.000000;-0.053474
8168.000000;-0.053730
8167.000000;-0.053950
8166.000000;-0.054112
8165.000000;-0.054226
8164.000000;-0.054347
8163.000000;-0.054527
8162.000000;-0.054748
8161.000000;-0.054956
8160.000000;-0.055144
8159.000000;-0.055362
8158.000000;-0.055634
8157.000000;-0.055898
8156.000000;-0.056064
8155.000000;-0.056117
8154.000000;-0.056131
8153.000000;-0.056208
8152.000000;-0.056399
8151.000000;-0.056683
8150.000000;-0.056982
8149.000000;-0.057218
8148.000000;-0.057364
8147.000000;-0.057459
8146.000000;-0.057565
8145.000000;-0.057709
8144.000000;-0.057887
8143.000000;-0.058082
8142.000000;-0.058273
8141.000000;-0.058427
8140.000000;-0.058526
8139.000000;-0.058592
8138.000000;-0.058682
8137.000000;-0.058840
8136.000000;-0.059064
8135.000000;-0.059315
8134.000000;-0.059551
8133.000000;-0.059751
8132.000000;-0.059925
8131.000000;-0.060101
8130.000000;-0.060298
8129.000000;-0.060505
8128.000000;-0.060699
8127.000000;-0.060869
8126.000000;-0.061038
8125.000000;-0.061230
8124.000000;-0.061445
8123.000000;-0.061657
8122.000000;-0.061850
8121.000000;-0.062036
8120.000000;-0.062234
8119.000000;-0.062437
8118.000000;-0.062620
8117.000000;-0.062779
8116.000000;-0.062933
8115.000000;-0.063084
8114.000000;-0.063208
8113.000000;-0.063300
8112.000000;-0.063416
8111.000000;-0.063614
8110.000000;-0.063882
8109.000000;-0.064151
8108.000000;-0.064380
8107.000000;-0.064588
8106.000000;-0.064796
8105.000000;-0.064988
8104.000000;-0.065139
8103.000000;-0.065263
8102.000000;-0.065392
8101.000000;-0.065539
8100.000000;-0.065700
8099.000000;-0.065866
8098.000000;-0.066022
8097.000000;-0.066145
8096.000000;-0.066241
8095.000000;-0.066353
8094.000000;-0.066518
8093.000000;-0.066722
8092.000000;-0.066920
8091.000000;-0.067094
8090.000000;-0.067272
8089.000000;-0.067484
8088.000000;-0.067717
8087.000000;-0.067927
8086.000000;-0.068085
8085.000000;-0.068201
8084.000000;-0.068325
8083.000000;-0.068495
8082.000000;-0.068699
8081.000000;-0.068889
8080.000000;-0.069040
8079.000000;-0.069181
8078.000000;-0.069359
8077.000000;-0.069578
8076.000000;-0.069805
8075.000000;-0.070013
8074.000000;-0.070208
8073.000000;-0.070406
8072.000000;-0.070609
8071.000000;-0.070798
8070.000000;-0.070958
8069.000000;-0.071104
8068.000000;-0.071271
8067.000000;-0.071484
8066.000000;-0.071723
8065.000000;-0.071938
8064.000000;-0.072106
8063.000000;-0.072250
8062.000000;-0.072406
8061.000000;-0.072577
8060.000000;-0.072737
8059.000000;-0.072870
8058.000000;-0.072987
8057.000000;-0.073107
8056.000000;-0.073247
8055.000000;-0.073410
8054.000000;-0.073597
8053.000000;-0.073811
8052.000000;-0.074055
8051.000000;-0.074317
8050.000000;-0.074562
8049.000000;-0.074750
8048.000000;-0.074876
8047.000000;-0.074983
8046.000000;-0.075137
8045.000000;-0.075366
8044.000000;-0.075636
8043.000000;-0.075877
8042.000000;-0.076033
8041.000000;-0.076116
8040.000000;-0.076192
8039.000000;-0.076327
8038.000000;-0.076534
8037.000000;-0.076778
8036.000000;-0.077017
8035.000000;-0.077244
8034.000000;-0.077469
8033.000000;-0.077695
8032.000000;-0.077913
8031.000000;-0.078101
8030.000000;-0.078243
8029.000000;-0.078349
8028.000000;-0.078463
8027.000000;-0.078627
8026.000000;-0.078834
8025.000000;-0.079041
8024.000000;-0.079222
8023.000000;-0.079395
8022.000000;-0.079578
8021.000000;-0.079761
8020.000000;-0.079925
8019.000000;-0.080079
8018.000000;-0.080243
8017.000000;-0.080429
8016.000000;-0.080644
8015.000000;-0.080890
8014.000000;-0.081136
8013.000000;-0.081329
8012.000000;-0.081452
8011.000000;-0.081564
8010.000000;-0.081731
8009.000000;-0.081952
8008.000000;-0.082166
8007.000000;-0.082343
8006.000000;-0.082509
8005.000000;-0.082693
8004.000000;-0.082880
8003.000000;-0.083048
8002.000000;-0.083216
8001.000000;-0.083428
8000.000000;-0.083702
7999.000000;-0.083997
7998.000000;-0.084249
7997.000000;-0.084423
7996.000000;-0.084542
7995.000000;-0.084661
7994.000000;-0.084809
7993.000000;-0.084970
7992.000000;-0.085121
7991.000000;-0.085267
7990.000000;-0.085434
7989.000000;-0.085631
7988.000000;-0.085841
7987.000000;-0.086051
7986.000000;-0.086260
7985.000000;-0.086460
7984.000000;-0.086630
7983.000000;-0.086762
7982.000000;-0.086877
7981.000000;-0.087013
7980.000000;-0.087189
7979.000000;-0.087390
7978.000000;-0.087592
7977.000000;-0.087786
7976.000000;-0.087983
7975.000000;-0.088205
7974.000000;-0.088453
7973.000000;-0.088690
7972.000000;-0.088870
7971.000000;-0.088993
7970.000000;-0.089108
7969.000000;-0.089266
7968.000000;-0.089466
7967.000000;-0.089667
7966.000000;-0.089839
7965.000000;-0.089995
7964.000000;-0.090166
7963.000000;-0.090362
7962.000000;-0.090574
7961.000000;-0.090787
7960.000000;-0.090987
7959.000000;-0.091161
7958.000000;-0.091306
7957.000000;-0.091445
7956.000000;-0.091617
7955.000000;-0.091845
7954.000000;-0.092108
7953.000000;-0.092363
7952.000000;-0.092573
7951.000000;-0.092728
7950.000000;-0.092847
7949.000000;-0.092970
7948.000000;-0.093129
7947.000000;-0.093322
7946.000000;-0.093517
7945.000000;-0.093690
7944.000000;-0.093856
7943.000000;-0.094043
7942.000000;-0.094253
7941.000000;-0.094463
7940.000000;-0.094654
7939.000000;-0.094838
7938.000000;-0.095037
7937.000000;-0.095251
7936.000000;-0.095467
7935.000000;-0.095671
7934.000000;-0.095858
7933.000000;-0.096023
7932.000000;-0.096164
7931.000000;-0.096287
7930.000000;-0.096412
7929.000000;-0.096564
7928.000000;-0.096750
7927.000000;-0.096951
7926.000000;-0.097139
7925.000000;-0.097303
7924.000000;-0.097456
7923.000000;-0.097619
7922.000000;-0.097794
7921.000000;-0.097968
7920.000000;-0.098127
7919.000000;-0.098271
7918.000000;-0.098408
7917.000000;-0.098548
7916.000000;-0.098702
7915.000000;-0.098872
7914.000000;-0.099055
7913.000000;-0.099246
7912.000000;-0.099447
7911.000000;-0.099643
7910.000000;-0.099806
7909.000000;-0.099916
7908.000000;-0.100000
7907.000000;-0.100113
7906.000000;-0.100296
7905.000000;-0.100545
7904.000000;-0.100825
7903.000000;-0.101100
7902.000000;-0.101343
7901.000000;-0.101544
7900.000000;-0.101711
7899.000000;-0.101858
7898.000000;-0.101988
7897.000000;-0.102101
7896.000000;-0.102212
7895.000000;-0.102343
7894.000000;-0.102503
7893.000000;-0.102680
7892.000000;-0.102865
7891.000000;-0.103065
7890.000000;-0.103281
7889.000000;-0.103495
7888.000000;-0.103680
7887.000000;-0.103831
7886.000000;-0.103965
7885.000000;-0.104103
7884.000000;-0.104254
7883.000000;-0.104420
7882.000000;-0.104602
7881.000000;-0.104796
7880.000000;-0.104978
7879.000000;-0.105126
7878.000000;-0.105243
7877.000000;-0.105359
7876.000000;-0.105503
7875.000000;-0.105683
7874.000000;-0.105894
7873.000000;-0.106134
7872.000000;-0.106393
7871.000000;-0.106631
7870.000000;-0.106805
7869.000000;-0.106924
7868.000000;-0.107051
7867.000000;-0.107226
7866.000000;-0.107426
7865.000000;-0.107601
7864.000000;-0.107733
7863.000000;-0.107833
7862.000000;-0.107922
7861.000000;-0.108029
7860.000000;-0.108183
7859.000000;-0.108375
7858.000000;-0.108542
7857.000000;-0.108635
7856.000000;-0.108683
7855.000000;-0.108768
7854.000000;-0.108935
7853.000000;-0.109161
7852.000000;-0.109402
7851.000000;-0.109627
7850.000000;-0.109812
7849.000000;-0.109946
7848.000000;-0.110057
7847.000000;-0.110195
7846.000000;-0.110370
7845.000000;-0.110542
7844.000000;-0.110687
7843.000000;-0.110826
7842.000000;-0.110997
7841.000000;-0.111199
7840.000000;-0.111392
7839.000000;-0.111543
7838.000000;-0.111646
7837.000000;-0.111713
7836.000000;-0.111771
7835.000000;-0.111848
7834.000000;-0.111966
7833.000000;-0.112141
7832.000000;-0.112367
7831.000000;-0.112608
7830.000000;-0.112801
7829.000000;-0.112910
7828.000000;-0.112968
7827.000000;-0.113038
7826.000000;-0.113156
7825.000000;-0.113310
7824.000000;-0.113486
7823.000000;-0.113683
7822.000000;-0.113883
7821.000000;-0.114038
7820.000000;-0.114121
7819.000000;-0.114159
7818.000000;-0.114206
7817.000000;-0.114295
7816.000000;-0.114432
7815.000000;-0.114613
7814.000000;-0.114818
7813.000000;-0.115014
7812.000000;-0.115180
7811.000000;-0.115323
7810.000000;-0.115458
7809.000000;-0.115587
7808.000000;-0.115706
7807.000000;-0.115821
7806.000000;-0.115950
7805.000000;-0.116099
7804.000000;-0.116263
7803.000000;-0.116427
7802.000000;-0.116575
7801.000000;-0.116702
7800.000000;-0.116814
7799.000000;-0.116924
7798.000000;-0.117032
7797.000000;-0.117123
7796.000000;-0.117203
7795.000000;-0.117303
7794.000000;-0.117453
7793.000000;-0.117650
7792.000000;-0.117855
7791.000000;-0.118021
7790.000000;-0.118121
7789.000000;-0.118177
7788.000000;-0.118249
7787.000000;-0.118391
7786.000000;-0.118590
7785.000000;-0.118788
7784.000000;-0.118944
7783.000000;-0.119072
7782.000000;-0.119192
7781.000000;-0.119290
7780.000000;-0.119350
7779.000000;-0.119397
7778.000000;-0.119486
7777.000000;-0.119641
7776.000000;-0.119826
7775.000000;-0.119979
7774.000000;-0.120078
7773.000000;-0.120153
7772.000000;-0.120245
7771.000000;-0.120371
7770.000000;-0.120510
7769.000000;-0.120637
7768.000000;-0.120749
7767.000000;-0.120856
7766.000000;-0.120960
7765.000000;-0.121053
7764.000000;-0.121144
7763.000000;-0.121248
7762.000000;-0.121360
7761.000000;-0.121457
7760.000000;-0.121533
7759.000000;-0.121600
7758.000000;-0.121668
7757.000000;-0.121729
7756.000000;-0.121788
7755.000000;-0.121886
7754.000000;-0.122055
7753.000000;-0.122272
7752.000000;-0.122465
7751.000000;-0.122578
7750.000000;-0.122612
7749.000000;-0.122615
7748.000000;-0.122641
7747.000000;-0.122712
7746.000000;-0.122815
7745.000000;-0.122917
7744.000000;-0.123006
7743.000000;-0.123100
7742.000000;-0.123225
7741.000000;-0.123388
7740.000000;-0.123575
7739.000000;-0.123753
7738.000000;-0.123895
7737.000000;-0.123986
7736.000000;-0.124037
7735.000000;-0.124070
7734.000000;-0.124097
7733.000000;-0.124121
7732.000000;-0.124152
7731.000000;-0.124211
7730.000000;-0.124312
7729.000000;-0.124434
7728.000000;-0.124537
7727.000000;-0.124589
7726.000000;-0.124591
7725.000000;-0.124574
7724.000000;-0.124581
7723.000000;-0.124645
7722.000000;-0.124765
7721.000000;-0.124909
7720.000000;-0.125031
7719.000000;-0.125105
7718.000000;-0.125137
7717.000000;-0.125156
7716.000000;-0.125196
7715.000000;-0.125264
7714.000000;-0.125357
7713.000000;-0.125471
7712.000000;-0.125611
7711.000000;-0.125762
7710.000000;-0.125885
7709.000000;-0.125956
7708.000000;-0.125992
7707.000000;-0.126031
7706.000000;-0.126094
7705.000000;-0.126177
7704.000000;-0.126271
7703.000000;-0.126371
7702.000000;-0.126460
7701.000000;-0.126523
7700.000000;-0.126562
7699.000000;-0.126600
7698.000000;-0.126642
7697.000000;-0.126678
7696.000000;-0.126706
7695.000000;-0.126741
7694.000000;-0.126792
7693.000000;-0.126850
7692.000000;-0.126908
7691.000000;-0.126967
7690.000000;-0.127029
7689.000000;-0.127074
7688.000000;-0.127089
7687.000000;-0.127088
7686.000000;-0.127104
7685.000000;-0.127151
7684.000000;-0.127206
7683.000000;-0.127234
7682.000000;-0.127219
7681.000000;-0.127186
7680.000000;-0.127182
7679.000000;-0.127232
7678.000000;-0.127317
7677.000000;-0.127385
7676.000000;-0.127405
7675.000000;-0.127387
7674.000000;-0.127370
7673.000000;-0.127377
7672.000000;-0.127406
7671.000000;-0.127438
7670.000000;-0.127461
7669.000000;-0.127479
7668.000000;-0.127498
7667.000000;-0.127516
7666.000000;-0.127532
7665.000000;-0.127561
7664.000000;-0.127614
7663.000000;-0.127676
7662.000000;-0.127716
7661.000000;-0.127723
7660.000000;-0.127725
7659.000000;-0.127751
7658.000000;-0.127798
7657.000000;-0.127840
7656.000000;-0.127870
7655.000000;-0.127899
7654.000000;-0.127939
7653.000000;-0.127979
7652.000000;-0.127996
7651.000000;-0.127972
7650.000000;-0.127906
7649.000000;-0.127817
7648.000000;-0.127738
7647.000000;-0.127692
7646.000000;-0.127687
7645.000000;-0.127721
7644.000000;-0.127776
7643.000000;-0.127813
7642.000000;-0.127797
7641.000000;-0.127733
7640.000000;-0.127661
7639.000000;-0.127603
7638.000000;-0.127548
7637.000000;-0.127495
7636.000000;-0.127476
7635.000000;-0.127510
7634.000000;-0.127562
7633.000000;-0.127582
7632.000000;-0.127564
7631.000000;-0.127532
7630.000000;-0.127490
7629.000000;-0.127428
7628.000000;-0.127367
7627.000000;-0.127346
7626.000000;-0.127363
7625.000000;-0.127372
7624.000000;-0.127334
7623.000000;-0.127258
7622.000000;-0.127172
7621.000000;-0.127098
7620.000000;-0.127040
7619.000000;-0.126992
7618.000000;-0.126944
7617.000000;-0.126894
7616.000000;-0.126853
7615.000000;-0.126827
7614.000000;-0.126806
7613.000000;-0.126774
7612.000000;-0.126734
7611.000000;-0.126697
7610.000000;-0.126655
7609.000000;-0.126594
7608.000000;-0.126517
7607.000000;-0.126437
7606.000000;-0.126353
7605.000000;-0.126259
7604.000000;-0.126166
7603.000000;-0.126090
7602.000000;-0.126029
7601.000000;-0.125972
7600.000000;-0.125927
7599.000000;-0.125908
7598.000000;-0.125893
7597.000000;-0.125834
7596.000000;-0.125708
7595.000000;-0.125545
7594.000000;-0.125395
7593.000000;-0.125291
7592.000000;-0.125234
7591.000000;-0.125181
7590.000000;-0.125073
7589.000000;-0.124890
7588.000000;-0.124691
7587.000000;-0.124561
7586.000000;-0.124510
7585.000000;-0.124460
7584.000000;-0.124342
7583.000000;-0.124165
7582.000000;-0.123999
7581.000000;-0.123901
7580.000000;-0.123872
7579.000000;-0.123864
7578.000000;-0.123819
7577.000000;-0.123702
7576.000000;-0.123528
7575.000000;-0.123334
7574.000000;-0.123143
7573.000000;-0.122962
7572.000000;-0.122806
7571.000000;-0.122699
7570.000000;-0.122638
7569.000000;-0.122580
7568.000000;-0.122484
7567.000000;-0.122341
7566.000000;-0.122179
7565.000000;-0.122028
7564.000000;-0.121891
7563.000000;-0.121747
7562.000000;-0.121581
7561.000000;-0.121415
7560.000000;-0.121291
7559.000000;-0.121208
7558.000000;-0.121118
7557.000000;-0.120982
7556.000000;-0.120822
7555.000000;-0.120678
7554.000000;-0.120549
7553.000000;-0.120399
7552.000000;-0.120217
7551.000000;-0.120027
7550.000000;-0.119855
7549.000000;-0.119702
7548.000000;-0.119561
7547.000000;-0.119419
7546.000000;-0.119263
7545.000000;-0.119089
7544.000000;-0.118918
7543.000000;-0.118760
7542.000000;-0.118594
7541.000000;-0.118403
7540.000000;-0.118215
7539.000000;-0.118074
7538.000000;-0.117979
7537.000000;-0.117875
7536.000000;-0.117709
7535.000000;-0.117465
7534.000000;-0.117168
7533.000000;-0.116878
7532.000000;-0.116662
7531.000000;-0.116532
7530.000000;-0.116417
7529.000000;-0.116235
7528.000000;-0.115982
7527.000000;-0.115730
7526.000000;-0.115527
7525.000000;-0.115351
7524.000000;-0.115155
7523.000000;-0.114927
7522.000000;-0.114689
7521.000000;-0.114466
7520.000000;-0.114260
7519.000000;-0.114050
7518.000000;-0.113818
7517.000000;-0.113575
7516.000000;-0.113349
7515.000000;-0.113138
7514.000000;-0.112901
7513.000000;-0.112627
7512.000000;-0.112370
7511.000000;-0.112175
7510.000000;-0.112007
7509.000000;-0.111799
7508.000000;-0.111550
7507.000000;-0.111317
7506.000000;-0.111114
7505.000000;-0.110903
7504.000000;-0.110669
7503.000000;-0.110448
7502.000000;-0.110265
7501.000000;-0.110085
7500.000000;-0.109859
7499.000000;-0.109587
7498.000000;-0.109297
7497.000000;-0.109010
7496.000000;-0.108730
7495.000000;-0.108459
7494.000000;-0.108200
7493.000000;-0.107952
7492.000000;-0.107719
7491.000000;-0.107502
7490.000000;-0.107296
7489.000000;-0.107094
7488.000000;-0.106907
7487.000000;-0.106738
7486.000000;-0.106558
7485.000000;-0.106334
7484.000000;-0.106071
7483.000000;-0.105807
7482.000000;-0.105564
7481.000000;-0.105333
7480.000000;-0.105105
7479.000000;-0.104887
7478.000000;-0.104675
7477.000000;-0.104444
7476.000000;-0.104176
7475.000000;-0.103879
7474.000000;-0.103577
7473.000000;-0.103297
7472.000000;-0.103059
7471.000000;-0.102857
7470.000000;-0.102650
7469.000000;-0.102407
7468.000000;-0.102139
7467.000000;-0.101877
7466.000000;-0.101631
7465.000000;-0.101399
7464.000000;-0.101186
7463.000000;-0.100988
7462.000000;-0.100777
7461.000000;-0.100524
7460.000000;-0.100238
7459.000000;-0.099939
7458.000000;-0.099626
7457.000000;-0.099297
7456.000000;-0.098983
7455.000000;-0.098721
7454.000000;-0.098508
7453.000000;-0.098313
7452.000000;-0.098127
7451.000000;-0.097954
7450.000000;-0.097779
7449.000000;-0.097573
7448.000000;-0.097322
7447.000000;-0.097028
7446.000000;-0.096696
7445.000000;-0.096344
7444.000000;-0.096015
7443.000000;-0.095741
7442.000000;-0.095512
7441.000000;-0.095309
7440.000000;-0.095130
7439.000000;-0.094962
7438.000000;-0.094755
7437.000000;-0.094475
7436.000000;-0.094159
7435.000000;-0.093880
7434.000000;-0.093671
7433.000000;-0.093522
7432.000000;-0.093395
7431.000000;-0.093229
7430.000000;-0.092961
7429.000000;-0.092605
7428.000000;-0.092260
7427.000000;-0.091999
7426.000000;-0.091790
7425.000000;-0.091564
7424.000000;-0.091308
7423.000000;-0.091047
7422.000000;-0.090777
7421.000000;-0.090465
7420.000000;-0.090129
7419.000000;-0.089837
7418.000000;-0.089636
7417.000000;-0.089498
7416.000000;-0.089348
7415.000000;-0.089131
7414.000000;-0.088850
7413.000000;-0.088556
7412.000000;-0.088313
7411.000000;-0.088114
7410.000000;-0.087887
7409.000000;-0.087611
7408.000000;-0.087369
7407.000000;-0.087235
7406.000000;-0.087156
7405.000000;-0.087005
7404.000000;-0.086726
7403.000000;-0.086390
7402.000000;-0.086076
7401.000000;-0.085789
7400.000000;-0.085515
7399.000000;-0.085247
7398.000000;-0.084961
7397.000000;-0.084690
7396.000000;-0.084525
7395.000000;-0.084456
7394.000000;-0.084363
7393.000000;-0.084232
7392.000000;-0.084222
7391.000000;-0.084401
7390.000000;-0.084531
7389.000000;-0.084319
7388.000000;-0.083763
7387.000000;-0.083074
7386.000000;-0.082422
7385.000000;-0.081906
7384.000000;-0.081623
7383.000000;-0.081580
7382.000000;-0.081604
7381.000000;-0.081448
7380.000000;-0.081035
7379.000000;-0.080528
7378.000000;-0.080156
7377.000000;-0.080022
7376.000000;-0.079999
7375.000000;-0.079844
7374.000000;-0.079449
7373.000000;-0.078965
7372.000000;-0.078647
7371.000000;-0.078615
7370.000000;-0.078728
7369.000000;-0.078778
7368.000000;-0.078702
7367.000000;-0.078461
7366.000000;-0.077951
7365.000000;-0.077285
7364.000000;-0.076851
7363.000000;-0.076859
7362.000000;-0.077081
7361.000000;-0.077074
7360.000000;-0.076596
7359.000000;-0.075813
7358.000000;-0.075153
7357.000000;-0.074954
7356.000000;-0.075142
7355.000000;-0.075280
7354.000000;-0.074933
7353.000000;-0.074099
7352.000000;-0.073223
7351.000000;-0.072763
7350.000000;-0.072742
7349.000000;-0.072785
7348.000000;-0.072574
7347.000000;-0.072179
7346.000000;-0.071933
7345.000000;-0.071978
7344.000000;-0.072055
7343.000000;-0.071737
7342.000000;-0.070897
7341.000000;-0.069885
7340.000000;-0.069172
7339.000000;-0.068883
7338.000000;-0.068736
7337.000000;-0.068503
7336.000000;-0.068236
7335.000000;-0.068033
7334.000000;-0.067804
7333.000000;-0.067361
7332.000000;-0.066674
7331.000000;-0.066016
7330.000000;-0.065734
7329.000000;-0.065789
7328.000000;-0.065696
7327.000000;-0.065153
7326.000000;-0.064470
7325.000000;-0.064087
7324.000000;-0.064044
7323.000000;-0.064014
7322.000000;-0.063666
7321.000000;-0.062928
7320.000000;-0.062017
7319.000000;-0.061211
7318.000000;-0.060498
7317.000000;-0.059656
7316.000000;-0.058679
7315.000000;-0.057889
7314.000000;-0.057580
7313.000000;-0.057546
7312.000000;-0.057158
7311.000000;-0.056103
7310.000000;-0.054861
7309.000000;-0.054188
7308.000000;-0.054240
7307.000000;-0.054475
7306.000000;-0.054289
7305.000000;-0.053459
7304.000000;-0.052158
7303.000000;-0.050901
7302.000000;-0.050207
7301.000000;-0.050139
7300.000000;-0.050162
7299.000000;-0.049575
7298.000000;-0.048226
7297.000000;-0.046706
7296.000000;-0.045759
7295.000000;-0.045437
7294.000000;-0.045079
7293.000000;-0.044134
7292.000000;-0.042682
7291.000000;-0.041175
7290.000000;-0.039915
7289.000000;-0.038827
7288.000000;-0.037672
7287.000000;-0.036447
7286.000000;-0.035412
7285.000000;-0.034680
7284.000000;-0.033994
7283.000000;-0.033090
7282.000000;-0.031957
7281.000000;-0.030742
7280.000000;-0.029545
7279.000000;-0.028334
7278.000000;-0.027083
7277.000000;-0.025820
7276.000000;-0.024552
7275.000000;-0.023270
7274.000000;-0.021996
7273.000000;-0.020707
7272.000000;-0.019319
7271.000000;-0.017835
7270.000000;-0.016383
7269.000000;-0.015025
7268.000000;-0.013641
7267.000000;-0.012104
7266.000000;-0.010441
7265.000000;-0.008743
7264.000000;-0.006998
7263.000000;-0.005173
7262.000000;-0.003373
7261.000000;-0.001729
7260.000000;-0.000221
7259.000000;0.001294
7258.000000;0.002934
7257.000000;0.004752
7256.000000;0.006744
7255.000000;0.008829
7254.000000;0.010951
7253.000000;0.013129
7252.000000;0.015314
7251.000000;0.017398
7250.000000;0.019333
7249.000000;0.021190
7248.000000;0.023208
7247.000000;0.025549
7246.000000;0.028001
7245.000000;0.030194
7244.000000;0.032157
7243.000000;0.034370
7242.000000;0.037106
7241.000000;0.040037
7240.000000;0.042682
7239.000000;0.044911
7238.000000;0.046985
7237.000000;0.049337
7236.000000;0.052180
7235.000000;0.055263
7234.000000;0.058187
7233.000000;0.060852
7232.000000;0.063431
7231.000000;0.066144
7230.000000;0.069016
7229.000000;0.071866
7228.000000;0.074657
7227.000000;0.077557
7226.000000;0.080646
7225.000000;0.083788
7224.000000;0.086882
7223.000000;0.089941
7222.000000;0.092948
7221.000000;0.095908
7220.000000;0.099018
7219.000000;0.102446
7218.000000;0.106053
7217.000000;0.109583
7216.000000;0.113004
7215.000000;0.116461
7214.000000;0.120057
7213.000000;0.123796
7212.000000;0.127646
7211.000000;0.131601
7210.000000;0.135661
7209.000000;0.139820
7208.000000;0.144104
7207.000000;0.148502
7206.000000;0.152883
7205.000000;0.157151
7204.000000;0.161370
7203.000000;0.165628
7202.000000;0.169862
7201.000000;0.174026
7200.000000;0.178248
7199.000000;0.182650
7198.000000;0.187167
7197.000000;0.191708
7196.000000;0.196335
7195.000000;0.201144
7194.000000;0.206053
7193.000000;0.210936
7192.000000;0.215824
7191.000000;0.220819
7190.000000;0.225872
7189.000000;0.230889
7188.000000;0.235918
7187.000000;0.241074
7186.000000;0.246361
7185.000000;0.251606
7184.000000;0.256617
7183.000000;0.261404
7182.000000;0.266252
7181.000000;0.271505
7180.000000;0.277284
7179.000000;0.283396
7178.000000;0.289464
7177.000000;0.295272
7176.000000;0.300925
7175.000000;0.306622
7174.000000;0.312416
7173.000000;0.318296
7172.000000;0.324286
7171.000000;0.330407
7170.000000;0.336592
7169.000000;0.342804
7168.000000;0.348973
7167.000000;0.354940
7166.000000;0.360711
7165.000000;0.366478
7164.000000;0.372263
7163.000000;0.377804
7162.000000;0.383049
7161.000000;0.388488
7160.000000;0.394654
7159.000000;0.401465
7158.000000;0.408339
7157.000000;0.414898
7156.000000;0.421257
7155.000000;0.427598
7154.000000;0.433884
7153.000000;0.440128
7152.000000;0.446421
7151.000000;0.452740
7150.000000;0.459021
7149.000000;0.465339
7148.000000;0.471729
7147.000000;0.478021
7146.000000;0.484067
7145.000000;0.490091
7144.000000;0.496528
7143.000000;0.503414
7142.000000;0.510243
7141.000000;0.516573
7140.000000;0.522526
7139.000000;0.528524
7138.000000;0.534720
7137.000000;0.540981
7136.000000;0.547201
7135.000000;0.553365
7134.000000;0.559433
7133.000000;0.565397
7132.000000;0.571317
7131.000000;0.577221
7130.000000;0.583093
7129.000000;0.588983
7128.000000;0.595040
7127.000000;0.601326
7126.000000;0.607691
7125.000000;0.613965
7124.000000;0.620142
7123.000000;0.626307
7122.000000;0.632417
7121.000000;0.638233
7120.000000;0.643551
7119.000000;0.648510
7118.000000;0.653642
7117.000000;0.659458
7116.000000;0.665905
7115.000000;0.672353
7114.000000;0.678252
7113.000000;0.683638
7112.000000;0.688909
7111.000000;0.694220
7110.000000;0.699387
7109.000000;0.704355
7108.000000;0.709361
7107.000000;0.714531
7106.000000;0.719780
7105.000000;0.725077
7104.000000;0.730388
7103.000000;0.735498
7102.000000;0.740208
7101.000000;0.744672
7100.000000;0.749331
7099.000000;0.754354
7098.000000;0.759384
7097.000000;0.763991
7096.000000;0.768187
7095.000000;0.772283
7094.000000;0.776467
7093.000000;0.780701
7092.000000;0.784900
7091.000000;0.789027
7090.000000;0.793113
7089.000000;0.797298
7088.000000;0.801722
7087.000000;0.806290
7086.000000;0.810723
7085.000000;0.814836
7084.000000;0.818635
7083.000000;0.822190
7082.000000;0.825621
7081.000000;0.829157
7080.000000;0.833021
7079.000000;0.837161
7078.000000;0.841224
7077.000000;0.844973
7076.000000;0.848519
7075.000000;0.852027
7074.000000;0.855426
7073.000000;0.858569
7072.000000;0.861473
7071.000000;0.864262
7070.000000;0.867023
7069.000000;0.869825
7068.000000;0.872729
7067.000000;0.875702
7066.000000;0.878683
7065.000000;0.881723
7064.000000;0.884833
7063.000000;0.887805
7062.000000;0.890433
7061.000000;0.892793
7060.000000;0.895078
7059.000000;0.897270
7058.000000;0.899241
7057.000000;0.901151
7056.000000;0.903386
7055.000000;0.906001
7054.000000;0.908622
7053.000000;0.910984
7052.000000;0.913179
7051.000000;0.915311
7050.000000;0.917339
7049.000000;0.919354
7048.000000;0.921610
7047.000000;0.924121
7046.000000;0.926548
7045.000000;0.928623
7044.000000;0.930383
7043.000000;0.931956
7042.000000;0.933430
7041.000000;0.934952
7040.000000;0.936642
7039.000000;0.938371
7038.000000;0.939956
7037.000000;0.941553
7036.000000;0.943471
7035.000000;0.945550
7034.000000;0.947181
7033.000000;0.948047
7032.000000;0.948468
7031.000000;0.948903
7030.000000;0.949531
7029.000000;0.950380
7028.000000;0.951460
7027.000000;0.952650
7026.000000;0.953814
7025.000000;0.955071
7024.000000;0.956608
7023.000000;0.958201
7022.000000;0.959408
7021.000000;0.960291
7020.000000;0.961408
7019.000000;0.962976
7018.000000;0.964528
7017.000000;0.965572
7016.000000;0.966174
7015.000000;0.966682
7014.000000;0.967292
7013.000000;0.968024
7012.000000;0.968805
7011.000000;0.969446
7010.000000;0.969835
7009.000000;0.970186
7008.000000;0.970801
7007.000000;0.971597
7006.000000;0.972269
7005.000000;0.972835
7004.000000;0.973544
7003.000000;0.974278
7002.000000;0.974636
7001.000000;0.974686
7000.000000;0.975003
6999.000000;0.975851
6998.000000;0.976872
6997.000000;0.977721
6996.000000;0.978440
6995.000000;0.979039
6994.000000;0.979300
6993.000000;0.979241
6992.000000;0.979272
6991.000000;0.979611
6990.000000;0.980040
6989.000000;0.980417
6988.000000;0.980882
6987.000000;0.981362
6986.000000;0.981446
6985.000000;0.981066
6984.000000;0.980770
6983.000000;0.980961
6982.000000;0.981323
6981.000000;0.981350
6980.000000;0.981055
6979.000000;0.980799
6978.000000;0.980745
6977.000000;0.980822
6976.000000;0.980950
6975.000000;0.981007
6974.000000;0.980820
6973.000000;0.980428
6972.000000;0.980119
6971.000000;0.980015
6970.000000;0.979939
6969.000000;0.979800
6968.000000;0.979751
6967.000000;0.979818
6966.000000;0.979814
6965.000000;0.979719
6964.000000;0.979718
6963.000000;0.979691
6962.000000;0.979141
6961.000000;0.977933
6960.000000;0.976649
6959.000000;0.975905
6958.000000;0.975674
6957.000000;0.975577
6956.000000;0.975468
6955.000000;0.975385
6954.000000;0.975237
6953.000000;0.974928
6952.000000;0.974544
6951.000000;0.974127
6950.000000;0.973506
6949.000000;0.972608
6948.000000;0.971698
6947.000000;0.971027
6946.000000;0.970487
6945.000000;0.969871
6944.000000;0.969224
6943.000000;0.968722
6942.000000;0.968391
6941.000000;0.968148
6940.000000;0.967933
6939.000000;0.967665
6938.000000;0.967255
6937.000000;0.966770
6936.000000;0.966328
6935.000000;0.965778
6934.000000;0.964786
6933.000000;0.963370
6932.000000;0.962042
6931.000000;0.961269
6930.000000;0.961032
6929.000000;0.961014
6928.000000;0.960861
6927.000000;0.960181
6926.000000;0.958748
6925.000000;0.956961
6924.000000;0.955677
6923.000000;0.955297
6922.000000;0.955302
6921.000000;0.954892
6920.000000;0.953813
6919.000000;0.952367
6918.000000;0.950949
6917.000000;0.949823
6916.000000;0.949091
6915.000000;0.948593
6914.000000;0.948069
6913.000000;0.947592
6912.000000;0.947579
6911.000000;0.948134
6910.000000;0.948634
6909.000000;0.948302
6908.000000;0.947023
6907.000000;0.945337
6906.000000;0.943821
6905.000000;0.942719
6904.000000;0.941975
6903.000000;0.941307
6902.000000;0.940367
6901.000000;0.939060
6900.000000;0.937643
6899.000000;0.936439
6898.000000;0.935558
6897.000000;0.934948
6896.000000;0.934548
6895.000000;0.934220
6894.000000;0.933729
6893.000000;0.932957
6892.000000;0.932021
6891.000000;0.931063
6890.000000;0.930058
6889.000000;0.928945
6888.000000;0.927807
6887.000000;0.926780
6886.000000;0.925896
6885.000000;0.925112
6884.000000;0.924366
6883.000000;0.923548
6882.000000;0.922569
6881.000000;0.921543
6880.000000;0.920723
6879.000000;0.920174
6878.000000;0.919635
6877.000000;0.918822
6876.000000;0.917779
6875.000000;0.916768
6874.000000;0.915910
6873.000000;0.915031
6872.000000;0.913855
6871.000000;0.912341
6870.000000;0.910844
6869.000000;0.909874
6868.000000;0.909559
6867.000000;0.909399
6866.000000;0.908709
6865.000000;0.907309
6864.000000;0.905613
6863.000000;0.904080
6862.000000;0.902822
6861.000000;0.901759
6860.000000;0.900841
6859.000000;0.899997
6858.000000;0.899025
6857.000000;0.897717
6856.000000;0.896072
6855.000000;0.894320
6854.000000;0.892804
6853.000000;0.891741
6852.000000;0.890978
6851.000000;0.890021
6850.000000;0.888511
6849.000000;0.886646
6848.000000;0.884934
6847.000000;0.883578
6846.000000;0.882349
6845.000000;0.881026
6844.000000;0.879642
6843.000000;0.878247
6842.000000;0.876737
6841.000000;0.875046
6840.000000;0.873295
6839.000000;0.871625
6838.000000;0.870026
6837.000000;0.868418
6836.000000;0.866754
6835.000000;0.864961
6834.000000;0.862933
6833.000000;0.860668
6832.000000;0.858281
6831.000000;0.855859
6830.000000;0.853431
6829.000000;0.851111
6828.000000;0.849090
6827.000000;0.847408
6826.000000;0.845840
6825.000000;0.844077
6824.000000;0.841975
6823.000000;0.839613
6822.000000;0.837191
6821.000000;0.834857
6820.000000;0.832550
6819.000000;0.830076
6818.000000;0.827408
6817.000000;0.824796
6816.000000;0.822483
6815.000000;0.820395
6814.000000;0.818257
6813.000000;0.815909
6812.000000;0.813344
6811.000000;0.810561
6810.000000;0.807631
6809.000000;0.804817
6808.000000;0.802366
6807.000000;0.800181
6806.000000;0.797924
6805.000000;0.795401
6804.000000;0.792684
6803.000000;0.789905
6802.000000;0.787169
6801.000000;0.784601
6800.000000;0.782239
6799.000000;0.779869
6798.000000;0.777188
6797.000000;0.774156
6796.000000;0.770995
6795.000000;0.767872
6794.000000;0.764801
6793.000000;0.761840
6792.000000;0.759126
6791.000000;0.756659
6790.000000;0.754227
6789.000000;0.751609
6788.000000;0.748714
6787.000000;0.745589
6786.000000;0.742451
6785.000000;0.739619
6784.000000;0.737215
6783.000000;0.734930
6782.000000;0.732307
6781.000000;0.729236
6780.000000;0.725991
6779.000000;0.722844
6778.000000;0.719863
6777.000000;0.717048
6776.000000;0.714371
6775.000000;0.711659
6774.000000;0.708699
6773.000000;0.705524
6772.000000;0.702373
6771.000000;0.699353
6770.000000;0.696350
6769.000000;0.693319
6768.000000;0.690425
6767.000000;0.687792
6766.000000;0.685307
6765.000000;0.682756
6764.000000;0.680027
6763.000000;0.677108
6762.000000;0.674030
6761.000000;0.670909
6760.000000;0.667901
6759.000000;0.665039
6758.000000;0.662175
6757.000000;0.659167
6756.000000;0.656030
6755.000000;0.652911
6754.000000;0.649952
6753.000000;0.647194
6752.000000;0.644528
6751.000000;0.641769
6750.000000;0.638834
6749.000000;0.635829
6748.000000;0.632879
6747.000000;0.629943
6746.000000;0.626924
6745.000000;0.623874
6744.000000;0.620940
6743.000000;0.618127
6742.000000;0.615272
6741.000000;0.612254
6740.000000;0.609109
6739.000000;0.605942
6738.000000;0.602856
6737.000000;0.599950
6736.000000;0.597232
6735.000000;0.594551
6734.000000;0.591754
6733.000000;0.588868
6732.000000;0.586025
6731.000000;0.583221
6730.000000;0.580330
6729.000000;0.577306
6728.000000;0.574242
6727.000000;0.571211
6726.000000;0.568220
6725.000000;0.565318
6724.000000;0.562579
6723.000000;0.559957
6722.000000;0.557307
6721.000000;0.554566
6720.000000;0.551784
6719.000000;0.548985
6718.000000;0.546112
6717.000000;0.543197
6716.000000;0.540333
6715.000000;0.537581
6714.000000;0.534868
6713.000000;0.532098
6712.000000;0.529257
6711.000000;0.526372
6710.000000;0.523447
6709.000000;0.520577
6708.000000;0.517835
6707.000000;0.515126
6706.000000;0.512404
6705.000000;0.509717
6704.000000;0.507147
6703.000000;0.504656
6702.000000;0.502078
6701.000000;0.499301
6700.000000;0.496343
6699.000000;0.493306
6698.000000;0.490313
6697.000000;0.487479
6696.000000;0.484786
6695.000000;0.482047
6694.000000;0.479116
6693.000000;0.476118
6692.000000;0.473318
6691.000000;0.470780
6690.000000;0.468310
6689.000000;0.465731
6688.000000;0.463060
6687.000000;0.460376
6686.000000;0.457677
6685.000000;0.454926
6684.000000;0.452121
6683.000000;0.449279
6682.000000;0.446441
6681.000000;0.443694
6680.000000;0.441105
6679.000000;0.438612
6678.000000;0.436097
6677.000000;0.433543
6676.000000;0.431024
6675.000000;0.428526
6674.000000;0.425932
6673.000000;0.423204
6672.000000;0.420456
6671.000000;0.417812
6670.000000;0.415289
6669.000000;0.412847
6668.000000;0.410437
6667.000000;0.407985
6666.000000;0.405428
6665.000000;0.402816
6664.000000;0.400279
6663.000000;0.397857
6662.000000;0.395443
6661.000000;0.392927
6660.000000;0.390316
6659.000000;0.387666
6658.000000;0.385011
6657.000000;0.382388
6656.000000;0.379848
6655.000000;0.377399
6654.000000;0.374996
6653.000000;0.372613
6652.000000;0.370249
6651.000000;0.367865
6650.000000;0.365386
6649.000000;0.362817
6648.000000;0.360270
6647.000000;0.357850
6646.000000;0.355550
6645.000000;0.353283
6644.000000;0.350957
6643.000000;0.348524
6642.000000;0.346011
6641.000000;0.343516
6640.000000;0.341114
6639.000000;0.338767
6638.000000;0.336392
6637.000000;0.333991
6636.000000;0.331631
6635.000000;0.329319
6634.000000;0.326994
6633.000000;0.324655
6632.000000;0.322385
6631.000000;0.320203
6630.000000;0.318005
6629.000000;0.315691
6628.000000;0.313288
6627.000000;0.310902
6626.000000;0.308609
6625.000000;0.306407
6624.000000;0.304234
6623.000000;0.301992
6622.000000;0.299624
6621.000000;0.297185
6620.000000;0.294798
6619.000000;0.292526
6618.000000;0.290326
6617.000000;0.288119
6616.000000;0.285865
6615.000000;0.283563
6614.000000;0.281252
6613.000000;0.279003
6612.000000;0.276854
6611.000000;0.274753
6610.000000;0.272613
6609.000000;0.270421
6608.000000;0.268225
6607.000000;0.266049
6606.000000;0.263897
6605.000000;0.261803
6604.000000;0.259789
6603.000000;0.257772
6602.000000;0.255634
6601.000000;0.253382
6600.000000;0.251149
6599.000000;0.249009
6598.000000;0.246906
6597.000000;0.244774
6596.000000;0.242638
6595.000000;0.240547
6594.000000;0.238497
6593.000000;0.236468
6592.000000;0.234464
6591.000000;0.232463
6590.000000;0.230412
6589.000000;0.228307
6588.000000;0.226213
6587.000000;0.224179
6586.000000;0.222173
6585.000000;0.220161
6584.000000;0.218172
6583.000000;0.216249
6582.000000;0.214371
6581.000000;0.212480
6580.000000;0.210534
6579.000000;0.208512
6578.000000;0.206409
6577.000000;0.204268
6576.000000;0.202175
6575.000000;0.200192
6574.000000;0.198299
6573.000000;0.196441
6572.000000;0.194583
6571.000000;0.192711
6570.000000;0.190814
6569.000000;0.188908
6568.000000;0.187031
6567.000000;0.185187
6566.000000;0.183327
6565.000000;0.181400
6564.000000;0.179406
6563.000000;0.177390
6562.000000;0.175407
6561.000000;0.173499
6560.000000;0.171677
6559.000000;0.169903
6558.000000;0.168128
6557.000000;0.166342
6556.000000;0.164562
6555.000000;0.162781
6554.000000;0.160968
6553.000000;0.159114
6552.000000;0.157245
6551.000000;0.155385
6550.000000;0.153561
6549.000000;0.151812
6548.000000;0.150134
6547.000000;0.148437
6546.000000;0.146629
6545.000000;0.144744
6544.000000;0.142921
6543.000000;0.141233
6542.000000;0.139599
6541.000000;0.137904
6540.000000;0.136133
6539.000000;0.134349
6538.000000;0.132598
6537.000000;0.130878
6536.000000;0.129166
6535.000000;0.127450
6534.000000;0.125733
6533.000000;0.124042
6532.000000;0.122399
6531.000000;0.120778
6530.000000;0.119111
6529.000000;0.117376
6528.000000;0.115614
6527.000000;0.113879
6526.000000;0.112182
6525.000000;0.110527
6524.000000;0.108938
6523.000000;0.107426
6522.000000;0.105942
6521.000000;0.104407
6520.000000;0.102774
6519.000000;0.101058
6518.000000;0.099319
6517.000000;0.097633
6516.000000;0.096045
6515.000000;0.094525
6514.000000;0.092991
6513.000000;0.091384
6512.000000;0.089726
6511.000000;0.088101
6510.000000;0.086572
6509.000000;0.085133
6508.000000;0.083712
6507.000000;0.082223
6506.000000;0.080635
6505.000000;0.078990
6504.000000;0.077348
6503.000000;0.075743
6502.000000;0.074181
6501.000000;0.072669
6500.000000;0.071205
6499.000000;0.069754
6498.000000;0.068263
6497.000000;0.066719
6496.000000;0.065147
6495.000000;0.063581
6494.000000;0.062047
6493.000000;0.060572
6492.000000;0.059160
6491.000000;0.057778
6490.000000;0.056382
6489.000000;0.054957
6488.000000;0.053506
6487.000000;0.052034
6486.000000;0.050563
6485.000000;0.049130
6484.000000;0.047747
6483.000000;0.046364
6482.000000;0.044936
6481.000000;0.043477
6480.000000;0.042030
6479.000000;0.040596
6478.000000;0.039157
6477.000000;0.037731
6476.000000;0.036353
6475.000000;0.034998
6474.000000;0.033606
6473.000000;0.032171
6472.000000;0.030744
6471.000000;0.029353
6470.000000;0.027980
6469.000000;0.026608
6468.000000;0.025248
6467.000000;0.023896
6466.000000;0.022529
6465.000000;0.021157
6464.000000;0.019825
6463.000000;0.018549
6462.000000;0.017306
6461.000000;0.016075
6460.000000;0.014842
6459.000000;0.013567
6458.000000;0.012208
6457.000000;0.010801
6456.000000;0.009431
6455.000000;0.008139
6454.000000;0.006873
6453.000000;0.005586
6452.000000;0.004291
6451.000000;0.003021
6450.000000;0.001767
6449.000000;0.000513
6448.000000;-0.000740
6447.000000;-0.001990
6446.000000;-0.003258
6445.000000;-0.004546
6444.000000;-0.005814
6443.000000;-0.007021
6442.000000;-0.008183
6441.000000;-0.009348
6440.000000;-0.010546
6439.000000;-0.011776
6438.000000;-0.013025
6437.000000;-0.014284
6436.000000;-0.015540
6435.000000;-0.016789
6434.000000;-0.018024
6433.000000;-0.019236
6432.000000;-0.020422
6431.000000;-0.021595
6430.000000;-0.022770
6429.000000;-0.023933
6428.000000;-0.025062
6427.000000;-0.026160
6426.000000;-0.027256
6425.000000;-0.028368
6424.000000;-0.029508
6423.000000;-0.030695
6422.000000;-0.031928
6421.000000;-0.033157
6420.000000;-0.034327
6419.000000;-0.035445
6418.000000;-0.036565
6417.000000;-0.037708
6416.000000;-0.038848
6415.000000;-0.039965
6414.000000;-0.041072
6413.000000;-0.042166
6412.000000;-0.043221
6411.000000;-0.044245
6410.000000;-0.045295
6409.000000;-0.046402
6408.000000;-0.047534
6407.000000;-0.048645
6406.000000;-0.049725
6405.000000;-0.050787
6404.000000;-0.051833
6403.000000;-0.052869
6402.000000;-0.053917
6401.000000;-0.054985
6400.000000;-0.056058
6399.000000;-0.057129
6398.000000;-0.058212
6397.000000;-0.059307
6396.000000;-0.060387
6395.000000;-0.061433
6394.000000;-0.062460
6393.000000;-0.063481
6392.000000;-0.064485
6391.000000;-0.065464
6390.000000;-0.066444
6389.000000;-0.067447
6388.000000;-0.068465
6387.000000;-0.069477
6386.000000;-0.070485
6385.000000;-0.071500
6384.000000;-0.072515
6383.000000;-0.073517
6382.000000;-0.074504
6381.000000;-0.075495
6380.000000;-0.076501
6379.000000;-0.077520
6378.000000;-0.078534
6377.000000;-0.079515
6376.000000;-0.080453
6375.000000;-0.081372
6374.000000;-0.082308
6373.000000;-0.083265
6372.000000;-0.084217
6371.000000;-0.085150
6370.000000;-0.086079
6369.000000;-0.087017
6368.000000;-0.087963
6367.000000;-0.088912
6366.000000;-0.089866
6365.000000;-0.090814
6364.000000;-0.091739
6363.000000;-0.092647
6362.000000;-0.093560
6361.000000;-0.094486
6360.000000;-0.095409
6359.000000;-0.096327
6358.000000;-0.097256
6357.000000;-0.098195
6356.000000;-0.099110
6355.000000;-0.099974
6354.000000;-0.100801
6353.000000;-0.101627
6352.000000;-0.102484
6351.000000;-0.103387
6350.000000;-0.104326
6349.000000;-0.105265
6348.000000;-0.106170
6347.000000;-0.107034
6346.000000;-0.107877
6345.000000;-0.108703
6344.000000;-0.109503
6343.000000;-0.110277
6342.000000;-0.111048
6341.000000;-0.111835
6340.000000;-0.112659
6339.000000;-0.113540
6338.000000;-0.114474
6337.000000;-0.115407
6336.000000;-0.116272
6335.000000;-0.117062
6334.000000;-0.117830
6333.000000;-0.118628
6332.000000;-0.119464
6331.000000;-0.120322
6330.000000;-0.121193
6329.000000;-0.122058
6328.000000;-0.122897
6327.000000;-0.123713
6326.000000;-0.124531
6325.000000;-0.125357
6324.000000;-0.126172
6323.000000;-0.126969
6322.000000;-0.127760
6321.000000;-0.128539
6320.000000;-0.129284
6319.000000;-0.130006
6318.000000;-0.130755
6317.000000;-0.131553
6316.000000;-0.132361
6315.000000;-0.133135
6314.000000;-0.133881
6313.000000;-0.134630
6312.000000;-0.135383
6311.000000;-0.136127
6310.000000;-0.136864
6309.000000;-0.137610
6308.000000;-0.138365
6307.000000;-0.139115
6306.000000;-0.139858
6305.000000;-0.140607
6304.000000;-0.141371
6303.000000;-0.142154
6302.000000;-0.142949
6301.000000;-0.143739
6300.000000;-0.144508
6299.000000;-0.145251
6298.000000;-0.145972
6297.000000;-0.146662
6296.000000;-0.147315
6295.000000;-0.147951
6294.000000;-0.148611
6293.000000;-0.149308
6292.000000;-0.150022
6291.000000;-0.150730
6290.000000;-0.151440
6289.000000;-0.152161
6288.000000;-0.152883
6287.000000;-0.153594
6286.000000;-0.154290
6285.000000;-0.154962
6284.000000;-0.155600
6283.000000;-0.156222
6282.000000;-0.156872
6281.000000;-0.157572
6280.000000;-0.158293
6279.000000;-0.158991
6278.000000;-0.159661
6277.000000;-0.160331
6276.000000;-0.161023
6275.000000;-0.161739
6274.000000;-0.162469
6273.000000;-0.163194
6272.000000;-0.163882
6271.000000;-0.164517
6270.000000;-0.165106
6269.000000;-0.165679
6268.000000;-0.166275
6267.000000;-0.166927
6266.000000;-0.167638
6265.000000;-0.168366
6264.000000;-0.169046
6263.000000;-0.169655
6262.000000;-0.170229
6261.000000;-0.170817
6260.000000;-0.171433
6259.000000;-0.172064
6258.000000;-0.172707
6257.000000;-0.173366
6256.000000;-0.174033
6255.000000;-0.174691
6254.000000;-0.175326
6253.000000;-0.175934
6252.000000;-0.176525
6251.000000;-0.177121
6250.000000;-0.177738
6249.000000;-0.178368
6248.000000;-0.178986
6247.000000;-0.179585
6246.000000;-0.180171
6245.000000;-0.180750
6244.000000;-0.181322
6243.000000;-0.181900
6242.000000;-0.182505
6241.000000;-0.183143
6240.000000;-0.183791
6239.000000;-0.184426
6238.000000;-0.185039
6237.000000;-0.185624
6236.000000;-0.186177
6235.000000;-0.186715
6234.000000;-0.187272
6233.000000;-0.187860
6232.000000;-0.188460
6231.000000;-0.189048
6230.000000;-0.189627
6229.000000;-0.190210
6228.000000;-0.190793
6227.000000;-0.191359
6226.000000;-0.191900
6225.000000;-0.192432
6224.000000;-0.192982
6223.000000;-0.193571
6222.000000;-0.194182
6221.000000;-0.194771
6220.000000;-0.195307
6219.000000;-0.195813
6218.000000;-0.196338
6217.000000;-0.196895
6216.000000;-0.197451
6215.000000;-0.197975
6214.000000;-0.198471
6213.000000;-0.198961
6212.000000;-0.199463
6211.000000;-0.199993
6210.000000;-0.200559
6209.000000;-0.201147
6208.000000;-0.201731
6207.000000;-0.202298
6206.000000;-0.202858
6205.000000;-0.203410
6204.000000;-0.203940
6203.000000;-0.204443
6202.000000;-0.204948
6201.000000;-0.205481
6200.000000;-0.206031
6199.000000;-0.206570
6198.000000;-0.207074
6197.000000;-0.207550
6196.000000;-0.208024
6195.000000;-0.208532
6194.000000;-0.209082
6193.000000;-0.209636
6192.000000;-0.210145
6191.000000;-0.210603
6190.000000;-0.211060
6189.000000;-0.211550
6188.000000;-0.212061
6187.000000;-0.212563
6186.000000;-0.213050
6185.000000;-0.213539
6184.000000;-0.214033
6183.000000;-0.214524
6182.000000;-0.215004
6181.000000;-0.215478
6180.000000;-0.215956
6179.000000;-0.216446
6178.000000;-0.216951
6177.000000;-0.217459
6176.000000;-0.217955
6175.000000;-0.218443
6174.000000;-0.218932
6173.000000;-0.219420
6172.000000;-0.219895
6171.000000;-0.220357
6170.000000;-0.220819
6169.000000;-0.221288
6168.000000;-0.221758
6167.000000;-0.222236
6166.000000;-0.222739
6165.000000;-0.223266
6164.000000;-0.223793
6163.000000;-0.224294
6162.000000;-0.224754
6161.000000;-0.225169
6160.000000;-0.225545
6159.000000;-0.225916
6158.000000;-0.226330
6157.000000;-0.226799
6156.000000;-0.227292
6155.000000;-0.227774
6154.000000;-0.228237
6153.000000;-0.228685
6152.000000;-0.229116
6151.000000;-0.229534
6150.000000;-0.229960
6149.000000;-0.230414
6148.000000;-0.230896
6147.000000;-0.231387
6146.000000;-0.231867
6145.000000;-0.232321
6144.000000;-0.232756
6143.000000;-0.233197
6142.000000;-0.233655
6141.000000;-0.234101
6140.000000;-0.234501
6139.000000;-0.234872
6138.000000;-0.235261
6137.000000;-0.235682
6136.000000;-0.236102
6135.000000;-0.236494
6134.000000;-0.236876
6133.000000;-0.237272
6132.000000;-0.237681
6131.000000;-0.238095
6130.000000;-0.238525
6129.000000;-0.238973
6128.000000;-0.239416
6127.000000;-0.239828
6126.000000;-0.240213
6125.000000;-0.240592
6124.000000;-0.240976
6123.000000;-0.241368
6122.000000;-0.241771
6121.000000;-0.242181
6120.000000;-0.242587
6119.000000;-0.242988
6118.000000;-0.243404
6117.000000;-0.243842
6116.000000;-0.244283
6115.000000;-0.244704
6114.000000;-0.245111
6113.000000;-0.245519
6112.000000;-0.245927
6111.000000;-0.246316
6110.000000;-0.246675
6109.000000;-0.247007
6108.000000;-0.247320
6107.000000;-0.247632
6106.000000;-0.247960
6105.000000;-0.248308
6104.000000;-0.248661
6103.000000;-0.249005
6102.000000;-0.249347
6101.000000;-0.249710
6100.000000;-0.250113
6099.000000;-0.250559
6098.000000;-0.251032
6097.000000;-0.251502
6096.000000;-0.251941
6095.000000;-0.252338
6094.000000;-0.252697
6093.000000;-0.253027
6092.000000;-0.253344
6091.000000;-0.253676
6090.000000;-0.254041
6089.000000;-0.254417
6088.000000;-0.254758
6087.000000;-0.255055
6086.000000;-0.255347
6085.000000;-0.255677
6084.000000;-0.256044
6083.000000;-0.256427
6082.000000;-0.256813
6081.000000;-0.257196
6080.000000;-0.257572
6079.000000;-0.257941
6078.000000;-0.258304
6077.000000;-0.258652
6076.000000;-0.258973
6075.000000;-0.259274
6074.000000;-0.259582
6073.000000;-0.259916
6072.000000;-0.260271
6071.000000;-0.260637
6070.000000;-0.261010
6069.000000;-0.261386
6068.000000;-0.261753
6067.000000;-0.262105
6066.000000;-0.262447
6065.000000;-0.262783
6064.000000;-0.263110
6063.000000;-0.263427
6062.000000;-0.263741
6061.000000;-0.264053
6060.000000;-0.264348
6059.000000;-0.264625
6058.000000;-0.264897
6057.000000;-0.265176
6056.000000;-0.265469
6055.000000;-0.265785
6054.000000;-0.266135
6053.000000;-0.266501
6052.000000;-0.266837
6051.000000;-0.267119
6050.000000;-0.267370
6049.000000;-0.267631
6048.000000;-0.267912
6047.000000;-0.268198
6046.000000;-0.268480
6045.000000;-0.268761
6044.000000;-0.269046
6043.000000;-0.269349
6042.000000;-0.269679
6041.000000;-0.270029
6040.000000;-0.270370
6039.000000;-0.270677
6038.000000;-0.270948
6037.000000;-0.271200
6036.000000;-0.271447
6035.000000;-0.271700
6034.000000;-0.271974
6033.000000;-0.272274
6032.000000;-0.272588
6031.000000;-0.272897
6030.000000;-0.273181
6029.000000;-0.273433
6028.000000;-0.273660
6027.000000;-0.273886
6026.000000;-0.274137
6025.000000;-0.274411
6024.000000;-0.274688
6023.000000;-0.274946
6022.000000;-0.275186
6021.000000;-0.275414
6020.000000;-0.275638
6019.000000;-0.275870
6018.000000;-0.276115
6017.000000;-0.276361
6016.000000;-0.276587
6015.000000;-0.276793
6014.000000;-0.277006
6013.000000;-0.277249
6012.000000;-0.277518
6011.000000;-0.277803
6010.000000;-0.278099
6009.000000;-0.278396
6008.000000;-0.278669
6007.000000;-0.278906
6006.000000;-0.279116
6005.000000;-0.279318
6004.000000;-0.279525
6003.000000;-0.279746
6002.000000;-0.279990
6001.000000;-0.280252
6000.000000;-0.280520
5999.000000;-0.280784
5998.000000;-0.281035
5997.000000;-0.281259
5996.000000;-0.281445
5995.000000;-0.281607
5994.000000;-0.281783
5993.000000;-0.281996
5992.000000;-0.282235
5991.000000;-0.282470
5990.000000;-0.282679
5989.000000;-0.282855
5988.000000;-0.283006
5987.000000;-0.283153
5986.000000;-0.283316
5985.000000;-0.283495
5984.000000;-0.283676
5983.000000;-0.283864
5982.000000;-0.284077
5981.000000;-0.284317
5980.000000;-0.284555
5979.000000;-0.284769
5978.000000;-0.284962
5977.000000;-0.285143
5976.000000;-0.285317
5975.000000;-0.285493
5974.000000;-0.285687
5973.000000;-0.285893
5972.000000;-0.286086
5971.000000;-0.286247
5970.000000;-0.286382
5969.000000;-0.286506
5968.000000;-0.286627
5967.000000;-0.286756
5966.000000;-0.286908
5965.000000;-0.287080
5964.000000;-0.287248
5963.000000;-0.287402
5962.000000;-0.287565
5961.000000;-0.287758
5960.000000;-0.287968
5959.000000;-0.288163
5958.000000;-0.288331
5957.000000;-0.288477
5956.000000;-0.288619
5955.000000;-0.288770
5954.000000;-0.288935
5953.000000;-0.289094
5952.000000;-0.289216
5951.000000;-0.289302
5950.000000;-0.289389
5949.000000;-0.289511
5948.000000;-0.289661
5947.000000;-0.289809
5946.000000;-0.289936
5945.000000;-0.290046
5944.000000;-0.290151
5943.000000;-0.290261
5942.000000;-0.290379
5941.000000;-0.290498
5940.000000;-0.290613
5939.000000;-0.290722
5938.000000;-0.290825
5937.000000;-0.290915
5936.000000;-0.290988
5935.000000;-0.291061
5934.000000;-0.291161
5933.000000;-0.291283
5932.000000;-0.291396
5931.000000;-0.291484
5930.000000;-0.291567
5929.000000;-0.291659
5928.000000;-0.291747
5927.000000;-0.291811
5926.000000;-0.291860
5925.000000;-0.291920
5924.000000;-0.292006
5923.000000;-0.292109
5922.000000;-0.292211
5921.000000;-0.292300
5920.000000;-0.292374
5919.000000;-0.292449
5918.000000;-0.292539
5917.000000;-0.292639
5916.000000;-0.292736
5915.000000;-0.292832
5914.000000;-0.292935
5913.000000;-0.293031
5912.000000;-0.293104
5911.000000;-0.293162
5910.000000;-0.293238
5909.000000;-0.293339
5908.000000;-0.293432
5907.000000;-0.293488
5906.000000;-0.293517
5905.000000;-0.293542
5904.000000;-0.293570
5903.000000;-0.293601
5902.000000;-0.293649
5901.000000;-0.293725
5900.000000;-0.293817
5899.000000;-0.293908
5898.000000;-0.293987
5897.000000;-0.294046
5896.000000;-0.294073
5895.000000;-0.294073
5894.000000;-0.294069
5893.000000;-0.294084
5892.000000;-0.294120
5891.000000;-0.294165
5890.000000;-0.294207
5889.000000;-0.294238
5888.000000;-0.294265
5887.000000;-0.294306
5886.000000;-0.294376
5885.000000;-0.294446
5884.000000;-0.294472
5883.000000;-0.294449
5882.000000;-0.294423
5881.000000;-0.294434
5880.000000;-0.294471
5879.000000;-0.294499
5878.000000;-0.294507
5877.000000;-0.294504
5876.000000;-0.294493
5875.000000;-0.294474
5874.000000;-0.294458
5873.000000;-0.294460
5872.000000;-0.294467
5871.000000;-0.294454
5870.000000;-0.294412
5869.000000;-0.294357
5868.000000;-0.294313
5867.000000;-0.294294
5866.000000;-0.294292
5865.000000;-0.294293
5864.000000;-0.294289
5863.000000;-0.294278
5862.000000;-0.294261
5861.000000;-0.294229
5860.000000;-0.294175
5859.000000;-0.294110
5858.000000;-0.294049
5857.000000;-0.293985
5856.000000;-0.293908
5855.000000;-0.293827
5854.000000;-0.293757
5853.000000;-0.293685
5852.000000;-0.293580
5851.000000;-0.293448
5850.000000;-0.293333
5849.000000;-0.293266
5848.000000;-0.293230
5847.000000;-0.293189
5846.000000;-0.293126
5845.000000;-0.293041
5844.000000;-0.292938
5843.000000;-0.292836
5842.000000;-0.292754
5841.000000;-0.292681
5840.000000;-0.292589
5839.000000;-0.292472
5838.000000;-0.292354
5837.000000;-0.292239
5836.000000;-0.292095
5835.000000;-0.291897
5834.000000;-0.291676
5833.000000;-0.291489
5832.000000;-0.291357
5831.000000;-0.291266
5830.000000;-0.291192
5829.000000;-0.291114
5828.000000;-0.291007
5827.000000;-0.290856
5826.000000;-0.290666
5825.000000;-0.290454
5824.000000;-0.290236
5823.000000;-0.290038
5822.000000;-0.289882
5821.000000;-0.289763
5820.000000;-0.289649
5819.000000;-0.289508
5818.000000;-0.289343
5817.000000;-0.289167
5816.000000;-0.288986
5815.000000;-0.288799
5814.000000;-0.288608
5813.000000;-0.288409
5812.000000;-0.288195
5811.000000;-0.287973
5810.000000;-0.287764
5809.000000;-0.287574
5808.000000;-0.287393
5807.000000;-0.287208
5806.000000;-0.287011
5805.000000;-0.286785
5804.000000;-0.286513
5803.000000;-0.286218
5802.000000;-0.285945
5801.000000;-0.285711
5800.000000;-0.285488
5799.000000;-0.285255
5798.000000;-0.285015
5797.000000;-0.284769
5796.000000;-0.284501
5795.000000;-0.284213
5794.000000;-0.283950
5793.000000;-0.283740
5792.000000;-0.283553
5791.000000;-0.283331
5790.000000;-0.283059
5789.000000;-0.282759
5788.000000;-0.282456
5787.000000;-0.282158
5786.000000;-0.281863
5785.000000;-0.281560
5784.000000;-0.281233
5783.000000;-0.280890
5782.000000;-0.280568
5781.000000;-0.280284
5780.000000;-0.280016
5779.000000;-0.279730
5778.000000;-0.279418
5777.000000;-0.279089
5776.000000;-0.278743
5775.000000;-0.278379
5774.000000;-0.278014
5773.000000;-0.277658
5772.000000;-0.277305
5771.000000;-0.276941
5770.000000;-0.276564
5769.000000;-0.276180
5768.000000;-0.275792
5767.000000;-0.275414
5766.000000;-0.275070
5765.000000;-0.274757
5764.000000;-0.274437
5763.000000;-0.274080
5762.000000;-0.273695
5761.000000;-0.273303
5760.000000;-0.272898
5759.000000;-0.272466
5758.000000;-0.272019
5757.000000;-0.271585
5756.000000;-0.271172
5755.000000;-0.270768
5754.000000;-0.270348
5753.000000;-0.269898
5752.000000;-0.269418
5751.000000;-0.268939
5750.000000;-0.268499
5749.000000;-0.268097
5748.000000;-0.267693
5747.000000;-0.267247
5746.000000;-0.266765
5745.000000;-0.266266
5744.000000;-0.265752
5743.000000;-0.265223
5742.000000;-0.264693
5741.000000;-0.264175
5740.000000;-0.263668
5739.000000;-0.263174
5738.000000;-0.262704
5737.000000;-0.262259
5736.000000;-0.261814
5735.000000;-0.261352
5734.000000;-0.260878
5733.000000;-0.260387
5732.000000;-0.259849
5731.000000;-0.259256
5730.000000;-0.258648
5729.000000;-0.258073
5728.000000;-0.257533
5727.000000;-0.257000
5726.000000;-0.256464
5725.000000;-0.255930
5724.000000;-0.255398
5723.000000;-0.254859
5722.000000;-0.254306
5721.000000;-0.253734
5720.000000;-0.253144
5719.000000;-0.252555
5718.000000;-0.251989
5717.000000;-0.251432
5716.000000;-0.250836
5715.000000;-0.250180
5714.000000;-0.249507
5713.000000;-0.248863
5712.000000;-0.248238
5711.000000;-0.247595
5710.000000;-0.246935
5709.000000;-0.246292
5708.000000;-0.245686
5707.000000;-0.245106
5706.000000;-0.244532
5705.000000;-0.243940
5704.000000;-0.243304
5703.000000;-0.242618
5702.000000;-0.241911
5701.000000;-0.241222
5700.000000;-0.240567
5699.000000;-0.239946
5698.000000;-0.239351
5697.000000;-0.238754
5696.000000;-0.238104
5695.000000;-0.237380
5694.000000;-0.236613
5693.000000;-0.235857
5692.000000;-0.235142
5691.000000;-0.234480
5690.000000;-0.233869
5689.000000;-0.233287
5688.000000;-0.232679
5687.000000;-0.232008
5686.000000;-0.231294
5685.000000;-0.230585
5684.000000;-0.229909
5683.000000;-0.229264
5682.000000;-0.228634
5681.000000;-0.227990
5680.000000;-0.227299
5679.000000;-0.226565
5678.000000;-0.225841
5677.000000;-0.225171
5676.000000;-0.224545
5675.000000;-0.223918
5674.000000;-0.223260
5673.000000;-0.222571
5672.000000;-0.221861
5671.000000;-0.221153
5670.000000;-0.220470
5669.000000;-0.219809
5668.000000;-0.219134
5667.000000;-0.218432
5666.000000;-0.217732
5665.000000;-0.217064
5664.000000;-0.216422
5663.000000;-0.215785
5662.000000;-0.215157
5661.000000;-0.214542
5660.000000;-0.213922
5659.000000;-0.213282
5658.000000;-0.212645
5657.000000;-0.212037
5656.000000;-0.211444
5655.000000;-0.210832
5654.000000;-0.210196
5653.000000;-0.209547
5652.000000;-0.208887
5651.000000;-0.208220
5650.000000;-0.207577
5649.000000;-0.206983
5648.000000;-0.206414
5647.000000;-0.205817
5646.000000;-0.205177
5645.000000;-0.204519
5644.000000;-0.203881
5643.000000;-0.203291
5642.000000;-0.202770
5641.000000;-0.202299
5640.000000;-0.201827
5639.000000;-0.201317
5638.000000;-0.200784
5637.000000;-0.200258
5636.000000;-0.199733
5635.000000;-0.199185
5634.000000;-0.198618
5633.000000;-0.198064
5632.000000;-0.197545
5631.000000;-0.197071
5630.000000;-0.196646
5629.000000;-0.196254
5628.000000;-0.195848
5627.000000;-0.195397
5626.000000;-0.194910
5625.000000;-0.194407
5624.000000;-0.193891
5623.000000;-0.193382
5622.000000;-0.192927
5621.000000;-0.192546
5620.000000;-0.192201
5619.000000;-0.191837
5618.000000;-0.191447
5617.000000;-0.191053
5616.000000;-0.190661
5615.000000;-0.190273
5614.000000;-0.189916
5613.000000;-0.189610
5612.000000;-0.189332
5611.000000;-0.189044
5610.000000;-0.188741
5609.000000;-0.188441
5608.000000;-0.188133
5607.000000;-0.187799
5606.000000;-0.187453
5605.000000;-0.187137
5604.000000;-0.186861
5603.000000;-0.186613
5602.000000;-0.186398
5601.000000;-0.186220
5600.000000;-0.186049
5599.000000;-0.185846
5598.000000;-0.185605
5597.000000;-0.185351
5596.000000;-0.185095
5595.000000;-0.184843
5594.000000;-0.184624
5593.000000;-0.184464
5592.000000;-0.184343
5591.000000;-0.184214
5590.000000;-0.184064
5589.000000;-0.183911
5588.000000;-0.183757
5587.000000;-0.183605
5586.000000;-0.183481
5585.000000;-0.183411
5584.000000;-0.183364
5583.000000;-0.183292
5582.000000;-0.183190
5581.000000;-0.183088
5580.000000;-0.182997
5579.000000;-0.182897
5578.000000;-0.182793
5577.000000;-0.182708
5576.000000;-0.182638
5575.000000;-0.182568
5574.000000;-0.182511
5573.000000;-0.182488
5572.000000;-0.182484
5571.000000;-0.182474
5570.000000;-0.182470
5569.000000;-0.182501
5568.000000;-0.182551
5567.000000;-0.182577
5566.000000;-0.182570
5565.000000;-0.182556
5564.000000;-0.182545
5563.000000;-0.182532
5562.000000;-0.182537
5561.000000;-0.182587
5560.000000;-0.182656
5559.000000;-0.182696
5558.000000;-0.182718
5557.000000;-0.182758
5556.000000;-0.182807
5555.000000;-0.182819
5554.000000;-0.182795
5553.000000;-0.182785
5552.000000;-0.182800
5551.000000;-0.182820
5550.000000;-0.182856
5549.000000;-0.182933
5548.000000;-0.183032
5547.000000;-0.183114
5546.000000;-0.183189
5545.000000;-0.183299
5544.000000;-0.183430
5543.000000;-0.183536
5542.000000;-0.183623
5541.000000;-0.183722
5540.000000;-0.183802
5539.000000;-0.183813
5538.000000;-0.183778
5537.000000;-0.183776
5536.000000;-0.183838
5535.000000;-0.183939
5534.000000;-0.184062
5533.000000;-0.184203
5532.000000;-0.184325
5531.000000;-0.184390
5530.000000;-0.184426
5529.000000;-0.184491
5528.000000;-0.184586
5527.000000;-0.184659
5526.000000;-0.184686
5525.000000;-0.184700
5524.000000;-0.184723
5523.000000;-0.184748
5522.000000;-0.184794
5521.000000;-0.184883
5520.000000;-0.184993
5519.000000;-0.185085
5518.000000;-0.185148
5517.000000;-0.185208
5516.000000;-0.185262
5515.000000;-0.185293
5514.000000;-0.185325
5513.000000;-0.185379
5512.000000;-0.185406
5511.000000;-0.185357
5510.000000;-0.185277
5509.000000;-0.185237
5508.000000;-0.185232
5507.000000;-0.185211
5506.000000;-0.185192
5505.000000;-0.185237
5504.000000;-0.185308
5503.000000;-0.185314
5502.000000;-0.185256
5501.000000;-0.185188
5500.000000;-0.185135
5499.000000;-0.185086
5498.000000;-0.184984
5497.000000;-0.184789
5496.000000;-0.184529
5495.000000;-0.184309
5494.000000;-0.184206
5493.000000;-0.184146
5492.000000;-0.184020
5491.000000;-0.183838
5490.000000;-0.183718
5489.000000;-0.183721
5488.000000;-0.183781
5487.000000;-0.183823
5486.000000;-0.183841
5485.000000;-0.183844
5484.000000;-0.183755
5483.000000;-0.183504
5482.000000;-0.183217
5481.000000;-0.183017
5480.000000;-0.182765
5479.000000;-0.182310
5478.000000;-0.181756
5477.000000;-0.181336
5476.000000;-0.181057
5475.000000;-0.180784
5474.000000;-0.180561
5473.000000;-0.180470
5472.000000;-0.180393
5471.000000;-0.180182
5470.000000;-0.179896
5469.000000;-0.179614
5468.000000;-0.179276
5467.000000;-0.178861
5466.000000;-0.178454
5465.000000;-0.178057
5464.000000;-0.177516
5463.000000;-0.176807
5462.000000;-0.176208
5461.000000;-0.175884
5460.000000;-0.175588
5459.000000;-0.175125
5458.000000;-0.174660
5457.000000;-0.174331
5456.000000;-0.173974
5455.000000;-0.173431
5454.000000;-0.172755
5453.000000;-0.172022
5452.000000;-0.171224
5451.000000;-0.170396
5450.000000;-0.169624
5449.000000;-0.168815
5448.000000;-0.167874
5447.000000;-0.166996
5446.000000;-0.166331
5445.000000;-0.165688
5444.000000;-0.164854
5443.000000;-0.163943
5442.000000;-0.163193
5441.000000;-0.162571
5440.000000;-0.161800
5439.000000;-0.160780
5438.000000;-0.159684
5437.000000;-0.158638
5436.000000;-0.157597
5435.000000;-0.156551
5434.000000;-0.155511
5433.000000;-0.154344
5432.000000;-0.152994
5431.000000;-0.151687
5430.000000;-0.150552
5429.000000;-0.149385
5428.000000;-0.148089
5427.000000;-0.146861
5426.000000;-0.145813
5425.000000;-0.144784
5424.000000;-0.143570
5423.000000;-0.142114
5422.000000;-0.140446
5421.000000;-0.138646
5420.000000;-0.136798
5419.000000;-0.134854
5418.000000;-0.132731
5417.000000;-0.130487
5416.000000;-0.128326
5415.000000;-0.126348
5414.000000;-0.124403
5413.000000;-0.122374
5412.000000;-0.120353
5411.000000;-0.118459
5410.000000;-0.116637
5409.000000;-0.114693
5408.000000;-0.112517
5407.000000;-0.110176
5406.000000;-0.107805
5405.000000;-0.105380
5404.000000;-0.102750
5403.000000;-0.099924
5402.000000;-0.096934
5401.000000;-0.093784
5400.000000;-0.090624
5399.000000;-0.087503
5398.000000;-0.084301
5397.000000;-0.080951
5396.000000;-0.077517
5395.000000;-0.074069
5394.000000;-0.070529
5393.000000;-0.066879
5392.000000;-0.063213
5391.000000;-0.059470
5390.000000;-0.055499
5389.000000;-0.051315
5388.000000;-0.047080
5387.000000;-0.042824
5386.000000;-0.038407
5385.000000;-0.033695
5384.000000;-0.028795
5383.000000;-0.023925
5382.000000;-0.018972
5381.000000;-0.013697
5380.000000;-0.008202
5379.000000;-0.002741
5378.000000;0.002735
5377.000000;0.008483
5376.000000;0.014517
5375.000000;0.020646
5374.000000;0.026868
5373.000000;0.033266
5372.000000;0.039785
5371.000000;0.046426
5370.000000;0.053357
5369.000000;0.060689
5368.000000;0.068340
5367.000000;0.076211
5366.000000;0.084331
5365.000000;0.092770
5364.000000;0.101440
5363.000000;0.110222
5362.000000;0.119265
5361.000000;0.128701
5360.000000;0.138393
5359.000000;0.148256
5358.000000;0.158488
5357.000000;0.169204
5356.000000;0.180147
5355.000000;0.191148
5354.000000;0.202539
5353.000000;0.214670
5352.000000;0.227240
5351.000000;0.239680
5350.000000;0.252070
5349.000000;0.265004
5348.000000;0.278676
5347.000000;0.292785
5346.000000;0.307239
5345.000000;0.322291
5344.000000;0.337951
5343.000000;0.353858
5342.000000;0.369873
5341.000000;0.386093
5340.000000;0.402585
5339.000000;0.419600
5338.000000;0.437506
5337.000000;0.456328
5336.000000;0.475626
5335.000000;0.494981
5334.000000;0.514438
5333.000000;0.534447
5332.000000;0.555300
5331.000000;0.576886
5330.000000;0.599127
5329.000000;0.622042
5328.000000;0.645435
5327.000000;0.669149
5326.000000;0.693468
5325.000000;0.718710
5324.000000;0.744655
5323.000000;0.770832
5322.000000;0.797287
5321.000000;0.824475
5320.000000;0.852414
5319.000000;0.880691
5318.000000;0.909305
5317.000000;0.938691
5316.000000;0.968859
5315.000000;0.999356
5314.000000;1.030052
5313.000000;1.061163
5312.000000;1.092420
5311.000000;1.123221
5310.000000;1.153869
5309.000000;1.185416
5308.000000;1.217956
5307.000000;1.250351
5306.000000;1.282070
5305.000000;1.313753
5304.000000;1.345466
5303.000000;1.376259
5302.000000;1.405909
5301.000000;1.434923
5300.000000;1.462480
5299.000000;1.487021
5298.000000;1.509363
5297.000000;1.532169
5296.000000;1.556016
5295.000000;1.578953
5294.000000;1.600062
5293.000000;1.620382
5292.000000;1.639897
5291.000000;1.657183
5290.000000;1.672576
5289.000000;1.687888
5288.000000;1.702448
5287.000000;1.713491
5286.000000;1.720992
5285.000000;1.728116
5284.000000;1.736565
5283.000000;1.745411
5282.000000;1.754208
5281.000000;1.763088
5280.000000;1.770025
5279.000000;1.772564
5278.000000;1.772385
5277.000000;1.773426
5276.000000;1.775978
5275.000000;1.777294
5274.000000;1.777228
5273.000000;1.778527
5272.000000;1.781832
5271.000000;1.784699
5270.000000;1.785716
5269.000000;1.785706
5268.000000;1.784796
5267.000000;1.782510
5266.000000;1.780667
5265.000000;1.782174
5264.000000;1.786799
5263.000000;1.791301
5262.000000;1.793686
5261.000000;1.794122
5260.000000;1.792422
5259.000000;1.788675
5258.000000;1.785453
5257.000000;1.785575
5256.000000;1.788459
5255.000000;1.791483
5254.000000;1.793981
5253.000000;1.796553
5252.000000;1.797739
5251.000000;1.795699
5250.000000;1.792415
5249.000000;1.791892
5248.000000;1.794568
5247.000000;1.797664
5246.000000;1.800424
5245.000000;1.804106
5244.000000;1.807242
5243.000000;1.806341
5242.000000;1.801589
5241.000000;1.796756
5240.000000;1.793552
5239.000000;1.790944
5238.000000;1.789446
5237.000000;1.791383
5236.000000;1.796423
5235.000000;1.800600
5234.000000;1.800948
5233.000000;1.798016
5232.000000;1.793182
5231.000000;1.787462
5230.000000;1.783175
5229.000000;1.782424
5228.000000;1.783550
5227.000000;1.782983
5226.000000;1.781070
5225.000000;1.782062
5224.000000;1.787588
5223.000000;1.794192
5222.000000;1.798227
5221.000000;1.799364
5220.000000;1.798273
5219.000000;1.795060
5218.000000;1.791222
5217.000000;1.789467
5216.000000;1.790150
5215.000000;1.790789
5214.000000;1.790431
5213.000000;1.791431
5212.000000;1.795518
5211.000000;1.801098
5210.000000;1.805479
5209.000000;1.807312
5208.000000;1.806112
5207.000000;1.801995
5206.000000;1.796610
5205.000000;1.791868
5204.000000;1.787834
5203.000000;1.784338
5202.000000;1.783607
5201.000000;1.788026
5200.000000;1.795549
5199.000000;1.800609
5198.000000;1.800621
5197.000000;1.798365
5196.000000;1.796811
5195.000000;1.795694
5194.000000;1.794357
5193.000000;1.793853
5192.000000;1.794633
5191.000000;1.795273
5190.000000;1.794997
5189.000000;1.795032
5188.000000;1.796033
5187.000000;1.796281
5186.000000;1.793817
5185.000000;1.788967
5184.000000;1.783798
5183.000000;1.780368
5182.000000;1.779954
5181.000000;1.782521
5180.000000;1.786428
5179.000000;1.789841
5178.000000;1.792425
5177.000000;1.794357
5176.000000;1.794464
5175.000000;1.791638
5174.000000;1.787518
5173.000000;1.785295
5172.000000;1.786082
5171.000000;1.788435
5170.000000;1.790911
5169.000000;1.792915
5168.000000;1.793770
5167.000000;1.793597
5166.000000;1.794267
5165.000000;1.796990
5164.000000;1.799643
5163.000000;1.799026
5162.000000;1.795352
5161.000000;1.791390
5160.000000;1.788059
5159.000000;1.784691
5158.000000;1.782577
5157.000000;1.783999
5156.000000;1.787898
5155.000000;1.790143
5154.000000;1.788709
5153.000000;1.785381
5152.000000;1.781821
5151.000000;1.777691
5150.000000;1.773344
5149.000000;1.770831
5148.000000;1.771098
5147.000000;1.772795
5146.000000;1.774629
5145.000000;1.776638
5144.000000;1.778643
5143.000000;1.780164
5142.000000;1.782431
5141.000000;1.787561
5140.000000;1.794684
5139.000000;1.799199
5138.000000;1.797526
5137.000000;1.790949
5136.000000;1.783664
5135.000000;1.779426
5134.000000;1.780502
5133.000000;1.786831
5132.000000;1.795049
5131.000000;1.800751
5130.000000;1.802879
5129.000000;1.803721
5128.000000;1.804580
5127.000000;1.804501
5126.000000;1.803221
5125.000000;1.801926
5124.000000;1.800450
5123.000000;1.796939
5122.000000;1.791405
5121.000000;1.786768
5120.000000;1.785141
5119.000000;1.785892
5118.000000;1.788132
5117.000000;1.791925
5116.000000;1.795910
5115.000000;1.796925
5114.000000;1.793894
5113.000000;1.789719
5112.000000;1.787788
5111.000000;1.788597
5110.000000;1.790658
5109.000000;1.792709
5108.000000;1.794061
5107.000000;1.794367
5106.000000;1.793872
5105.000000;1.792672
5104.000000;1.789865
5103.000000;1.785387
5102.000000;1.781957
5101.000000;1.782366
5100.000000;1.785314
5099.000000;1.786819
5098.000000;1.785871
5097.000000;1.785401
5096.000000;1.787046
5095.000000;1.788513
5094.000000;1.787646
5093.000000;1.786038
5092.000000;1.786446
5091.000000;1.788927
5090.000000;1.791171
5089.000000;1.791213
5088.000000;1.788531
5087.000000;1.784044
5086.000000;1.780086
5085.000000;1.778918
5084.000000;1.780650
5083.000000;1.783577
5082.000000;1.786441
5081.000000;1.788924
5080.000000;1.790213
5079.000000;1.789252
5078.000000;1.786503
5077.000000;1.783326
5076.000000;1.779828
5075.000000;1.775601
5074.000000;1.772187
5073.000000;1.771835
5072.000000;1.773778
5071.000000;1.774704
5070.000000;1.773396
5069.000000;1.771960
5068.000000;1.771903
5067.000000;1.772102
5066.000000;1.771502
5065.000000;1.770905
5064.000000;1.770872
5063.000000;1.770333
5062.000000;1.768552
5061.000000;1.766451
5060.000000;1.764915
5059.000000;1.763842
5058.000000;1.763534
5057.000000;1.764773
5056.000000;1.766858
5055.000000;1.767579
5054.000000;1.765958
5053.000000;1.763353
5052.000000;1.761328
5051.000000;1.760202
5050.000000;1.759978
5049.000000;1.760846
5048.000000;1.762177
5047.000000;1.762678
5046.000000;1.762003
5045.000000;1.760741
5044.000000;1.758891
5043.000000;1.756184
5042.000000;1.753890
5041.000000;1.753739
5040.000000;1.754911
5039.000000;1.754720
5038.000000;1.752404
5037.000000;1.749616
5036.000000;1.747206
5035.000000;1.744440
5034.000000;1.741494
5033.000000;1.739711
5032.000000;1.738960
5031.000000;1.737467
5030.000000;1.734819
5029.000000;1.732398
5028.000000;1.730419
5027.000000;1.727611
5026.000000;1.724231
5025.000000;1.722185
5024.000000;1.721697
5023.000000;1.720879
5022.000000;1.719173
5021.000000;1.718178
5020.000000;1.718269
5019.000000;1.717631
5018.000000;1.715805
5017.000000;1.714877
5016.000000;1.715541
5015.000000;1.714827
5014.000000;1.709763
5013.000000;1.701407
5012.000000;1.693347
5011.000000;1.688050
5010.000000;1.685884
5009.000000;1.685640
5008.000000;1.684940
5007.000000;1.681855
5006.000000;1.677058
5005.000000;1.672648
5004.000000;1.668878
5003.000000;1.664213
5002.000000;1.658565
5001.000000;1.653821
5000.000000;1.650623
4999.000000;1.647412
4998.000000;1.643406
4997.000000;1.639807
4996.000000;1.637141
4995.000000;1.634336
4994.000000;1.631432
4993.000000;1.630279
4992.000000;1.631165
4991.000000;1.631272
4990.000000;1.628258
4989.000000;1.623249
4988.000000;1.618460
4987.000000;1.614056
4986.000000;1.609090
4985.000000;1.603579
4984.000000;1.597979
4983.000000;1.592199
4982.000000;1.586501
4981.000000;1.581706
4980.000000;1.577369
4979.000000;1.571686
4978.000000;1.564408
4977.000000;1.557912
4976.000000;1.554020
4975.000000;1.551526
4974.000000;1.548291
4973.000000;1.544263
4972.000000;1.540642
4971.000000;1.537467
4970.000000;1.533972
4969.000000;1.530190
4968.000000;1.526370
4967.000000;1.521602
4966.000000;1.514821
4965.000000;1.506672
4964.000000;1.498932
4963.000000;1.492588
4962.000000;1.487607
4961.000000;1.483912
4960.000000;1.481467
4959.000000;1.479666
4958.000000;1.477467
4957.000000;1.473985
4956.000000;1.468659
4955.000000;1.461540
4954.000000;1.453891
4953.000000;1.447732
4952.000000;1.444181
4951.000000;1.442579
4950.000000;1.441348
4949.000000;1.439026
4948.000000;1.434496
4947.000000;1.427464
4946.000000;1.419220
4945.000000;1.411737
4944.000000;1.405487
4943.000000;1.399188
4942.000000;1.392131
4941.000000;1.385501
4940.000000;1.380586
4939.000000;1.376815
4938.000000;1.372587
4937.000000;1.367353
4936.000000;1.361897
4935.000000;1.357008
4934.000000;1.352735
4933.000000;1.348585
4932.000000;1.343822
4931.000000;1.337952
4930.000000;1.331352
4929.000000;1.325002
4928.000000;1.319331
4927.000000;1.313884
4926.000000;1.308315
4925.000000;1.303003
4924.000000;1.298246
4923.000000;1.293581
4922.000000;1.288411
4921.000000;1.282700
4920.000000;1.276704
4919.000000;1.270617
4918.000000;1.264842
4917.000000;1.259993
4916.000000;1.256154
4915.000000;1.252610
4914.000000;1.248649
4913.000000;1.244136
4912.000000;1.239073
4911.000000;1.233290
4910.000000;1.226941
4909.000000;1.220675
4908.000000;1.214848
4907.000000;1.209081
4906.000000;1.202971
4905.000000;1.196747
4904.000000;1.190907
4903.000000;1.185689
4902.000000;1.181211
4901.000000;1.177544
4900.000000;1.174256
4899.000000;1.170402
4898.000000;1.165468
4897.000000;1.159933
4896.000000;1.154509
4895.000000;1.149267
4894.000000;1.143846
4893.000000;1.138080
4892.000000;1.132060
4891.000000;1.125911
4890.000000;1.119856
4889.000000;1.114202
4888.000000;1.109040
4887.000000;1.104226
4886.000000;1.099697
4885.000000;1.095422
4884.000000;1.091003
4883.000000;1.085936
4882.000000;1.080429
4881.000000;1.075357
4880.000000;1.071114
4879.000000;1.067060
4878.000000;1.062387
4877.000000;1.057056
4876.000000;1.051512
4875.000000;1.046008
4874.000000;1.040634
4873.000000;1.035582
4872.000000;1.030915
4871.000000;1.026338
4870.000000;1.021551
4869.000000;1.016655
4868.000000;1.011953
4867.000000;1.007598
4866.000000;1.003577
4865.000000;0.999772
4864.000000;0.995861
4863.000000;0.991483
4862.000000;0.986681
4861.000000;0.981888
4860.000000;0.977344
4859.000000;0.972865
4858.000000;0.968282
4857.000000;0.963709
4856.000000;0.959199
4855.000000;0.954561
4854.000000;0.949729
4853.000000;0.944943
4852.000000;0.940373
4851.000000;0.935912
4850.000000;0.931504
4849.000000;0.927262
4848.000000;0.923115
4847.000000;0.918752
4846.000000;0.914143
4845.000000;0.909646
4844.000000;0.905374
4843.000000;0.900915
4842.000000;0.896012
4841.000000;0.891074
4840.000000;0.886626
4839.000000;0.882641
4838.000000;0.878767
4837.000000;0.874897
4836.000000;0.871061
4835.000000;0.867059
4834.000000;0.862621
4833.000000;0.857819
4832.000000;0.852971
4831.000000;0.848290
4830.000000;0.843881
4829.000000;0.839892
4828.000000;0.836371
4827.000000;0.833077
4826.000000;0.829694
4825.000000;0.826109
4824.000000;0.822312
4823.000000;0.818227
4822.000000;0.813871
4821.000000;0.809503
4820.000000;0.805358
4819.000000;0.801367
4818.000000;0.797358
4817.000000;0.793379
4816.000000;0.789579
4815.000000;0.785919
4814.000000;0.782209
4813.000000;0.778365
4812.000000;0.774442
4811.000000;0.770510
4810.000000;0.766632
4809.000000;0.762858
4808.000000;0.759124
4807.000000;0.755285
4806.000000;0.751332
4805.000000;0.747429
4804.000000;0.743647
4803.000000;0.739840
4802.000000;0.735940
4801.000000;0.732139
4800.000000;0.728618
4799.000000;0.725285
4798.000000;0.721948
4797.000000;0.718611
4796.000000;0.715385
4795.000000;0.712234
4794.000000;0.708993
4793.000000;0.705555
4792.000000;0.701932
4791.000000;0.698228
4790.000000;0.694626
4789.000000;0.691263
4788.000000;0.688035
4787.000000;0.684691
4786.000000;0.681177
4785.000000;0.677698
4784.000000;0.674331
4783.000000;0.670866
4782.000000;0.667158
4781.000000;0.663391
4780.000000;0.659780
4779.000000;0.656243
4778.000000;0.652620
4777.000000;0.649032
4776.000000;0.645746
4775.000000;0.642784
4774.000000;0.639941
4773.000000;0.637088
4772.000000;0.634242
4771.000000;0.631367
4770.000000;0.628349
4769.000000;0.625158
4768.000000;0.621869
4767.000000;0.618526
4766.000000;0.615152
4765.000000;0.611879
4764.000000;0.608886
4763.000000;0.606192
4762.000000;0.603581
4761.000000;0.600785
4760.000000;0.597704
4759.000000;0.594482
4758.000000;0.591387
4757.000000;0.588569
4756.000000;0.585899
4755.000000;0.583111
4754.000000;0.580108
4753.000000;0.577043
4752.000000;0.574080
4751.000000;0.571207
4750.000000;0.568343
4749.000000;0.565483
4748.000000;0.562664
4747.000000;0.559890
4746.000000;0.557165
4745.000000;0.554507
4744.000000;0.551876
4743.000000;0.549201
4742.000000;0.546510
4741.000000;0.543927
4740.000000;0.541483
4739.000000;0.539065
4738.000000;0.536587
4737.000000;0.534077
4736.000000;0.531527
4735.000000;0.528839
4734.000000;0.526029
4733.000000;0.523337
4732.000000;0.520997
4731.000000;0.518986
4730.000000;0.517095
4729.000000;0.515135
4728.000000;0.512994
4727.000000;0.510627
4726.000000;0.508108
4725.000000;0.505615
4724.000000;0.503247
4723.000000;0.500937
4722.000000;0.498602
4721.000000;0.496258
4720.000000;0.493923
4719.000000;0.491559
4718.000000;0.489202
4717.000000;0.487023
4716.000000;0.485107
4715.000000;0.483286
4714.000000;0.481322
4713.000000;0.479162
4712.000000;0.476901
4711.000000;0.474610
4710.000000;0.472343
4709.000000;0.470220
4708.000000;0.468328
4707.000000;0.466574
4706.000000;0.464775
4705.000000;0.462877
4704.000000;0.460987
4703.000000;0.459206
4702.000000;0.457532
4701.000000;0.455878
4700.000000;0.454120
4699.000000;0.452159
4698.000000;0.450028
4697.000000;0.447896
4696.000000;0.445917
4695.000000;0.444106
4694.000000;0.442406
4693.000000;0.440798
4692.000000;0.439282
4691.000000;0.437811
4690.000000;0.436323
4689.000000;0.434793
4688.000000;0.433208
4687.000000;0.431561
4686.000000;0.429904
4685.000000;0.428338
4684.000000;0.426870
4683.000000;0.425359
4682.000000;0.423686
4681.000000;0.421905
4680.000000;0.420187
4679.000000;0.418673
4678.000000;0.417409
4677.000000;0.416336
4676.000000;0.415283
4675.000000;0.414060
4674.000000;0.412637
4673.000000;0.411157
4672.000000;0.409746
4671.000000;0.408380
4670.000000;0.407006
4669.000000;0.405655
4668.000000;0.404369
4667.000000;0.403108
4666.000000;0.401827
4665.000000;0.400570
4664.000000;0.399396
4663.000000;0.398269
4662.000000;0.397124
4661.000000;0.395951
4660.000000;0.394771
4659.000000;0.393571
4658.000000;0.392359
4657.000000;0.391225
4656.000000;0.390247
4655.000000;0.389384
4654.000000;0.388500
4653.000000;0.387474
4652.000000;0.386263
4651.000000;0.384941
4650.000000;0.383693
4649.000000;0.382704
4648.000000;0.381977
4647.000000;0.381330
4646.000000;0.380605
4645.000000;0.379797
4644.000000;0.378958
4643.000000;0.378089
4642.000000;0.377188
4641.000000;0.376289
4640.000000;0.375396
4639.000000;0.374455
4638.000000;0.373465
4637.000000;0.372524
4636.000000;0.371714
4635.000000;0.371007
4634.000000;0.370353
4633.000000;0.369747
4632.000000;0.369145
4631.000000;0.368446
4630.000000;0.367621
4629.000000;0.366792
4628.000000;0.366086
4627.000000;0.365489
4626.000000;0.364921
4625.000000;0.364383
4624.000000;0.363928
4623.000000;0.363550
4622.000000;0.363167
4621.000000;0.362668
4620.000000;0.361965
4619.000000;0.361076
4618.000000;0.360205
4617.000000;0.359612
4616.000000;0.359345
4615.000000;0.359168
4614.000000;0.358820
4613.000000;0.358243
4612.000000;0.357544
4611.000000;0.356864
4610.000000;0.356357
4609.000000;0.356133
4608.000000;0.356122
4607.000000;0.356087
4606.000000;0.355865
4605.000000;0.355508
4604.000000;0.355124
4603.000000;0.354715
4602.000000;0.354258
4601.000000;0.353827
4600.000000;0.353483
4599.000000;0.353175
4598.000000;0.352867
4597.000000;0.352656
4596.000000;0.352637
4595.000000;0.352721
4594.000000;0.352731
4593.000000;0.352610
4592.000000;0.352433
4591.000000;0.352290
4590.000000;0.352244
4589.000000;0.352341
4588.000000;0.352528
4587.000000;0.352632
4586.000000;0.352530
4585.000000;0.352292
4584.000000;0.352059
4583.000000;0.351888
4582.000000;0.351787
4581.000000;0.351822
4580.000000;0.352051
4579.000000;0.352403
4578.000000;0.352751
4577.000000;0.353033
4576.000000;0.353229
4575.000000;0.353320
4574.000000;0.353383
4573.000000;0.353627
4572.000000;0.354178
4571.000000;0.354874
4570.000000;0.355421
4569.000000;0.355722
4568.000000;0.355926
4567.000000;0.356205
4566.000000;0.356596
4565.000000;0.357036
4564.000000;0.357441
4563.000000;0.357777
4562.000000;0.358134
4561.000000;0.358684
4560.000000;0.359453
4559.000000;0.360222
4558.000000;0.360752
4557.000000;0.361086
4556.000000;0.361491
4555.000000;0.362137
4554.000000;0.362962
4553.000000;0.363811
4552.000000;0.364592
4551.000000;0.365312
4550.000000;0.366055
4549.000000;0.366930
4548.000000;0.367941
4547.000000;0.368958
4546.000000;0.369865
4545.000000;0.370706
4544.000000;0.371590
4543.000000;0.372516
4542.000000;0.373382
4541.000000;0.374155
4540.000000;0.374922
4539.000000;0.375799
4538.000000;0.376841
4537.000000;0.378010
4536.000000;0.379168
4535.000000;0.380150
4534.000000;0.380915
4533.000000;0.381590
4532.000000;0.382305
4531.000000;0.383069
4530.000000;0.383850
4529.000000;0.384692
4528.000000;0.385626
4527.000000;0.386563
4526.000000;0.387391
4525.000000;0.388123
4524.000000;0.388871
4523.000000;0.389708
4522.000000;0.390652
4521.000000;0.391700
4520.000000;0.392789
4519.000000;0.393794
4518.000000;0.394665
4517.000000;0.395513
4516.000000;0.396474
4515.000000;0.397539
4514.000000;0.398615
4513.000000;0.399679
4512.000000;0.400755
4511.000000;0.401826
4510.000000;0.402864
4509.000000;0.403917
4508.000000;0.405046
4507.000000;0.406205
4506.000000;0.407296
4505.000000;0.408293
4504.000000;0.409249
4503.000000;0.410213
4502.000000;0.411210
4501.000000;0.412263
4500.000000;0.413372
4499.000000;0.414529
4498.000000;0.415770
4497.000000;0.417147
4496.000000;0.418595
4495.000000;0.419936
4494.000000;0.421089
4493.000000;0.422170
4492.000000;0.423327
4491.000000;0.424582
4490.000000;0.425908
4489.000000;0.427304
4488.000000;0.428705
4487.000000;0.429973
4486.000000;0.431117
4485.000000;0.432364
4484.000000;0.433900
4483.000000;0.435649
4482.000000;0.437444
4481.000000;0.439257
4480.000000;0.441098
4479.000000;0.442846
4478.000000;0.444390
4477.000000;0.445847
4476.000000;0.447435
4475.000000;0.449206
4474.000000;0.451058
4473.000000;0.452968
4472.000000;0.454982
4471.000000;0.457049
4470.000000;0.459020
4469.000000;0.460815
4468.000000;0.462474
4467.000000;0.464092
4466.000000;0.465814
4465.000000;0.467794
4464.000000;0.470030
4463.000000;0.472301
4462.000000;0.474411
4461.000000;0.476390
4460.000000;0.478332
4459.000000;0.480193
4458.000000;0.481935
4457.000000;0.483731
4456.000000;0.485798
4455.000000;0.488082
4454.000000;0.490347
4453.000000;0.492524
4452.000000;0.494756
4451.000000;0.497118
4450.000000;0.499525
4449.000000;0.501894
4448.000000;0.504222
4447.000000;0.506483
4446.000000;0.508639
4445.000000;0.510757
4444.000000;0.512993
4443.000000;0.515447
4442.000000;0.518115
4441.000000;0.520938
4440.000000;0.523774
4439.000000;0.526410
4438.000000;0.528729
4437.000000;0.530835
4436.000000;0.532925
4435.000000;0.535128
4434.000000;0.537543
4433.000000;0.540266
4432.000000;0.543199
4431.000000;0.546000
4430.000000;0.548454
4429.000000;0.550786
4428.000000;0.553396
4427.000000;0.556377
4426.000000;0.559513
4425.000000;0.562645
4424.000000;0.565762
4423.000000;0.568815
4422.000000;0.571713
4421.000000;0.574508
4420.000000;0.577368
4419.000000;0.580346
4418.000000;0.583367
4417.000000;0.586396
4416.000000;0.589454
4415.000000;0.592508
4414.000000;0.595550
4413.000000;0.598710
4412.000000;0.602074
4411.000000;0.605446
4410.000000;0.608515
4409.000000;0.611233
4408.000000;0.613848
4407.000000;0.616593
4406.000000;0.619550
4405.000000;0.622770
4404.000000;0.626275
4403.000000;0.629951
4402.000000;0.633620
4401.000000;0.637227
4400.000000;0.640818
4399.000000;0.644374
4398.000000;0.647829
4397.000000;0.651172
4396.000000;0.654387
4395.000000;0.657405
4394.000000;0.660313
4393.000000;0.663457
4392.000000;0.667076
4391.000000;0.670947
4390.000000;0.674644
4389.000000;0.678092
4388.000000;0.681582
4387.000000;0.685328
4386.000000;0.689274
4385.000000;0.693293
4384.000000;0.697289
4383.000000;0.701111
4382.000000;0.704670
4381.000000;0.708133
4380.000000;0.711790
4379.000000;0.715741
4378.000000;0.719878
4377.000000;0.724101
4376.000000;0.728321
4375.000000;0.732351
4374.000000;0.736090
4373.000000;0.739771
4372.000000;0.743749
4371.000000;0.748071
4370.000000;0.752499
4369.000000;0.756890
4368.000000;0.761289
4367.000000;0.765695
4366.000000;0.770012
4365.000000;0.774226
4364.000000;0.778409
4363.000000;0.782590
4362.000000;0.786808
4361.000000;0.791165
4360.000000;0.795588
4359.000000;0.799712
4358.000000;0.803362
4357.000000;0.807019
4356.000000;0.811425
4355.000000;0.816716
4354.000000;0.822281
4353.000000;0.827445
4352.000000;0.832031
4351.000000;0.836296
4350.000000;0.840623
4349.000000;0.845284
4348.000000;0.850238
4347.000000;0.855172
4346.000000;0.859941
4345.000000;0.864839
4344.000000;0.870151
4343.000000;0.875617
4342.000000;0.880698
4341.000000;0.885283
4340.000000;0.889782
4339.000000;0.894573
4338.000000;0.899698
4337.000000;0.905006
4336.000000;0.910266
4335.000000;0.915253
4334.000000;0.920080
4333.000000;0.925276
4332.000000;0.931173
4331.000000;0.937336
4330.000000;0.943027
4329.000000;0.948125
4328.000000;0.953128
4327.000000;0.958347
4326.000000;0.963635
4325.000000;0.968888
4324.000000;0.974283
4323.000000;0.979948
4322.000000;0.985778
4321.000000;0.991645
4320.000000;0.997467
4319.000000;1.003098
4318.000000;1.008467
4317.000000;1.013770
4316.000000;1.019222
4315.000000;1.024757
4314.000000;1.030299
4313.000000;1.036143
4312.000000;1.042572
4311.000000;1.049251
4310.000000;1.055490
4309.000000;1.061085
4308.000000;1.066496
4307.000000;1.072213
4306.000000;1.078371
4305.000000;1.084863
4304.000000;1.091445
4303.000000;1.097809
4302.000000;1.103932
4301.000000;1.110262
4300.000000;1.117146
4299.000000;1.124259
4298.000000;1.130967
4297.000000;1.137062
4296.000000;1.142779
4295.000000;1.148332
4294.000000;1.153880
4293.000000;1.159639
4292.000000;1.165625
4291.000000;1.171643
4290.000000;1.177900
4289.000000;1.185094
4288.000000;1.193333
4287.000000;1.201510
4286.000000;1.208499
4285.000000;1.214490
4284.000000;1.220383
4283.000000;1.226475
4282.000000;1.232617
4281.000000;1.239091
4280.000000;1.246177
4279.000000;1.253297
4278.000000;1.259867
4277.000000;1.266658
4276.000000;1.274869
4275.000000;1.283930
4274.000000;1.291584
4273.000000;1.296562
4272.000000;1.300118
4271.000000;1.304429
4270.000000;1.310512
4269.000000;1.318022
4268.000000;1.326162
4267.000000;1.334433
4266.000000;1.342936
4265.000000;1.352039
4264.000000;1.361390
4263.000000;1.369580
4262.000000;1.375486
4261.000000;1.379702
4260.000000;1.383803
4259.000000;1.388542
4258.000000;1.393742
4257.000000;1.399643
4256.000000;1.407153
4255.000000;1.416564
4254.000000;1.426890
4253.000000;1.436839
4252.000000;1.446078
4251.000000;1.455346
4250.000000;1.465395
4249.000000;1.475673
4248.000000;1.484214
4247.000000;1.489525
4246.000000;1.492680
4245.000000;1.496459
4244.000000;1.502378
4243.000000;1.509791
4242.000000;1.517959
4241.000000;1.527169
4240.000000;1.536854
4239.000000;1.544891
4238.000000;1.550655
4237.000000;1.556835
4236.000000;1.566162
4235.000000;1.577914
4234.000000;1.589541
4233.000000;1.600449
4232.000000;1.611610
4231.000000;1.622597
4230.000000;1.631954
4229.000000;1.639467
4228.000000;1.645312
4227.000000;1.648096
4226.000000;1.647161
4225.000000;1.646084
4224.000000;1.650322
4223.000000;1.661326
4222.000000;1.674984
4221.000000;1.686174
4220.000000;1.693489
4219.000000;1.698798
4218.000000;1.704123
4217.000000;1.710089
4216.000000;1.716141
4215.000000;1.721713
4214.000000;1.727712
4213.000000;1.736125
4212.000000;1.747473
4211.000000;1.759721
4210.000000;1.770709
4209.000000;1.780325
4208.000000;1.789163
4207.000000;1.797320
4206.000000;1.806470
4205.000000;1.820503
4204.000000;1.840900
4203.000000;1.862430
4202.000000;1.876414
4201.000000;1.879060
4200.000000;1.874516
4199.000000;1.870322
4198.000000;1.872428
4197.000000;1.882578
4196.000000;1.896942
4195.000000;1.908443
4194.000000;1.914266
4193.000000;1.919394
4192.000000;1.929606
4191.000000;1.944675
4190.000000;1.960988
4189.000000;1.976826
4188.000000;1.990971
4187.000000;1.999826
4186.000000;2.002001
4185.000000;2.002532
4184.000000;2.006692
4183.000000;2.013413
4182.000000;2.019552
4181.000000;2.027119
4180.000000;2.040304
4179.000000;2.057576
4178.000000;2.072574
4177.000000;2.081480
4176.000000;2.084462
4175.000000;2.082642
4174.000000;2.079585
4173.000000;2.081888
4172.000000;2.092897
4171.000000;2.108725
4170.000000;2.124069
4169.000000;2.139305
4168.000000;2.156196
4167.000000;2.170223
4166.000000;2.175869
4165.000000;2.176673
4164.000000;2.180451
4163.000000;2.188715
4162.000000;2.198431
4161.000000;2.209698
4160.000000;2.224034
4159.000000;2.238716
4158.000000;2.251371
4157.000000;2.265280
4156.000000;2.280785
4155.000000;2.287230
4154.000000;2.277412
4153.000000;2.265969
4152.000000;2.272899
4151.000000;2.297789
4150.000000;2.321427
4149.000000;2.331145
4148.000000;2.333863
4147.000000;2.340002
4146.000000;2.351539
4145.000000;2.367946
4144.000000;2.389464
4143.000000;2.409930
4142.000000;2.418082
4141.000000;2.412206
4140.000000;2.403802
4139.000000;2.402502
4138.000000;2.409714
4137.000000;2.426844
4136.000000;2.457792
4135.000000;2.498770
4134.000000;2.530664
4133.000000;2.530985
4132.000000;2.499082
4131.000000;2.454866
4130.000000;2.419597
4129.000000;2.406843
4128.000000;2.416606
4127.000000;2.435989
4126.000000;2.450424
4125.000000;2.456004
4124.000000;2.455320
4123.000000;2.446991
4122.000000;2.432820
4121.000000;2.419030
4120.000000;2.409289
4119.000000;2.406818
4118.000000;2.415716
4117.000000;2.439694
4116.000000;2.476187
4115.000000;2.510414
4114.000000;2.526614
4113.000000;2.530216
4112.000000;2.542911
4111.000000;2.573666
4110.000000;2.612525
4109.000000;2.648647
4108.000000;2.668971
4107.000000;2.659059
4106.000000;2.631578
4105.000000;2.614800
4104.000000;2.615014
4103.000000;2.608242
4102.000000;2.580844
4101.000000;2.561358
4100.000000;2.577468
4099.000000;2.626959
4098.000000;2.692916
4097.000000;2.763141
4096.000000;2.814151
4095.000000;2.801720
4094.000000;2.744032
4093.000000;2.700383
4092.000000;2.693847
4091.000000;2.715495
4090.000000;2.753502
4089.000000;2.795384
4088.000000;2.809354
4087.000000;2.775469
4086.000000;2.714795
4085.000000;2.670535
4084.000000;2.677158
4083.000000;2.733005
4082.000000;2.796785
4081.000000;2.830723
4080.000000;2.849221
4079.000000;2.870442
4078.000000;2.890569
4077.000000;2.904403
4076.000000;2.899574
4075.000000;2.856008
4074.000000;2.800503
4073.000000;2.785225
4072.000000;2.814248
4071.000000;2.841710
4070.000000;2.831320
4069.000000;2.804487
4068.000000;2.791647
4067.000000;2.787882
4066.000000;2.792658
4065.000000;2.814474
4064.000000;2.847596
4063.000000;2.881223
4062.000000;2.906764
4061.000000;2.931510
4060.000000;2.968283
4059.000000;3.004852
4058.000000;3.012246
4057.000000;2.996219
4056.000000;3.002290
4055.000000;3.040946
4054.000000;3.067777
4053.000000;3.045996
4052.000000;2.989432
4051.000000;2.917811
4050.000000;2.852385
4049.000000;2.827508
4048.000000;2.856013
4047.000000;2.908909
4046.000000;2.933284
4045.000000;2.910372
4044.000000;2.874107
4043.000000;2.856655
4042.000000;2.878678
4041.000000;2.964473
4040.000000;3.111731
4039.000000;3.202907
4038.000000;3.097741
4037.000000;2.936772
4036.000000;2.836838
4035.000000;2.796502
4034.000000;2.779995
4033.000000;2.764444
4032.000000;2.758932
4031.000000;2.775589
4030.000000;2.814953
4029.000000;2.876928
4028.000000;2.948052
4027.000000;2.978206
4026.000000;2.944606
4025.000000;2.907062
4024.000000;2.920931
4023.000000;2.993228
4022.000000;3.094679
4021.000000;3.190783
4020.000000;3.273496
4019.000000;3.337163
4018.000000;3.299625
4017.000000;3.171148
4016.000000;3.063896
4015.000000;3.008082
4014.000000;3.000716
4013.000000;3.028224
4012.000000;3.051306
4011.000000;3.024361
4010.000000;2.964280
4009.000000;2.934361
4008.000000;2.958980
4007.000000;3.003591
4006.000000;3.023623
4005.000000;3.053155
4004.000000;3.129159
4003.000000;3.181723
4002.000000;3.159036
4001.000000;3.113984
4000.000000;3.089591
3999.000000;3.086579
3998.000000;3.075294
3997.000000;3.062816
3996.000000;3.069249
3995.000000;3.118440
3994.000000;3.198037
3993.000000;3.112279
3992.000000;2.968044
3991.000000;2.914945
3990.000000;2.907158
3989.000000;2.909619
3988.000000;2.949024
3987.000000;3.044663
3986.000000;3.081693
3985.000000;2.994115
3984.000000;2.931642
3983.000000;2.949226
3982.000000;3.026810
3981.000000;3.105424
3980.000000;3.166103
3979.000000;3.253341
3978.000000;3.270207
3977.000000;3.216433
3976.000000;3.232545
3975.000000;3.302595
3974.000000;3.381411
3973.000000;3.425349
3972.000000;3.345927
3971.000000;3.216542
3970.000000;3.128675
3969.000000;3.069120
3968.000000;3.003227
3967.000000;2.925999
3966.000000;2.871934
3965.000000;2.867511
3964.000000;2.901460
3963.000000;2.930033
3962.000000;2.950263
3961.000000;3.021029
3960.000000;3.195583
3959.000000;3.372093
3958.000000;3.267653
3957.000000;3.104143
3956.000000;3.023959
3955.000000;3.011731
3954.000000;3.033400
3953.000000;3.071951
3952.000000;3.111079
3951.000000;3.095960
3950.000000;3.017456
3949.000000;2.936124
3948.000000;2.920902
3947.000000;3.000857
3946.000000;3.156513
3945.000000;3.395844
3944.000000;3.605202
3943.000000;3.728923
3942.000000;3.652739
3941.000000;3.404313
3940.000000;3.478144
3939.000000;3.833446
3938.000000;3.722105
3937.000000;3.641009
3936.000000;3.818287
3935.000000;3.657952
3934.000000;3.366048
3933.000000;3.228403
3932.000000;3.193394
3931.000000;3.171538
3930.000000;3.156392
3929.000000;3.160028
3928.000000;3.212895
3927.000000;3.355059
3926.000000;3.545530
3925.000000;3.496469
3924.000000;3.421268
3923.000000;3.616146
3922.000000;3.542913
3921.000000;3.232100
3920.000000;3.174993
3919.000000;3.204173
3918.000000;3.251724
3917.000000;3.361865
3916.000000;3.598412
3915.000000;3.764550
3914.000000;3.832646
3913.000000;3.788042
3912.000000;3.408833
3911.000000;3.172115
3910.000000;3.162139
3909.000000;3.562402
3908.000000;3.453477
3907.000000;3.131944
3906.000000;3.112347
3905.000000;3.277802
3904.000000;3.385933
3903.000000;3.312919
3902.000000;3.351765
3901.000000;3.248615
3900.000000;3.142101
3899.000000;3.185191
3898.000000;3.359503
3897.000000;3.459085
3896.000000;3.344961
3895.000000;3.386001
3894.000000;3.717537
3893.000000;3.915892
3892.000000;3.416286
3891.000000;3.202929
3890.000000;3.245042
3889.000000;3.492181
3888.000000;3.597173
3887.000000;3.430648
3886.000000;3.494628
3885.000000;3.753862
3884.000000;3.418886
3883.000000;3.095108
3882.000000;2.967406
3881.000000;2.944398
3880.000000;3.116860
3879.000000;3.894089
3878.000000;3.466753
3877.000000;3.145337
3876.000000;3.051779
3875.000000;3.025043
3874.000000;3.173114
3873.000000;3.500242
3872.000000;3.554640
3871.000000;3.207301
3870.000000;2.969360
3869.000000;2.885481
3868.000000;2.941910
3867.000000;3.066467
3866.000000;3.087530
3865.000000;2.944722
3864.000000;2.802428
3863.000000;2.775648
3862.000000;2.890404
3861.000000;3.162764
3860.000000;3.485607
3859.000000;3.317915
3858.000000;3.073895
3857.000000;2.980496
3856.000000;3.019090
3855.000000;3.123926
3854.000000;3.103202
3853.000000;3.013510
3852.000000;2.958822
3851.000000;2.969480
3850.000000;3.072902
3849.000000;3.286323
3848.000000;3.469968
3847.000000;3.371235
3846.000000;3.313047
3845.000000;3.353921
3844.000000;3.263234
3843.000000;3.141370
3842.000000;3.125169
3841.000000;3.101219
3840.000000;3.025720
3839.000000;2.939824
3838.000000;2.879153
3837.000000;2.901346
3836.000000;3.070971
3835.000000;3.356961
3834.000000;3.296134
3833.000000;3.084630
3832.000000;3.017601
3831.000000;3.045177
3830.000000;3.175310
3829.000000;3.374988
3828.000000;3.233161
3827.000000;3.028927
3826.000000;3.042106
3825.000000;3.354359
3824.000000;3.640291
3823.000000;3.162692
3822.000000;2.952973
3821.000000;2.986350
3820.000000;3.125501
3819.000000;3.103274
3818.000000;2.990552
3817.000000;2.915931
3816.000000;2.901325
3815.000000;2.972177
3814.000000;3.100176
3813.000000;3.274901
3812.000000;3.596617
3811.000000;3.827684
3810.000000;3.740124
3809.000000;3.774685
3808.000000;3.886983
3807.000000;3.714463
3806.000000;3.479263
3805.000000;3.902446
3804.000000;3.791228
3803.000000;3.307626
3802.000000;3.560075
3801.000000;3.640409
3800.000000;3.333548
3799.000000;3.390557
3798.000000;3.376436
3797.000000;3.110671
3796.000000;2.952192
3795.000000;2.938830
3794.000000;3.036418
3793.000000;3.196368
3792.000000;3.338934
3791.000000;3.357411
3790.000000;3.238103
3789.000000;3.183793
3788.000000;3.242572
3787.000000;3.527808
3786.000000;4.040741
3785.000000;4.099994
3784.000000;3.713225
3783.000000;3.221811
3782.000000;3.118401
3781.000000;3.236457
3780.000000;3.547439
3779.000000;4.049590
3778.000000;3.731734
3777.000000;3.719340
3776.000000;3.865019
3775.000000;3.396840
3774.000000;3.199680
3773.000000;3.275690
3772.000000;3.448756
3771.000000;3.324050
3770.000000;3.208144
3769.000000;3.275135
3768.000000;3.361945
3767.000000;3.388572
3766.000000;3.645097
3765.000000;4.126474
3764.000000;3.539748
3763.000000;3.294362
3762.000000;3.176419
3761.000000;3.188373
3760.000000;3.527432
3759.000000;3.742269
3758.000000;3.298768
3757.000000;3.277803
3756.000000;3.646514
3755.000000;3.379319
3754.000000;3.044510
3753.000000;3.124578
3752.000000;3.152056
3751.000000;3.019011
3750.000000;2.978734
3749.000000;2.964793
3748.000000;2.948948
3747.000000;2.958348
3746.000000;3.057085
3745.000000;3.385431
3744.000000;4.023444
3743.000000;3.439457
3742.000000;3.161899
3741.000000;3.056468
3740.000000;2.970520
3739.000000;2.921363
3738.000000;2.877814
3737.000000;2.823521
3736.000000;2.819732
3735.000000;2.956345
3734.000000;3.171623
3733.000000;3.140476
3732.000000;3.060695
3731.000000;3.122522
3730.000000;3.258530
3729.000000;3.279487
3728.000000;3.109364
3727.000000;2.958831
3726.000000;2.927417
3725.000000;2.925627
3724.000000;2.900207
3723.000000;2.875594
3722.000000;2.981450
3721.000000;3.420925
3720.000000;3.341630
3719.000000;3.056025
3718.000000;3.060916
3717.000000;3.143889
3716.000000;3.135625
3715.000000;2.994101
3714.000000;2.917035
3713.000000;2.922702
3712.000000;3.041066
3711.000000;3.214779
3710.000000;3.168210
3709.000000;3.131622
3708.000000;3.217778
3707.000000;3.309456
3706.000000;3.267917
3705.000000;3.231780
3704.000000;3.198219
3703.000000;3.028326
3702.000000;2.951162
3701.000000;2.997775
3700.000000;3.123467
3699.000000;3.350398
3698.000000;3.339800
3697.000000;3.151082
3696.000000;3.049184
3695.000000;2.959187
3694.000000;2.930219
3693.000000;3.004852
3692.000000;3.183026
3691.000000;3.265324
3690.000000;3.098965
3689.000000;3.011474
3688.000000;3.037736
3687.000000;3.051978
3686.000000;3.056930
3685.000000;3.127098
3684.000000;3.152659
3683.000000;3.059767
3682.000000;2.983530
3681.000000;2.980565
3680.000000;2.999645
3679.000000;3.125685
3678.000000;3.508802
3677.000000;3.307031
3676.000000;3.066705
3675.000000;3.102022
3674.000000;3.132685
3673.000000;3.207436
3672.000000;3.337530
3671.000000;3.528941
3670.000000;3.930513
3669.000000;3.633197
3668.000000;3.353617
3667.000000;3.286813
3666.000000;3.256874
3665.000000;3.300404
3664.000000;3.415487
3663.000000;3.679051
3662.000000;3.977597
3661.000000;3.550088
3660.000000;3.282562
3659.000000;3.277191
3658.000000;3.345831
3657.000000;3.101696
3656.000000;2.918992
3655.000000;2.910303
3654.000000;2.994334
3653.000000;3.063606
3652.000000;2.987731
3651.000000;2.887814
3650.000000;2.910501
3649.000000;3.063854
3648.000000;3.093079
3647.000000;3.000789
3646.000000;2.965255
3645.000000;2.967116
3644.000000;3.017044
3643.000000;3.123501
3642.000000;3.431549
3641.000000;3.552468
3640.000000;3.145204
3639.000000;2.971538
3638.000000;2.978252
3637.000000;3.129557
3636.000000;3.422430
3635.000000;3.686110
3634.000000;3.353942
3633.000000;3.118786
3632.000000;3.100637
3631.000000;3.330118
3630.000000;3.688424
3629.000000;3.347974
3628.000000;3.183670
3627.000000;3.164180
3626.000000;3.217723
3625.000000;3.272425
3624.000000;3.396845
3623.000000;3.728378
3622.000000;3.243404
3621.000000;2.942658
3620.000000;2.912354
3619.000000;3.006719
3618.000000;3.189612
3617.000000;3.306793
3616.000000;3.292316
3615.000000;3.227143
3614.000000;3.186406
3613.000000;3.273401
3612.000000;3.167687
3611.000000;3.005332
3610.000000;3.038350
3609.000000;3.098769
3608.000000;3.066320
3607.000000;3.065242
3606.000000;3.201407
3605.000000;3.509636
3604.000000;3.845821
3603.000000;4.011291
3602.000000;3.529296
3601.000000;3.177630
3600.000000;3.058278
3599.000000;3.088904
3598.000000;3.291829
3597.000000;3.357121
3596.000000;3.083757
3595.000000;2.891593
3594.000000;2.827038
3593.000000;2.879990
3592.000000;2.857634
3591.000000;2.733380
3590.000000;2.745807
3589.000000;2.890888
3588.000000;2.986971
3587.000000;3.024213
3586.000000;3.222793
3585.000000;3.631419
3584.000000;3.553909
3583.000000;3.635372
3582.000000;3.867036
3581.000000;3.425253
3580.000000;3.371033
3579.000000;3.523667
3578.000000;3.512595
3577.000000;3.365738
3576.000000;3.210725
3575.000000;3.145309
3574.000000;3.202544
3573.000000;3.427999
3572.000000;3.845730
3571.000000;3.477186
3570.000000;3.064600
3569.000000;2.934349
3568.000000;3.020728
3567.000000;3.325013
3566.000000;3.765153
3565.000000;4.160774
3564.000000;4.382510
3563.000000;3.833601
3562.000000;3.355170
3561.000000;3.122656
3560.000000;3.065748
3559.000000;3.119962
3558.000000;3.245373
3557.000000;3.333714
3556.000000;3.283952
3555.000000;3.290609
3554.000000;3.428432
3553.000000;3.417459
3552.000000;3.261695
3551.000000;3.244677
3550.000000;3.402039
3549.000000;3.401630
3548.000000;3.214462
3547.000000;3.126462
3546.000000;3.105701
3545.000000;3.096007
3544.000000;3.057822
3543.000000;3.025739
3542.000000;3.059648
3541.000000;3.174783
3540.000000;3.270125
3539.000000;3.171665
3538.000000;3.050182
3537.000000;3.014217
3536.000000;3.079658
3535.000000;3.236174
3534.000000;3.520615
3533.000000;4.055001
3532.000000;3.607126
3531.000000;3.227051
3530.000000;3.093053
3529.000000;3.036368
3528.000000;3.032835
3527.000000;3.059500
3526.000000;3.224287
3525.000000;3.620637
3524.000000;3.506344
3523.000000;3.322662
3522.000000;3.418140
3521.000000;3.729682
3520.000000;3.912117
3519.000000;3.679971
3518.000000;3.696159
3517.000000;3.504128
3516.000000;3.202209
3515.000000;3.183159
3514.000000;3.511323
3513.000000;3.460390
3512.000000;3.168789
3511.000000;3.229745
3510.000000;3.404856
3509.000000;3.429967
3508.000000;3.383235
3507.000000;3.351296
3506.000000;3.371102
3505.000000;3.364533
3504.000000;3.266595
3503.000000;3.175538
3502.000000;3.208469
3501.000000;3.224030
3500.000000;3.090551
3499.000000;3.020438
3498.000000;3.132847
3497.000000;3.524880
3496.000000;3.647371
3495.000000;3.277203
3494.000000;3.139416
3493.000000;3.112179
3492.000000;3.130458
3491.000000;3.144883
3490.000000;3.174586
3489.000000;3.252961
3488.000000;3.424855
3487.000000;3.518306
3486.000000;3.265886
3485.000000;3.142346
3484.000000;3.173139
3483.000000;3.154817
3482.000000;3.145433
3481.000000;3.267798
3480.000000;3.499105
3479.000000;3.769386
3478.000000;4.168986
3477.000000;4.163357
3476.000000;3.507010
3475.000000;3.178136
3474.000000;3.088955
3473.000000;3.148359
3472.000000;3.101621
3471.000000;3.009212
3470.000000;3.108952
3469.000000;3.277673
3468.000000;3.427971
3467.000000;3.578515
3466.000000;3.391871
3465.000000;3.311129
3464.000000;3.329671
3463.000000;3.371194
3462.000000;3.521593
3461.000000;3.510319
3460.000000;3.280957
3459.000000;3.137208
3458.000000;3.132426
3457.000000;3.200525
3456.000000;3.207300
3455.000000;3.199530
3454.000000;3.243594
3453.000000;3.242587
3452.000000;3.204845
3451.000000;3.273900
3450.000000;3.463824
3449.000000;3.556270
3448.000000;3.453485
3447.000000;3.292633
3446.000000;3.178117
3445.000000;3.267211
3444.000000;3.663081
3443.000000;3.728593
3442.000000;3.768445
3441.000000;3.714063
3440.000000;3.396818
3439.000000;3.376504
3438.000000;3.280819
3437.000000;3.128434
3436.000000;3.130014
3435.000000;3.272945
3434.000000;3.476316
3433.000000;3.550145
3432.000000;3.467758
3431.000000;3.393235
3430.000000;3.418389
3429.000000;3.456238
3428.000000;3.308768
3427.000000;3.124358
3426.000000;3.023818
3425.000000;2.997875
3424.000000;3.022039
3423.000000;3.117488
3422.000000;3.460570
3421.000000;3.760156
3420.000000;3.427764
3419.000000;3.421715
3418.000000;3.393675
3417.000000;3.400411
3416.000000;3.813980
3415.000000;3.642203
3414.000000;3.272781
3413.000000;3.155584
3412.000000;3.090728
3411.000000;3.024423
3410.000000;3.002914
3409.000000;3.070762
3408.000000;3.323490
3407.000000;3.626704
3406.000000;3.301344
3405.000000;3.123110
3404.000000;3.125516
3403.000000;3.246082
3402.000000;3.583636
3401.000000;3.474908
3400.000000;3.096036
3399.000000;2.908672
3398.000000;2.854441
3397.000000;2.918286
3396.000000;3.043455
3395.000000;3.145577
3394.000000;3.202510
3393.000000;3.263373
3392.000000;3.334243
3391.000000;3.294115
3390.000000;3.206452
3389.000000;3.158957
3388.000000;3.082247
3387.000000;3.014331
3386.000000;3.025608
3385.000000;3.053430
3384.000000;3.043065
3383.000000;3.055542
3382.000000;3.228267
3381.000000;3.476345
3380.000000;3.460499
3379.000000;3.700937
3378.000000;3.766636
3377.000000;3.403115
3376.000000;3.329668
3375.000000;3.440997
3374.000000;3.601306
3373.000000;3.389002
3372.000000;3.222575
3371.000000;3.187467
3370.000000;3.145368
3369.000000;3.097735
3368.000000;3.051171
3367.000000;3.012054
3366.000000;3.007800
3365.000000;3.046805
3364.000000;3.080256
3363.000000;3.059100
3362.000000;3.005984
3361.000000;2.946336
3360.000000;2.908067
3359.000000;2.922549
3358.000000;3.021213
3357.000000;3.180408
3356.000000;3.169394
3355.000000;3.065577
3354.000000;3.126074
3353.000000;3.594140
3352.000000;3.868467
3351.000000;3.137485
3350.000000;2.879091
3349.000000;2.802850
3348.000000;2.877860
3347.000000;3.088901
3346.000000;3.256460
3345.000000;3.287123
3344.000000;3.319380
3343.000000;3.281677
3342.000000;3.215805
3341.000000;3.219307
3340.000000;3.223167
3339.000000;3.162199
3338.000000;3.079353
3337.000000;3.080763
3336.000000;3.222314
3335.000000;3.446956
3334.000000;3.566557
3333.000000;3.655154
3332.000000;3.693212
3331.000000;3.606683
3330.000000;3.792066
3329.000000;3.592658
3328.000000;3.126249
3327.000000;2.916510
3326.000000;2.801809
3325.000000;2.752978
3324.000000;2.771533
3323.000000;2.882221
3322.000000;3.069629
3321.000000;3.314823
3320.000000;3.699341
3319.000000;3.231243
3318.000000;2.940313
3317.000000;2.910965
3316.000000;2.978707
3315.000000;3.086960
3314.000000;3.077106
3313.000000;3.014837
3312.000000;3.064579
3311.000000;3.399720
3310.000000;3.630217
3309.000000;3.137830
3308.000000;2.982445
3307.000000;2.978061
3306.000000;3.143614
3305.000000;3.584229
3304.000000;3.466807
3303.000000;3.195561
3302.000000;3.204204
3301.000000;3.442111
3300.000000;3.520725
3299.000000;3.820136
3298.000000;3.855275
3297.000000;3.193706
3296.000000;3.160464
3295.000000;3.356519
3294.000000;3.341336
3293.000000;3.205069
3292.000000;3.201064
3291.000000;3.302130
3290.000000;3.413844
3289.000000;3.416770
3288.000000;3.288236
3287.000000;3.170279
3286.000000;3.083606
3285.000000;3.016949
3284.000000;3.092071
3283.000000;3.236558
3282.000000;3.072615
3281.000000;2.956154
3280.000000;2.979820
3279.000000;3.088594
3278.000000;3.218553
3277.000000;3.229742
3276.000000;3.166563
3275.000000;3.123879
3274.000000;3.074315
3273.000000;2.943934
3272.000000;2.819945
3271.000000;2.799286
3270.000000;2.923490
3269.000000;3.198208
3268.000000;3.369593
3267.000000;3.236154
3266.000000;3.141730
3265.000000;3.176051
3264.000000;3.313372
3263.000000;3.436583
3262.000000;3.481257
3261.000000;3.459106
3260.000000;3.289036
3259.000000;3.123363
3258.000000;3.068375
3257.000000;3.115931
3256.000000;3.168507
3255.000000;3.136814
3254.000000;3.136603
3253.000000;3.244925
3252.000000;3.373336
3251.000000;3.391076
3250.000000;3.389643
3249.000000;3.387106
3248.000000;3.314112
3247.000000;3.186510
3246.000000;3.074011
3245.000000;3.017818
3244.000000;2.976678
3243.000000;2.947554
3242.000000;3.000244
3241.000000;3.178496
3240.000000;3.460466
3239.000000;3.490448
3238.000000;3.414050
3237.000000;3.438652
3236.000000;3.345881
3235.000000;3.342865
3234.000000;3.535269
3233.000000;3.621285
3232.000000;3.676413
3231.000000;4.050730
3230.000000;3.763335
3229.000000;3.356957
3228.000000;3.206193
3227.000000;3.251897
3226.000000;3.470978
3225.000000;3.501482
3224.000000;3.228033
3223.000000;3.062849
3222.000000;3.028501
3221.000000;3.078577
3220.000000;3.201559
3219.000000;3.258198
3218.000000;3.150228
3217.000000;3.037418
3216.000000;2.962682
3215.000000;2.950557
3214.000000;2.940271
3213.000000;2.878452
3212.000000;2.819748
3211.000000;2.807088
3210.000000;2.866403
3209.000000;3.007226
3208.000000;3.220601
3207.000000;3.439952
3206.000000;3.492097
3205.000000;3.406202
3204.000000;3.375024
3203.000000;3.440225
3202.000000;3.400216
3201.000000;3.262541
3200.000000;3.254596
3199.000000;3.363065
3198.000000;3.352503
3197.000000;3.101174
3196.000000;2.881338
3195.000000;2.815107
3194.000000;2.918243
3193.000000;3.183157
3192.000000;3.466355
3191.000000;3.292019
3190.000000;3.018368
3189.000000;2.898599
3188.000000;2.888285
3187.000000;2.960279
3186.000000;3.077572
3185.000000;3.141865
3184.000000;3.125142
3183.000000;3.127127
3182.000000;3.260675
3181.000000;3.656358
3180.000000;3.661668
3179.000000;3.401433
3178.000000;3.341678
3177.000000;3.377897
3176.000000;3.341061
3175.000000;3.220312
3174.000000;3.204989
3173.000000;3.319946
3172.000000;3.496350
3171.000000;3.479910
3170.000000;3.208143
3169.000000;3.030143
3168.000000;3.019595
3167.000000;3.035298
3166.000000;2.953349
3165.000000;2.910582
3164.000000;2.945583
3163.000000;2.982055
3162.000000;2.926479
3161.000000;2.819045
3160.000000;2.754889
3159.000000;2.776642
3158.000000;2.907676
3157.000000;3.090652
3156.000000;3.193576
3155.000000;3.304769
3154.000000;3.546771
3153.000000;3.695288
3152.000000;3.338429
3151.000000;3.054722
3150.000000;2.920355
3149.000000;2.905062
3148.000000;2.977759
3147.000000;3.100456
3146.000000;3.213681
3145.000000;3.181330
3144.000000;3.182284
3143.000000;3.218347
3142.000000;3.107855
3141.000000;3.054471
3140.000000;3.220253
3139.000000;3.638482
3138.000000;3.392961
3137.000000;3.076835
3136.000000;2.986224
3135.000000;3.005211
3134.000000;3.137638
3133.000000;3.388437
3132.000000;3.419497
3131.000000;3.241122
3130.000000;3.157352
3129.000000;3.035547
3128.000000;2.892920
3127.000000;2.828430
3126.000000;2.861170
3125.000000;3.006727
3124.000000;3.379684
3123.000000;3.539796
3122.000000;3.279375
3121.000000;3.390827
3120.000000;3.520545
3119.000000;3.118354
3118.000000;2.928238
3117.000000;2.868843
3116.000000;2.910538
3115.000000;3.075046
3114.000000;3.494221
3113.000000;3.520547
3112.000000;3.060451
3111.000000;2.923708
3110.000000;2.899898
3109.000000;2.939285
3108.000000;3.027684
3107.000000;3.089624
3106.000000;2.962867
3105.000000;2.815641
3104.000000;2.765324
3103.000000;2.825757
3102.000000;3.090294
3101.000000;3.323377
3100.000000;3.111832
3099.000000;3.084188
3098.000000;3.315259
3097.000000;3.524438
3096.000000;3.320909
3095.000000;3.230913
3094.000000;3.347156
3093.000000;3.484686
3092.000000;3.030174
3091.000000;2.832276
3090.000000;2.823757
3089.000000;2.985669
3088.000000;3.326372
3087.000000;3.288488
3086.000000;3.120831
3085.000000;3.163278
3084.000000;3.240908
3083.000000;3.215726
3082.000000;3.125082
3081.000000;3.106316
3080.000000;3.173685
3079.000000;3.364438
3078.000000;3.535377
3077.000000;3.348797
3076.000000;3.291803
3075.000000;3.651813
3074.000000;3.712151
3073.000000;3.228517
3072.000000;3.067580
3071.000000;3.104579
3070.000000;3.312623
3069.000000;3.848145
3068.000000;3.927331
3067.000000;3.563372
3066.000000;3.468668
3065.000000;3.578441
3064.000000;3.639651
3063.000000;3.186047
3062.000000;2.938793
3061.000000;2.828909
3060.000000;2.819778
3059.000000;2.911588
3058.000000;2.998299
3057.000000;2.949969
3056.000000;2.964564
3055.000000;3.099442
3054.000000;3.485923
3053.000000;3.742292
3052.000000;3.212564
3051.000000;3.036211
3050.000000;3.061959
3049.000000;3.176574
3048.000000;3.280698
3047.000000;3.266457
3046.000000;3.187489
3045.000000;3.183404
3044.000000;3.225850
3043.000000;3.227642
3042.000000;3.247573
3041.000000;3.484796
3040.000000;4.113068
3039.000000;3.494640
3038.000000;3.337703
3037.000000;3.055393
3036.000000;2.874171
3035.000000;2.836930
3034.000000;2.919703
3033.000000;3.127681
3032.000000;3.402761
3031.000000;3.514379
3030.000000;3.683218
3029.000000;3.919555
3028.000000;3.688859
3027.000000;3.501789
3026.000000;3.408851
3025.000000;3.553589
3024.000000;3.869282
3023.000000;3.435077
3022.000000;3.241283
3021.000000;3.267520
3020.000000;3.595551
3019.000000;3.591124
3018.000000;3.178819
3017.000000;3.093825
3016.000000;3.255590
3015.000000;3.666432
3014.000000;3.336618
3013.000000;3.072763
3012.000000;2.965676
3011.000000;2.991466
3010.000000;3.094547
3009.000000;3.068025
3008.000000;2.964064
3007.000000;2.965038
3006.000000;3.127816
3005.000000;3.446244
3004.000000;3.453974
3003.000000;3.170451
3002.000000;3.059552
3001.000000;2.989243
3000.000000;2.926507
2999.000000;2.934162
2998.000000;3.016616
2997.000000;3.110619
2996.000000;3.162735
2995.000000;3.242878
2994.000000;3.480664
2993.000000;3.790641
2992.000000;3.496854
2991.000000;3.220789
2990.000000;3.044649
2989.000000;2.977906
2988.000000;3.024904
2987.000000;3.132649
2986.000000;3.156110
2985.000000;3.119609
2984.000000;3.195235
2983.000000;3.247804
2982.000000;3.171108
2981.000000;3.079115
2980.000000;2.961000
2979.000000;2.885423
2978.000000;2.902441
2977.000000;3.005859
2976.000000;3.123097
2975.000000;3.191795
2974.000000;3.257883
2973.000000;3.385713
2972.000000;3.460505
2971.000000;3.416940
2970.000000;3.429776
2969.000000;3.578758
2968.000000;3.851926
2967.000000;3.214126
2966.000000;2.887230
2965.000000;2.763981
2964.000000;2.735344
2963.000000;2.793098
2962.000000;2.952102
2961.000000;3.208733
2960.000000;3.477901
2959.000000;3.487296
2958.000000;3.357994
2957.000000;3.327951
2956.000000;3.354260
2955.000000;3.398549
2954.000000;3.322625
2953.000000;3.182308
2952.000000;3.132128
2951.000000;3.246399
2950.000000;3.535208
2949.000000;3.668023
2948.000000;3.494696
2947.000000;3.176093
2946.000000;3.048434
2945.000000;3.100175
2944.000000;3.088589
2943.000000;3.016972
2942.000000;3.074107
2941.000000;3.275082
2940.000000;3.550979
2939.000000;3.573638
2938.000000;3.458951
2937.000000;3.322849
2936.000000;3.096795
2935.000000;2.893780
2934.000000;2.789865
2933.000000;2.783456
2932.000000;2.839830
2931.000000;2.919770
2930.000000;3.012856
2929.000000;3.109675
2928.000000;3.180312
2927.000000;3.194566
2926.000000;3.172597
2925.000000;3.181035
2924.000000;3.227678
2923.000000;3.269997
2922.000000;3.191234
2921.000000;3.004066
2920.000000;2.857816
2919.000000;2.822650
2918.000000;2.924797
2917.000000;3.072851
2916.000000;3.052491
2915.000000;3.000965
2914.000000;3.007965
2913.000000;3.009728
2912.000000;3.013800
2911.000000;3.075162
2910.000000;3.246810
2909.000000;3.052457
2908.000000;2.863845
2907.000000;2.834449
2906.000000;2.898791
2905.000000;2.994217
2904.000000;3.107376
2903.000000;3.256737
2902.000000;3.475639
2901.000000;3.993227
2900.000000;3.321456
2899.000000;3.001600
2898.000000;2.899562
2897.000000;2.933382
2896.000000;3.026564
2895.000000;2.999794
2894.000000;2.932823
2893.000000;3.085160
2892.000000;3.422176
2891.000000;3.335718
2890.000000;3.358324
2889.000000;4.091662
2888.000000;3.780759
2887.000000;3.196191
2886.000000;2.993721
2885.000000;2.921502
2884.000000;2.887096
2883.000000;2.897888
2882.000000;2.976429
2881.000000;3.038711
2880.000000;3.188928
2879.000000;3.986718
2878.000000;3.193611
2877.000000;3.150889
2876.000000;3.288906
2875.000000;3.180645
2874.000000;3.132175
2873.000000;3.477935
2872.000000;3.346670
2871.000000;2.896348
2870.000000;2.842571
2869.000000;3.052874
2868.000000;3.536242
2867.000000;3.143533
2866.000000;2.936327
2865.000000;2.931707
2864.000000;3.078455
2863.000000;3.579466
2862.000000;3.278188
2861.000000;2.992793
2860.000000;2.999045
2859.000000;3.129097
2858.000000;3.364660
2857.000000;3.373315
2856.000000;3.165513
2855.000000;3.046487
2854.000000;3.063160
2853.000000;3.125412
2852.000000;3.147667
2851.000000;3.159003
2850.000000;3.189026
2849.000000;3.258441
2848.000000;3.312130
2847.000000;3.252031
2846.000000;3.155305
2845.000000;3.087459
2844.000000;3.050569
2843.000000;3.088691
2842.000000;3.249158
2841.000000;3.519895
2840.000000;3.437196
2839.000000;3.065574
2838.000000;2.874314
2837.000000;2.830590
2836.000000;2.896423
2835.000000;3.074291
2834.000000;3.449382
2833.000000;3.945191
2832.000000;3.737100
2831.000000;3.315352
2830.000000;3.141259
2829.000000;3.063317
2828.000000;2.950938
2827.000000;2.891501
2826.000000;2.935779
2825.000000;3.083790
2824.000000;3.297899
2823.000000;3.403555
2822.000000;3.461271
2821.000000;3.514939
2820.000000;3.240451
2819.000000;3.096606
2818.000000;3.148820
2817.000000;3.276252
2816.000000;3.602132
2815.000000;3.552711
2814.000000;3.031561
2813.000000;2.882381
2812.000000;2.844109
2811.000000;2.886765
2810.000000;2.981341
2809.000000;3.211037
2808.000000;3.705306
2807.000000;3.354214
2806.000000;3.159361
2805.000000;3.280078
2804.000000;3.383666
2803.000000;3.329161
2802.000000;3.251716
2801.000000;3.059341
2800.000000;2.944169
2799.000000;2.956450
2798.000000;3.053250
2797.000000;3.184739
2796.000000;3.304366
2795.000000;3.371658
2794.000000;3.360852
2793.000000;3.269186
2792.000000;3.165439
2791.000000;3.098583
2790.000000;3.082904
2789.000000;3.154250
2788.000000;3.538369
2787.000000;3.875104
2786.000000;3.510858
2785.000000;3.405650
2784.000000;3.862239
2783.000000;3.796680
2782.000000;3.253894
2781.000000;3.200441
2780.000000;3.227076
2779.000000;3.343956
2778.000000;3.837387
2777.000000;3.353882
2776.000000;3.053298
2775.000000;3.024978
2774.000000;3.154458
2773.000000;3.332024
2772.000000;3.281603
2771.000000;3.145301
2770.000000;3.096438
2769.000000;3.143641
2768.000000;3.283447
2767.000000;3.394629
2766.000000;3.164903
2765.000000;2.971301
2764.000000;2.871709
2763.000000;2.862646
2762.000000;2.949826
2761.000000;3.098994
2760.000000;3.166801
2759.000000;3.144402
2758.000000;3.150483
2757.000000;3.120160
2756.000000;3.071242
2755.000000;3.123591
2754.000000;3.328982
2753.000000;3.867739
2752.000000;3.544034
2751.000000;3.266922
2750.000000;3.221503
2749.000000;3.259166
2748.000000;3.361361
2747.000000;3.491187
2746.000000;3.278485
2745.000000;3.104174
2744.000000;3.152689
2743.000000;3.456322
2742.000000;3.500660
2741.000000;3.401294
2740.000000;3.251109
2739.000000;2.980418
2738.000000;2.889107
2737.000000;2.947814
2736.000000;3.093690
2735.000000;3.157993
2734.000000;3.040766
2733.000000;2.878186
2732.000000;2.784443
2731.000000;2.768253
2730.000000;2.785366
2729.000000;2.773890
2728.000000;2.738270
2727.000000;2.772799
2726.000000;2.946059
2725.000000;3.505374
2724.000000;3.620359
2723.000000;3.964275
2722.000000;3.506792
2721.000000;3.012995
2720.000000;2.792663
2719.000000;2.703412
2718.000000;2.727576
2717.000000;2.799157
2716.000000;2.842949
2715.000000;2.934151
2714.000000;3.159311
2713.000000;3.341188
2712.000000;3.148522
2711.000000;3.046625
2710.000000;3.002177
2709.000000;2.985046
2708.000000;3.105636
2707.000000;3.397342
2706.000000;3.144335
2705.000000;2.878209
2704.000000;2.841410
2703.000000;2.938177
2702.000000;3.088624
2701.000000;3.063975
2700.000000;2.980884
2699.000000;3.002849
2698.000000;3.054391
2697.000000;3.076314
2696.000000;3.131607
2695.000000;3.144006
2694.000000;3.174138
2693.000000;3.463260
2692.000000;3.448451
2691.000000;2.965287
2690.000000;2.732150
2689.000000;2.632335
2688.000000;2.645061
2687.000000;2.778833
2686.000000;3.089593
2685.000000;3.377180
2684.000000;3.106101
2683.000000;2.999492
2682.000000;2.956426
2681.000000;2.921130
2680.000000;2.868594
2679.000000;2.845423
2678.000000;2.885029
2677.000000;2.967031
2676.000000;2.969001
2675.000000;2.899765
2674.000000;2.917327
2673.000000;3.073137
2672.000000;3.311156
2671.000000;3.420973
2670.000000;3.109521
2669.000000;2.874715
2668.000000;2.789944
2667.000000;2.799778
2666.000000;2.878946
2665.000000;3.013639
2664.000000;3.208254
2663.000000;3.553705
2662.000000;4.109489
2661.000000;3.578321
2660.000000;3.434638
2659.000000;3.321277
2658.000000;3.325732
2657.000000;3.446677
2656.000000;3.626542
2655.000000;3.678055
2654.000000;3.604288
2653.000000;3.475291
2652.000000;3.197085
2651.000000;2.994684
2650.000000;2.913472
2649.000000;2.929913
2648.000000;3.046923
2647.000000;3.306748
2646.000000;3.432126
2645.000000;3.271158
2644.000000;3.165994
2643.000000;3.126618
2642.000000;3.146440
2641.000000;3.194585
2640.000000;3.218545
2639.000000;3.091670
2638.000000;2.841866
2637.000000;2.640239
2636.000000;2.537843
2635.000000;2.551655
2634.000000;2.707981
2633.000000;3.051312
2632.000000;3.362981
2631.000000;3.346666
2630.000000;3.436619
2629.000000;3.388459
2628.000000;3.359180
2627.000000;3.307835
2626.000000;3.143040
2625.000000;2.976145
2624.000000;2.906301
2623.000000;2.934404
2622.000000;3.266110
2621.000000;3.152124
2620.000000;2.792447
2619.000000;2.715663
2618.000000;2.753846
2617.000000;2.862963
2616.000000;2.973099
2615.000000;3.026939
2614.000000;3.113448
2613.000000;3.186210
2612.000000;3.066551
2611.000000;2.976671
2610.000000;2.980317
2609.000000;3.060119
2608.000000;3.197125
2607.000000;3.307740
2606.000000;3.521274
2605.000000;4.064251
2604.000000;3.486952
2603.000000;3.046375
2602.000000;2.832919
2601.000000;2.738379
2600.000000;2.731180
2599.000000;2.837142
2598.000000;3.091271
2597.000000;3.788960
2596.000000;3.796083
2595.000000;3.155190
2594.000000;3.036247
2593.000000;3.226879
2592.000000;3.357240
2591.000000;3.192728
2590.000000;3.100271
2589.000000;2.894470
2588.000000;2.810226
2587.000000;2.968167
2586.000000;3.344577
2585.000000;3.118401
2584.000000;2.952208
2583.000000;2.919103
2582.000000;2.998869
2581.000000;3.268964
2580.000000;3.624717
2579.000000;3.446962
2578.000000;3.114905
2577.000000;2.931874
2576.000000;2.938793
2575.000000;3.103884
2574.000000;3.123896
2573.000000;3.033515
2572.000000;3.036173
2571.000000;3.021084
2570.000000;3.062455
2569.000000;3.150323
2568.000000;3.101143
2567.000000;2.968219
2566.000000;2.903441
2565.000000;2.937822
2564.000000;3.109436
2563.000000;3.258464
2562.000000;3.074139
2561.000000;2.930007
2560.000000;2.899553
2559.000000;2.939371
2558.000000;3.145609
2557.000000;3.465459
2556.000000;2.990821
2555.000000;2.842586
2554.000000;2.912666
2553.000000;3.098901
2552.000000;3.401702
2551.000000;3.526300
2550.000000;3.330258
2549.000000;3.258847
2548.000000;3.147836
2547.000000;3.140250
2546.000000;3.421986
2545.000000;3.598808
2544.000000;3.312858
2543.000000;3.404906
2542.000000;3.838032
2541.000000;3.658031
2540.000000;3.047099
2539.000000;2.731174
2538.000000;2.609777
2537.000000;2.631457
2536.000000;2.789951
2535.000000;3.210964
2534.000000;3.610953
2533.000000;3.234737
2532.000000;3.031295
2531.000000;2.899658
2530.000000;2.893340
2529.000000;3.070449
2528.000000;3.521690
2527.000000;4.507908
2526.000000;3.743558
2525.000000;3.103545
2524.000000;2.842828
2523.000000;2.776975
2522.000000;2.872508
2521.000000;3.018963
2520.000000;2.971304
2519.000000;2.896889
2518.000000;2.934183
2517.000000;3.060296
2516.000000;3.160919
2515.000000;3.173845
2514.000000;3.328155
2513.000000;3.596708
2512.000000;3.279628
2511.000000;3.025872
2510.000000;2.914950
2509.000000;2.848645
2508.000000;2.814097
2507.000000;2.793270
2506.000000;2.844492
2505.000000;3.090261
2504.000000;3.312237
2503.000000;3.039554
2502.000000;2.904342
2501.000000;2.879919
2500.000000;2.908574
2499.000000;2.981151
2498.000000;3.106122
2497.000000;3.095581
2496.000000;2.907686
2495.000000;2.783581
2494.000000;2.750284
2493.000000;2.811644
2492.000000;3.051090
2491.000000;3.474316
2490.000000;3.208018
2489.000000;2.969686
2488.000000;2.889085
2487.000000;2.802497
2486.000000;2.743365
2485.000000;2.757050
2484.000000;2.873922
2483.000000;2.993445
2482.000000;2.962874
2481.000000;2.938953
2480.000000;2.995127
2479.000000;3.031349
2478.000000;3.056376
2477.000000;3.179137
2476.000000;3.205841
2475.000000;3.080304
2474.000000;3.054638
2473.000000;3.163869
2472.000000;3.299834
2471.000000;3.154315
2470.000000;3.008241
2469.000000;2.995415
2468.000000;3.094996
2467.000000;3.251429
2466.000000;3.297051
2465.000000;3.154519
2464.000000;2.974589
2463.000000;2.893205
2462.000000;2.873047
2461.000000;2.802230
2460.000000;2.688009
2459.000000;2.627808
2458.000000;2.661865
2457.000000;2.776127
2456.000000;2.943836
2455.000000;3.157708
2454.000000;3.390199
2453.000000;3.389845
2452.000000;3.127772
2451.000000;2.920001
2450.000000;2.824883
2449.000000;2.849866
2448.000000;2.996782
2447.000000;3.268815
2446.000000;3.747005
2445.000000;3.866119
2444.000000;3.757535
2443.000000;3.405091
2442.000000;3.016095
2441.000000;2.873113
2440.000000;2.878760
2439.000000;3.007796
2438.000000;3.155349
2437.000000;3.078788
2436.000000;2.918849
2435.000000;2.864869
2434.000000;2.948884
2433.000000;3.104128
2432.000000;3.205986
2431.000000;3.241323
2430.000000;3.200016
2429.000000;3.189404
2428.000000;3.358437
2427.000000;3.590745
2426.000000;3.468953
2425.000000;3.214788
2424.000000;3.032321
2423.000000;2.919324
2422.000000;2.874828
2421.000000;2.949142
2420.000000;3.158306
2419.000000;3.597989
2418.000000;4.061720
2417.000000;3.295238
2416.000000;3.115139
2415.000000;3.163563
2414.000000;3.373785
2413.000000;3.562674
2412.000000;3.442448
2411.000000;3.294537
2410.000000;3.267832
2409.000000;3.712797
2408.000000;3.440414
2407.000000;3.086477
2406.000000;3.110387
2405.000000;2.964001
2404.000000;2.790197
2403.000000;2.701197
2402.000000;2.652965
2401.000000;2.668689
2400.000000;2.751557
2399.000000;2.857067
2398.000000;2.854649
2397.000000;2.759302
2396.000000;2.688324
2395.000000;2.680636
2394.000000;2.764346
2393.000000;2.942655
2392.000000;3.239484
2391.000000;3.386187
2390.000000;3.074554
2389.000000;2.960782
2388.000000;2.991436
2387.000000;3.008558
2386.000000;2.942702
2385.000000;2.847878
2384.000000;2.798645
2383.000000;2.831850
2382.000000;2.939037
2381.000000;3.066210
2380.000000;3.127859
2379.000000;3.129110
2378.000000;3.224325
2377.000000;3.131192
2376.000000;2.880157
2375.000000;2.788636
2374.000000;2.847452
2373.000000;2.958819
2372.000000;2.946587
2371.000000;2.827299
2370.000000;2.734831
2369.000000;2.709582
2368.000000;2.740326
2367.000000;2.842647
2366.000000;3.086596
2365.000000;3.219569
2364.000000;2.992789
2363.000000;2.807887
2362.000000;2.736094
2361.000000;2.759630
2360.000000;2.796265
2359.000000;2.816395
2358.000000;2.824789
2357.000000;2.799445
2356.000000;2.776122
2355.000000;2.792156
2354.000000;2.755706
2353.000000;2.632589
2352.000000;2.557358
2351.000000;2.621412
2350.000000;2.987834
2349.000000;3.267389
2348.000000;2.870014
2347.000000;2.730767
2346.000000;2.709902
2345.000000;2.720622
2344.000000;2.754390
2343.000000;2.946318
2342.000000;3.495589
2341.000000;3.325741
2340.000000;2.975598
2339.000000;2.813022
2338.000000;2.761276
2337.000000;2.937911
2336.000000;3.329609
2335.000000;3.116808
2334.000000;2.973623
2333.000000;3.026267
2332.000000;2.944445
2331.000000;2.845579
2330.000000;2.857680
2329.000000;2.870689
2328.000000;2.811414
2327.000000;2.742145
2326.000000;2.717608
2325.000000;2.753049
2324.000000;2.889704
2323.000000;3.308939
2322.000000;3.460474
2321.000000;3.121772
2320.000000;3.212245
2319.000000;3.627492
2318.000000;3.297422
2317.000000;3.273318
2316.000000;3.695046
2315.000000;3.032692
2314.000000;2.946176
2313.000000;3.353764
2312.000000;2.903270
2311.000000;2.618376
2310.000000;2.608342
2309.000000;2.760280
2308.000000;2.989748
2307.000000;3.014232
2306.000000;2.934199
2305.000000;2.869150
2304.000000;2.805746
2303.000000;2.860621
2302.000000;3.158167
2301.000000;3.149419
2300.000000;2.942790
2299.000000;3.005308
2298.000000;3.067588
2297.000000;3.015444
2296.000000;2.960519
2295.000000;2.950815
2294.000000;2.991431
2293.000000;3.001561
2292.000000;2.968345
2291.000000;2.987609
2290.000000;3.083644
2289.000000;3.152893
2288.000000;3.145557
2287.000000;3.190254
2286.000000;3.523478
2285.000000;3.563078
2284.000000;3.153895
2283.000000;3.207916
2282.000000;3.574664
2281.000000;3.415320
2280.000000;3.132635
2279.000000;2.985878
2278.000000;2.989872
2277.000000;3.151803
2276.000000;3.321536
2275.000000;3.199644
2274.000000;3.052880
2273.000000;3.003925
2272.000000;3.112869
2271.000000;3.611547
2270.000000;4.076102
2269.000000;3.790390
2268.000000;3.255154
2267.000000;2.976904
2266.000000;3.027591
2265.000000;3.092424
2264.000000;2.939458
2263.000000;2.829134
2262.000000;2.807355
2261.000000;2.833986
2260.000000;2.890447
2259.000000;2.919779
2258.000000;2.866126
2257.000000;2.778010
2256.000000;2.726892
2255.000000;2.715722
2254.000000;2.722754
2253.000000;2.763459
2252.000000;2.877477
2251.000000;3.112686
2250.000000;3.435272
2249.000000;3.343206
2248.000000;3.158712
2247.000000;3.163331
2246.000000;3.271606
2245.000000;3.529263
2244.000000;3.502444
2243.000000;3.239304
2242.000000;3.149700
2241.000000;3.141119
2240.000000;3.085822
2239.000000;3.285897
2238.000000;3.646221
2237.000000;3.169181
2236.000000;3.015103
2235.000000;3.263051
2234.000000;3.799935
2233.000000;3.129822
2232.000000;2.871984
2231.000000;2.824228
2230.000000;2.855499
2229.000000;2.971992
2228.000000;2.935176
2227.000000;2.791976
2226.000000;2.758642
2225.000000;2.839343
2224.000000;2.944276
2223.000000;2.968938
2222.000000;2.949576
2221.000000;2.974949
2220.000000;3.140115
2219.000000;3.571037
2218.000000;3.425960
2217.000000;3.165455
2216.000000;2.957726
2215.000000;2.720562
2214.000000;2.607358
2213.000000;2.593269
2212.000000;2.654357
2211.000000;2.797491
2210.000000;2.921815
2209.000000;2.917190
2208.000000;2.890445
2207.000000;2.880137
2206.000000;2.937103
2205.000000;2.862879
2204.000000;2.645681
2203.000000;2.557413
2202.000000;2.618691
2201.000000;2.793035
2200.000000;2.924869
2199.000000;2.929887
2198.000000;2.887764
2197.000000;2.832693
2196.000000;2.861817
2195.000000;2.987663
2194.000000;3.248493
2193.000000;3.408997
2192.000000;3.275661
2191.000000;3.309586
2190.000000;3.277299
2189.000000;2.980069
2188.000000;2.756801
2187.000000;2.665452
2186.000000;2.696100
2185.000000;2.819850
2184.000000;2.989838
2183.000000;3.011435
2182.000000;3.162196
2181.000000;3.921586
2180.000000;3.220113
2179.000000;3.240477
2178.000000;3.645139
2177.000000;3.060751
2176.000000;2.964093
2175.000000;3.237771
2174.000000;3.195133
2173.000000;2.856635
2172.000000;2.823189
2171.000000;2.828135
2170.000000;2.709089
2169.000000;2.652334
2168.000000;2.689968
2167.000000;2.861164
2166.000000;3.498414
2165.000000;3.539837
2164.000000;3.181806
2163.000000;3.060231
2162.000000;2.992498
2161.000000;3.713982
2160.000000;3.251831
2159.000000;2.845807
2158.000000;2.888683
2157.000000;2.972381
2156.000000;3.029243
2155.000000;3.034096
2154.000000;3.066442
2153.000000;3.003452
2152.000000;2.863189
2151.000000;2.800301
2150.000000;2.854031
2149.000000;3.010982
2148.000000;3.112401
2147.000000;3.022975
2146.000000;2.925738
2145.000000;2.867823
2144.000000;2.864192
2143.000000;2.915430
2142.000000;3.012410
2141.000000;3.112930
2140.000000;3.213010
2139.000000;3.605527
2138.000000;3.436820
2137.000000;2.922282
2136.000000;2.659793
2135.000000;2.537008
2134.000000;2.548194
2133.000000;2.707226
2132.000000;3.011234
2131.000000;3.095110
2130.000000;3.017514
2129.000000;3.152199
2128.000000;3.391673
2127.000000;3.472353
2126.000000;3.307961
2125.000000;3.103093
2124.000000;3.058711
2123.000000;3.120425
2122.000000;3.016684
2121.000000;2.850502
2120.000000;2.810498
2119.000000;2.898979
2118.000000;3.006520
2117.000000;3.058948
2116.000000;3.129352
2115.000000;3.504977
2114.000000;3.728047
2113.000000;3.103570
2112.000000;2.878167
2111.000000;2.793633
2110.000000;2.777464
2109.000000;2.818810
2108.000000;2.917181
2107.000000;3.086985
2106.000000;3.203184
2105.000000;3.334242
2104.000000;3.719038
2103.000000;3.987885
2102.000000;3.550678
2101.000000;3.291338
2100.000000;3.205744
2099.000000;3.201527
2098.000000;3.088277
2097.000000;3.158789
2096.000000;3.256737
2095.000000;2.870496
2094.000000;2.696649
2093.000000;2.725471
2092.000000;2.948529
2091.000000;3.415420
2090.000000;3.529583
2089.000000;3.401732
2088.000000;3.198306
2087.000000;3.025776
2086.000000;2.970087
2085.000000;2.959467
2084.000000;2.986640
2083.000000;3.028779
2082.000000;3.011632
2081.000000;2.955245
2080.000000;2.943274
2079.000000;3.013411
2078.000000;3.230387
2077.000000;3.448334
2076.000000;3.194338
2075.000000;2.968912
2074.000000;2.858545
2073.000000;2.794018
2072.000000;2.778768
2071.000000;2.879766
2070.000000;3.290239
2069.000000;3.659224
2068.000000;3.139835
2067.000000;2.866285
2066.000000;2.688895
2065.000000;2.590102
2064.000000;2.547298
2063.000000;2.579016
2062.000000;2.720509
2061.000000;2.890758
2060.000000;2.964857
2059.000000;3.069791
2058.000000;3.237044
2057.000000;3.255879
2056.000000;3.258061
2055.000000;3.317032
2054.000000;3.606130
2053.000000;3.611985
2052.000000;3.419490
2051.000000;3.464753
2050.000000;3.158246
2049.000000;2.972628
2048.000000;3.031521
2047.000000;3.239243
2046.000000;3.332121
2045.000000;3.289943
2044.000000;3.390901
2043.000000;3.257155
2042.000000;2.958811
2041.000000;2.821985
2040.000000;2.872260
2039.000000;3.209699
2038.000000;3.359797
2037.000000;3.135801
2036.000000;3.235272
2035.000000;3.153494
2034.000000;3.182154
2033.000000;3.601393
2032.000000;3.232914
2031.000000;2.937443
2030.000000;2.889097
2029.000000;2.896067
2028.000000;2.875955
2027.000000;2.843375
2026.000000;2.881459
2025.000000;3.034867
2024.000000;3.401794
2023.000000;3.744443
2022.000000;3.392920
2021.000000;3.179662
2020.000000;3.052707
2019.000000;3.043869
2018.000000;3.252375
2017.000000;3.399832
2016.000000;3.335369
2015.000000;3.325776
2014.000000;3.162205
2013.000000;3.216856
2012.000000;3.650235
2011.000000;3.349649
2010.000000;3.087945
2009.000000;3.130008
2008.000000;3.019635
2007.000000;2.891019
2006.000000;2.874701
2005.000000;2.887375
2004.000000;2.908651
2003.000000;2.981525
2002.000000;3.539686
2001.000000;3.384504
2000.000000;2.902617
1999.000000;2.825018
1998.000000;2.954032
1997.000000;3.487811
1996.000000;3.481263
1995.000000;3.562773
1994.000000;3.382791
1993.000000;2.884808
1992.000000;2.751409
1991.000000;2.894719
1990.000000;3.318092
1989.000000;3.094729
1988.000000;3.108500
1987.000000;3.561409
1986.000000;3.199617
1985.000000;3.013902
1984.000000;3.006769
1983.000000;3.396543
1982.000000;3.787177
1981.000000;3.017402
1980.000000;2.857326
1979.000000;2.903162
1978.000000;3.051486
1977.000000;3.080704
1976.000000;2.997380
1975.000000;2.944797
1974.000000;2.852031
1973.000000;2.929971
1972.000000;3.302412
1971.000000;3.137367
1970.000000;2.922018
1969.000000;2.993630
1968.000000;3.114104
1967.000000;3.138608
1966.000000;2.997572
1965.000000;2.815491
1964.000000;2.701052
1963.000000;2.680811
1962.000000;2.719737
1961.000000;2.810084
1960.000000;3.015495
1959.000000;2.987840
1958.000000;2.743014
1957.000000;2.659300
1956.000000;2.690084
1955.000000;2.852823
1954.000000;3.083781
1953.000000;3.020179
1952.000000;2.924028
1951.000000;2.931762
1950.000000;2.988920
1949.000000;3.170572
1948.000000;3.425718
1947.000000;3.265832
1946.000000;2.945074
1945.000000;2.783146
1944.000000;2.771851
1943.000000;2.790031
1942.000000;2.787863
1941.000000;2.806545
1940.000000;2.767316
1939.000000;2.694395
1938.000000;2.718975
1937.000000;2.864341
1936.000000;3.164305
1935.000000;3.536311
1934.000000;3.212870
1933.000000;3.045328
1932.000000;3.070365
1931.000000;3.146476
1930.000000;3.311616
1929.000000;3.399293
1928.000000;3.573195
1927.000000;3.912898
1926.000000;3.336639
1925.000000;2.967585
1924.000000;2.759650
1923.000000;2.644325
1922.000000;2.619484
1921.000000;2.685789
1920.000000;2.827918
1919.000000;2.882338
1918.000000;2.855626
1917.000000;2.878777
1916.000000;2.860073
1915.000000;2.759203
1914.000000;2.665078
1913.000000;2.621640
1912.000000;2.647575
1911.000000;2.739198
1910.000000;2.826979
1909.000000;2.896244
1908.000000;3.003011
1907.000000;3.073978
1906.000000;2.987984
1905.000000;2.868005
1904.000000;2.871937
1903.000000;2.917958
1902.000000;3.029750
1901.000000;3.255739
1900.000000;3.077307
1899.000000;2.894520
1898.000000;2.947863
1897.000000;3.114107
1896.000000;3.052108
1895.000000;2.887395
1894.000000;2.818884
1893.000000;2.884831
1892.000000;2.978977
1891.000000;2.801690
1890.000000;2.685971
1889.000000;2.807878
1888.000000;3.269174
1887.000000;3.546698
1886.000000;3.451416
1885.000000;3.323411
1884.000000;3.374779
1883.000000;3.698818
1882.000000;2.982841
1881.000000;2.769939
1880.000000;2.822335
1879.000000;2.948082
1878.000000;2.859787
1877.000000;2.766913
1876.000000;2.857805
1875.000000;2.868398
1874.000000;2.689533
1873.000000;2.588895
1872.000000;2.604214
1871.000000;2.774442
1870.000000;3.051832
1869.000000;3.025366
1868.000000;2.948691
1867.000000;2.910228
1866.000000;2.827295
1865.000000;2.790072
1864.000000;2.807546
1863.000000;2.888328
1862.000000;2.999612
1861.000000;3.016304
1860.000000;2.938145
1859.000000;2.907227
1858.000000;2.984774
1857.000000;3.030070
1856.000000;2.915968
1855.000000;2.784951
1854.000000;2.681741
1853.000000;2.623549
1852.000000;2.613384
1851.000000;2.631835
1850.000000;2.649202
1849.000000;2.678509
1848.000000;2.768946
1847.000000;2.845356
1846.000000;2.836129
1845.000000;2.875769
1844.000000;3.219636
1843.000000;3.431568
1842.000000;3.098663
1841.000000;3.219034
1840.000000;3.271660
1839.000000;3.014351
1838.000000;2.914072
1837.000000;3.130329
1836.000000;3.206842
1835.000000;2.823909
1834.000000;2.735389
1833.000000;2.830259
1832.000000;2.790516
1831.000000;2.669435
1830.000000;2.596623
1829.000000;2.575396
1828.000000;2.634753
1827.000000;2.671307
1826.000000;2.580437
1825.000000;2.527314
1824.000000;2.594973
1823.000000;2.763789
1822.000000;2.984243
1821.000000;3.236528
1820.000000;3.215392
1819.000000;2.862174
1818.000000;2.639658
1817.000000;2.541832
1816.000000;2.529999
1815.000000;2.554764
1814.000000;2.572270
1813.000000;2.585761
1812.000000;2.669992
1811.000000;3.054620
1810.000000;3.225576
1809.000000;2.880991
1808.000000;2.756253
1807.000000;2.690996
1806.000000;2.711249
1805.000000;2.750283
1804.000000;2.749042
1803.000000;2.802388
1802.000000;2.931151
1801.000000;3.012823
1800.000000;3.077714
1799.000000;3.168520
1798.000000;2.952340
1797.000000;2.762799
1796.000000;2.745050
1795.000000;2.837614
1794.000000;3.034784
1793.000000;3.006902
1792.000000;2.858999
1791.000000;3.333586
1790.000000;3.531976
1789.000000;3.017488
1788.000000;3.122538
1787.000000;3.198748
1786.000000;3.382114
1785.000000;3.528180
1784.000000;3.275945
1783.000000;3.063462
1782.000000;3.034908
1781.000000;3.102759
1780.000000;3.025598
1779.000000;2.931128
1778.000000;2.883465
1777.000000;2.803380
1776.000000;2.728149
1775.000000;2.743713
1774.000000;2.758942
1773.000000;2.600431
1772.000000;2.473845
1771.000000;2.474514
1770.000000;2.511825
1769.000000;2.511211
1768.000000;2.479886
1767.000000;2.462132
1766.000000;2.500111
1765.000000;2.593579
1764.000000;2.706345
1763.000000;2.765996
1762.000000;2.819327
1761.000000;2.992542
1760.000000;3.294333
1759.000000;3.447699
1758.000000;3.113063
1757.000000;2.823334
1756.000000;2.799818
1755.000000;3.516013
1754.000000;3.007142
1753.000000;2.619005
1752.000000;2.499242
1751.000000;2.511994
1750.000000;2.741113
1749.000000;2.995644
1748.000000;2.959751
1747.000000;2.994398
1746.000000;3.119192
1745.000000;3.504203
1744.000000;4.813597
1743.000000;3.548183
1742.000000;3.001857
1741.000000;2.761719
1740.000000;2.724420
1739.000000;2.952902
1738.000000;3.247169
1737.000000;2.988603
1736.000000;2.855387
1735.000000;2.759927
1734.000000;2.759556
1733.000000;2.820489
1732.000000;2.740561
1731.000000;2.597205
1730.000000;2.612037
1729.000000;3.266035
1728.000000;2.880929
1727.000000;2.512950
1726.000000;2.457293
1725.000000;2.499634
1724.000000;2.595897
1723.000000;2.656008
1722.000000;2.715686
1721.000000;2.934779
1720.000000;3.425881
1719.000000;3.149929
1718.000000;3.003821
1717.000000;2.927213
1716.000000;2.802469
1715.000000;3.073562
1714.000000;3.059870
1713.000000;2.632384
1712.000000;2.560985
1711.000000;2.564714
1710.000000;2.578650
1709.000000;2.579254
1708.000000;2.637850
1707.000000;2.776429
1706.000000;3.136848
1705.000000;3.228655
1704.000000;2.793714
1703.000000;2.733479
1702.000000;2.815501
1701.000000;2.794516
1700.000000;2.594271
1699.000000;2.511637
1698.000000;2.633606
1697.000000;2.829709
1696.000000;3.004014
1695.000000;3.115107
1694.000000;2.915000
1693.000000;2.688519
1692.000000;2.590161
1691.000000;2.565544
1690.000000;2.704026
1689.000000;3.176755
1688.000000;3.141796
1687.000000;3.052454
1686.000000;3.248635
1685.000000;2.830608
1684.000000;2.477928
1683.000000;2.425669
1682.000000;2.539935
1681.000000;2.644342
1680.000000;2.662471
1679.000000;2.644331
1678.000000;2.597065
1677.000000;2.563574
1676.000000;2.546120
1675.000000;2.535020
1674.000000;2.561753
1673.000000;2.686630
1672.000000;3.033559
1671.000000;3.351993
1670.000000;2.786185
1669.000000;2.614115
1668.000000;2.613926
1667.000000;2.581987
1666.000000;2.548787
1665.000000;2.562212
1664.000000;2.534781
1663.000000;2.501005
1662.000000;2.584738
1661.000000;2.929707
1660.000000;3.536471
1659.000000;3.280648
1658.000000;3.605924
1657.000000;3.450358
1656.000000;3.310122
1655.000000;3.321205
1654.000000;3.053517
1653.000000;2.821303
1652.000000;2.593504
1651.000000;2.435909
1650.000000;2.394921
1649.000000;2.372245
1648.000000;2.315931
1647.000000;2.272451
1646.000000;2.277309
1645.000000;2.358750
1644.000000;2.594392
1643.000000;3.022467
1642.000000;2.763569
1641.000000;2.541111
1640.000000;2.438359
1639.000000;2.492437
1638.000000;2.793685
1637.000000;3.314725
1636.000000;2.953836
1635.000000;2.793546
1634.000000;2.781325
1633.000000;2.754339
1632.000000;2.597349
1631.000000;2.516072
1630.000000;2.563457
1629.000000;2.838884
1628.000000;3.033464
1627.000000;2.849589
1626.000000;2.869998
1625.000000;2.848676
1624.000000;2.901612
1623.000000;3.337938
1622.000000;2.754575
1621.000000;2.468508
1620.000000;2.459129
1619.000000;2.569202
1618.000000;2.773483
1617.000000;3.030240
1616.000000;3.004660
1615.000000;2.930238
1614.000000;2.876606
1613.000000;2.820522
1612.000000;2.774861
1611.000000;2.711013
1610.000000;2.706974
1609.000000;2.831009
1608.000000;2.954983
1607.000000;2.817147
1606.000000;2.707696
1605.000000;2.720393
1604.000000;2.886666
1603.000000;3.310154
1602.000000;3.281733
1601.000000;3.025844
1600.000000;3.133551
1599.000000;3.448608
1598.000000;3.052077
1597.000000;2.691348
1596.000000;2.533705
1595.000000;2.500358
1594.000000;2.601915
1593.000000;2.824072
1592.000000;3.137824
1591.000000;3.405221
1590.000000;3.359610
1589.000000;3.172414
1588.000000;3.181483
1587.000000;3.358082
1586.000000;2.982411
1585.000000;2.891692
1584.000000;3.156383
1583.000000;3.056338
1582.000000;2.732470
1581.000000;2.718069
1580.000000;2.774221
1579.000000;2.750249
1578.000000;2.755830
1577.000000;2.793305
1576.000000;2.837106
1575.000000;2.836077
1574.000000;2.710181
1573.000000;2.562370
1572.000000;2.446586
1571.000000;2.339965
1570.000000;2.273194
1569.000000;2.305457
1568.000000;2.475178
1567.000000;2.809544
1566.000000;2.915837
1565.000000;2.653858
1564.000000;2.504803
1563.000000;2.547763
1562.000000;2.732272
1561.000000;2.903138
1560.000000;3.116235
1559.000000;3.673793
1558.000000;3.018610
1557.000000;3.077046
1556.000000;3.285072
1555.000000;3.111086
1554.000000;2.861902
1553.000000;2.803800
1552.000000;2.873119
1551.000000;3.105651
1550.000000;3.088284
1549.000000;2.804940
1548.000000;2.714793
1547.000000;2.679878
1546.000000;2.636279
1545.000000;2.647613
1544.000000;3.028963
1543.000000;3.423751
1542.000000;3.083246
1541.000000;2.759853
1540.000000;2.479749
1539.000000;2.334285
1538.000000;2.322078
1537.000000;2.499485
1536.000000;2.817183
1535.000000;2.734284
1534.000000;2.663337
1533.000000;2.864294
1532.000000;3.525285
1531.000000;2.909338
1530.000000;2.789996
1529.000000;2.865629
1528.000000;3.075347
1527.000000;2.796246
1526.000000;2.496843
1525.000000;2.339081
1524.000000;2.319925
1523.000000;2.382622
1522.000000;2.825248
1521.000000;3.072485
1520.000000;2.429305
1519.000000;2.408145
1518.000000;2.528821
1517.000000;2.721076
1516.000000;2.659785
1515.000000;2.618934
1514.000000;2.707403
1513.000000;3.053193
1512.000000;3.178088
1511.000000;2.800733
1510.000000;2.706559
1509.000000;2.724243
1508.000000;2.709803
1507.000000;2.683393
1506.000000;2.714070
1505.000000;2.807747
1504.000000;2.898200
1503.000000;3.089862
1502.000000;3.617013
1501.000000;2.980084
1500.000000;2.776555
1499.000000;2.726085
1498.000000;2.923792
1497.000000;3.157825
1496.000000;2.757207
1495.000000;2.580722
1494.000000;2.698821
1493.000000;2.961598
1492.000000;2.737249
1491.000000;2.551664
1490.000000;2.843711
1489.000000;2.776757
1488.000000;2.452749
1487.000000;2.414999
1486.000000;2.482127
1485.000000;2.574894
1484.000000;2.676707
1483.000000;2.810949
1482.000000;2.720656
1481.000000;2.560051
1480.000000;2.497668
1479.000000;2.494274
1478.000000;2.524353
1477.000000;2.591816
1476.000000;2.675063
1475.000000;2.712845
1474.000000;2.691832
1473.000000;2.704342
1472.000000;2.709635
1471.000000;2.688824
1470.000000;2.793203
1469.000000;3.061778
1468.000000;3.153733
1467.000000;2.907564
1466.000000;2.827561
1465.000000;3.064902
1464.000000;3.043901
1463.000000;2.737616
1462.000000;2.638894
1461.000000;2.729582
1460.000000;2.735983
1459.000000;2.533412
1458.000000;2.473833
1457.000000;2.595134
1456.000000;2.771510
1455.000000;2.817359
1454.000000;2.771733
1453.000000;2.646118
1452.000000;2.638363
1451.000000;2.920935
1450.000000;2.775649
1449.000000;2.379566
1448.000000;2.273540
1447.000000;2.338622
1446.000000;2.600863
1445.000000;2.794971
1444.000000;2.619071
1443.000000;2.605760
1442.000000;2.703229
1441.000000;2.872888
1440.000000;3.059314
1439.000000;3.412696
1438.000000;3.112522
1437.000000;2.774494
1436.000000;2.755610
1435.000000;2.802568
1434.000000;2.725558
1433.000000;2.700959
1432.000000;2.940847
1431.000000;2.771382
1430.000000;2.454949
1429.000000;2.385135
1428.000000;2.507749
1427.000000;2.982469
1426.000000;2.872493
1425.000000;2.498877
1424.000000;2.390551
1423.000000;2.430621
1422.000000;2.540853
1421.000000;2.611201
1420.000000;2.671286
1419.000000;2.815897
1418.000000;2.587890
1417.000000;2.352332
1416.000000;2.276272
1415.000000;2.295933
1414.000000;2.396338
1413.000000;3.007039
1412.000000;3.050404
1411.000000;2.506993
1410.000000;2.521711
1409.000000;2.575761
1408.000000;2.633325
1407.000000;2.562240
1406.000000;2.492482
1405.000000;2.513748
1404.000000;2.683629
1403.000000;3.176894
1402.000000;3.374048
1401.000000;3.072965
1400.000000;3.463963
1399.000000;2.927184
1398.000000;2.523833
1397.000000;2.429349
1396.000000;2.540440
1395.000000;2.701398
1394.000000;2.553826
1393.000000;2.434053
1392.000000;2.413994
1391.000000;2.503717
1390.000000;2.731503
1389.000000;2.737152
1388.000000;2.521322
1387.000000;2.515784
1386.000000;2.683331
1385.000000;2.965490
1384.000000;3.114782
1383.000000;3.474248
1382.000000;2.976942
1381.000000;2.595525
1380.000000;2.491337
1379.000000;2.557224
1378.000000;2.788283
1377.000000;2.659131
1376.000000;2.497638
1375.000000;2.475237
1374.000000;2.527564
1373.000000;2.582429
1372.000000;2.600193
1371.000000;2.678211
1370.000000;2.903432
1369.000000;3.355285
1368.000000;3.595014
1367.000000;3.638709
1366.000000;3.633796
1365.000000;3.063337
1364.000000;2.763202
1363.000000;2.664288
1362.000000;2.657934
1361.000000;2.564583
1360.000000;2.487065
1359.000000;2.507015
1358.000000;2.638535
1357.000000;2.804804
1356.000000;2.997155
1355.000000;2.831901
1354.000000;2.593974
1353.000000;2.635105
1352.000000;2.884559
1351.000000;2.791459
1350.000000;2.804439
1349.000000;3.015006
1348.000000;2.882992
1347.000000;2.750377
1346.000000;2.719538
1345.000000;2.821108
1344.000000;3.036602
1343.000000;3.161902
1342.000000;3.161276
1341.000000;3.357090
1340.000000;3.392698
1339.000000;2.817393
1338.000000;2.645158
1337.000000;2.800187
1336.000000;3.270244
1335.000000;2.831030
1334.000000;2.661727
1333.000000;2.708730
1332.000000;2.771804
1331.000000;2.771217
1330.000000;2.731616
1329.000000;2.651471
1328.000000;2.546197
1327.000000;2.461060
1326.000000;2.441972
1325.000000;2.524604
1324.000000;2.826425
1323.000000;3.249988
1322.000000;2.829162
1321.000000;2.813027
1320.000000;3.372131
1319.000000;3.112255
1318.000000;2.870632
1317.000000;2.901018
1316.000000;3.030276
1315.000000;3.197291
1314.000000;3.345849
1313.000000;2.704459
1312.000000;2.535840
1311.000000;2.502398
1310.000000;2.497917
1309.000000;2.487855
1308.000000;2.575332
1307.000000;2.934417
1306.000000;2.721756
1305.000000;2.426293
1304.000000;2.461857
1303.000000;2.765291
1302.000000;3.142140
1301.000000;2.835695
1300.000000;2.729499
1299.000000;2.672805
1298.000000;2.574704
1297.000000;2.464800
1296.000000;2.365360
1295.000000;2.304053
1294.000000;2.294565
1293.000000;2.348843
1292.000000;2.458957
1291.000000;2.612077
1290.000000;2.711861
1289.000000;2.682786
1288.000000;2.700836
1287.000000;2.797911
1286.000000;2.799903
1285.000000;2.716966
1284.000000;2.626196
1283.000000;2.459931
1282.000000;2.383942
1281.000000;2.415234
1280.000000;2.405568
1279.000000;2.369119
1278.000000;2.452037
1277.000000;2.839005
1276.000000;3.352886
1275.000000;3.110391
1274.000000;3.109600
1273.000000;3.172128
1272.000000;3.082123
1271.000000;2.727893
1270.000000;2.515254
1269.000000;2.430444
1268.000000;2.461185
1267.000000;2.662033
1266.000000;3.124027
1265.000000;2.748549
1264.000000;2.588282
1263.000000;2.615619
1262.000000;2.731554
1261.000000;2.816013
1260.000000;2.910595
1259.000000;2.894789
1258.000000;3.086778
1257.000000;3.316802
1256.000000;2.668680
1255.000000;2.585021
1254.000000;2.848977
1253.000000;3.302510
1252.000000;3.004711
1251.000000;3.004674
1250.000000;2.658507
1249.000000;2.356243
1248.000000;2.229606
1247.000000;2.214123
1246.000000;2.280328
1245.000000;2.404911
1244.000000;2.596080
1243.000000;2.880972
1242.000000;3.086237
1241.000000;2.750150
1240.000000;2.512425
1239.000000;2.465944
1238.000000;2.585529
1237.000000;2.829328
1236.000000;3.077584
1235.000000;2.818535
1234.000000;2.528846
1233.000000;2.431912
1232.000000;2.473921
1231.000000;2.604232
1230.000000;2.614486
1229.000000;2.492384
1228.000000;2.477514
1227.000000;2.627417
1226.000000;3.166783
1225.000000;3.207496
1224.000000;2.849134
1223.000000;3.059950
1222.000000;2.971961
1221.000000;2.704805
1220.000000;2.614719
1219.000000;2.656340
1218.000000;2.716672
1217.000000;2.985581
1216.000000;2.895173
1215.000000;2.485559
1214.000000;2.357739
1213.000000;2.382074
1212.000000;2.470050
1211.000000;2.599905
1210.000000;2.774040
1209.000000;3.032259
1208.000000;3.350950
1207.000000;2.701614
1206.000000;2.440314
1205.000000;2.364897
1204.000000;2.346725
1203.000000;2.309156
1202.000000;2.340237
1201.000000;2.497605
1200.000000;2.766961
