Criado como novo conjunto de dados;"e2410_daniel_v2.spp","21603.1 Secs"
cm-1;Abs
10000.000000;0.508572
9999.000000;0.508274
9998.000000;0.507853
9997.000000;0.507406
9996.000000;0.506971
9995.000000;0.506429
9994.000000;0.505675
9993.000000;0.504774
9992.000000;0.503875
9991.000000;0.503087
9990.000000;0.502482
9989.000000;0.502077
9988.000000;0.501735
9987.000000;0.501232
9986.000000;0.500507
9985.000000;0.499747
9984.000000;0.499178
9983.000000;0.498859
9982.000000;0.498698
9981.000000;0.498529
9980.000000;0.498149
9979.000000;0.497459
9978.000000;0.496643
9977.000000;0.496058
9976.000000;0.495855
9975.000000;0.495808
9974.000000;0.495582
9973.000000;0.495052
9972.000000;0.494313
9971.000000;0.493546
9970.000000;0.492951
9969.000000;0.492690
9968.000000;0.492744
9967.000000;0.492876
9966.000000;0.492811
9965.000000;0.492437
9964.000000;0.491814
9963.000000;0.491085
9962.000000;0.490386
9961.000000;0.489786
9960.000000;0.489258
9959.000000;0.488744
9958.000000;0.488224
9957.000000;0.487678
9956.000000;0.487027
9955.000000;0.486231
9954.000000;0.485389
9953.000000;0.484650
9952.000000;0.484066
9951.000000;0.483605
9950.000000;0.483251
9949.000000;0.482968
9948.000000;0.482627
9947.000000;0.482128
9946.000000;0.481534
9945.000000;0.480955
9944.000000;0.480366
9943.000000;0.479703
9942.000000;0.479037
9941.000000;0.478495
9940.000000;0.478059
9939.000000;0.477639
9938.000000;0.477254
9937.000000;0.476947
9936.000000;0.476620
9935.000000;0.476168
9934.000000;0.475705
9933.000000;0.475416
9932.000000;0.475249
9931.000000;0.475023
9930.000000;0.474738
9929.000000;0.474498
9928.000000;0.474175
9927.000000;0.473491
9926.000000;0.472459
9925.000000;0.471429
9924.000000;0.470663
9923.000000;0.470134
9922.000000;0.469767
9921.000000;0.469530
9920.000000;0.469239
9919.000000;0.468627
9918.000000;0.467721
9917.000000;0.466886
9916.000000;0.466352
9915.000000;0.465970
9914.000000;0.465541
9913.000000;0.465104
9912.000000;0.464774
9911.000000;0.464510
9910.000000;0.464210
9909.000000;0.463834
9908.000000;0.463341
9907.000000;0.462675
9906.000000;0.461939
9905.000000;0.461367
9904.000000;0.461019
9903.000000;0.460702
9902.000000;0.460296
9901.000000;0.459928
9900.000000;0.459704
9899.000000;0.459473
9898.000000;0.459034
9897.000000;0.458417
9896.000000;0.457803
9895.000000;0.457308
9894.000000;0.456971
9893.000000;0.456783
9892.000000;0.456618
9891.000000;0.456246
9890.000000;0.455568
9889.000000;0.454724
9888.000000;0.453893
9887.000000;0.453116
9886.000000;0.452398
9885.000000;0.451823
9884.000000;0.451442
9883.000000;0.451164
9882.000000;0.450874
9881.000000;0.450570
9880.000000;0.450267
9879.000000;0.449891
9878.000000;0.449353
9877.000000;0.448677
9876.000000;0.447974
9875.000000;0.447348
9874.000000;0.446854
9873.000000;0.446466
9872.000000;0.446076
9871.000000;0.445603
9870.000000;0.445086
9869.000000;0.444579
9868.000000;0.444012
9867.000000;0.443321
9866.000000;0.442651
9865.000000;0.442214
9864.000000;0.441958
9863.000000;0.441599
9862.000000;0.441007
9861.000000;0.440351
9860.000000;0.439812
9859.000000;0.439370
9858.000000;0.438936
9857.000000;0.438492
9856.000000;0.438045
9855.000000;0.437609
9854.000000;0.437281
9853.000000;0.437139
9852.000000;0.437026
9851.000000;0.436648
9850.000000;0.435949
9849.000000;0.435196
9848.000000;0.434602
9847.000000;0.434075
9846.000000;0.433436
9845.000000;0.432688
9844.000000;0.431973
9843.000000;0.431440
9842.000000;0.431203
9841.000000;0.431274
9840.000000;0.431419
9839.000000;0.431278
9838.000000;0.430731
9837.000000;0.430005
9836.000000;0.429336
9835.000000;0.428710
9834.000000;0.428030
9833.000000;0.427357
9832.000000;0.426829
9831.000000;0.426468
9830.000000;0.426183
9829.000000;0.425881
9828.000000;0.425481
9827.000000;0.424940
9826.000000;0.424339
9825.000000;0.423830
9824.000000;0.423424
9823.000000;0.422969
9822.000000;0.422392
9821.000000;0.421830
9820.000000;0.421437
9819.000000;0.421193
9818.000000;0.420963
9817.000000;0.420641
9816.000000;0.420165
9815.000000;0.419526
9814.000000;0.418837
9813.000000;0.418271
9812.000000;0.417868
9811.000000;0.417497
9810.000000;0.417054
9809.000000;0.416592
9808.000000;0.416203
9807.000000;0.415882
9806.000000;0.415570
9805.000000;0.415215
9804.000000;0.414779
9803.000000;0.414284
9802.000000;0.413840
9801.000000;0.413518
9800.000000;0.413197
9799.000000;0.412670
9798.000000;0.411910
9797.000000;0.411069
9796.000000;0.410262
9795.000000;0.409527
9794.000000;0.408957
9793.000000;0.408656
9792.000000;0.408532
9791.000000;0.408352
9790.000000;0.408021
9789.000000;0.407630
9788.000000;0.407201
9787.000000;0.406638
9786.000000;0.405972
9785.000000;0.405402
9784.000000;0.405006
9783.000000;0.404640
9782.000000;0.404228
9781.000000;0.403906
9780.000000;0.403762
9779.000000;0.403620
9778.000000;0.403250
9777.000000;0.402644
9776.000000;0.401940
9775.000000;0.401223
9774.000000;0.400523
9773.000000;0.399896
9772.000000;0.399386
9771.000000;0.398958
9770.000000;0.398563
9769.000000;0.398175
9768.000000;0.397744
9767.000000;0.397220
9766.000000;0.396665
9765.000000;0.396206
9764.000000;0.395843
9763.000000;0.395443
9762.000000;0.394938
9761.000000;0.394391
9760.000000;0.393837
9759.000000;0.393244
9758.000000;0.392670
9757.000000;0.392274
9756.000000;0.392107
9755.000000;0.392033
9754.000000;0.391914
9753.000000;0.391708
9752.000000;0.391356
9751.000000;0.390779
9750.000000;0.390065
9749.000000;0.389457
9748.000000;0.389051
9747.000000;0.388674
9746.000000;0.388140
9745.000000;0.387489
9744.000000;0.386876
9743.000000;0.386397
9742.000000;0.386104
9741.000000;0.386010
9740.000000;0.385960
9739.000000;0.385665
9738.000000;0.385015
9737.000000;0.384234
9736.000000;0.383608
9735.000000;0.383189
9734.000000;0.382866
9733.000000;0.382565
9732.000000;0.382253
9731.000000;0.381865
9730.000000;0.381390
9729.000000;0.380940
9728.000000;0.380624
9727.000000;0.380386
9726.000000;0.380050
9725.000000;0.379503
9724.000000;0.378782
9723.000000;0.378063
9722.000000;0.377559
9721.000000;0.377343
9720.000000;0.377224
9719.000000;0.376911
9718.000000;0.376315
9717.000000;0.375592
9716.000000;0.374911
9715.000000;0.374320
9714.000000;0.373851
9713.000000;0.373548
9712.000000;0.373333
9711.000000;0.373007
9710.000000;0.372472
9709.000000;0.371819
9708.000000;0.371167
9707.000000;0.370555
9706.000000;0.370059
9705.000000;0.369805
9704.000000;0.369752
9703.000000;0.369627
9702.000000;0.369219
9701.000000;0.368625
9700.000000;0.368096
9699.000000;0.367740
9698.000000;0.367462
9697.000000;0.367113
9696.000000;0.366600
9695.000000;0.365922
9694.000000;0.365211
9693.000000;0.364650
9692.000000;0.364311
9691.000000;0.364093
9690.000000;0.363856
9689.000000;0.363531
9688.000000;0.363120
9687.000000;0.362675
9686.000000;0.362288
9685.000000;0.361988
9684.000000;0.361655
9683.000000;0.361165
9682.000000;0.360606
9681.000000;0.360202
9680.000000;0.359995
9679.000000;0.359777
9678.000000;0.359372
9677.000000;0.358818
9676.000000;0.358231
9675.000000;0.357652
9674.000000;0.357117
9673.000000;0.356683
9672.000000;0.356330
9671.000000;0.355940
9670.000000;0.355464
9669.000000;0.354985
9668.000000;0.354561
9667.000000;0.354155
9666.000000;0.353765
9665.000000;0.353475
9664.000000;0.353270
9663.000000;0.352958
9662.000000;0.352375
9661.000000;0.351589
9660.000000;0.350801
9659.000000;0.350149
9658.000000;0.349660
9657.000000;0.349307
9656.000000;0.349023
9655.000000;0.348718
9654.000000;0.348341
9653.000000;0.347885
9652.000000;0.347349
9651.000000;0.346774
9650.000000;0.346280
9649.000000;0.345941
9648.000000;0.345651
9647.000000;0.345252
9646.000000;0.344786
9645.000000;0.344440
9644.000000;0.344235
9643.000000;0.343986
9642.000000;0.343598
9641.000000;0.343188
9640.000000;0.342849
9639.000000;0.342492
9638.000000;0.342020
9637.000000;0.341487
9636.000000;0.340965
9635.000000;0.340416
9634.000000;0.339805
9633.000000;0.339222
9632.000000;0.338771
9631.000000;0.338453
9630.000000;0.338215
9629.000000;0.338018
9628.000000;0.337782
9627.000000;0.337410
9626.000000;0.336939
9625.000000;0.336551
9624.000000;0.336339
9623.000000;0.336168
9622.000000;0.335857
9621.000000;0.335385
9620.000000;0.334857
9619.000000;0.334349
9618.000000;0.333857
9617.000000;0.333335
9616.000000;0.332741
9615.000000;0.332102
9614.000000;0.331551
9613.000000;0.331194
9612.000000;0.330931
9611.000000;0.330545
9610.000000;0.329992
9609.000000;0.329465
9608.000000;0.329154
9607.000000;0.329070
9606.000000;0.329115
9605.000000;0.329162
9604.000000;0.329022
9603.000000;0.328535
9602.000000;0.327769
9601.000000;0.326993
9600.000000;0.326375
9599.000000;0.325840
9598.000000;0.325268
9597.000000;0.324665
9596.000000;0.324085
9595.000000;0.323530
9594.000000;0.323027
9593.000000;0.322651
9592.000000;0.322397
9591.000000;0.322147
9590.000000;0.321862
9589.000000;0.321637
9588.000000;0.321505
9587.000000;0.321325
9586.000000;0.320984
9585.000000;0.320584
9584.000000;0.320295
9583.000000;0.320116
9582.000000;0.319895
9581.000000;0.319513
9580.000000;0.318971
9579.000000;0.318346
9578.000000;0.317740
9577.000000;0.317191
9576.000000;0.316622
9575.000000;0.315952
9574.000000;0.315280
9573.000000;0.314826
9572.000000;0.314661
9571.000000;0.314626
9570.000000;0.314545
9569.000000;0.314388
9568.000000;0.314184
9567.000000;0.313911
9566.000000;0.313572
9565.000000;0.313224
9564.000000;0.312850
9563.000000;0.312336
9562.000000;0.311657
9561.000000;0.310957
9560.000000;0.310376
9559.000000;0.309898
9558.000000;0.309461
9557.000000;0.309078
9556.000000;0.308756
9555.000000;0.308433
9554.000000;0.308087
9553.000000;0.307798
9552.000000;0.307606
9551.000000;0.307410
9550.000000;0.307107
9549.000000;0.306743
9548.000000;0.306405
9547.000000;0.306063
9546.000000;0.305618
9545.000000;0.305052
9544.000000;0.304431
9543.000000;0.303829
9542.000000;0.303312
9541.000000;0.302929
9540.000000;0.302642
9539.000000;0.302328
9538.000000;0.301913
9537.000000;0.301443
9536.000000;0.300988
9535.000000;0.300568
9534.000000;0.300219
9533.000000;0.300025
9532.000000;0.299988
9531.000000;0.299962
9530.000000;0.299777
9529.000000;0.299388
9528.000000;0.298854
9527.000000;0.298254
9526.000000;0.297683
9525.000000;0.297224
9524.000000;0.296863
9523.000000;0.296507
9522.000000;0.296136
9521.000000;0.295848
9520.000000;0.295680
9519.000000;0.295496
9518.000000;0.295130
9517.000000;0.294586
9516.000000;0.294012
9515.000000;0.293521
9514.000000;0.293103
9513.000000;0.292688
9512.000000;0.292238
9511.000000;0.291799
9510.000000;0.291461
9509.000000;0.291225
9508.000000;0.290953
9507.000000;0.290527
9506.000000;0.290037
9505.000000;0.289685
9504.000000;0.289492
9503.000000;0.289262
9502.000000;0.288866
9501.000000;0.288412
9500.000000;0.288062
9499.000000;0.287817
9498.000000;0.287575
9497.000000;0.287281
9496.000000;0.286921
9495.000000;0.286458
9494.000000;0.285894
9493.000000;0.285339
9492.000000;0.284918
9491.000000;0.284620
9490.000000;0.284309
9489.000000;0.283873
9488.000000;0.283318
9487.000000;0.282750
9486.000000;0.282306
9485.000000;0.282078
9484.000000;0.282049
9483.000000;0.282114
9482.000000;0.282145
9481.000000;0.282024
9480.000000;0.281640
9479.000000;0.280962
9478.000000;0.280113
9477.000000;0.279309
9476.000000;0.278715
9475.000000;0.278390
9474.000000;0.278316
9473.000000;0.278367
9472.000000;0.278296
9471.000000;0.277905
9470.000000;0.277258
9469.000000;0.276627
9468.000000;0.276193
9467.000000;0.275917
9466.000000;0.275676
9465.000000;0.275420
9464.000000;0.275127
9463.000000;0.274753
9462.000000;0.274293
9461.000000;0.273822
9460.000000;0.273403
9459.000000;0.273015
9458.000000;0.272614
9457.000000;0.272213
9456.000000;0.271878
9455.000000;0.271659
9454.000000;0.271536
9453.000000;0.271405
9452.000000;0.271147
9451.000000;0.270750
9450.000000;0.270325
9449.000000;0.269947
9448.000000;0.269549
9447.000000;0.269069
9446.000000;0.268612
9445.000000;0.268331
9444.000000;0.268187
9443.000000;0.267996
9442.000000;0.267686
9441.000000;0.267352
9440.000000;0.267061
9439.000000;0.266772
9438.000000;0.266457
9437.000000;0.266143
9436.000000;0.265818
9435.000000;0.265437
9434.000000;0.265047
9433.000000;0.264766
9432.000000;0.264581
9431.000000;0.264330
9430.000000;0.263920
9429.000000;0.263452
9428.000000;0.263054
9427.000000;0.262713
9426.000000;0.262343
9425.000000;0.261905
9424.000000;0.261419
9423.000000;0.260929
9422.000000;0.260519
9421.000000;0.260248
9420.000000;0.260063
9419.000000;0.259842
9418.000000;0.259548
9417.000000;0.259248
9416.000000;0.258975
9415.000000;0.258674
9414.000000;0.258300
9413.000000;0.257871
9412.000000;0.257407
9411.000000;0.256937
9410.000000;0.256551
9409.000000;0.256323
9408.000000;0.256160
9407.000000;0.255874
9406.000000;0.255444
9405.000000;0.255066
9404.000000;0.254896
9403.000000;0.254844
9402.000000;0.254710
9401.000000;0.254400
9400.000000;0.253964
9399.000000;0.253505
9398.000000;0.253117
9397.000000;0.252831
9396.000000;0.252584
9395.000000;0.252276
9394.000000;0.251887
9393.000000;0.251479
9392.000000;0.251090
9391.000000;0.250714
9390.000000;0.250369
9389.000000;0.250087
9388.000000;0.249843
9387.000000;0.249588
9386.000000;0.249338
9385.000000;0.249128
9384.000000;0.248895
9383.000000;0.248546
9382.000000;0.248139
9381.000000;0.247853
9380.000000;0.247758
9379.000000;0.247720
9378.000000;0.247571
9377.000000;0.247254
9376.000000;0.246786
9375.000000;0.246229
9374.000000;0.245702
9373.000000;0.245304
9372.000000;0.244975
9371.000000;0.244550
9370.000000;0.243987
9369.000000;0.243443
9368.000000;0.243082
9367.000000;0.242908
9366.000000;0.242802
9365.000000;0.242646
9364.000000;0.242377
9363.000000;0.242024
9362.000000;0.241701
9361.000000;0.241482
9360.000000;0.241297
9359.000000;0.241026
9358.000000;0.240676
9357.000000;0.240357
9356.000000;0.240099
9355.000000;0.239815
9354.000000;0.239433
9353.000000;0.238967
9352.000000;0.238453
9351.000000;0.237961
9350.000000;0.237610
9349.000000;0.237438
9348.000000;0.237279
9347.000000;0.236935
9346.000000;0.236450
9345.000000;0.236043
9344.000000;0.235783
9343.000000;0.235531
9342.000000;0.235215
9341.000000;0.234943
9340.000000;0.234788
9339.000000;0.234644
9338.000000;0.234384
9337.000000;0.234013
9336.000000;0.233594
9335.000000;0.233165
9334.000000;0.232785
9333.000000;0.232532
9332.000000;0.232384
9331.000000;0.232207
9330.000000;0.231924
9329.000000;0.231577
9328.000000;0.231210
9327.000000;0.230825
9326.000000;0.230478
9325.000000;0.230266
9324.000000;0.230150
9323.000000;0.229961
9322.000000;0.229633
9321.000000;0.229314
9320.000000;0.229142
9319.000000;0.229062
9318.000000;0.228926
9317.000000;0.228668
9316.000000;0.228308
9315.000000;0.227896
9314.000000;0.227510
9313.000000;0.227215
9312.000000;0.226966
9311.000000;0.226647
9310.000000;0.226228
9309.000000;0.225796
9308.000000;0.225408
9307.000000;0.225052
9306.000000;0.224745
9305.000000;0.224534
9304.000000;0.224344
9303.000000;0.224008
9302.000000;0.223498
9301.000000;0.223003
9300.000000;0.222710
9299.000000;0.222608
9298.000000;0.222561
9297.000000;0.222454
9296.000000;0.222221
9295.000000;0.221862
9294.000000;0.221484
9293.000000;0.221186
9292.000000;0.220887
9291.000000;0.220418
9290.000000;0.219830
9289.000000;0.219426
9288.000000;0.219403
9287.000000;0.219610
9286.000000;0.219744
9285.000000;0.219657
9284.000000;0.219373
9283.000000;0.218958
9282.000000;0.218516
9281.000000;0.218187
9280.000000;0.218025
9279.000000;0.217938
9278.000000;0.217813
9277.000000;0.217641
9276.000000;0.217431
9275.000000;0.217120
9274.000000;0.216665
9273.000000;0.216138
9272.000000;0.215640
9271.000000;0.215201
9270.000000;0.214825
9269.000000;0.214550
9268.000000;0.214383
9267.000000;0.214250
9266.000000;0.214085
9265.000000;0.213904
9264.000000;0.213733
9263.000000;0.213553
9262.000000;0.213357
9261.000000;0.213178
9260.000000;0.212992
9259.000000;0.212690
9258.000000;0.212232
9257.000000;0.211752
9256.000000;0.211415
9255.000000;0.211227
9254.000000;0.211058
9253.000000;0.210803
9252.000000;0.210473
9251.000000;0.210167
9250.000000;0.209982
9249.000000;0.209914
9248.000000;0.209830
9247.000000;0.209596
9246.000000;0.209245
9245.000000;0.208919
9244.000000;0.208673
9243.000000;0.208416
9242.000000;0.208086
9241.000000;0.207729
9240.000000;0.207388
9239.000000;0.207021
9238.000000;0.206585
9237.000000;0.206129
9236.000000;0.205732
9235.000000;0.205439
9234.000000;0.205263
9233.000000;0.205180
9232.000000;0.205084
9231.000000;0.204863
9230.000000;0.204529
9229.000000;0.204183
9228.000000;0.203856
9227.000000;0.203508
9226.000000;0.203171
9225.000000;0.202961
9224.000000;0.202886
9223.000000;0.202808
9222.000000;0.202649
9221.000000;0.202497
9220.000000;0.202426
9219.000000;0.202345
9218.000000;0.202134
9217.000000;0.201831
9216.000000;0.201578
9215.000000;0.201441
9214.000000;0.201361
9213.000000;0.201226
9212.000000;0.200931
9211.000000;0.200452
9210.000000;0.199901
9209.000000;0.199469
9208.000000;0.199255
9207.000000;0.199207
9206.000000;0.199213
9205.000000;0.199169
9204.000000;0.198969
9203.000000;0.198560
9202.000000;0.198049
9201.000000;0.197631
9200.000000;0.197368
9199.000000;0.197140
9198.000000;0.196851
9197.000000;0.196561
9196.000000;0.196339
9195.000000;0.196137
9194.000000;0.195877
9193.000000;0.195568
9192.000000;0.195271
9191.000000;0.195006
9190.000000;0.194765
9189.000000;0.194536
9188.000000;0.194272
9187.000000;0.193926
9186.000000;0.193545
9185.000000;0.193245
9184.000000;0.193056
9183.000000;0.192909
9182.000000;0.192799
9181.000000;0.192817
9180.000000;0.192957
9179.000000;0.193026
9178.000000;0.192864
9177.000000;0.192541
9176.000000;0.192237
9175.000000;0.192008
9174.000000;0.191788
9173.000000;0.191539
9172.000000;0.191276
9171.000000;0.191009
9170.000000;0.190730
9169.000000;0.190446
9168.000000;0.190160
9167.000000;0.189851
9166.000000;0.189527
9165.000000;0.189252
9164.000000;0.189066
9163.000000;0.188937
9162.000000;0.188815
9161.000000;0.188676
9160.000000;0.188494
9159.000000;0.188242
9158.000000;0.187964
9157.000000;0.187775
9156.000000;0.187725
9155.000000;0.187702
9154.000000;0.187517
9153.000000;0.187072
9152.000000;0.186443
9151.000000;0.185844
9150.000000;0.185501
9149.000000;0.185467
9148.000000;0.185544
9147.000000;0.185456
9146.000000;0.185113
9145.000000;0.184656
9144.000000;0.184259
9143.000000;0.183990
9142.000000;0.183857
9141.000000;0.183862
9140.000000;0.183953
9139.000000;0.184021
9138.000000;0.183993
9137.000000;0.183862
9136.000000;0.183629
9135.000000;0.183298
9134.000000;0.182930
9133.000000;0.182602
9132.000000;0.182293
9131.000000;0.181933
9130.000000;0.181572
9129.000000;0.181359
9128.000000;0.181323
9127.000000;0.181309
9126.000000;0.181166
9125.000000;0.180904
9124.000000;0.180606
9123.000000;0.180326
9122.000000;0.180117
9121.000000;0.180023
9120.000000;0.179972
9119.000000;0.179798
9118.000000;0.179445
9117.000000;0.179052
9116.000000;0.178752
9115.000000;0.178497
9114.000000;0.178173
9113.000000;0.177792
9112.000000;0.177461
9111.000000;0.177242
9110.000000;0.177121
9109.000000;0.177060
9108.000000;0.177000
9107.000000;0.176864
9106.000000;0.176643
9105.000000;0.176423
9104.000000;0.176281
9103.000000;0.176189
9102.000000;0.176066
9101.000000;0.175879
9100.000000;0.175640
9099.000000;0.175381
9098.000000;0.175135
9097.000000;0.174920
9096.000000;0.174709
9095.000000;0.174476
9094.000000;0.174271
9093.000000;0.174150
9092.000000;0.174051
9091.000000;0.173837
9090.000000;0.173506
9089.000000;0.173211
9088.000000;0.173046
9087.000000;0.172926
9086.000000;0.172749
9085.000000;0.172547
9084.000000;0.172391
9083.000000;0.172232
9082.000000;0.171977
9081.000000;0.171636
9080.000000;0.171319
9079.000000;0.171098
9078.000000;0.170935
9077.000000;0.170740
9076.000000;0.170458
9075.000000;0.170147
9074.000000;0.169960
9073.000000;0.169991
9072.000000;0.170131
9071.000000;0.170157
9070.000000;0.169970
9069.000000;0.169660
9068.000000;0.169327
9067.000000;0.168969
9066.000000;0.168583
9065.000000;0.168245
9064.000000;0.168028
9063.000000;0.167922
9062.000000;0.167900
9061.000000;0.167951
9060.000000;0.167991
9059.000000;0.167865
9058.000000;0.167518
9057.000000;0.167082
9056.000000;0.166717
9055.000000;0.166459
9054.000000;0.166285
9053.000000;0.166214
9052.000000;0.166236
9051.000000;0.166244
9050.000000;0.166139
9049.000000;0.165948
9048.000000;0.165751
9047.000000;0.165551
9046.000000;0.165312
9045.000000;0.165057
9044.000000;0.164828
9043.000000;0.164603
9042.000000;0.164349
9041.000000;0.164117
9040.000000;0.163974
9039.000000;0.163888
9038.000000;0.163759
9037.000000;0.163563
9036.000000;0.163365
9035.000000;0.163200
9034.000000;0.163014
9033.000000;0.162747
9032.000000;0.162417
9031.000000;0.162105
9030.000000;0.161883
9029.000000;0.161762
9028.000000;0.161680
9027.000000;0.161563
9026.000000;0.161389
9025.000000;0.161195
9024.000000;0.161019
9023.000000;0.160888
9022.000000;0.160833
9021.000000;0.160852
9020.000000;0.160850
9019.000000;0.160691
9018.000000;0.160355
9017.000000;0.159987
9016.000000;0.159745
9015.000000;0.159631
9014.000000;0.159506
9013.000000;0.159251
9012.000000;0.158884
9011.000000;0.158554
9010.000000;0.158417
9009.000000;0.158475
9008.000000;0.158550
9007.000000;0.158460
9006.000000;0.158223
9005.000000;0.158007
9004.000000;0.157899
9003.000000;0.157812
9002.000000;0.157629
9001.000000;0.157352
9000.000000;0.157061
8999.000000;0.156814
8998.000000;0.156628
8997.000000;0.156502
8996.000000;0.156402
8995.000000;0.156280
8994.000000;0.156130
8993.000000;0.155990
8992.000000;0.155875
8991.000000;0.155767
8990.000000;0.155668
8989.000000;0.155590
8988.000000;0.155480
8987.000000;0.155261
8986.000000;0.154952
8985.000000;0.154670
8984.000000;0.154474
8983.000000;0.154296
8982.000000;0.154074
8981.000000;0.153853
8980.000000;0.153702
8979.000000;0.153600
8978.000000;0.153482
8977.000000;0.153323
8976.000000;0.153137
8975.000000;0.152939
8974.000000;0.152767
8973.000000;0.152669
8972.000000;0.152633
8971.000000;0.152594
8970.000000;0.152543
8969.000000;0.152556
8968.000000;0.152649
8967.000000;0.152696
8966.000000;0.152559
8965.000000;0.152239
8964.000000;0.151837
8963.000000;0.151421
8962.000000;0.151030
8961.000000;0.150734
8960.000000;0.150590
8959.000000;0.150549
8958.000000;0.150492
8957.000000;0.150358
8956.000000;0.150182
8955.000000;0.150024
8954.000000;0.149902
8953.000000;0.149809
8952.000000;0.149728
8951.000000;0.149647
8950.000000;0.149550
8949.000000;0.149410
8948.000000;0.149182
8947.000000;0.148850
8946.000000;0.148492
8945.000000;0.148258
8944.000000;0.148235
8943.000000;0.148335
8942.000000;0.148364
8941.000000;0.148184
8940.000000;0.147822
8939.000000;0.147445
8938.000000;0.147230
8937.000000;0.147232
8936.000000;0.147341
8935.000000;0.147393
8934.000000;0.147316
8933.000000;0.147155
8932.000000;0.146972
8931.000000;0.146790
8930.000000;0.146620
8929.000000;0.146489
8928.000000;0.146390
8927.000000;0.146268
8926.000000;0.146080
8925.000000;0.145840
8924.000000;0.145590
8923.000000;0.145342
8922.000000;0.145090
8921.000000;0.144850
8920.000000;0.144685
8919.000000;0.144659
8918.000000;0.144761
8917.000000;0.144872
8916.000000;0.144848
8915.000000;0.144677
8914.000000;0.144500
8913.000000;0.144432
8912.000000;0.144427
8911.000000;0.144381
8910.000000;0.144307
8909.000000;0.144290
8908.000000;0.144295
8907.000000;0.144167
8906.000000;0.143830
8905.000000;0.143380
8904.000000;0.142948
8903.000000;0.142589
8902.000000;0.142338
8901.000000;0.142265
8900.000000;0.142388
8899.000000;0.142602
8898.000000;0.142766
8897.000000;0.142809
8896.000000;0.142729
8895.000000;0.142539
8894.000000;0.142276
8893.000000;0.142012
8892.000000;0.141781
8891.000000;0.141550
8890.000000;0.141300
8889.000000;0.141117
8888.000000;0.141125
8887.000000;0.141335
8886.000000;0.141594
8885.000000;0.141698
8884.000000;0.141548
8883.000000;0.141213
8882.000000;0.140862
8881.000000;0.140619
8880.000000;0.140474
8879.000000;0.140341
8878.000000;0.140181
8877.000000;0.140022
8876.000000;0.139885
8875.000000;0.139752
8874.000000;0.139612
8873.000000;0.139494
8872.000000;0.139407
8871.000000;0.139316
8870.000000;0.139192
8869.000000;0.139078
8868.000000;0.139043
8867.000000;0.139078
8866.000000;0.139072
8865.000000;0.138903
8864.000000;0.138572
8863.000000;0.138226
8862.000000;0.138028
8861.000000;0.138006
8860.000000;0.138053
8859.000000;0.138066
8858.000000;0.138040
8857.000000;0.137993
8856.000000;0.137895
8855.000000;0.137737
8854.000000;0.137616
8853.000000;0.137650
8852.000000;0.137829
8851.000000;0.138008
8850.000000;0.138058
8849.000000;0.137965
8848.000000;0.137798
8847.000000;0.137648
8846.000000;0.137577
8845.000000;0.137570
8844.000000;0.137538
8843.000000;0.137422
8842.000000;0.137274
8841.000000;0.137195
8840.000000;0.137192
8839.000000;0.137177
8838.000000;0.137092
8837.000000;0.136963
8836.000000;0.136842
8835.000000;0.136759
8834.000000;0.136721
8833.000000;0.136708
8832.000000;0.136669
8831.000000;0.136582
8830.000000;0.136503
8829.000000;0.136512
8828.000000;0.136592
8827.000000;0.136650
8826.000000;0.136644
8825.000000;0.136637
8824.000000;0.136715
8823.000000;0.136891
8822.000000;0.137100
8821.000000;0.137243
8820.000000;0.137261
8819.000000;0.137191
8818.000000;0.137145
8817.000000;0.137194
8816.000000;0.137302
8815.000000;0.137418
8814.000000;0.137567
8813.000000;0.137792
8812.000000;0.138029
8811.000000;0.138137
8810.000000;0.138047
8809.000000;0.137819
8808.000000;0.137549
8807.000000;0.137312
8806.000000;0.137181
8805.000000;0.137232
8804.000000;0.137481
8803.000000;0.137838
8802.000000;0.138126
8801.000000;0.138167
8800.000000;0.137909
8799.000000;0.137512
8798.000000;0.137235
8797.000000;0.137199
8796.000000;0.137294
8795.000000;0.137370
8794.000000;0.137428
8793.000000;0.137557
8792.000000;0.137759
8791.000000;0.137952
8790.000000;0.138079
8789.000000;0.138121
8788.000000;0.138050
8787.000000;0.137909
8786.000000;0.137877
8785.000000;0.138104
8784.000000;0.138491
8783.000000;0.138777
8782.000000;0.138831
8781.000000;0.138751
8780.000000;0.138662
8779.000000;0.138585
8778.000000;0.138533
8777.000000;0.138577
8776.000000;0.138762
8775.000000;0.139034
8774.000000;0.139299
8773.000000;0.139496
8772.000000;0.139589
8771.000000;0.139566
8770.000000;0.139479
8769.000000;0.139434
8768.000000;0.139500
8767.000000;0.139665
8766.000000;0.139872
8765.000000;0.140057
8764.000000;0.140167
8763.000000;0.140215
8762.000000;0.140298
8761.000000;0.140470
8760.000000;0.140648
8759.000000;0.140721
8758.000000;0.140733
8757.000000;0.140834
8756.000000;0.141062
8755.000000;0.141290
8754.000000;0.141402
8753.000000;0.141434
8752.000000;0.141491
8751.000000;0.141643
8750.000000;0.141900
8749.000000;0.142217
8748.000000;0.142485
8747.000000;0.142600
8746.000000;0.142568
8745.000000;0.142495
8744.000000;0.142467
8743.000000;0.142503
8742.000000;0.142623
8741.000000;0.142857
8740.000000;0.143167
8739.000000;0.143438
8738.000000;0.143576
8737.000000;0.143583
8736.000000;0.143535
8735.000000;0.143545
8734.000000;0.143717
8733.000000;0.144053
8732.000000;0.144409
8731.000000;0.144621
8730.000000;0.144671
8729.000000;0.144657
8728.000000;0.144653
8727.000000;0.144672
8726.000000;0.144736
8725.000000;0.144870
8724.000000;0.145025
8723.000000;0.145131
8722.000000;0.145224
8721.000000;0.145401
8720.000000;0.145656
8719.000000;0.145857
8718.000000;0.145924
8717.000000;0.145919
8716.000000;0.145915
8715.000000;0.145907
8714.000000;0.145872
8713.000000;0.145846
8712.000000;0.145870
8711.000000;0.145948
8710.000000;0.146081
8709.000000;0.146281
8708.000000;0.146519
8707.000000;0.146723
8706.000000;0.146848
8705.000000;0.146906
8704.000000;0.146911
8703.000000;0.146873
8702.000000;0.146859
8701.000000;0.146971
8700.000000;0.147236
8699.000000;0.147579
8698.000000;0.147906
8697.000000;0.148166
8696.000000;0.148322
8695.000000;0.148344
8694.000000;0.148245
8693.000000;0.148083
8692.000000;0.147901
8691.000000;0.147729
8690.000000;0.147620
8689.000000;0.147617
8688.000000;0.147690
8687.000000;0.147761
8686.000000;0.147807
8685.000000;0.147857
8684.000000;0.147926
8683.000000;0.147992
8682.000000;0.148049
8681.000000;0.148091
8680.000000;0.148084
8679.000000;0.148035
8678.000000;0.148048
8677.000000;0.148209
8676.000000;0.148440
8675.000000;0.148576
8674.000000;0.148580
8673.000000;0.148547
8672.000000;0.148516
8671.000000;0.148411
8670.000000;0.148210
8669.000000;0.148023
8668.000000;0.147954
8667.000000;0.147968
8666.000000;0.147968
8665.000000;0.147912
8664.000000;0.147810
8663.000000;0.147681
8662.000000;0.147562
8661.000000;0.147504
8660.000000;0.147515
8659.000000;0.147556
8658.000000;0.147586
8657.000000;0.147585
8656.000000;0.147526
8655.000000;0.147400
8654.000000;0.147267
8653.000000;0.147213
8652.000000;0.147236
8651.000000;0.147265
8650.000000;0.147285
8649.000000;0.147353
8648.000000;0.147484
8647.000000;0.147582
8646.000000;0.147549
8645.000000;0.147379
8644.000000;0.147139
8643.000000;0.146903
8642.000000;0.146722
8641.000000;0.146600
8640.000000;0.146477
8639.000000;0.146288
8638.000000;0.146046
8637.000000;0.145831
8636.000000;0.145692
8635.000000;0.145615
8634.000000;0.145574
8633.000000;0.145547
8632.000000;0.145516
8631.000000;0.145488
8630.000000;0.145510
8629.000000;0.145586
8628.000000;0.145613
8627.000000;0.145492
8626.000000;0.145263
8625.000000;0.145055
8624.000000;0.144908
8623.000000;0.144770
8622.000000;0.144639
8621.000000;0.144579
8620.000000;0.144573
8619.000000;0.144496
8618.000000;0.144278
8617.000000;0.143993
8616.000000;0.143763
8615.000000;0.143633
8614.000000;0.143588
8613.000000;0.143589
8612.000000;0.143571
8611.000000;0.143454
8610.000000;0.143237
8609.000000;0.143009
8608.000000;0.142851
8607.000000;0.142758
8606.000000;0.142681
8605.000000;0.142595
8604.000000;0.142506
8603.000000;0.142424
8602.000000;0.142347
8601.000000;0.142252
8600.000000;0.142108
8599.000000;0.141927
8598.000000;0.141769
8597.000000;0.141669
8596.000000;0.141586
8595.000000;0.141478
8594.000000;0.141363
8593.000000;0.141268
8592.000000;0.141149
8591.000000;0.140955
8590.000000;0.140727
8589.000000;0.140550
8588.000000;0.140428
8587.000000;0.140299
8586.000000;0.140149
8585.000000;0.140021
8584.000000;0.139924
8583.000000;0.139832
8582.000000;0.139745
8581.000000;0.139681
8580.000000;0.139596
8579.000000;0.139429
8578.000000;0.139194
8577.000000;0.138959
8576.000000;0.138755
8575.000000;0.138583
8574.000000;0.138481
8573.000000;0.138469
8572.000000;0.138461
8571.000000;0.138342
8570.000000;0.138130
8569.000000;0.137937
8568.000000;0.137790
8567.000000;0.137591
8566.000000;0.137289
8565.000000;0.136956
8564.000000;0.136697
8563.000000;0.136546
8562.000000;0.136478
8561.000000;0.136427
8560.000000;0.136300
8559.000000;0.136075
8558.000000;0.135864
8557.000000;0.135795
8556.000000;0.135842
8555.000000;0.135853
8554.000000;0.135751
8553.000000;0.135575
8552.000000;0.135363
8551.000000;0.135109
8550.000000;0.134850
8549.000000;0.134659
8548.000000;0.134523
8547.000000;0.134359
8546.000000;0.134155
8545.000000;0.133988
8544.000000;0.133887
8543.000000;0.133787
8542.000000;0.133651
8541.000000;0.133518
8540.000000;0.133407
8539.000000;0.133279
8538.000000;0.133119
8537.000000;0.132965
8536.000000;0.132814
8535.000000;0.132600
8534.000000;0.132317
8533.000000;0.132046
8532.000000;0.131837
8531.000000;0.131662
8530.000000;0.131512
8529.000000;0.131432
8528.000000;0.131413
8527.000000;0.131368
8526.000000;0.131261
8525.000000;0.131176
8524.000000;0.131186
8523.000000;0.131233
8522.000000;0.131207
8521.000000;0.131074
8520.000000;0.130882
8519.000000;0.130684
8518.000000;0.130516
8517.000000;0.130387
8516.000000;0.130271
8515.000000;0.130125
8514.000000;0.129945
8513.000000;0.129762
8512.000000;0.129578
8511.000000;0.129362
8510.000000;0.129109
8509.000000;0.128852
8508.000000;0.128613
8507.000000;0.128394
8506.000000;0.128212
8505.000000;0.128080
8504.000000;0.127956
8503.000000;0.127788
8502.000000;0.127589
8501.000000;0.127423
8500.000000;0.127318
8499.000000;0.127270
8498.000000;0.127307
8497.000000;0.127433
8496.000000;0.127544
8495.000000;0.127496
8494.000000;0.127284
8493.000000;0.127041
8492.000000;0.126861
8491.000000;0.126713
8490.000000;0.126551
8489.000000;0.126374
8488.000000;0.126175
8487.000000;0.125926
8486.000000;0.125658
8485.000000;0.125460
8484.000000;0.125361
8483.000000;0.125290
8482.000000;0.125180
8481.000000;0.125026
8480.000000;0.124830
8479.000000;0.124584
8478.000000;0.124342
8477.000000;0.124189
8476.000000;0.124109
8475.000000;0.123972
8474.000000;0.123711
8473.000000;0.123425
8472.000000;0.123246
8471.000000;0.123188
8470.000000;0.123171
8469.000000;0.123122
8468.000000;0.123014
8467.000000;0.122864
8466.000000;0.122720
8465.000000;0.122623
8464.000000;0.122538
8463.000000;0.122388
8462.000000;0.122162
8461.000000;0.121932
8460.000000;0.121754
8459.000000;0.121625
8458.000000;0.121536
8457.000000;0.121473
8456.000000;0.121384
8455.000000;0.121216
8454.000000;0.121026
8453.000000;0.120942
8452.000000;0.121001
8451.000000;0.121086
8450.000000;0.121070
8449.000000;0.120932
8448.000000;0.120719
8447.000000;0.120481
8446.000000;0.120279
8445.000000;0.120173
8444.000000;0.120151
8443.000000;0.120109
8442.000000;0.119961
8441.000000;0.119713
8440.000000;0.119440
8439.000000;0.119219
8438.000000;0.119107
8437.000000;0.119088
8436.000000;0.119048
8435.000000;0.118856
8434.000000;0.118522
8433.000000;0.118208
8432.000000;0.118056
8431.000000;0.118056
8430.000000;0.118103
8429.000000;0.118101
8428.000000;0.118013
8427.000000;0.117847
8426.000000;0.117640
8425.000000;0.117417
8424.000000;0.117172
8423.000000;0.116917
8422.000000;0.116721
8421.000000;0.116629
8420.000000;0.116568
8419.000000;0.116432
8418.000000;0.116238
8417.000000;0.116103
8416.000000;0.116053
8415.000000;0.115980
8414.000000;0.115806
8413.000000;0.115593
8412.000000;0.115436
8411.000000;0.115337
8410.000000;0.115252
8409.000000;0.115172
8408.000000;0.115111
8407.000000;0.115049
8406.000000;0.114953
8405.000000;0.114809
8404.000000;0.114630
8403.000000;0.114434
8402.000000;0.114249
8401.000000;0.114086
8400.000000;0.113925
8399.000000;0.113760
8398.000000;0.113641
8397.000000;0.113613
8396.000000;0.113629
8395.000000;0.113581
8394.000000;0.113425
8393.000000;0.113207
8392.000000;0.112969
8391.000000;0.112708
8390.000000;0.112428
8389.000000;0.112158
8388.000000;0.111913
8387.000000;0.111710
8386.000000;0.111603
8385.000000;0.111616
8384.000000;0.111665
8383.000000;0.111624
8382.000000;0.111492
8381.000000;0.111385
8380.000000;0.111354
8379.000000;0.111318
8378.000000;0.111187
8377.000000;0.110970
8376.000000;0.110733
8375.000000;0.110511
8374.000000;0.110315
8373.000000;0.110156
8372.000000;0.110026
8371.000000;0.109915
8370.000000;0.109838
8369.000000;0.109804
8368.000000;0.109764
8367.000000;0.109645
8366.000000;0.109449
8365.000000;0.109237
8364.000000;0.109029
8363.000000;0.108803
8362.000000;0.108592
8361.000000;0.108467
8360.000000;0.108409
8359.000000;0.108320
8358.000000;0.108160
8357.000000;0.108002
8356.000000;0.107900
8355.000000;0.107809
8354.000000;0.107674
8353.000000;0.107505
8352.000000;0.107321
8351.000000;0.107100
8350.000000;0.106838
8349.000000;0.106591
8348.000000;0.106406
8347.000000;0.106265
8346.000000;0.106128
8345.000000;0.105987
8344.000000;0.105842
8343.000000;0.105694
8342.000000;0.105567
8341.000000;0.105488
8340.000000;0.105413
8339.000000;0.105255
8338.000000;0.104992
8337.000000;0.104708
8336.000000;0.104480
8335.000000;0.104309
8334.000000;0.104170
8333.000000;0.104058
8332.000000;0.103957
8331.000000;0.103820
8330.000000;0.103631
8329.000000;0.103422
8328.000000;0.103209
8327.000000;0.102977
8326.000000;0.102744
8325.000000;0.102564
8324.000000;0.102449
8323.000000;0.102351
8322.000000;0.102241
8321.000000;0.102142
8320.000000;0.102040
8319.000000;0.101869
8318.000000;0.101607
8317.000000;0.101334
8316.000000;0.101137
8315.000000;0.101014
8314.000000;0.100913
8313.000000;0.100808
8312.000000;0.100693
8311.000000;0.100546
8310.000000;0.100358
8309.000000;0.100159
8308.000000;0.099969
8307.000000;0.099776
8306.000000;0.099576
8305.000000;0.099388
8304.000000;0.099211
8303.000000;0.099002
8302.000000;0.098755
8301.000000;0.098530
8300.000000;0.098380
8299.000000;0.098283
8298.000000;0.098193
8297.000000;0.098105
8296.000000;0.098041
8295.000000;0.097985
8294.000000;0.097891
8293.000000;0.097734
8292.000000;0.097525
8291.000000;0.097290
8290.000000;0.097054
8289.000000;0.096831
8288.000000;0.096619
8287.000000;0.096403
8286.000000;0.096183
8285.000000;0.095966
8284.000000;0.095751
8283.000000;0.095532
8282.000000;0.095320
8281.000000;0.095136
8280.000000;0.094995
8279.000000;0.094906
8278.000000;0.094861
8277.000000;0.094818
8276.000000;0.094708
8275.000000;0.094520
8274.000000;0.094320
8273.000000;0.094167
8272.000000;0.094035
8271.000000;0.093869
8270.000000;0.093676
8269.000000;0.093489
8268.000000;0.093283
8267.000000;0.093007
8266.000000;0.092697
8265.000000;0.092449
8264.000000;0.092294
8263.000000;0.092180
8262.000000;0.092062
8261.000000;0.091936
8260.000000;0.091780
8259.000000;0.091550
8258.000000;0.091250
8257.000000;0.090951
8256.000000;0.090703
8255.000000;0.090505
8254.000000;0.090358
8253.000000;0.090278
8252.000000;0.090237
8251.000000;0.090153
8250.000000;0.089987
8249.000000;0.089782
8248.000000;0.089603
8247.000000;0.089465
8246.000000;0.089344
8245.000000;0.089211
8244.000000;0.089045
8243.000000;0.088850
8242.000000;0.088664
8241.000000;0.088508
8240.000000;0.088349
8239.000000;0.088140
8238.000000;0.087908
8237.000000;0.087727
8236.000000;0.087630
8235.000000;0.087579
8234.000000;0.087531
8233.000000;0.087454
8232.000000;0.087298
8231.000000;0.087036
8230.000000;0.086720
8229.000000;0.086451
8228.000000;0.086255
8227.000000;0.086069
8226.000000;0.085846
8225.000000;0.085604
8224.000000;0.085377
8223.000000;0.085178
8222.000000;0.085015
8221.000000;0.084895
8220.000000;0.084781
8219.000000;0.084612
8218.000000;0.084387
8217.000000;0.084168
8216.000000;0.084002
8215.000000;0.083869
8214.000000;0.083718
8213.000000;0.083519
8212.000000;0.083269
8211.000000;0.083002
8210.000000;0.082779
8209.000000;0.082630
8208.000000;0.082516
8207.000000;0.082390
8206.000000;0.082265
8205.000000;0.082179
8204.000000;0.082114
8203.000000;0.082016
8202.000000;0.081870
8201.000000;0.081701
8200.000000;0.081497
8199.000000;0.081241
8198.000000;0.080973
8197.000000;0.080750
8196.000000;0.080541
8195.000000;0.080268
8194.000000;0.079946
8193.000000;0.079686
8192.000000;0.079548
8191.000000;0.079464
8190.000000;0.079360
8189.000000;0.079257
8188.000000;0.079205
8187.000000;0.079184
8186.000000;0.079104
8185.000000;0.078895
8184.000000;0.078564
8183.000000;0.078213
8182.000000;0.077981
8181.000000;0.077928
8180.000000;0.077965
8179.000000;0.077938
8178.000000;0.077789
8177.000000;0.077581
8176.000000;0.077387
8175.000000;0.077211
8174.000000;0.077022
8173.000000;0.076799
8172.000000;0.076550
8171.000000;0.076315
8170.000000;0.076154
8169.000000;0.076065
8168.000000;0.075945
8167.000000;0.075691
8166.000000;0.075331
8165.000000;0.074985
8164.000000;0.074727
8163.000000;0.074551
8162.000000;0.074448
8161.000000;0.074409
8160.000000;0.074365
8159.000000;0.074232
8158.000000;0.074033
8157.000000;0.073872
8156.000000;0.073773
8155.000000;0.073652
8154.000000;0.073457
8153.000000;0.073236
8152.000000;0.073042
8151.000000;0.072864
8150.000000;0.072685
8149.000000;0.072545
8148.000000;0.072463
8147.000000;0.072380
8146.000000;0.072225
8145.000000;0.071996
8144.000000;0.071745
8143.000000;0.071504
8142.000000;0.071276
8141.000000;0.071056
8140.000000;0.070835
8139.000000;0.070611
8138.000000;0.070403
8137.000000;0.070228
8136.000000;0.070058
8135.000000;0.069862
8134.000000;0.069655
8133.000000;0.069482
8132.000000;0.069337
8131.000000;0.069168
8130.000000;0.068960
8129.000000;0.068745
8128.000000;0.068537
8127.000000;0.068318
8126.000000;0.068109
8125.000000;0.067971
8124.000000;0.067915
8123.000000;0.067871
8122.000000;0.067759
8121.000000;0.067564
8120.000000;0.067321
8119.000000;0.067074
8118.000000;0.066858
8117.000000;0.066684
8116.000000;0.066527
8115.000000;0.066355
8114.000000;0.066170
8113.000000;0.065988
8112.000000;0.065786
8111.000000;0.065530
8110.000000;0.065233
8109.000000;0.064952
8108.000000;0.064734
8107.000000;0.064608
8106.000000;0.064591
8105.000000;0.064641
8104.000000;0.064639
8103.000000;0.064495
8102.000000;0.064252
8101.000000;0.064031
8100.000000;0.063866
8099.000000;0.063694
8098.000000;0.063478
8097.000000;0.063249
8096.000000;0.063024
8095.000000;0.062777
8094.000000;0.062511
8093.000000;0.062277
8092.000000;0.062093
8091.000000;0.061912
8090.000000;0.061688
8089.000000;0.061419
8088.000000;0.061140
8087.000000;0.060897
8086.000000;0.060748
8085.000000;0.060705
8084.000000;0.060688
8083.000000;0.060595
8082.000000;0.060412
8081.000000;0.060202
8080.000000;0.059994
8079.000000;0.059774
8078.000000;0.059550
8077.000000;0.059355
8076.000000;0.059171
8075.000000;0.058940
8074.000000;0.058659
8073.000000;0.058405
8072.000000;0.058233
8071.000000;0.058134
8070.000000;0.058072
8069.000000;0.058009
8068.000000;0.057888
8067.000000;0.057680
8066.000000;0.057439
8065.000000;0.057242
8064.000000;0.057076
8063.000000;0.056865
8062.000000;0.056612
8061.000000;0.056397
8060.000000;0.056246
8059.000000;0.056088
8058.000000;0.055892
8057.000000;0.055721
8056.000000;0.055618
8055.000000;0.055514
8054.000000;0.055324
8053.000000;0.055053
8052.000000;0.054770
8051.000000;0.054527
8050.000000;0.054338
8049.000000;0.054197
8048.000000;0.054074
8047.000000;0.053927
8046.000000;0.053739
8045.000000;0.053527
8044.000000;0.053307
8043.000000;0.053093
8042.000000;0.052922
8041.000000;0.052811
8040.000000;0.052700
8039.000000;0.052511
8038.000000;0.052255
8037.000000;0.052019
8036.000000;0.051845
8035.000000;0.051689
8034.000000;0.051508
8033.000000;0.051305
8032.000000;0.051081
8031.000000;0.050828
8030.000000;0.050577
8029.000000;0.050388
8028.000000;0.050269
8027.000000;0.050169
8026.000000;0.050061
8025.000000;0.049940
8024.000000;0.049759
8023.000000;0.049454
8022.000000;0.049071
8021.000000;0.048760
8020.000000;0.048599
8019.000000;0.048513
8018.000000;0.048390
8017.000000;0.048212
8016.000000;0.048015
8015.000000;0.047811
8014.000000;0.047602
8013.000000;0.047401
8012.000000;0.047206
8011.000000;0.046996
8010.000000;0.046785
8009.000000;0.046625
8008.000000;0.046520
8007.000000;0.046411
8006.000000;0.046257
8005.000000;0.046083
8004.000000;0.045900
8003.000000;0.045676
8002.000000;0.045412
8001.000000;0.045180
8000.000000;0.045025
7999.000000;0.044903
7998.000000;0.044752
7997.000000;0.044583
7996.000000;0.044417
7995.000000;0.044230
7994.000000;0.043996
7993.000000;0.043761
7992.000000;0.043583
7991.000000;0.043444
7990.000000;0.043274
7989.000000;0.043050
7988.000000;0.042816
7987.000000;0.042613
7986.000000;0.042447
7985.000000;0.042297
7984.000000;0.042139
7983.000000;0.041949
7982.000000;0.041721
7981.000000;0.041475
7980.000000;0.041237
7979.000000;0.041025
7978.000000;0.040848
7977.000000;0.040694
7976.000000;0.040530
7975.000000;0.040335
7974.000000;0.040133
7973.000000;0.039951
7972.000000;0.039766
7971.000000;0.039526
7970.000000;0.039228
7969.000000;0.038935
7968.000000;0.038701
7967.000000;0.038536
7966.000000;0.038429
7965.000000;0.038360
7964.000000;0.038271
7963.000000;0.038105
7962.000000;0.037870
7961.000000;0.037632
7960.000000;0.037429
7959.000000;0.037238
7958.000000;0.037038
7957.000000;0.036841
7956.000000;0.036655
7955.000000;0.036463
7954.000000;0.036276
7953.000000;0.036130
7952.000000;0.036013
7951.000000;0.035850
7950.000000;0.035589
7949.000000;0.035280
7948.000000;0.035028
7947.000000;0.034889
7946.000000;0.034837
7945.000000;0.034790
7944.000000;0.034658
7943.000000;0.034409
7942.000000;0.034098
7941.000000;0.033827
7940.000000;0.033646
7939.000000;0.033521
7938.000000;0.033394
7937.000000;0.033245
7936.000000;0.033077
7935.000000;0.032894
7934.000000;0.032704
7933.000000;0.032506
7932.000000;0.032290
7931.000000;0.032056
7930.000000;0.031837
7929.000000;0.031671
7928.000000;0.031541
7927.000000;0.031403
7926.000000;0.031247
7925.000000;0.031089
7924.000000;0.030917
7923.000000;0.030702
7922.000000;0.030459
7921.000000;0.030233
7920.000000;0.030037
7919.000000;0.029841
7918.000000;0.029652
7917.000000;0.029513
7916.000000;0.029433
7915.000000;0.029351
7914.000000;0.029221
7913.000000;0.029050
7912.000000;0.028863
7911.000000;0.028665
7910.000000;0.028460
7909.000000;0.028264
7908.000000;0.028074
7907.000000;0.027870
7906.000000;0.027653
7905.000000;0.027442
7904.000000;0.027238
7903.000000;0.027027
7902.000000;0.026826
7901.000000;0.026663
7900.000000;0.026512
7899.000000;0.026316
7898.000000;0.026070
7897.000000;0.025840
7896.000000;0.025674
7895.000000;0.025550
7894.000000;0.025427
7893.000000;0.025294
7892.000000;0.025143
7891.000000;0.024961
7890.000000;0.024760
7889.000000;0.024573
7888.000000;0.024399
7887.000000;0.024196
7886.000000;0.023955
7885.000000;0.023728
7884.000000;0.023571
7883.000000;0.023477
7882.000000;0.023406
7881.000000;0.023315
7880.000000;0.023176
7879.000000;0.022980
7878.000000;0.022749
7877.000000;0.022516
7876.000000;0.022285
7875.000000;0.022049
7874.000000;0.021827
7873.000000;0.021652
7872.000000;0.021518
7871.000000;0.021389
7870.000000;0.021254
7869.000000;0.021135
7868.000000;0.021032
7867.000000;0.020913
7866.000000;0.020765
7865.000000;0.020608
7864.000000;0.020446
7863.000000;0.020263
7862.000000;0.020067
7861.000000;0.019886
7860.000000;0.019721
7859.000000;0.019550
7858.000000;0.019377
7857.000000;0.019223
7856.000000;0.019080
7855.000000;0.018911
7854.000000;0.018719
7853.000000;0.018551
7852.000000;0.018430
7851.000000;0.018329
7850.000000;0.018221
7849.000000;0.018098
7848.000000;0.017946
7847.000000;0.017760
7846.000000;0.017575
7845.000000;0.017429
7844.000000;0.017295
7843.000000;0.017110
7842.000000;0.016888
7841.000000;0.016725
7840.000000;0.016670
7839.000000;0.016653
7838.000000;0.016573
7837.000000;0.016393
7836.000000;0.016131
7835.000000;0.015827
7834.000000;0.015543
7833.000000;0.015336
7832.000000;0.015202
7831.000000;0.015075
7830.000000;0.014906
7829.000000;0.014716
7828.000000;0.014543
7827.000000;0.014399
7826.000000;0.014295
7825.000000;0.014254
7824.000000;0.014256
7823.000000;0.014226
7822.000000;0.014100
7821.000000;0.013887
7820.000000;0.013644
7819.000000;0.013415
7818.000000;0.013220
7817.000000;0.013070
7816.000000;0.012952
7815.000000;0.012841
7814.000000;0.012729
7813.000000;0.012629
7812.000000;0.012541
7811.000000;0.012434
7810.000000;0.012279
7809.000000;0.012079
7808.000000;0.011857
7807.000000;0.011640
7806.000000;0.011456
7805.000000;0.011326
7804.000000;0.011244
7803.000000;0.011192
7802.000000;0.011166
7801.000000;0.011149
7800.000000;0.011094
7799.000000;0.010947
7798.000000;0.010716
7797.000000;0.010468
7796.000000;0.010255
7795.000000;0.010082
7794.000000;0.009925
7793.000000;0.009770
7792.000000;0.009620
7791.000000;0.009497
7790.000000;0.009428
7789.000000;0.009400
7788.000000;0.009351
7787.000000;0.009241
7786.000000;0.009100
7785.000000;0.008978
7784.000000;0.008857
7783.000000;0.008688
7782.000000;0.008486
7781.000000;0.008317
7780.000000;0.008206
7779.000000;0.008113
7778.000000;0.008002
7777.000000;0.007879
7776.000000;0.007749
7775.000000;0.007601
7774.000000;0.007443
7773.000000;0.007287
7772.000000;0.007113
7771.000000;0.006892
7770.000000;0.006657
7769.000000;0.006493
7768.000000;0.006439
7767.000000;0.006445
7766.000000;0.006436
7765.000000;0.006379
7764.000000;0.006267
7763.000000;0.006106
7762.000000;0.005922
7761.000000;0.005749
7760.000000;0.005598
7759.000000;0.005455
7758.000000;0.005329
7757.000000;0.005246
7756.000000;0.005198
7755.000000;0.005156
7754.000000;0.005106
7753.000000;0.005053
7752.000000;0.004984
7751.000000;0.004882
7750.000000;0.004773
7749.000000;0.004703
7748.000000;0.004663
7747.000000;0.004593
7746.000000;0.004456
7745.000000;0.004273
7744.000000;0.004086
7743.000000;0.003931
7742.000000;0.003841
7741.000000;0.003813
7740.000000;0.003778
7739.000000;0.003653
7738.000000;0.003447
7737.000000;0.003251
7736.000000;0.003118
7735.000000;0.003023
7734.000000;0.002947
7733.000000;0.002916
7732.000000;0.002929
7731.000000;0.002921
7730.000000;0.002838
7729.000000;0.002696
7728.000000;0.002552
7727.000000;0.002436
7726.000000;0.002348
7725.000000;0.002278
7724.000000;0.002208
7723.000000;0.002128
7722.000000;0.002052
7721.000000;0.002000
7720.000000;0.001960
7719.000000;0.001905
7718.000000;0.001839
7717.000000;0.001800
7716.000000;0.001790
7715.000000;0.001766
7714.000000;0.001695
7713.000000;0.001581
7712.000000;0.001446
7711.000000;0.001312
7710.000000;0.001221
7709.000000;0.001209
7708.000000;0.001250
7707.000000;0.001279
7706.000000;0.001262
7705.000000;0.001215
7704.000000;0.001138
7703.000000;0.001006
7702.000000;0.000823
7701.000000;0.000641
7700.000000;0.000506
7699.000000;0.000423
7698.000000;0.000382
7697.000000;0.000371
7696.000000;0.000356
7695.000000;0.000298
7694.000000;0.000202
7693.000000;0.000113
7692.000000;0.000050
7691.000000;-0.000011
7690.000000;-0.000080
7689.000000;-0.000130
7688.000000;-0.000149
7687.000000;-0.000158
7686.000000;-0.000180
7685.000000;-0.000208
7684.000000;-0.000228
7683.000000;-0.000236
7682.000000;-0.000241
7681.000000;-0.000261
7680.000000;-0.000326
7679.000000;-0.000448
7678.000000;-0.000577
7677.000000;-0.000643
7676.000000;-0.000633
7675.000000;-0.000600
7674.000000;-0.000589
7673.000000;-0.000612
7672.000000;-0.000667
7671.000000;-0.000752
7670.000000;-0.000831
7669.000000;-0.000855
7668.000000;-0.000821
7667.000000;-0.000782
7666.000000;-0.000787
7665.000000;-0.000842
7664.000000;-0.000934
7663.000000;-0.001041
7662.000000;-0.001125
7661.000000;-0.001145
7660.000000;-0.001109
7659.000000;-0.001063
7658.000000;-0.001038
7657.000000;-0.001035
7656.000000;-0.001059
7655.000000;-0.001120
7654.000000;-0.001191
7653.000000;-0.001213
7652.000000;-0.001157
7651.000000;-0.001055
7650.000000;-0.000961
7649.000000;-0.000913
7648.000000;-0.000929
7647.000000;-0.001006
7646.000000;-0.001104
7645.000000;-0.001170
7644.000000;-0.001193
7643.000000;-0.001193
7642.000000;-0.001174
7641.000000;-0.001139
7640.000000;-0.001129
7639.000000;-0.001193
7638.000000;-0.001301
7637.000000;-0.001352
7636.000000;-0.001292
7635.000000;-0.001176
7634.000000;-0.001089
7633.000000;-0.001044
7632.000000;-0.000989
7631.000000;-0.000886
7630.000000;-0.000758
7629.000000;-0.000659
7628.000000;-0.000624
7627.000000;-0.000643
7626.000000;-0.000677
7625.000000;-0.000697
7624.000000;-0.000703
7623.000000;-0.000705
7622.000000;-0.000697
7621.000000;-0.000673
7620.000000;-0.000635
7619.000000;-0.000582
7618.000000;-0.000494
7617.000000;-0.000375
7616.000000;-0.000266
7615.000000;-0.000201
7614.000000;-0.000173
7613.000000;-0.000171
7612.000000;-0.000214
7611.000000;-0.000303
7610.000000;-0.000374
7609.000000;-0.000354
7608.000000;-0.000243
7607.000000;-0.000103
7606.000000;0.000028
7605.000000;0.000152
7604.000000;0.000267
7603.000000;0.000361
7602.000000;0.000432
7601.000000;0.000481
7600.000000;0.000494
7599.000000;0.000473
7598.000000;0.000462
7597.000000;0.000497
7596.000000;0.000561
7595.000000;0.000627
7594.000000;0.000712
7593.000000;0.000833
7592.000000;0.000946
7591.000000;0.000994
7590.000000;0.001005
7589.000000;0.001066
7588.000000;0.001207
7587.000000;0.001382
7586.000000;0.001554
7585.000000;0.001736
7584.000000;0.001922
7583.000000;0.002071
7582.000000;0.002149
7581.000000;0.002163
7580.000000;0.002145
7579.000000;0.002141
7578.000000;0.002211
7577.000000;0.002382
7576.000000;0.002614
7575.000000;0.002841
7574.000000;0.003042
7573.000000;0.003226
7572.000000;0.003366
7571.000000;0.003429
7570.000000;0.003435
7569.000000;0.003453
7568.000000;0.003524
7567.000000;0.003643
7566.000000;0.003799
7565.000000;0.003976
7564.000000;0.004138
7563.000000;0.004265
7562.000000;0.004394
7561.000000;0.004557
7560.000000;0.004726
7559.000000;0.004865
7558.000000;0.005009
7557.000000;0.005211
7556.000000;0.005429
7555.000000;0.005572
7554.000000;0.005638
7553.000000;0.005721
7552.000000;0.005870
7551.000000;0.006037
7550.000000;0.006175
7549.000000;0.006305
7548.000000;0.006463
7547.000000;0.006639
7546.000000;0.006817
7545.000000;0.006993
7544.000000;0.007153
7543.000000;0.007277
7542.000000;0.007385
7541.000000;0.007529
7540.000000;0.007719
7539.000000;0.007907
7538.000000;0.008061
7537.000000;0.008196
7536.000000;0.008334
7535.000000;0.008484
7534.000000;0.008667
7533.000000;0.008898
7532.000000;0.009141
7531.000000;0.009330
7530.000000;0.009460
7529.000000;0.009600
7528.000000;0.009805
7527.000000;0.010065
7526.000000;0.010342
7525.000000;0.010606
7524.000000;0.010821
7523.000000;0.010962
7522.000000;0.011052
7521.000000;0.011149
7520.000000;0.011290
7519.000000;0.011473
7518.000000;0.011702
7517.000000;0.011978
7516.000000;0.012251
7515.000000;0.012454
7514.000000;0.012588
7513.000000;0.012738
7512.000000;0.012975
7511.000000;0.013284
7510.000000;0.013603
7509.000000;0.013887
7508.000000;0.014114
7507.000000;0.014288
7506.000000;0.014437
7505.000000;0.014593
7504.000000;0.014761
7503.000000;0.014940
7502.000000;0.015141
7501.000000;0.015365
7500.000000;0.015596
7499.000000;0.015809
7498.000000;0.016027
7497.000000;0.016284
7496.000000;0.016570
7495.000000;0.016844
7494.000000;0.017098
7493.000000;0.017351
7492.000000;0.017599
7491.000000;0.017818
7490.000000;0.018012
7489.000000;0.018223
7488.000000;0.018470
7487.000000;0.018734
7486.000000;0.018994
7485.000000;0.019242
7484.000000;0.019474
7483.000000;0.019695
7482.000000;0.019924
7481.000000;0.020162
7480.000000;0.020372
7479.000000;0.020535
7478.000000;0.020689
7477.000000;0.020889
7476.000000;0.021130
7475.000000;0.021377
7474.000000;0.021628
7473.000000;0.021905
7472.000000;0.022199
7471.000000;0.022477
7470.000000;0.022734
7469.000000;0.022968
7468.000000;0.023159
7467.000000;0.023316
7466.000000;0.023511
7465.000000;0.023802
7464.000000;0.024134
7463.000000;0.024408
7462.000000;0.024608
7461.000000;0.024808
7460.000000;0.025060
7459.000000;0.025353
7458.000000;0.025662
7457.000000;0.025959
7456.000000;0.026207
7455.000000;0.026392
7454.000000;0.026566
7453.000000;0.026781
7452.000000;0.027026
7451.000000;0.027268
7450.000000;0.027513
7449.000000;0.027782
7448.000000;0.028043
7447.000000;0.028255
7446.000000;0.028439
7445.000000;0.028653
7444.000000;0.028904
7443.000000;0.029163
7442.000000;0.029429
7441.000000;0.029721
7440.000000;0.030010
7439.000000;0.030244
7438.000000;0.030425
7437.000000;0.030595
7436.000000;0.030768
7435.000000;0.030943
7434.000000;0.031142
7433.000000;0.031387
7432.000000;0.031650
7431.000000;0.031900
7430.000000;0.032153
7429.000000;0.032426
7428.000000;0.032695
7427.000000;0.032948
7426.000000;0.033225
7425.000000;0.033542
7424.000000;0.033846
7423.000000;0.034090
7422.000000;0.034309
7421.000000;0.034560
7420.000000;0.034826
7419.000000;0.035048
7418.000000;0.035221
7417.000000;0.035383
7416.000000;0.035548
7415.000000;0.035721
7414.000000;0.035935
7413.000000;0.036205
7412.000000;0.036472
7411.000000;0.036684
7410.000000;0.036890
7409.000000;0.037154
7408.000000;0.037424
7407.000000;0.037599
7406.000000;0.037679
7405.000000;0.037776
7404.000000;0.037977
7403.000000;0.038253
7402.000000;0.038558
7401.000000;0.038897
7400.000000;0.039272
7399.000000;0.039667
7398.000000;0.040073
7397.000000;0.040404
7396.000000;0.040525
7395.000000;0.040481
7394.000000;0.040479
7393.000000;0.040562
7392.000000;0.040503
7391.000000;0.040186
7390.000000;0.039924
7389.000000;0.040113
7388.000000;0.040755
7387.000000;0.041552
7386.000000;0.042295
7385.000000;0.042891
7384.000000;0.043228
7383.000000;0.043262
7382.000000;0.043167
7381.000000;0.043239
7380.000000;0.043594
7379.000000;0.044076
7378.000000;0.044450
7377.000000;0.044585
7376.000000;0.044552
7375.000000;0.044593
7374.000000;0.044902
7373.000000;0.045420
7372.000000;0.045868
7371.000000;0.046013
7370.000000;0.045913
7369.000000;0.045805
7368.000000;0.045817
7367.000000;0.046036
7366.000000;0.046600
7365.000000;0.047373
7364.000000;0.047864
7363.000000;0.047784
7362.000000;0.047407
7361.000000;0.047301
7360.000000;0.047790
7359.000000;0.048677
7358.000000;0.049439
7357.000000;0.049661
7356.000000;0.049409
7355.000000;0.049182
7354.000000;0.049513
7353.000000;0.050426
7352.000000;0.051409
7351.000000;0.051925
7350.000000;0.051941
7349.000000;0.051856
7348.000000;0.051980
7347.000000;0.052228
7346.000000;0.052312
7345.000000;0.052169
7344.000000;0.052082
7343.000000;0.052442
7342.000000;0.053332
7341.000000;0.054375
7340.000000;0.055078
7339.000000;0.055328
7338.000000;0.055477
7337.000000;0.055788
7336.000000;0.056133
7335.000000;0.056325
7334.000000;0.056478
7333.000000;0.056891
7332.000000;0.057655
7331.000000;0.058424
7330.000000;0.058719
7329.000000;0.058535
7328.000000;0.058462
7327.000000;0.058958
7326.000000;0.059741
7325.000000;0.060237
7324.000000;0.060254
7323.000000;0.060129
7322.000000;0.060374
7321.000000;0.061202
7320.000000;0.062319
7319.000000;0.063258
7318.000000;0.063970
7317.000000;0.064787
7316.000000;0.065794
7315.000000;0.066608
7314.000000;0.066837
7313.000000;0.066697
7312.000000;0.066932
7311.000000;0.067955
7310.000000;0.069280
7309.000000;0.070039
7308.000000;0.069951
7307.000000;0.069544
7306.000000;0.069549
7305.000000;0.070353
7304.000000;0.071814
7303.000000;0.073261
7302.000000;0.073978
7301.000000;0.073870
7300.000000;0.073606
7299.000000;0.074067
7298.000000;0.075474
7297.000000;0.077150
7296.000000;0.078190
7295.000000;0.078466
7294.000000;0.078750
7293.000000;0.079758
7292.000000;0.081442
7291.000000;0.083226
7290.000000;0.084673
7289.000000;0.085833
7288.000000;0.086990
7287.000000;0.088183
7286.000000;0.089157
7285.000000;0.089815
7284.000000;0.090439
7283.000000;0.091286
7282.000000;0.092358
7281.000000;0.093527
7280.000000;0.094717
7279.000000;0.095937
7278.000000;0.097165
7277.000000;0.098371
7276.000000;0.099603
7275.000000;0.100921
7274.000000;0.102274
7273.000000;0.103614
7272.000000;0.104987
7271.000000;0.106413
7270.000000;0.107794
7269.000000;0.109073
7268.000000;0.110354
7267.000000;0.111780
7266.000000;0.113368
7265.000000;0.115063
7264.000000;0.116860
7263.000000;0.118740
7262.000000;0.120566
7261.000000;0.122203
7260.000000;0.123684
7259.000000;0.125164
7258.000000;0.126774
7257.000000;0.128588
7256.000000;0.130595
7255.000000;0.132689
7254.000000;0.134798
7253.000000;0.136956
7252.000000;0.139103
7251.000000;0.141101
7250.000000;0.142910
7249.000000;0.144662
7248.000000;0.146673
7247.000000;0.149124
7246.000000;0.151728
7245.000000;0.153975
7244.000000;0.155819
7243.000000;0.157815
7242.000000;0.160385
7241.000000;0.163254
7240.000000;0.165859
7239.000000;0.168003
7238.000000;0.169999
7237.000000;0.172396
7236.000000;0.175410
7235.000000;0.178640
7234.000000;0.181560
7233.000000;0.184093
7232.000000;0.186523
7231.000000;0.189147
7230.000000;0.192003
7229.000000;0.194862
7228.000000;0.197615
7227.000000;0.200409
7226.000000;0.203384
7225.000000;0.206503
7224.000000;0.209697
7223.000000;0.212912
7222.000000;0.216022
7221.000000;0.218979
7220.000000;0.222017
7219.000000;0.225375
7218.000000;0.228959
7217.000000;0.232512
7216.000000;0.235956
7215.000000;0.239367
7214.000000;0.242804
7213.000000;0.246311
7212.000000;0.249947
7211.000000;0.253782
7210.000000;0.257836
7209.000000;0.262076
7208.000000;0.266467
7207.000000;0.270930
7206.000000;0.275308
7205.000000;0.279536
7204.000000;0.283722
7203.000000;0.287924
7202.000000;0.291990
7201.000000;0.295853
7200.000000;0.299758
7199.000000;0.303990
7198.000000;0.308529
7197.000000;0.313177
7196.000000;0.317848
7195.000000;0.322595
7194.000000;0.327395
7193.000000;0.332191
7192.000000;0.337000
7191.000000;0.341874
7190.000000;0.346774
7189.000000;0.351680
7188.000000;0.356705
7187.000000;0.361940
7186.000000;0.367313
7185.000000;0.372583
7184.000000;0.377512
7183.000000;0.382108
7182.000000;0.386734
7181.000000;0.391871
7180.000000;0.397701
7179.000000;0.403916
7178.000000;0.409955
7177.000000;0.415550
7176.000000;0.420958
7175.000000;0.426545
7174.000000;0.432329
7173.000000;0.438123
7172.000000;0.443874
7171.000000;0.449730
7170.000000;0.455770
7169.000000;0.461940
7168.000000;0.468063
7167.000000;0.473976
7166.000000;0.479817
7165.000000;0.485815
7164.000000;0.491789
7163.000000;0.497222
7162.000000;0.502077
7161.000000;0.507127
7160.000000;0.513140
7159.000000;0.519956
7158.000000;0.526729
7157.000000;0.532940
7156.000000;0.538842
7155.000000;0.544882
7154.000000;0.551138
7153.000000;0.557500
7152.000000;0.563875
7151.000000;0.570215
7150.000000;0.576595
7149.000000;0.583142
7148.000000;0.589720
7147.000000;0.595968
7146.000000;0.601785
7145.000000;0.607588
7144.000000;0.613866
7143.000000;0.620522
7142.000000;0.626955
7141.000000;0.632825
7140.000000;0.638454
7139.000000;0.644358
7138.000000;0.650597
7137.000000;0.656832
7136.000000;0.662851
7135.000000;0.668800
7134.000000;0.674929
7133.000000;0.681343
7132.000000;0.687862
7131.000000;0.694176
7130.000000;0.700141
7129.000000;0.705876
7128.000000;0.711565
7127.000000;0.717257
7126.000000;0.722908
7125.000000;0.728550
7124.000000;0.734283
7123.000000;0.740164
7122.000000;0.746173
7121.000000;0.752150
7120.000000;0.757815
7119.000000;0.763000
7118.000000;0.767972
7117.000000;0.773294
7116.000000;0.779221
7115.000000;0.785379
7114.000000;0.791207
7113.000000;0.796568
7112.000000;0.801788
7111.000000;0.807170
7110.000000;0.812685
7109.000000;0.818141
7108.000000;0.823358
7107.000000;0.828172
7106.000000;0.832655
7105.000000;0.837244
7104.000000;0.842264
7103.000000;0.847539
7102.000000;0.852636
7101.000000;0.857358
7100.000000;0.861928
7099.000000;0.866662
7098.000000;0.871569
7097.000000;0.876329
7096.000000;0.880657
7095.000000;0.884632
7094.000000;0.888657
7093.000000;0.893037
7092.000000;0.897641
7091.000000;0.902106
7090.000000;0.906332
7089.000000;0.910560
7088.000000;0.914931
7087.000000;0.919207
7086.000000;0.923093
7085.000000;0.926578
7084.000000;0.929831
7083.000000;0.933028
7082.000000;0.936427
7081.000000;0.940308
7080.000000;0.944627
7079.000000;0.948911
7078.000000;0.952648
7077.000000;0.955782
7076.000000;0.958669
7075.000000;0.961609
7074.000000;0.964642
7073.000000;0.967676
7072.000000;0.970616
7071.000000;0.973429
7070.000000;0.976211
7069.000000;0.979125
7068.000000;0.982178
7067.000000;0.985180
7066.000000;0.988066
7065.000000;0.991024
7064.000000;0.994089
7063.000000;0.996934
7062.000000;0.999346
7061.000000;1.001587
7060.000000;1.004027
7059.000000;1.006677
7058.000000;1.009313
7057.000000;1.011886
7056.000000;1.014515
7055.000000;1.017134
7054.000000;1.019527
7053.000000;1.021707
7052.000000;1.023924
7051.000000;1.026310
7050.000000;1.028768
7049.000000;1.031178
7048.000000;1.033472
7047.000000;1.035576
7046.000000;1.037434
7045.000000;1.039057
7044.000000;1.040425
7043.000000;1.041528
7042.000000;1.042580
7041.000000;1.043913
7040.000000;1.045542
7039.000000;1.047161
7038.000000;1.048671
7037.000000;1.050322
7036.000000;1.052140
7035.000000;1.053668
7034.000000;1.054653
7033.000000;1.055555
7032.000000;1.056922
7031.000000;1.058621
7030.000000;1.060177
7029.000000;1.061522
7028.000000;1.062855
7027.000000;1.064050
7026.000000;1.064808
7025.000000;1.065244
7024.000000;1.065768
7023.000000;1.066526
7022.000000;1.067466
7021.000000;1.068769
7020.000000;1.070630
7019.000000;1.072689
7018.000000;1.074280
7017.000000;1.075256
7016.000000;1.076054
7015.000000;1.076971
7014.000000;1.077881
7013.000000;1.078656
7012.000000;1.079361
7011.000000;1.079969
7010.000000;1.080311
7009.000000;1.080409
7008.000000;1.080541
7007.000000;1.080925
7006.000000;1.081601
7005.000000;1.082537
7004.000000;1.083568
7003.000000;1.084334
7002.000000;1.084671
7001.000000;1.084973
7000.000000;1.085787
6999.000000;1.087080
6998.000000;1.088278
6997.000000;1.088936
6996.000000;1.089012
6995.000000;1.088631
6994.000000;1.087989
6993.000000;1.087446
6992.000000;1.087321
6991.000000;1.087547
6990.000000;1.087894
6989.000000;1.088448
6988.000000;1.089423
6987.000000;1.090590
6986.000000;1.091384
6985.000000;1.091586
6984.000000;1.091490
6983.000000;1.091366
6982.000000;1.091211
6981.000000;1.091036
6980.000000;1.090949
6979.000000;1.090882
6978.000000;1.090620
6977.000000;1.090190
6976.000000;1.089850
6975.000000;1.089637
6974.000000;1.089261
6973.000000;1.088591
6972.000000;1.087898
6971.000000;1.087492
6970.000000;1.087420
6969.000000;1.087639
6968.000000;1.088091
6967.000000;1.088509
6966.000000;1.088497
6965.000000;1.088014
6964.000000;1.087550
6963.000000;1.087585
6962.000000;1.087967
6961.000000;1.088027
6960.000000;1.087271
6959.000000;1.085904
6958.000000;1.084678
6957.000000;1.084256
6956.000000;1.084635
6955.000000;1.085193
6954.000000;1.085324
6953.000000;1.084938
6952.000000;1.084275
6951.000000;1.083474
6950.000000;1.082548
6949.000000;1.081644
6948.000000;1.080963
6947.000000;1.080469
6946.000000;1.079913
6945.000000;1.079175
6944.000000;1.078355
6943.000000;1.077603
6942.000000;1.077069
6941.000000;1.076931
6940.000000;1.077191
6939.000000;1.077459
6938.000000;1.077245
6937.000000;1.076448
6936.000000;1.075367
6935.000000;1.074287
6934.000000;1.073289
6933.000000;1.072443
6932.000000;1.071869
6931.000000;1.071523
6930.000000;1.071134
6929.000000;1.070466
6928.000000;1.069527
6927.000000;1.068464
6926.000000;1.067397
6925.000000;1.066402
6924.000000;1.065495
6923.000000;1.064626
6922.000000;1.063806
6921.000000;1.063155
6920.000000;1.062717
6919.000000;1.062338
6918.000000;1.061831
6917.000000;1.061160
6916.000000;1.060340
6915.000000;1.059322
6914.000000;1.058170
6913.000000;1.057216
6912.000000;1.056771
6911.000000;1.056710
6910.000000;1.056547
6909.000000;1.055902
6908.000000;1.054753
6907.000000;1.053301
6906.000000;1.051823
6905.000000;1.050615
6904.000000;1.049802
6903.000000;1.049146
6902.000000;1.048252
6901.000000;1.046983
6900.000000;1.045576
6899.000000;1.044408
6898.000000;1.043755
6897.000000;1.043644
6896.000000;1.043757
6895.000000;1.043559
6894.000000;1.042743
6893.000000;1.041529
6892.000000;1.040373
6891.000000;1.039437
6890.000000;1.038541
6889.000000;1.037551
6888.000000;1.036563
6887.000000;1.035679
6886.000000;1.034840
6885.000000;1.033987
6884.000000;1.033212
6883.000000;1.032622
6882.000000;1.032154
6881.000000;1.031635
6880.000000;1.030975
6879.000000;1.030223
6878.000000;1.029402
6877.000000;1.028426
6876.000000;1.027247
6875.000000;1.026000
6874.000000;1.024860
6873.000000;1.023806
6872.000000;1.022721
6871.000000;1.021703
6870.000000;1.020999
6869.000000;1.020509
6868.000000;1.019677
6867.000000;1.018171
6866.000000;1.016422
6865.000000;1.015139
6864.000000;1.014426
6863.000000;1.013795
6862.000000;1.012952
6861.000000;1.012065
6860.000000;1.011213
6859.000000;1.010138
6858.000000;1.008714
6857.000000;1.007228
6856.000000;1.005944
6855.000000;1.004726
6854.000000;1.003325
6853.000000;1.001759
6852.000000;1.000134
6851.000000;0.998404
6850.000000;0.996562
6849.000000;0.994795
6848.000000;0.993195
6847.000000;0.991591
6846.000000;0.989951
6845.000000;0.988623
6844.000000;0.987810
6843.000000;0.987038
6842.000000;0.985633
6841.000000;0.983604
6840.000000;0.981605
6839.000000;0.980073
6838.000000;0.978780
6837.000000;0.977255
6836.000000;0.975337
6835.000000;0.973221
6834.000000;0.971211
6833.000000;0.969465
6832.000000;0.967852
6831.000000;0.966062
6830.000000;0.964017
6829.000000;0.962050
6828.000000;0.960455
6827.000000;0.958961
6826.000000;0.956965
6825.000000;0.954271
6824.000000;0.951328
6823.000000;0.948701
6822.000000;0.946561
6821.000000;0.944708
6820.000000;0.942821
6819.000000;0.940628
6818.000000;0.938072
6817.000000;0.935439
6816.000000;0.933151
6815.000000;0.931294
6814.000000;0.929437
6813.000000;0.927100
6812.000000;0.924296
6811.000000;0.921499
6810.000000;0.919080
6809.000000;0.916925
6808.000000;0.914598
6807.000000;0.911847
6806.000000;0.908859
6805.000000;0.906017
6804.000000;0.903501
6803.000000;0.901172
6802.000000;0.898804
6801.000000;0.896282
6800.000000;0.893596
6799.000000;0.890788
6798.000000;0.887972
6797.000000;0.885273
6796.000000;0.882661
6795.000000;0.879917
6794.000000;0.876902
6793.000000;0.873779
6792.000000;0.870864
6791.000000;0.868277
6790.000000;0.865823
6789.000000;0.863210
6788.000000;0.860309
6787.000000;0.857203
6786.000000;0.854069
6785.000000;0.851049
6784.000000;0.848217
6783.000000;0.845596
6782.000000;0.843149
6781.000000;0.840723
6780.000000;0.838094
6779.000000;0.835166
6778.000000;0.832092
6777.000000;0.829137
6776.000000;0.826420
6775.000000;0.823845
6774.000000;0.821230
6773.000000;0.818415
6772.000000;0.815323
6771.000000;0.812046
6770.000000;0.808842
6769.000000;0.805895
6768.000000;0.803123
6767.000000;0.800322
6766.000000;0.797439
6765.000000;0.794536
6764.000000;0.791576
6763.000000;0.788474
6762.000000;0.785352
6761.000000;0.782480
6760.000000;0.779926
6759.000000;0.777455
6758.000000;0.774840
6757.000000;0.772065
6756.000000;0.769168
6755.000000;0.766125
6754.000000;0.762994
6753.000000;0.759953
6752.000000;0.757061
6751.000000;0.754146
6750.000000;0.751056
6749.000000;0.747871
6748.000000;0.744775
6747.000000;0.741836
6746.000000;0.739023
6745.000000;0.736309
6744.000000;0.733639
6743.000000;0.730908
6742.000000;0.728081
6741.000000;0.725231
6740.000000;0.722392
6739.000000;0.719488
6738.000000;0.716493
6737.000000;0.713527
6736.000000;0.710676
6735.000000;0.707865
6734.000000;0.705023
6733.000000;0.702241
6732.000000;0.699607
6731.000000;0.697018
6730.000000;0.694289
6729.000000;0.691402
6728.000000;0.688486
6727.000000;0.685627
6726.000000;0.682818
6725.000000;0.680022
6724.000000;0.677197
6723.000000;0.674286
6722.000000;0.671306
6721.000000;0.668383
6720.000000;0.665591
6719.000000;0.662861
6718.000000;0.660095
6717.000000;0.657337
6716.000000;0.654603
6715.000000;0.651779
6714.000000;0.648707
6713.000000;0.645454
6712.000000;0.642299
6711.000000;0.639453
6710.000000;0.636836
6709.000000;0.634295
6708.000000;0.631707
6707.000000;0.628996
6706.000000;0.626229
6705.000000;0.623488
6704.000000;0.620784
6703.000000;0.618066
6702.000000;0.615284
6701.000000;0.612461
6700.000000;0.609644
6699.000000;0.606863
6698.000000;0.604131
6697.000000;0.601456
6696.000000;0.598794
6695.000000;0.596080
6694.000000;0.593314
6693.000000;0.590573
6692.000000;0.587893
6691.000000;0.585215
6690.000000;0.582508
6689.000000;0.579840
6688.000000;0.577273
6687.000000;0.574749
6686.000000;0.572167
6685.000000;0.569505
6684.000000;0.566804
6683.000000;0.564101
6682.000000;0.561437
6681.000000;0.558844
6680.000000;0.556259
6679.000000;0.553527
6678.000000;0.550612
6677.000000;0.547736
6676.000000;0.545170
6675.000000;0.542925
6674.000000;0.540741
6673.000000;0.538369
6672.000000;0.535767
6671.000000;0.533042
6670.000000;0.530308
6669.000000;0.527654
6668.000000;0.525125
6667.000000;0.522709
6666.000000;0.520330
6665.000000;0.517902
6664.000000;0.515385
6663.000000;0.512802
6662.000000;0.510229
6661.000000;0.507726
6660.000000;0.505268
6659.000000;0.502781
6658.000000;0.500248
6657.000000;0.497741
6656.000000;0.495309
6655.000000;0.492904
6654.000000;0.490448
6653.000000;0.487941
6652.000000;0.485426
6651.000000;0.482908
6650.000000;0.480368
6649.000000;0.477843
6648.000000;0.475415
6647.000000;0.473125
6646.000000;0.470932
6645.000000;0.468733
6644.000000;0.466426
6643.000000;0.463965
6642.000000;0.461415
6641.000000;0.458927
6640.000000;0.456590
6639.000000;0.454335
6638.000000;0.452011
6637.000000;0.449555
6636.000000;0.447036
6635.000000;0.444568
6634.000000;0.442202
6633.000000;0.439905
6632.000000;0.437620
6631.000000;0.435339
6630.000000;0.433123
6629.000000;0.431012
6628.000000;0.428928
6627.000000;0.426727
6626.000000;0.424356
6625.000000;0.421921
6624.000000;0.419578
6623.000000;0.417393
6622.000000;0.415333
6621.000000;0.413305
6620.000000;0.411190
6619.000000;0.408908
6618.000000;0.406523
6617.000000;0.404213
6616.000000;0.402088
6615.000000;0.400055
6614.000000;0.397934
6613.000000;0.395664
6612.000000;0.393323
6611.000000;0.391002
6610.000000;0.388723
6609.000000;0.386482
6608.000000;0.384295
6607.000000;0.382169
6606.000000;0.380078
6605.000000;0.377974
6604.000000;0.375825
6603.000000;0.373635
6602.000000;0.371456
6601.000000;0.369346
6600.000000;0.367309
6599.000000;0.365271
6598.000000;0.363171
6597.000000;0.361029
6596.000000;0.358930
6595.000000;0.356936
6594.000000;0.355037
6593.000000;0.353160
6592.000000;0.351205
6591.000000;0.349101
6590.000000;0.346874
6589.000000;0.344638
6588.000000;0.342479
6587.000000;0.340397
6586.000000;0.338358
6585.000000;0.336370
6584.000000;0.334460
6583.000000;0.332595
6582.000000;0.330689
6581.000000;0.328692
6580.000000;0.326643
6579.000000;0.324609
6578.000000;0.322613
6577.000000;0.320633
6576.000000;0.318656
6575.000000;0.316726
6574.000000;0.314905
6573.000000;0.313183
6572.000000;0.311443
6571.000000;0.309567
6570.000000;0.307559
6569.000000;0.305531
6568.000000;0.303567
6567.000000;0.301655
6566.000000;0.299739
6565.000000;0.297798
6564.000000;0.295831
6563.000000;0.293849
6562.000000;0.291886
6561.000000;0.289992
6560.000000;0.288160
6559.000000;0.286325
6558.000000;0.284453
6557.000000;0.282596
6556.000000;0.280814
6555.000000;0.279090
6554.000000;0.277369
6553.000000;0.275639
6552.000000;0.273928
6551.000000;0.272236
6550.000000;0.270523
6549.000000;0.268754
6548.000000;0.266919
6547.000000;0.265028
6546.000000;0.263121
6545.000000;0.261268
6544.000000;0.259516
6543.000000;0.257836
6542.000000;0.256150
6541.000000;0.254412
6540.000000;0.252638
6539.000000;0.250878
6538.000000;0.249176
6537.000000;0.247536
6536.000000;0.245916
6535.000000;0.244271
6534.000000;0.242606
6533.000000;0.240962
6532.000000;0.239338
6531.000000;0.237666
6530.000000;0.235892
6529.000000;0.234058
6528.000000;0.232254
6527.000000;0.230520
6526.000000;0.228844
6525.000000;0.227201
6524.000000;0.225568
6523.000000;0.223910
6522.000000;0.222206
6521.000000;0.220498
6520.000000;0.218846
6519.000000;0.217259
6518.000000;0.215696
6517.000000;0.214143
6516.000000;0.212626
6515.000000;0.211149
6514.000000;0.209669
6513.000000;0.208154
6512.000000;0.206628
6511.000000;0.205124
6510.000000;0.203631
6509.000000;0.202102
6508.000000;0.200503
6507.000000;0.198849
6506.000000;0.197172
6505.000000;0.195504
6504.000000;0.193868
6503.000000;0.192279
6502.000000;0.190746
6501.000000;0.189264
6500.000000;0.187809
6499.000000;0.186354
6498.000000;0.184877
6497.000000;0.183368
6496.000000;0.181835
6495.000000;0.180311
6494.000000;0.178841
6493.000000;0.177443
6492.000000;0.176076
6491.000000;0.174679
6490.000000;0.173227
6489.000000;0.171750
6488.000000;0.170279
6487.000000;0.168818
6486.000000;0.167354
6485.000000;0.165883
6484.000000;0.164404
6483.000000;0.162929
6482.000000;0.161490
6481.000000;0.160117
6480.000000;0.158801
6479.000000;0.157486
6478.000000;0.156124
6477.000000;0.154716
6476.000000;0.153290
6475.000000;0.151876
6474.000000;0.150495
6473.000000;0.149146
6472.000000;0.147803
6471.000000;0.146431
6470.000000;0.145032
6469.000000;0.143636
6468.000000;0.142258
6467.000000;0.140875
6466.000000;0.139483
6465.000000;0.138120
6464.000000;0.136821
6463.000000;0.135567
6462.000000;0.134307
6461.000000;0.133009
6460.000000;0.131673
6459.000000;0.130311
6458.000000;0.128945
6457.000000;0.127607
6456.000000;0.126315
6455.000000;0.125061
6454.000000;0.123826
6453.000000;0.122601
6452.000000;0.121381
6451.000000;0.120150
6450.000000;0.118899
6449.000000;0.117635
6448.000000;0.116370
6447.000000;0.115111
6446.000000;0.113860
6445.000000;0.112623
6444.000000;0.111397
6443.000000;0.110173
6442.000000;0.108955
6441.000000;0.107752
6440.000000;0.106561
6439.000000;0.105357
6438.000000;0.104129
6437.000000;0.102886
6436.000000;0.101636
6435.000000;0.100373
6434.000000;0.099094
6433.000000;0.097809
6432.000000;0.096524
6431.000000;0.095246
6430.000000;0.094003
6429.000000;0.092831
6428.000000;0.091728
6427.000000;0.090644
6426.000000;0.089537
6425.000000;0.088404
6424.000000;0.087255
6423.000000;0.086089
6422.000000;0.084911
6421.000000;0.083742
6420.000000;0.082593
6419.000000;0.081444
6418.000000;0.080275
6417.000000;0.079097
6416.000000;0.077935
6415.000000;0.076811
6414.000000;0.075743
6413.000000;0.074728
6412.000000;0.073718
6411.000000;0.072651
6410.000000;0.071524
6409.000000;0.070405
6408.000000;0.069334
6407.000000;0.068269
6406.000000;0.067161
6405.000000;0.066035
6404.000000;0.064945
6403.000000;0.063884
6402.000000;0.062803
6401.000000;0.061690
6400.000000;0.060595
6399.000000;0.059562
6398.000000;0.058585
6397.000000;0.057631
6396.000000;0.056660
6395.000000;0.055640
6394.000000;0.054563
6393.000000;0.053469
6392.000000;0.052404
6391.000000;0.051377
6390.000000;0.050367
6389.000000;0.049364
6388.000000;0.048383
6387.000000;0.047430
6386.000000;0.046484
6385.000000;0.045523
6384.000000;0.044543
6383.000000;0.043548
6382.000000;0.042545
6381.000000;0.041537
6380.000000;0.040530
6379.000000;0.039526
6378.000000;0.038531
6377.000000;0.037546
6376.000000;0.036558
6375.000000;0.035552
6374.000000;0.034544
6373.000000;0.033574
6372.000000;0.032648
6371.000000;0.031718
6370.000000;0.030739
6369.000000;0.029736
6368.000000;0.028766
6367.000000;0.027844
6366.000000;0.026926
6365.000000;0.025964
6364.000000;0.024961
6363.000000;0.023953
6362.000000;0.022978
6361.000000;0.022052
6360.000000;0.021169
6359.000000;0.020302
6358.000000;0.019436
6357.000000;0.018569
6356.000000;0.017698
6355.000000;0.016798
6354.000000;0.015864
6353.000000;0.014936
6352.000000;0.014066
6351.000000;0.013246
6350.000000;0.012416
6349.000000;0.011533
6348.000000;0.010616
6347.000000;0.009714
6346.000000;0.008858
6345.000000;0.008043
6344.000000;0.007252
6343.000000;0.006465
6342.000000;0.005662
6341.000000;0.004827
6340.000000;0.003955
6339.000000;0.003060
6338.000000;0.002166
6337.000000;0.001289
6336.000000;0.000418
6335.000000;-0.000456
6334.000000;-0.001320
6333.000000;-0.002143
6332.000000;-0.002921
6331.000000;-0.003702
6330.000000;-0.004534
6329.000000;-0.005422
6328.000000;-0.006327
6327.000000;-0.007199
6326.000000;-0.008010
6325.000000;-0.008759
6324.000000;-0.009472
6323.000000;-0.010190
6322.000000;-0.010930
6321.000000;-0.011679
6320.000000;-0.012432
6319.000000;-0.013202
6318.000000;-0.013995
6317.000000;-0.014786
6316.000000;-0.015552
6315.000000;-0.016314
6314.000000;-0.017118
6313.000000;-0.017970
6312.000000;-0.018825
6311.000000;-0.019630
6310.000000;-0.020370
6309.000000;-0.021067
6308.000000;-0.021763
6307.000000;-0.022499
6306.000000;-0.023287
6305.000000;-0.024098
6304.000000;-0.024893
6303.000000;-0.025657
6302.000000;-0.026395
6301.000000;-0.027107
6300.000000;-0.027799
6299.000000;-0.028500
6298.000000;-0.029243
6297.000000;-0.030027
6296.000000;-0.030809
6295.000000;-0.031553
6294.000000;-0.032258
6293.000000;-0.032934
6292.000000;-0.033587
6291.000000;-0.034232
6290.000000;-0.034898
6289.000000;-0.035606
6288.000000;-0.036338
6287.000000;-0.037062
6286.000000;-0.037767
6285.000000;-0.038471
6284.000000;-0.039186
6283.000000;-0.039903
6282.000000;-0.040605
6281.000000;-0.041279
6280.000000;-0.041927
6279.000000;-0.042564
6278.000000;-0.043209
6277.000000;-0.043876
6276.000000;-0.044560
6275.000000;-0.045239
6274.000000;-0.045896
6273.000000;-0.046538
6272.000000;-0.047197
6271.000000;-0.047888
6270.000000;-0.048593
6269.000000;-0.049281
6268.000000;-0.049947
6267.000000;-0.050619
6266.000000;-0.051311
6265.000000;-0.052001
6264.000000;-0.052655
6263.000000;-0.053262
6262.000000;-0.053838
6261.000000;-0.054407
6260.000000;-0.054995
6259.000000;-0.055621
6258.000000;-0.056280
6257.000000;-0.056944
6256.000000;-0.057592
6255.000000;-0.058230
6254.000000;-0.058878
6253.000000;-0.059542
6252.000000;-0.060208
6251.000000;-0.060859
6250.000000;-0.061479
6249.000000;-0.062065
6248.000000;-0.062638
6247.000000;-0.063233
6246.000000;-0.063851
6245.000000;-0.064456
6244.000000;-0.065013
6243.000000;-0.065544
6242.000000;-0.066094
6241.000000;-0.066691
6240.000000;-0.067332
6239.000000;-0.068005
6238.000000;-0.068686
6237.000000;-0.069333
6236.000000;-0.069910
6235.000000;-0.070438
6234.000000;-0.070977
6233.000000;-0.071563
6232.000000;-0.072185
6231.000000;-0.072815
6230.000000;-0.073436
6229.000000;-0.074027
6228.000000;-0.074566
6227.000000;-0.075057
6226.000000;-0.075541
6225.000000;-0.076067
6224.000000;-0.076642
6223.000000;-0.077242
6222.000000;-0.077839
6221.000000;-0.078419
6220.000000;-0.078977
6219.000000;-0.079520
6218.000000;-0.080065
6217.000000;-0.080624
6216.000000;-0.081191
6215.000000;-0.081745
6214.000000;-0.082274
6213.000000;-0.082788
6212.000000;-0.083311
6211.000000;-0.083867
6210.000000;-0.084457
6209.000000;-0.085063
6208.000000;-0.085655
6207.000000;-0.086217
6206.000000;-0.086746
6205.000000;-0.087244
6204.000000;-0.087722
6203.000000;-0.088199
6202.000000;-0.088700
6201.000000;-0.089249
6200.000000;-0.089852
6199.000000;-0.090480
6198.000000;-0.091085
6197.000000;-0.091631
6196.000000;-0.092127
6195.000000;-0.092614
6194.000000;-0.093114
6193.000000;-0.093606
6192.000000;-0.094068
6191.000000;-0.094511
6190.000000;-0.094968
6189.000000;-0.095454
6188.000000;-0.095950
6187.000000;-0.096438
6186.000000;-0.096927
6185.000000;-0.097438
6184.000000;-0.097980
6183.000000;-0.098538
6182.000000;-0.099089
6181.000000;-0.099620
6180.000000;-0.100135
6179.000000;-0.100648
6178.000000;-0.101163
6177.000000;-0.101673
6176.000000;-0.102168
6175.000000;-0.102645
6174.000000;-0.103098
6173.000000;-0.103515
6172.000000;-0.103903
6171.000000;-0.104303
6170.000000;-0.104756
6169.000000;-0.105267
6168.000000;-0.105809
6167.000000;-0.106352
6166.000000;-0.106880
6165.000000;-0.107384
6164.000000;-0.107859
6163.000000;-0.108321
6162.000000;-0.108788
6161.000000;-0.109264
6160.000000;-0.109734
6159.000000;-0.110185
6158.000000;-0.110619
6157.000000;-0.111044
6156.000000;-0.111458
6155.000000;-0.111862
6154.000000;-0.112271
6153.000000;-0.112710
6152.000000;-0.113197
6151.000000;-0.113723
6150.000000;-0.114253
6149.000000;-0.114748
6148.000000;-0.115201
6147.000000;-0.115635
6146.000000;-0.116076
6145.000000;-0.116529
6144.000000;-0.116985
6143.000000;-0.117439
6142.000000;-0.117890
6141.000000;-0.118327
6140.000000;-0.118750
6139.000000;-0.119179
6138.000000;-0.119630
6137.000000;-0.120083
6136.000000;-0.120504
6135.000000;-0.120887
6134.000000;-0.121268
6133.000000;-0.121682
6132.000000;-0.122133
6131.000000;-0.122592
6130.000000;-0.123021
6129.000000;-0.123400
6128.000000;-0.123748
6127.000000;-0.124109
6126.000000;-0.124511
6125.000000;-0.124931
6124.000000;-0.125327
6123.000000;-0.125701
6122.000000;-0.126090
6121.000000;-0.126519
6120.000000;-0.126965
6119.000000;-0.127401
6118.000000;-0.127828
6117.000000;-0.128260
6116.000000;-0.128701
6115.000000;-0.129140
6114.000000;-0.129572
6113.000000;-0.129986
6112.000000;-0.130372
6111.000000;-0.130730
6110.000000;-0.131083
6109.000000;-0.131454
6108.000000;-0.131841
6107.000000;-0.132230
6106.000000;-0.132614
6105.000000;-0.132990
6104.000000;-0.133353
6103.000000;-0.133700
6102.000000;-0.134041
6101.000000;-0.134391
6100.000000;-0.134764
6099.000000;-0.135167
6098.000000;-0.135596
6097.000000;-0.136040
6096.000000;-0.136481
6095.000000;-0.136901
6094.000000;-0.137292
6093.000000;-0.137641
6092.000000;-0.137949
6091.000000;-0.138240
6090.000000;-0.138560
6089.000000;-0.138925
6088.000000;-0.139313
6087.000000;-0.139693
6086.000000;-0.140066
6085.000000;-0.140443
6084.000000;-0.140810
6083.000000;-0.141144
6082.000000;-0.141449
6081.000000;-0.141767
6080.000000;-0.142128
6079.000000;-0.142519
6078.000000;-0.142905
6077.000000;-0.143270
6076.000000;-0.143625
6075.000000;-0.143981
6074.000000;-0.144334
6073.000000;-0.144673
6072.000000;-0.145006
6071.000000;-0.145365
6070.000000;-0.145770
6069.000000;-0.146198
6068.000000;-0.146596
6067.000000;-0.146938
6066.000000;-0.147246
6065.000000;-0.147561
6064.000000;-0.147893
6063.000000;-0.148227
6062.000000;-0.148555
6061.000000;-0.148888
6060.000000;-0.149234
6059.000000;-0.149579
6058.000000;-0.149902
6057.000000;-0.150194
6056.000000;-0.150456
6055.000000;-0.150699
6054.000000;-0.150949
6053.000000;-0.151237
6052.000000;-0.151575
6051.000000;-0.151938
6050.000000;-0.152292
6049.000000;-0.152620
6048.000000;-0.152934
6047.000000;-0.153245
6046.000000;-0.153550
6045.000000;-0.153839
6044.000000;-0.154112
6043.000000;-0.154389
6042.000000;-0.154685
6041.000000;-0.155000
6040.000000;-0.155314
6039.000000;-0.155610
6038.000000;-0.155886
6037.000000;-0.156157
6036.000000;-0.156434
6035.000000;-0.156719
6034.000000;-0.157009
6033.000000;-0.157313
6032.000000;-0.157628
6031.000000;-0.157938
6030.000000;-0.158217
6029.000000;-0.158467
6028.000000;-0.158718
6027.000000;-0.158997
6026.000000;-0.159293
6025.000000;-0.159579
6024.000000;-0.159847
6023.000000;-0.160110
6022.000000;-0.160376
6021.000000;-0.160635
6020.000000;-0.160880
6019.000000;-0.161117
6018.000000;-0.161348
6017.000000;-0.161561
6016.000000;-0.161753
6015.000000;-0.161954
6014.000000;-0.162198
6013.000000;-0.162486
6012.000000;-0.162788
6011.000000;-0.163076
6010.000000;-0.163353
6009.000000;-0.163633
6008.000000;-0.163921
6007.000000;-0.164207
6006.000000;-0.164473
6005.000000;-0.164707
6004.000000;-0.164916
6003.000000;-0.165117
6002.000000;-0.165327
6001.000000;-0.165547
6000.000000;-0.165771
5999.000000;-0.166003
5998.000000;-0.166248
5997.000000;-0.166501
5996.000000;-0.166748
5995.000000;-0.166980
5994.000000;-0.167199
5993.000000;-0.167412
5992.000000;-0.167623
5991.000000;-0.167833
5990.000000;-0.168046
5989.000000;-0.168257
5988.000000;-0.168459
5987.000000;-0.168647
5986.000000;-0.168819
5985.000000;-0.168979
5984.000000;-0.169140
5983.000000;-0.169324
5982.000000;-0.169547
5981.000000;-0.169799
5980.000000;-0.170049
5979.000000;-0.170268
5978.000000;-0.170455
5977.000000;-0.170625
5976.000000;-0.170800
5975.000000;-0.170990
5974.000000;-0.171195
5973.000000;-0.171402
5972.000000;-0.171600
5971.000000;-0.171781
5970.000000;-0.171941
5969.000000;-0.172071
5968.000000;-0.172180
5967.000000;-0.172300
5966.000000;-0.172463
5965.000000;-0.172669
5964.000000;-0.172887
5963.000000;-0.173089
5962.000000;-0.173270
5961.000000;-0.173430
5960.000000;-0.173572
5959.000000;-0.173717
5958.000000;-0.173894
5957.000000;-0.174101
5956.000000;-0.174290
5955.000000;-0.174420
5954.000000;-0.174505
5953.000000;-0.174593
5952.000000;-0.174707
5951.000000;-0.174831
5950.000000;-0.174950
5949.000000;-0.175078
5948.000000;-0.175238
5947.000000;-0.175420
5946.000000;-0.175589
5945.000000;-0.175719
5944.000000;-0.175817
5943.000000;-0.175901
5942.000000;-0.175977
5941.000000;-0.176044
5940.000000;-0.176110
5939.000000;-0.176192
5938.000000;-0.176298
5937.000000;-0.176421
5936.000000;-0.176550
5935.000000;-0.176688
5934.000000;-0.176833
5933.000000;-0.176968
5932.000000;-0.177075
5931.000000;-0.177163
5930.000000;-0.177260
5929.000000;-0.177373
5928.000000;-0.177482
5927.000000;-0.177569
5926.000000;-0.177646
5925.000000;-0.177733
5924.000000;-0.177832
5923.000000;-0.177930
5922.000000;-0.178028
5921.000000;-0.178137
5920.000000;-0.178257
5919.000000;-0.178370
5918.000000;-0.178459
5917.000000;-0.178527
5916.000000;-0.178592
5915.000000;-0.178665
5914.000000;-0.178755
5913.000000;-0.178864
5912.000000;-0.178989
5911.000000;-0.179116
5910.000000;-0.179234
5909.000000;-0.179333
5908.000000;-0.179411
5907.000000;-0.179462
5906.000000;-0.179488
5905.000000;-0.179505
5904.000000;-0.179538
5903.000000;-0.179598
5902.000000;-0.179678
5901.000000;-0.179761
5900.000000;-0.179845
5899.000000;-0.179935
5898.000000;-0.180025
5897.000000;-0.180097
5896.000000;-0.180138
5895.000000;-0.180157
5894.000000;-0.180167
5893.000000;-0.180177
5892.000000;-0.180189
5891.000000;-0.180209
5890.000000;-0.180245
5889.000000;-0.180297
5888.000000;-0.180359
5887.000000;-0.180427
5886.000000;-0.180493
5885.000000;-0.180540
5884.000000;-0.180551
5883.000000;-0.180539
5882.000000;-0.180538
5881.000000;-0.180566
5880.000000;-0.180604
5879.000000;-0.180618
5878.000000;-0.180603
5877.000000;-0.180582
5876.000000;-0.180583
5875.000000;-0.180619
5874.000000;-0.180680
5873.000000;-0.180739
5872.000000;-0.180769
5871.000000;-0.180749
5870.000000;-0.180679
5869.000000;-0.180587
5868.000000;-0.180511
5867.000000;-0.180478
5866.000000;-0.180478
5865.000000;-0.180485
5864.000000;-0.180482
5863.000000;-0.180481
5862.000000;-0.180491
5861.000000;-0.180499
5860.000000;-0.180482
5859.000000;-0.180431
5858.000000;-0.180354
5857.000000;-0.180262
5856.000000;-0.180166
5855.000000;-0.180086
5854.000000;-0.180041
5853.000000;-0.180025
5852.000000;-0.180010
5851.000000;-0.179974
5850.000000;-0.179917
5849.000000;-0.179846
5848.000000;-0.179767
5847.000000;-0.179686
5846.000000;-0.179611
5845.000000;-0.179546
5844.000000;-0.179485
5843.000000;-0.179420
5842.000000;-0.179348
5841.000000;-0.179269
5840.000000;-0.179188
5839.000000;-0.179105
5838.000000;-0.179009
5837.000000;-0.178876
5836.000000;-0.178694
5835.000000;-0.178480
5834.000000;-0.178280
5833.000000;-0.178122
5832.000000;-0.178003
5831.000000;-0.177893
5830.000000;-0.177766
5829.000000;-0.177615
5828.000000;-0.177455
5827.000000;-0.177312
5826.000000;-0.177194
5825.000000;-0.177081
5824.000000;-0.176944
5823.000000;-0.176778
5822.000000;-0.176600
5821.000000;-0.176426
5820.000000;-0.176253
5819.000000;-0.176083
5818.000000;-0.175932
5817.000000;-0.175805
5816.000000;-0.175677
5815.000000;-0.175517
5814.000000;-0.175320
5813.000000;-0.175104
5812.000000;-0.174887
5811.000000;-0.174684
5810.000000;-0.174499
5809.000000;-0.174329
5808.000000;-0.174162
5807.000000;-0.173984
5806.000000;-0.173787
5805.000000;-0.173565
5804.000000;-0.173326
5803.000000;-0.173088
5802.000000;-0.172874
5801.000000;-0.172681
5800.000000;-0.172480
5799.000000;-0.172245
5798.000000;-0.171971
5797.000000;-0.171668
5796.000000;-0.171354
5795.000000;-0.171059
5794.000000;-0.170812
5793.000000;-0.170609
5792.000000;-0.170420
5791.000000;-0.170215
5790.000000;-0.169986
5789.000000;-0.169737
5788.000000;-0.169462
5787.000000;-0.169158
5786.000000;-0.168838
5785.000000;-0.168515
5784.000000;-0.168188
5783.000000;-0.167849
5782.000000;-0.167506
5781.000000;-0.167182
5780.000000;-0.166891
5779.000000;-0.166629
5778.000000;-0.166373
5777.000000;-0.166093
5776.000000;-0.165778
5775.000000;-0.165439
5774.000000;-0.165091
5773.000000;-0.164736
5772.000000;-0.164362
5771.000000;-0.163979
5770.000000;-0.163618
5769.000000;-0.163290
5768.000000;-0.162976
5767.000000;-0.162653
5766.000000;-0.162323
5765.000000;-0.161994
5764.000000;-0.161662
5763.000000;-0.161315
5762.000000;-0.160951
5761.000000;-0.160564
5760.000000;-0.160147
5759.000000;-0.159705
5758.000000;-0.159266
5757.000000;-0.158857
5756.000000;-0.158473
5755.000000;-0.158082
5754.000000;-0.157666
5753.000000;-0.157224
5752.000000;-0.156779
5751.000000;-0.156360
5750.000000;-0.155983
5749.000000;-0.155626
5748.000000;-0.155236
5747.000000;-0.154782
5746.000000;-0.154285
5745.000000;-0.153781
5744.000000;-0.153276
5743.000000;-0.152759
5742.000000;-0.152236
5741.000000;-0.151725
5740.000000;-0.151232
5739.000000;-0.150754
5738.000000;-0.150294
5737.000000;-0.149854
5736.000000;-0.149422
5735.000000;-0.148980
5734.000000;-0.148522
5733.000000;-0.148050
5732.000000;-0.147555
5731.000000;-0.147023
5730.000000;-0.146463
5729.000000;-0.145899
5728.000000;-0.145344
5727.000000;-0.144798
5726.000000;-0.144258
5725.000000;-0.143722
5724.000000;-0.143174
5723.000000;-0.142599
5722.000000;-0.142000
5721.000000;-0.141399
5720.000000;-0.140813
5719.000000;-0.140243
5718.000000;-0.139670
5717.000000;-0.139072
5716.000000;-0.138440
5715.000000;-0.137797
5714.000000;-0.137187
5713.000000;-0.136623
5712.000000;-0.136077
5711.000000;-0.135507
5710.000000;-0.134900
5709.000000;-0.134270
5708.000000;-0.133633
5707.000000;-0.133006
5706.000000;-0.132406
5705.000000;-0.131828
5704.000000;-0.131234
5703.000000;-0.130596
5702.000000;-0.129921
5701.000000;-0.129235
5700.000000;-0.128545
5699.000000;-0.127858
5698.000000;-0.127195
5697.000000;-0.126568
5696.000000;-0.125948
5695.000000;-0.125295
5694.000000;-0.124606
5693.000000;-0.123913
5692.000000;-0.123243
5691.000000;-0.122605
5690.000000;-0.122004
5689.000000;-0.121438
5688.000000;-0.120870
5687.000000;-0.120255
5686.000000;-0.119576
5685.000000;-0.118860
5684.000000;-0.118145
5683.000000;-0.117457
5682.000000;-0.116799
5681.000000;-0.116149
5680.000000;-0.115477
5679.000000;-0.114775
5678.000000;-0.114082
5677.000000;-0.113441
5676.000000;-0.112843
5675.000000;-0.112248
5674.000000;-0.111625
5673.000000;-0.110977
5672.000000;-0.110307
5671.000000;-0.109613
5670.000000;-0.108916
5669.000000;-0.108248
5668.000000;-0.107606
5667.000000;-0.106956
5666.000000;-0.106287
5665.000000;-0.105627
5664.000000;-0.105003
5663.000000;-0.104398
5662.000000;-0.103773
5661.000000;-0.103108
5660.000000;-0.102422
5659.000000;-0.101743
5658.000000;-0.101100
5657.000000;-0.100501
5656.000000;-0.099929
5655.000000;-0.099355
5654.000000;-0.098764
5653.000000;-0.098154
5652.000000;-0.097532
5651.000000;-0.096904
5650.000000;-0.096284
5649.000000;-0.095686
5648.000000;-0.095106
5647.000000;-0.094521
5646.000000;-0.093915
5645.000000;-0.093288
5644.000000;-0.092662
5643.000000;-0.092075
5642.000000;-0.091564
5641.000000;-0.091122
5640.000000;-0.090689
5639.000000;-0.090208
5638.000000;-0.089688
5637.000000;-0.089182
5636.000000;-0.088714
5635.000000;-0.088247
5634.000000;-0.087742
5633.000000;-0.087201
5632.000000;-0.086663
5631.000000;-0.086169
5630.000000;-0.085730
5629.000000;-0.085311
5628.000000;-0.084862
5627.000000;-0.084364
5626.000000;-0.083850
5625.000000;-0.083367
5624.000000;-0.082930
5623.000000;-0.082525
5622.000000;-0.082137
5621.000000;-0.081757
5620.000000;-0.081372
5619.000000;-0.080972
5618.000000;-0.080570
5617.000000;-0.080184
5616.000000;-0.079814
5615.000000;-0.079456
5614.000000;-0.079117
5613.000000;-0.078815
5612.000000;-0.078545
5611.000000;-0.078289
5610.000000;-0.078034
5609.000000;-0.077780
5608.000000;-0.077511
5607.000000;-0.077211
5606.000000;-0.076897
5605.000000;-0.076604
5604.000000;-0.076345
5603.000000;-0.076106
5602.000000;-0.075879
5601.000000;-0.075669
5600.000000;-0.075474
5599.000000;-0.075277
5598.000000;-0.075072
5597.000000;-0.074854
5596.000000;-0.074617
5595.000000;-0.074366
5594.000000;-0.074144
5593.000000;-0.073988
5592.000000;-0.073883
5591.000000;-0.073774
5590.000000;-0.073635
5589.000000;-0.073479
5588.000000;-0.073325
5587.000000;-0.073174
5586.000000;-0.073045
5585.000000;-0.072963
5584.000000;-0.072919
5583.000000;-0.072871
5582.000000;-0.072800
5581.000000;-0.072717
5580.000000;-0.072631
5579.000000;-0.072537
5578.000000;-0.072446
5577.000000;-0.072388
5576.000000;-0.072358
5575.000000;-0.072322
5574.000000;-0.072265
5573.000000;-0.072208
5572.000000;-0.072155
5571.000000;-0.072094
5570.000000;-0.072033
5569.000000;-0.072002
5568.000000;-0.072012
5567.000000;-0.072043
5566.000000;-0.072084
5565.000000;-0.072139
5564.000000;-0.072201
5563.000000;-0.072250
5562.000000;-0.072302
5561.000000;-0.072376
5560.000000;-0.072432
5559.000000;-0.072397
5558.000000;-0.072279
5557.000000;-0.072176
5556.000000;-0.072171
5555.000000;-0.072253
5554.000000;-0.072366
5553.000000;-0.072475
5552.000000;-0.072553
5551.000000;-0.072587
5550.000000;-0.072610
5549.000000;-0.072670
5548.000000;-0.072772
5547.000000;-0.072885
5546.000000;-0.073005
5545.000000;-0.073156
5544.000000;-0.073312
5543.000000;-0.073409
5542.000000;-0.073435
5541.000000;-0.073434
5540.000000;-0.073441
5539.000000;-0.073456
5538.000000;-0.073494
5537.000000;-0.073568
5536.000000;-0.073662
5535.000000;-0.073749
5534.000000;-0.073840
5533.000000;-0.073956
5532.000000;-0.074067
5531.000000;-0.074138
5530.000000;-0.074191
5529.000000;-0.074267
5528.000000;-0.074350
5527.000000;-0.074380
5526.000000;-0.074340
5525.000000;-0.074295
5524.000000;-0.074311
5523.000000;-0.074393
5522.000000;-0.074525
5521.000000;-0.074659
5520.000000;-0.074743
5519.000000;-0.074771
5518.000000;-0.074799
5517.000000;-0.074879
5516.000000;-0.074978
5515.000000;-0.075031
5514.000000;-0.075049
5513.000000;-0.075065
5512.000000;-0.075037
5511.000000;-0.074915
5510.000000;-0.074768
5509.000000;-0.074704
5508.000000;-0.074727
5507.000000;-0.074751
5506.000000;-0.074749
5505.000000;-0.074778
5504.000000;-0.074831
5503.000000;-0.074834
5502.000000;-0.074807
5501.000000;-0.074811
5500.000000;-0.074854
5499.000000;-0.074880
5498.000000;-0.074773
5497.000000;-0.074469
5496.000000;-0.074049
5495.000000;-0.073714
5494.000000;-0.073606
5493.000000;-0.073628
5492.000000;-0.073588
5491.000000;-0.073436
5490.000000;-0.073310
5489.000000;-0.073329
5488.000000;-0.073443
5487.000000;-0.073533
5486.000000;-0.073562
5485.000000;-0.073572
5484.000000;-0.073529
5483.000000;-0.073350
5482.000000;-0.073128
5481.000000;-0.072973
5480.000000;-0.072726
5479.000000;-0.072210
5478.000000;-0.071566
5477.000000;-0.071125
5476.000000;-0.070951
5475.000000;-0.070823
5474.000000;-0.070651
5473.000000;-0.070479
5472.000000;-0.070276
5471.000000;-0.069987
5470.000000;-0.069680
5469.000000;-0.069378
5468.000000;-0.068990
5467.000000;-0.068523
5466.000000;-0.068105
5465.000000;-0.067746
5464.000000;-0.067269
5463.000000;-0.066621
5462.000000;-0.066064
5461.000000;-0.065741
5460.000000;-0.065398
5459.000000;-0.064870
5458.000000;-0.064375
5457.000000;-0.064062
5456.000000;-0.063720
5455.000000;-0.063162
5454.000000;-0.062457
5453.000000;-0.061723
5452.000000;-0.060974
5451.000000;-0.060229
5450.000000;-0.059529
5449.000000;-0.058741
5448.000000;-0.057786
5447.000000;-0.056939
5446.000000;-0.056375
5445.000000;-0.055824
5444.000000;-0.055019
5443.000000;-0.054147
5442.000000;-0.053555
5441.000000;-0.053163
5440.000000;-0.052511
5439.000000;-0.051379
5438.000000;-0.050021
5437.000000;-0.048750
5436.000000;-0.047626
5435.000000;-0.046618
5434.000000;-0.045646
5433.000000;-0.044510
5432.000000;-0.043183
5431.000000;-0.041974
5430.000000;-0.041013
5429.000000;-0.039967
5428.000000;-0.038631
5427.000000;-0.037247
5426.000000;-0.036050
5425.000000;-0.034962
5424.000000;-0.033769
5423.000000;-0.032353
5422.000000;-0.030688
5421.000000;-0.028855
5420.000000;-0.026978
5419.000000;-0.025026
5418.000000;-0.022898
5417.000000;-0.020663
5416.000000;-0.018570
5415.000000;-0.016731
5414.000000;-0.014918
5413.000000;-0.012936
5412.000000;-0.010889
5411.000000;-0.008969
5410.000000;-0.007160
5409.000000;-0.005249
5408.000000;-0.003096
5407.000000;-0.000765
5406.000000;0.001597
5405.000000;0.004014
5404.000000;0.006640
5403.000000;0.009448
5402.000000;0.012397
5401.000000;0.015498
5400.000000;0.018598
5399.000000;0.021647
5398.000000;0.024804
5397.000000;0.028160
5396.000000;0.031607
5395.000000;0.035006
5394.000000;0.038425
5393.000000;0.041921
5392.000000;0.045434
5391.000000;0.049054
5390.000000;0.052966
5389.000000;0.057151
5388.000000;0.061388
5387.000000;0.065586
5386.000000;0.069917
5385.000000;0.074608
5384.000000;0.079563
5383.000000;0.084452
5382.000000;0.089312
5381.000000;0.094449
5380.000000;0.099861
5379.000000;0.105295
5378.000000;0.110742
5377.000000;0.116430
5376.000000;0.122390
5375.000000;0.128448
5374.000000;0.134623
5373.000000;0.141015
5372.000000;0.147554
5371.000000;0.154204
5370.000000;0.161096
5369.000000;0.168338
5368.000000;0.175873
5367.000000;0.183629
5366.000000;0.191632
5365.000000;0.199931
5364.000000;0.208432
5363.000000;0.217030
5362.000000;0.225894
5361.000000;0.235160
5360.000000;0.244665
5359.000000;0.254326
5358.000000;0.264382
5357.000000;0.274960
5356.000000;0.285743
5355.000000;0.296503
5354.000000;0.307592
5353.000000;0.319427
5352.000000;0.331741
5351.000000;0.343950
5350.000000;0.356126
5349.000000;0.368875
5348.000000;0.382382
5347.000000;0.396270
5346.000000;0.410333
5345.000000;0.424779
5344.000000;0.439732
5343.000000;0.455086
5342.000000;0.470874
5341.000000;0.487029
5340.000000;0.503275
5339.000000;0.519743
5338.000000;0.536969
5337.000000;0.555114
5336.000000;0.573693
5335.000000;0.592292
5334.000000;0.611160
5333.000000;0.630900
5332.000000;0.651617
5331.000000;0.672810
5330.000000;0.694276
5329.000000;0.716296
5328.000000;0.738926
5327.000000;0.761899
5326.000000;0.785130
5325.000000;0.808743
5324.000000;0.832733
5323.000000;0.857073
5322.000000;0.882057
5321.000000;0.907960
5320.000000;0.934434
5319.000000;0.960922
5318.000000;0.987549
5317.000000;1.014847
5316.000000;1.042818
5315.000000;1.071198
5314.000000;1.100266
5313.000000;1.130378
5312.000000;1.160755
5311.000000;1.189880
5310.000000;1.217356
5309.000000;1.244150
5308.000000;1.270895
5307.000000;1.297352
5306.000000;1.323584
5305.000000;1.350036
5304.000000;1.376323
5303.000000;1.401722
5302.000000;1.426756
5301.000000;1.452180
5300.000000;1.476671
5299.000000;1.498174
5298.000000;1.517377
5297.000000;1.536764
5296.000000;1.556606
5295.000000;1.575040
5294.000000;1.591570
5293.000000;1.607330
5292.000000;1.622082
5291.000000;1.634419
5290.000000;1.644858
5289.000000;1.655266
5288.000000;1.665521
5287.000000;1.674239
5286.000000;1.682208
5285.000000;1.691329
5284.000000;1.700715
5283.000000;1.707657
5282.000000;1.712012
5281.000000;1.715888
5280.000000;1.720015
5279.000000;1.724110
5278.000000;1.729308
5277.000000;1.736265
5276.000000;1.742234
5275.000000;1.744242
5274.000000;1.743947
5273.000000;1.744980
5272.000000;1.747329
5271.000000;1.748502
5270.000000;1.748582
5269.000000;1.749573
5268.000000;1.750900
5267.000000;1.750545
5266.000000;1.749589
5265.000000;1.750994
5264.000000;1.754589
5263.000000;1.757395
5262.000000;1.758639
5261.000000;1.760129
5260.000000;1.762081
5259.000000;1.762773
5258.000000;1.761845
5257.000000;1.760714
5256.000000;1.760072
5255.000000;1.759899
5254.000000;1.761449
5253.000000;1.765656
5252.000000;1.770172
5251.000000;1.771277
5250.000000;1.768730
5249.000000;1.765899
5248.000000;1.765293
5247.000000;1.766952
5246.000000;1.770239
5245.000000;1.774165
5244.000000;1.776515
5243.000000;1.775817
5242.000000;1.773701
5241.000000;1.772241
5240.000000;1.770706
5239.000000;1.767967
5238.000000;1.765965
5237.000000;1.767364
5236.000000;1.771172
5235.000000;1.773941
5234.000000;1.774552
5233.000000;1.774335
5232.000000;1.773316
5231.000000;1.770584
5230.000000;1.767970
5229.000000;1.768750
5228.000000;1.772596
5227.000000;1.775769
5226.000000;1.776100
5225.000000;1.774961
5224.000000;1.774501
5223.000000;1.775297
5222.000000;1.776989
5221.000000;1.778954
5220.000000;1.780167
5219.000000;1.780512
5218.000000;1.781559
5217.000000;1.784166
5216.000000;1.786527
5215.000000;1.786655
5214.000000;1.785781
5213.000000;1.786721
5212.000000;1.790034
5211.000000;1.794198
5210.000000;1.798018
5209.000000;1.800268
5208.000000;1.798686
5207.000000;1.792772
5206.000000;1.786239
5205.000000;1.783382
5204.000000;1.784415
5203.000000;1.786768
5202.000000;1.789086
5201.000000;1.791261
5200.000000;1.792370
5199.000000;1.791911
5198.000000;1.791706
5197.000000;1.793348
5196.000000;1.794975
5195.000000;1.793901
5194.000000;1.791283
5193.000000;1.790429
5192.000000;1.791817
5191.000000;1.793310
5190.000000;1.794124
5189.000000;1.795134
5188.000000;1.795880
5187.000000;1.794947
5186.000000;1.793031
5185.000000;1.792264
5184.000000;1.792958
5183.000000;1.793983
5182.000000;1.795458
5181.000000;1.797833
5180.000000;1.799189
5179.000000;1.796896
5178.000000;1.791966
5177.000000;1.788575
5176.000000;1.789401
5175.000000;1.793863
5174.000000;1.799986
5173.000000;1.805613
5172.000000;1.808258
5171.000000;1.806431
5170.000000;1.801378
5169.000000;1.795552
5168.000000;1.790117
5167.000000;1.785728
5166.000000;1.784104
5165.000000;1.786305
5164.000000;1.790550
5163.000000;1.794083
5162.000000;1.796292
5161.000000;1.797758
5160.000000;1.797849
5159.000000;1.796286
5158.000000;1.795525
5157.000000;1.798160
5156.000000;1.802894
5155.000000;1.805937
5154.000000;1.805837
5153.000000;1.804172
5152.000000;1.802480
5151.000000;1.801562
5150.000000;1.802484
5149.000000;1.804988
5148.000000;1.805833
5147.000000;1.802092
5146.000000;1.795600
5145.000000;1.790789
5144.000000;1.789226
5143.000000;1.789353
5142.000000;1.790270
5141.000000;1.792432
5140.000000;1.794935
5139.000000;1.795818
5138.000000;1.795212
5137.000000;1.794787
5136.000000;1.794482
5135.000000;1.793195
5134.000000;1.792060
5133.000000;1.793542
5132.000000;1.797238
5131.000000;1.799742
5130.000000;1.799416
5129.000000;1.798276
5128.000000;1.798390
5127.000000;1.799327
5126.000000;1.799833
5125.000000;1.799484
5124.000000;1.797808
5123.000000;1.794405
5122.000000;1.790867
5121.000000;1.790124
5120.000000;1.793101
5119.000000;1.797724
5118.000000;1.801144
5117.000000;1.801627
5116.000000;1.798827
5115.000000;1.793823
5114.000000;1.788919
5113.000000;1.785868
5112.000000;1.784389
5111.000000;1.783828
5110.000000;1.785332
5109.000000;1.790183
5108.000000;1.796492
5107.000000;1.800189
5106.000000;1.799694
5105.000000;1.797286
5104.000000;1.795630
5103.000000;1.795310
5102.000000;1.795772
5101.000000;1.796442
5100.000000;1.796483
5099.000000;1.795418
5098.000000;1.794135
5097.000000;1.793469
5096.000000;1.792368
5095.000000;1.789598
5094.000000;1.786851
5093.000000;1.787389
5092.000000;1.791484
5091.000000;1.795588
5090.000000;1.796578
5089.000000;1.794826
5088.000000;1.792304
5087.000000;1.790061
5086.000000;1.788598
5085.000000;1.788517
5084.000000;1.789401
5083.000000;1.789724
5082.000000;1.788876
5081.000000;1.787977
5080.000000;1.788139
5079.000000;1.789094
5078.000000;1.789952
5077.000000;1.790360
5076.000000;1.790488
5075.000000;1.790602
5074.000000;1.790872
5073.000000;1.790931
5072.000000;1.789702
5071.000000;1.786548
5070.000000;1.782360
5069.000000;1.778642
5068.000000;1.776139
5067.000000;1.775126
5066.000000;1.776058
5065.000000;1.778859
5064.000000;1.782189
5063.000000;1.784613
5062.000000;1.786060
5061.000000;1.787087
5060.000000;1.787132
5059.000000;1.785098
5058.000000;1.781468
5057.000000;1.777984
5056.000000;1.775661
5055.000000;1.774602
5054.000000;1.774920
5053.000000;1.776192
5052.000000;1.776628
5051.000000;1.774763
5050.000000;1.771785
5049.000000;1.770125
5048.000000;1.770123
5047.000000;1.769899
5046.000000;1.768432
5045.000000;1.766782
5044.000000;1.765761
5043.000000;1.764631
5042.000000;1.762531
5041.000000;1.759601
5040.000000;1.756364
5039.000000;1.753037
5038.000000;1.749955
5037.000000;1.747868
5036.000000;1.747448
5035.000000;1.748948
5034.000000;1.751993
5033.000000;1.755074
5032.000000;1.755869
5031.000000;1.753301
5030.000000;1.748848
5029.000000;1.744737
5028.000000;1.741340
5027.000000;1.737473
5026.000000;1.732922
5025.000000;1.729195
5024.000000;1.727845
5023.000000;1.728994
5022.000000;1.731340
5021.000000;1.732930
5020.000000;1.732267
5019.000000;1.729563
5018.000000;1.726732
5017.000000;1.725438
5016.000000;1.725502
5015.000000;1.725604
5014.000000;1.724722
5013.000000;1.722212
5012.000000;1.717616
5011.000000;1.711603
5010.000000;1.706223
5009.000000;1.703230
5008.000000;1.702274
5007.000000;1.701559
5006.000000;1.700302
5005.000000;1.699071
5004.000000;1.698051
5003.000000;1.696424
5002.000000;1.693451
5001.000000;1.689339
5000.000000;1.684836
4999.000000;1.680625
4998.000000;1.676838
4997.000000;1.672866
4996.000000;1.668185
4995.000000;1.663450
4994.000000;1.660050
4993.000000;1.658419
4992.000000;1.657627
4991.000000;1.656792
4990.000000;1.655698
4989.000000;1.653686
4988.000000;1.649626
4987.000000;1.643959
4986.000000;1.639052
4985.000000;1.636158
4984.000000;1.633531
4983.000000;1.629023
4982.000000;1.623312
4981.000000;1.618717
4980.000000;1.615948
4979.000000;1.614001
4978.000000;1.612452
4977.000000;1.611646
4976.000000;1.610807
4975.000000;1.608068
4974.000000;1.602822
4973.000000;1.596456
4972.000000;1.590327
4971.000000;1.584512
4970.000000;1.578857
4969.000000;1.573928
4968.000000;1.570285
4967.000000;1.567539
4966.000000;1.564673
4965.000000;1.560921
4964.000000;1.556181
4963.000000;1.550858
4962.000000;1.545362
4961.000000;1.539624
4960.000000;1.533407
4959.000000;1.527224
4958.000000;1.522213
4957.000000;1.518616
4956.000000;1.515099
4955.000000;1.510395
4954.000000;1.505054
4953.000000;1.500600
4952.000000;1.497506
4951.000000;1.494880
4950.000000;1.491771
4949.000000;1.487822
4948.000000;1.482869
4947.000000;1.477054
4946.000000;1.471233
4945.000000;1.466348
4944.000000;1.462463
4943.000000;1.458861
4942.000000;1.454841
4941.000000;1.449958
4940.000000;1.443903
4939.000000;1.436921
4938.000000;1.430026
4937.000000;1.424101
4936.000000;1.419042
4935.000000;1.414289
4934.000000;1.409803
4933.000000;1.405806
4932.000000;1.401901
4931.000000;1.397366
4930.000000;1.392202
4929.000000;1.387121
4928.000000;1.382541
4927.000000;1.378247
4926.000000;1.373983
4925.000000;1.369726
4924.000000;1.365323
4923.000000;1.360413
4922.000000;1.354791
4921.000000;1.348517
4920.000000;1.341839
4919.000000;1.335373
4918.000000;1.330071
4917.000000;1.326416
4916.000000;1.323732
4915.000000;1.320699
4914.000000;1.316513
4913.000000;1.311250
4912.000000;1.305357
4911.000000;1.299308
4910.000000;1.293603
4909.000000;1.288546
4908.000000;1.284038
4907.000000;1.279889
4906.000000;1.276179
4905.000000;1.272914
4904.000000;1.269472
4903.000000;1.264936
4902.000000;1.259021
4901.000000;1.252348
4900.000000;1.245874
4899.000000;1.240286
4898.000000;1.235719
4897.000000;1.231700
4896.000000;1.227454
4895.000000;1.222591
4894.000000;1.217372
4893.000000;1.212181
4892.000000;1.207094
4891.000000;1.202202
4890.000000;1.197851
4889.000000;1.194079
4888.000000;1.190194
4887.000000;1.185474
4886.000000;1.180105
4885.000000;1.174910
4884.000000;1.170356
4883.000000;1.166299
4882.000000;1.162503
4881.000000;1.158783
4880.000000;1.154740
4879.000000;1.149934
4878.000000;1.144424
4877.000000;1.138735
4876.000000;1.133298
4875.000000;1.128237
4874.000000;1.123589
4873.000000;1.119311
4872.000000;1.115122
4871.000000;1.110717
4870.000000;1.106140
4869.000000;1.101676
4868.000000;1.097426
4867.000000;1.093258
4866.000000;1.089046
4865.000000;1.084671
4864.000000;1.079937
4863.000000;1.074860
4862.000000;1.069884
4861.000000;1.065440
4860.000000;1.061405
4859.000000;1.057304
4858.000000;1.052941
4857.000000;1.048455
4856.000000;1.043873
4855.000000;1.039091
4854.000000;1.034248
4853.000000;1.029679
4852.000000;1.025441
4851.000000;1.021280
4850.000000;1.017095
4849.000000;1.013079
4848.000000;1.009327
4847.000000;1.005669
4846.000000;1.001954
4845.000000;0.998197
4844.000000;0.994360
4843.000000;0.990285
4842.000000;0.985960
4841.000000;0.981620
4840.000000;0.977461
4839.000000;0.973412
4838.000000;0.969266
4837.000000;0.964891
4836.000000;0.960296
4835.000000;0.955649
4834.000000;0.951238
4833.000000;0.947245
4832.000000;0.943547
4831.000000;0.939847
4830.000000;0.935973
4829.000000;0.931893
4828.000000;0.927584
4827.000000;0.923115
4826.000000;0.918798
4825.000000;0.914975
4824.000000;0.911607
4823.000000;0.908283
4822.000000;0.904669
4821.000000;0.900781
4820.000000;0.896821
4819.000000;0.892943
4818.000000;0.889209
4817.000000;0.885597
4816.000000;0.881998
4815.000000;0.878327
4814.000000;0.874631
4813.000000;0.870966
4812.000000;0.867268
4811.000000;0.863469
4810.000000;0.859687
4809.000000;0.856092
4808.000000;0.852618
4807.000000;0.849040
4806.000000;0.845281
4805.000000;0.841460
4804.000000;0.837639
4803.000000;0.833760
4802.000000;0.829845
4801.000000;0.826035
4800.000000;0.822379
4799.000000;0.818756
4798.000000;0.815083
4797.000000;0.811446
4796.000000;0.807957
4795.000000;0.804589
4794.000000;0.801208
4793.000000;0.797684
4792.000000;0.793978
4791.000000;0.790232
4790.000000;0.786733
4789.000000;0.783667
4788.000000;0.780905
4787.000000;0.778129
4786.000000;0.775149
4785.000000;0.771965
4784.000000;0.768586
4783.000000;0.765002
4782.000000;0.761345
4781.000000;0.757879
4780.000000;0.754745
4779.000000;0.751830
4778.000000;0.748932
4777.000000;0.745955
4776.000000;0.742909
4775.000000;0.739820
4774.000000;0.736706
4773.000000;0.733576
4772.000000;0.730417
4771.000000;0.727252
4770.000000;0.724165
4769.000000;0.721194
4768.000000;0.718238
4767.000000;0.715176
4766.000000;0.712065
4765.000000;0.709076
4764.000000;0.706244
4763.000000;0.703422
4762.000000;0.700495
4761.000000;0.697505
4760.000000;0.694510
4759.000000;0.691461
4758.000000;0.688318
4757.000000;0.685187
4756.000000;0.682231
4755.000000;0.679483
4754.000000;0.676821
4753.000000;0.674112
4752.000000;0.671356
4751.000000;0.668655
4750.000000;0.666079
4749.000000;0.663562
4748.000000;0.660973
4747.000000;0.658281
4746.000000;0.655594
4745.000000;0.652995
4744.000000;0.650420
4743.000000;0.647759
4742.000000;0.645029
4741.000000;0.642368
4740.000000;0.639867
4739.000000;0.637470
4738.000000;0.635034
4737.000000;0.632442
4736.000000;0.629712
4735.000000;0.627007
4734.000000;0.624492
4733.000000;0.622150
4732.000000;0.619801
4731.000000;0.617342
4730.000000;0.614873
4729.000000;0.612525
4728.000000;0.610295
4727.000000;0.608129
4726.000000;0.606048
4725.000000;0.604058
4724.000000;0.602016
4723.000000;0.599761
4722.000000;0.597331
4721.000000;0.594912
4720.000000;0.592610
4719.000000;0.590407
4718.000000;0.588302
4717.000000;0.586336
4716.000000;0.584480
4715.000000;0.582628
4714.000000;0.580724
4713.000000;0.578784
4712.000000;0.576802
4711.000000;0.574743
4710.000000;0.572631
4709.000000;0.570528
4708.000000;0.568435
4707.000000;0.566306
4706.000000;0.564170
4705.000000;0.562117
4704.000000;0.560166
4703.000000;0.558268
4702.000000;0.556425
4701.000000;0.554682
4700.000000;0.553009
4699.000000;0.551309
4698.000000;0.549582
4697.000000;0.547931
4696.000000;0.546386
4695.000000;0.544829
4694.000000;0.543153
4693.000000;0.541396
4692.000000;0.539667
4691.000000;0.538023
4690.000000;0.536459
4689.000000;0.534933
4688.000000;0.533373
4687.000000;0.531721
4686.000000;0.530004
4685.000000;0.528308
4684.000000;0.526663
4683.000000;0.525040
4682.000000;0.523464
4681.000000;0.522014
4680.000000;0.520699
4679.000000;0.519404
4678.000000;0.518015
4677.000000;0.516520
4676.000000;0.514971
4675.000000;0.513434
4674.000000;0.512004
4673.000000;0.510775
4672.000000;0.509704
4671.000000;0.508584
4670.000000;0.507224
4669.000000;0.505640
4668.000000;0.504023
4667.000000;0.502552
4666.000000;0.501290
4665.000000;0.500209
4664.000000;0.499236
4663.000000;0.498280
4662.000000;0.497246
4661.000000;0.496081
4660.000000;0.494824
4659.000000;0.493609
4658.000000;0.492577
4657.000000;0.491726
4656.000000;0.490888
4655.000000;0.489892
4654.000000;0.488749
4653.000000;0.487606
4652.000000;0.486545
4651.000000;0.485524
4650.000000;0.484482
4649.000000;0.483440
4648.000000;0.482448
4647.000000;0.481511
4646.000000;0.480619
4645.000000;0.479782
4644.000000;0.479031
4643.000000;0.478370
4642.000000;0.477748
4641.000000;0.477064
4640.000000;0.476227
4639.000000;0.475249
4638.000000;0.474262
4637.000000;0.473385
4636.000000;0.472614
4635.000000;0.471878
4634.000000;0.471171
4633.000000;0.470534
4632.000000;0.469936
4631.000000;0.469277
4630.000000;0.468517
4629.000000;0.467704
4628.000000;0.466891
4627.000000;0.466086
4626.000000;0.465326
4625.000000;0.464685
4624.000000;0.464186
4623.000000;0.463767
4622.000000;0.463350
4621.000000;0.462895
4620.000000;0.462376
4619.000000;0.461781
4618.000000;0.461165
4617.000000;0.460623
4616.000000;0.460168
4615.000000;0.459697
4614.000000;0.459131
4613.000000;0.458534
4612.000000;0.458042
4611.000000;0.457713
4610.000000;0.457479
4609.000000;0.457213
4608.000000;0.456833
4607.000000;0.456361
4606.000000;0.455900
4605.000000;0.455530
4604.000000;0.455236
4603.000000;0.454949
4602.000000;0.454648
4601.000000;0.454369
4600.000000;0.454145
4599.000000;0.453985
4598.000000;0.453891
4597.000000;0.453845
4596.000000;0.453780
4595.000000;0.453631
4594.000000;0.453416
4593.000000;0.453217
4592.000000;0.453093
4591.000000;0.453060
4590.000000;0.453123
4589.000000;0.453253
4588.000000;0.453366
4587.000000;0.453395
4586.000000;0.453391
4585.000000;0.453447
4584.000000;0.453557
4583.000000;0.453627
4582.000000;0.453629
4581.000000;0.453636
4580.000000;0.453677
4579.000000;0.453695
4578.000000;0.453668
4577.000000;0.453679
4576.000000;0.453814
4575.000000;0.454072
4574.000000;0.454420
4573.000000;0.454847
4572.000000;0.455308
4571.000000;0.455711
4570.000000;0.456022
4569.000000;0.456311
4568.000000;0.456639
4567.000000;0.456961
4566.000000;0.457214
4565.000000;0.457428
4564.000000;0.457710
4563.000000;0.458140
4562.000000;0.458733
4561.000000;0.459447
4560.000000;0.460173
4559.000000;0.460789
4558.000000;0.461278
4557.000000;0.461764
4556.000000;0.462372
4555.000000;0.463094
4554.000000;0.463830
4553.000000;0.464522
4552.000000;0.465194
4551.000000;0.465902
4550.000000;0.466686
4549.000000;0.467544
4548.000000;0.468420
4547.000000;0.469235
4546.000000;0.469977
4545.000000;0.470725
4544.000000;0.471553
4543.000000;0.472458
4542.000000;0.473390
4541.000000;0.474320
4540.000000;0.475243
4539.000000;0.476151
4538.000000;0.477054
4537.000000;0.477964
4536.000000;0.478857
4535.000000;0.479680
4534.000000;0.480444
4533.000000;0.481247
4532.000000;0.482172
4531.000000;0.483196
4530.000000;0.484238
4529.000000;0.485258
4528.000000;0.486266
4527.000000;0.487283
4526.000000;0.488320
4525.000000;0.489364
4524.000000;0.490336
4523.000000;0.491144
4522.000000;0.491809
4521.000000;0.492511
4520.000000;0.493420
4519.000000;0.494512
4518.000000;0.495595
4517.000000;0.496490
4516.000000;0.497183
4515.000000;0.497804
4514.000000;0.498518
4513.000000;0.499402
4512.000000;0.500408
4511.000000;0.501436
4510.000000;0.502454
4509.000000;0.503520
4508.000000;0.504687
4507.000000;0.505921
4506.000000;0.507127
4505.000000;0.508228
4504.000000;0.509222
4503.000000;0.510193
4502.000000;0.511256
4501.000000;0.512418
4500.000000;0.513512
4499.000000;0.514371
4498.000000;0.515102
4497.000000;0.516058
4496.000000;0.517482
4495.000000;0.519236
4494.000000;0.520954
4493.000000;0.522407
4492.000000;0.523643
4491.000000;0.524826
4490.000000;0.526047
4489.000000;0.527298
4488.000000;0.528575
4487.000000;0.529939
4486.000000;0.531468
4485.000000;0.533150
4484.000000;0.534857
4483.000000;0.536471
4482.000000;0.538015
4481.000000;0.539585
4480.000000;0.541194
4479.000000;0.542767
4478.000000;0.544299
4477.000000;0.545888
4476.000000;0.547566
4475.000000;0.549218
4474.000000;0.550747
4473.000000;0.552245
4472.000000;0.553891
4471.000000;0.555752
4470.000000;0.557729
4469.000000;0.559678
4468.000000;0.561514
4467.000000;0.563232
4466.000000;0.564914
4465.000000;0.566682
4464.000000;0.568635
4463.000000;0.570806
4462.000000;0.573158
4461.000000;0.575549
4460.000000;0.577753
4459.000000;0.579642
4458.000000;0.581368
4457.000000;0.583241
4456.000000;0.585364
4455.000000;0.587532
4454.000000;0.589542
4453.000000;0.591453
4452.000000;0.593456
4451.000000;0.595623
4450.000000;0.597905
4449.000000;0.600274
4448.000000;0.602713
4447.000000;0.605146
4446.000000;0.607519
4445.000000;0.609895
4444.000000;0.612345
4443.000000;0.614815
4442.000000;0.617229
4441.000000;0.619653
4440.000000;0.622216
4439.000000;0.624900
4438.000000;0.627546
4437.000000;0.630051
4436.000000;0.632426
4435.000000;0.634703
4434.000000;0.636929
4433.000000;0.639249
4432.000000;0.641843
4431.000000;0.644737
4430.000000;0.647777
4429.000000;0.650767
4428.000000;0.653563
4427.000000;0.656091
4426.000000;0.658413
4425.000000;0.660783
4424.000000;0.663461
4423.000000;0.666455
4422.000000;0.669535
4421.000000;0.672517
4420.000000;0.675418
4419.000000;0.678313
4418.000000;0.681198
4417.000000;0.684058
4416.000000;0.686961
4415.000000;0.690002
4414.000000;0.693173
4413.000000;0.696354
4412.000000;0.699411
4411.000000;0.702325
4410.000000;0.705253
4409.000000;0.708415
4408.000000;0.711853
4407.000000;0.715338
4406.000000;0.718618
4405.000000;0.721723
4404.000000;0.724900
4403.000000;0.728247
4402.000000;0.731575
4401.000000;0.734682
4400.000000;0.737651
4399.000000;0.740775
4398.000000;0.744258
4397.000000;0.748027
4396.000000;0.751808
4395.000000;0.755344
4394.000000;0.758606
4393.000000;0.761810
4392.000000;0.765202
4391.000000;0.768819
4390.000000;0.772497
4389.000000;0.776086
4388.000000;0.779597
4387.000000;0.783152
4386.000000;0.786849
4385.000000;0.790671
4384.000000;0.794492
4383.000000;0.798178
4382.000000;0.801734
4381.000000;0.805325
4380.000000;0.809113
4379.000000;0.813112
4378.000000;0.817233
4377.000000;0.821372
4376.000000;0.825380
4375.000000;0.829064
4374.000000;0.832399
4373.000000;0.835685
4372.000000;0.839323
4371.000000;0.843462
4370.000000;0.847976
4369.000000;0.852720
4368.000000;0.857583
4367.000000;0.862337
4366.000000;0.866669
4365.000000;0.870510
4364.000000;0.874163
4363.000000;0.877991
4362.000000;0.882098
4361.000000;0.886380
4360.000000;0.890747
4359.000000;0.895166
4358.000000;0.899565
4357.000000;0.903857
4356.000000;0.908068
4355.000000;0.912383
4354.000000;0.917013
4353.000000;0.921974
4352.000000;0.927005
4351.000000;0.931787
4350.000000;0.936302
4349.000000;0.940865
4348.000000;0.945701
4347.000000;0.950613
4346.000000;0.955238
4345.000000;0.959562
4344.000000;0.963944
4343.000000;0.968668
4342.000000;0.973695
4341.000000;0.978886
4340.000000;0.984199
4339.000000;0.989588
4338.000000;0.994948
4337.000000;1.000286
4336.000000;1.005702
4335.000000;1.011112
4334.000000;1.016188
4333.000000;1.020762
4332.000000;1.025123
4331.000000;1.029748
4330.000000;1.034884
4329.000000;1.040504
4328.000000;1.046475
4327.000000;1.052519
4326.000000;1.058167
4325.000000;1.063093
4324.000000;1.067528
4323.000000;1.072110
4322.000000;1.077283
4321.000000;1.083006
4320.000000;1.089076
4319.000000;1.095424
4318.000000;1.101934
4317.000000;1.108178
4316.000000;1.113668
4315.000000;1.118385
4314.000000;1.122898
4313.000000;1.127823
4312.000000;1.133289
4311.000000;1.138977
4310.000000;1.144532
4309.000000;1.149855
4308.000000;1.155113
4307.000000;1.160668
4306.000000;1.166980
4305.000000;1.174231
4304.000000;1.181873
4303.000000;1.188836
4302.000000;1.194519
4301.000000;1.199470
4300.000000;1.204817
4299.000000;1.211122
4298.000000;1.218039
4297.000000;1.224974
4296.000000;1.231708
4295.000000;1.238263
4294.000000;1.244519
4293.000000;1.250273
4292.000000;1.255527
4291.000000;1.260554
4290.000000;1.265725
4289.000000;1.271396
4288.000000;1.277868
4287.000000;1.285242
4286.000000;1.293128
4285.000000;1.300606
4284.000000;1.306796
4283.000000;1.311679
4282.000000;1.316342
4281.000000;1.322191
4280.000000;1.329653
4279.000000;1.337888
4278.000000;1.345830
4277.000000;1.353129
4276.000000;1.359920
4275.000000;1.366139
4274.000000;1.371669
4273.000000;1.376995
4272.000000;1.383024
4271.000000;1.390185
4270.000000;1.398164
4269.000000;1.406556
4268.000000;1.415178
4267.000000;1.423603
4266.000000;1.430995
4265.000000;1.436943
4264.000000;1.442191
4263.000000;1.448108
4262.000000;1.455445
4261.000000;1.463629
4260.000000;1.471186
4259.000000;1.476808
4258.000000;1.480507
4257.000000;1.484017
4256.000000;1.489707
4255.000000;1.498657
4254.000000;1.509596
4253.000000;1.519887
4252.000000;1.527810
4251.000000;1.533768
4250.000000;1.539551
4249.000000;1.546717
4248.000000;1.555623
4247.000000;1.565400
4246.000000;1.574705
4245.000000;1.582828
4244.000000;1.590138
4243.000000;1.597395
4242.000000;1.604837
4241.000000;1.612127
4240.000000;1.618931
4239.000000;1.625170
4238.000000;1.630838
4237.000000;1.636045
4236.000000;1.641429
4235.000000;1.648158
4234.000000;1.656877
4233.000000;1.666953
4232.000000;1.676966
4231.000000;1.685913
4230.000000;1.694073
4229.000000;1.702581
4228.000000;1.712466
4227.000000;1.723817
4226.000000;1.735149
4225.000000;1.744083
4224.000000;1.749277
4223.000000;1.752324
4222.000000;1.757098
4221.000000;1.766336
4220.000000;1.779003
4219.000000;1.791218
4218.000000;1.799977
4217.000000;1.805186
4216.000000;1.808217
4215.000000;1.810039
4214.000000;1.811598
4213.000000;1.814960
4212.000000;1.822489
4211.000000;1.834727
4210.000000;1.849646
4209.000000;1.863955
4208.000000;1.875175
4207.000000;1.882977
4206.000000;1.889246
4205.000000;1.896777
4204.000000;1.906753
4203.000000;1.917517
4202.000000;1.926382
4201.000000;1.932207
4200.000000;1.935917
4199.000000;1.939261
4198.000000;1.943593
4197.000000;1.949527
4196.000000;1.956882
4195.000000;1.964553
4194.000000;1.971563
4193.000000;1.978836
4192.000000;1.989240
4191.000000;2.004619
4190.000000;2.022412
4189.000000;2.036412
4188.000000;2.042448
4187.000000;2.043017
4186.000000;2.044407
4185.000000;2.050344
4184.000000;2.058664
4183.000000;2.065135
4182.000000;2.070148
4181.000000;2.078171
4180.000000;2.090955
4179.000000;2.103989
4178.000000;2.111081
4177.000000;2.112045
4176.000000;2.113248
4175.000000;2.120316
4174.000000;2.132864
4173.000000;2.145877
4172.000000;2.155401
4171.000000;2.162123
4170.000000;2.169383
4169.000000;2.179020
4168.000000;2.190244
4167.000000;2.202643
4166.000000;2.216118
4165.000000;2.228043
4164.000000;2.234452
4163.000000;2.234355
4162.000000;2.233273
4161.000000;2.238704
4160.000000;2.251927
4159.000000;2.270473
4158.000000;2.291719
4157.000000;2.311766
4156.000000;2.326103
4155.000000;2.331435
4154.000000;2.329028
4153.000000;2.323938
4152.000000;2.320847
4151.000000;2.325645
4150.000000;2.340239
4149.000000;2.357999
4148.000000;2.372616
4147.000000;2.383826
4146.000000;2.394624
4145.000000;2.403501
4144.000000;2.403382
4143.000000;2.392804
4142.000000;2.382335
4141.000000;2.385134
4140.000000;2.403727
4139.000000;2.431994
4138.000000;2.463744
4137.000000;2.491599
4136.000000;2.501139
4135.000000;2.484174
4134.000000;2.457017
4133.000000;2.442355
4132.000000;2.443959
4131.000000;2.446459
4130.000000;2.438657
4129.000000;2.429406
4128.000000;2.432219
4127.000000;2.448856
4126.000000;2.472025
4125.000000;2.500410
4124.000000;2.537734
4123.000000;2.577644
4122.000000;2.608382
4121.000000;2.626906
4120.000000;2.637816
4119.000000;2.641098
4118.000000;2.633706
4117.000000;2.616269
4116.000000;2.589782
4115.000000;2.561843
4114.000000;2.540008
4113.000000;2.526198
4112.000000;2.518419
4111.000000;2.514672
4110.000000;2.518810
4109.000000;2.536901
4108.000000;2.569158
4107.000000;2.606164
4106.000000;2.637225
4105.000000;2.664483
4104.000000;2.698173
4103.000000;2.733847
4102.000000;2.751622
4101.000000;2.738120
4100.000000;2.703661
4099.000000;2.674111
4098.000000;2.666701
4097.000000;2.683848
4096.000000;2.718660
4095.000000;2.756757
4094.000000;2.780156
4093.000000;2.783810
4092.000000;2.763771
4091.000000;2.721536
4090.000000;2.678894
4089.000000;2.660420
4088.000000;2.676260
4087.000000;2.719437
4086.000000;2.778391
4085.000000;2.842675
4084.000000;2.894805
4083.000000;2.902348
4082.000000;2.854721
4081.000000;2.792873
4080.000000;2.756978
4079.000000;2.753282
4078.000000;2.763761
4077.000000;2.769284
4076.000000;2.767789
4075.000000;2.766153
4074.000000;2.771798
4073.000000;2.789636
4072.000000;2.802816
4071.000000;2.801756
4070.000000;2.803631
4069.000000;2.809433
4068.000000;2.805269
4067.000000;2.790050
4066.000000;2.781783
4065.000000;2.794994
4064.000000;2.821832
4063.000000;2.844291
4062.000000;2.864570
4061.000000;2.899259
4060.000000;2.936451
4059.000000;2.957811
4058.000000;2.978196
4057.000000;3.020411
4056.000000;3.056472
4055.000000;3.069508
4054.000000;3.079731
4053.000000;3.086500
4052.000000;3.101237
4051.000000;3.100662
4050.000000;3.071738
4049.000000;3.047708
4048.000000;3.051424
4047.000000;3.053760
4046.000000;3.020733
4045.000000;2.985837
4044.000000;2.971366
4043.000000;2.966270
4042.000000;2.975965
4041.000000;3.027655
4040.000000;3.126884
4039.000000;3.212555
4038.000000;3.206637
4037.000000;3.153127
4036.000000;3.111092
4035.000000;3.105137
4034.000000;3.146559
4033.000000;3.202939
4032.000000;3.179713
4031.000000;3.082493
4030.000000;2.974993
4029.000000;2.898092
4028.000000;2.874650
4027.000000;2.893370
4026.000000;2.932231
4025.000000;2.975059
4024.000000;3.017814
4023.000000;3.051801
4022.000000;3.045514
4021.000000;3.007164
4020.000000;2.979526
4019.000000;2.994100
4018.000000;3.034405
4017.000000;3.035708
4016.000000;3.001446
4015.000000;2.972932
4014.000000;2.958770
4013.000000;2.945862
4012.000000;2.931057
4011.000000;2.928456
4010.000000;2.934157
4009.000000;2.959936
4008.000000;3.033416
4007.000000;3.141308
4006.000000;3.222408
4005.000000;3.268424
4004.000000;3.277244
4003.000000;3.222387
4002.000000;3.143637
4001.000000;3.070371
4000.000000;3.008205
3999.000000;2.971750
3998.000000;2.978045
3997.000000;3.015610
3996.000000;3.073531
3995.000000;3.175167
3994.000000;3.277475
3993.000000;3.345281
3992.000000;3.467134
3991.000000;3.573996
3990.000000;3.502944
3989.000000;3.358314
3988.000000;3.256688
3987.000000;3.199709
3986.000000;3.142172
3985.000000;3.066377
3984.000000;3.010824
3983.000000;2.992568
3982.000000;2.974209
3981.000000;2.955906
3980.000000;2.969800
3979.000000;3.034890
3978.000000;3.144641
3977.000000;3.231913
3976.000000;3.224748
3975.000000;3.144536
3974.000000;3.071833
3973.000000;3.040264
3972.000000;3.024956
3971.000000;2.995262
3970.000000;2.990177
3969.000000;3.084561
3968.000000;3.205747
3967.000000;3.183964
3966.000000;3.094377
3965.000000;3.025796
3964.000000;3.025429
3963.000000;3.069194
3962.000000;3.086745
3961.000000;3.100384
3960.000000;3.165225
3959.000000;3.244915
3958.000000;3.263292
3957.000000;3.240932
3956.000000;3.181618
3955.000000;3.111246
3954.000000;3.065637
3953.000000;3.058337
3952.000000;3.073332
3951.000000;3.080688
3950.000000;3.094447
3949.000000;3.193081
3948.000000;3.466512
3947.000000;3.800702
3946.000000;3.674641
3945.000000;3.698505
3944.000000;3.876394
3943.000000;3.632312
3942.000000;3.399025
3941.000000;3.306783
3940.000000;3.298491
3939.000000;3.296026
3938.000000;3.254792
3937.000000;3.209732
3936.000000;3.171197
3935.000000;3.157013
3934.000000;3.141775
3933.000000;3.102979
3932.000000;3.108234
3931.000000;3.178404
3930.000000;3.355214
3929.000000;3.718705
3928.000000;3.565627
3927.000000;3.385089
3926.000000;3.375293
3925.000000;3.412777
3924.000000;3.494102
3923.000000;3.462759
3922.000000;3.330091
3921.000000;3.259543
3920.000000;3.209958
3919.000000;3.172148
3918.000000;3.161542
3917.000000;3.211196
3916.000000;3.606306
3915.000000;3.828177
3914.000000;3.409072
3913.000000;3.418127
3912.000000;3.543905
3911.000000;3.642233
3910.000000;3.680953
3909.000000;3.706448
3908.000000;3.813040
3907.000000;3.944838
3906.000000;4.007119
3905.000000;3.842897
3904.000000;3.656764
3903.000000;3.587002
3902.000000;3.455896
3901.000000;3.320445
3900.000000;3.261197
3899.000000;3.224242
3898.000000;3.206260
3897.000000;3.268068
3896.000000;3.374178
3895.000000;3.380514
3894.000000;3.301106
3893.000000;3.270420
3892.000000;3.330037
3891.000000;3.432876
3890.000000;3.490474
3889.000000;3.511338
3888.000000;3.559153
3887.000000;3.574744
3886.000000;3.499947
3885.000000;3.442666
3884.000000;3.430952
3883.000000;3.433640
3882.000000;3.465686
3881.000000;3.691582
3880.000000;4.085927
3879.000000;3.749266
3878.000000;3.598409
3877.000000;3.565295
3876.000000;3.601138
3875.000000;3.697820
3874.000000;3.453820
3873.000000;3.279525
3872.000000;3.222109
3871.000000;3.294310
3870.000000;3.487140
3869.000000;3.415539
3868.000000;3.273196
3867.000000;3.447442
3866.000000;3.931170
3865.000000;3.615349
3864.000000;3.528599
3863.000000;3.546932
3862.000000;3.492344
3861.000000;3.544010
3860.000000;3.820797
3859.000000;4.185018
3858.000000;3.639512
3857.000000;3.279826
3856.000000;3.051645
3855.000000;2.958043
3854.000000;3.024056
3853.000000;3.169870
3852.000000;3.342203
3851.000000;3.468823
3850.000000;3.530754
3849.000000;3.628827
3848.000000;3.680826
3847.000000;3.623524
3846.000000;3.687632
3845.000000;3.901484
3844.000000;3.764452
3843.000000;3.647687
3842.000000;3.751127
3841.000000;3.688783
3840.000000;3.579664
3839.000000;3.904137
3838.000000;3.879123
3837.000000;3.480529
3836.000000;3.374654
3835.000000;3.394014
3834.000000;3.527669
3833.000000;3.725289
3832.000000;3.768259
3831.000000;3.614667
3830.000000;3.478575
3829.000000;3.416649
3828.000000;3.416991
3827.000000;3.504936
3826.000000;3.646191
3825.000000;3.754373
3824.000000;3.789233
3823.000000;3.721823
3822.000000;3.530388
3821.000000;3.422742
3820.000000;3.507316
3819.000000;3.486823
3818.000000;3.402094
3817.000000;3.439109
3816.000000;3.729173
3815.000000;3.929921
3814.000000;3.651421
3813.000000;3.893727
3812.000000;4.081409
3811.000000;3.663754
3810.000000;3.521344
3809.000000;3.395238
3808.000000;3.352537
3807.000000;3.388871
3806.000000;3.457054
3805.000000;3.576528
3804.000000;3.726170
3803.000000;3.612497
3802.000000;3.491912
3801.000000;3.666672
3800.000000;3.788672
3799.000000;3.667996
3798.000000;3.562551
3797.000000;3.376317
3796.000000;3.218535
3795.000000;3.195579
3794.000000;3.313882
3793.000000;3.473009
3792.000000;3.593460
3791.000000;3.621285
3790.000000;3.431338
3789.000000;3.259233
3788.000000;3.189085
3787.000000;3.336311
3786.000000;3.781486
3785.000000;3.827387
3784.000000;3.677367
3783.000000;3.591956
3782.000000;3.512558
3781.000000;3.534817
3780.000000;3.616398
3779.000000;3.805807
3778.000000;3.933395
3777.000000;3.666050
3776.000000;3.519186
3775.000000;3.637706
3774.000000;3.681094
3773.000000;3.575215
3772.000000;3.575072
3771.000000;3.571474
3770.000000;3.536768
3769.000000;3.541682
3768.000000;3.614601
3767.000000;3.654297
3766.000000;3.518453
3765.000000;3.479672
3764.000000;3.594713
3763.000000;3.693553
3762.000000;3.667489
3761.000000;3.586351
3760.000000;3.536459
3759.000000;3.523579
3758.000000;3.545509
3757.000000;3.448139
3756.000000;3.319613
3755.000000;3.376351
3754.000000;3.337834
3753.000000;3.180980
3752.000000;3.178999
3751.000000;3.189948
3750.000000;3.196861
3749.000000;3.232908
3748.000000;3.258059
3747.000000;3.235228
3746.000000;3.214972
3745.000000;3.556092
3744.000000;3.514427
3743.000000;3.406902
3742.000000;3.773290
3741.000000;3.792985
3740.000000;3.714483
3739.000000;3.900402
3738.000000;4.308129
3737.000000;3.937395
3736.000000;3.896300
3735.000000;4.248241
3734.000000;4.146721
3733.000000;4.140746
3732.000000;3.831388
3731.000000;3.746783
3730.000000;3.800566
3729.000000;3.827812
3728.000000;3.809910
3727.000000;3.550638
3726.000000;3.456271
3725.000000;3.549545
3724.000000;3.903468
3723.000000;4.257467
3722.000000;3.679129
3721.000000;3.318342
3720.000000;3.149341
3719.000000;3.120886
3718.000000;3.173089
3717.000000;3.236839
3716.000000;3.325720
3715.000000;3.382243
3714.000000;3.271368
3713.000000;3.198146
3712.000000;3.262676
3711.000000;3.359318
3710.000000;3.408300
3709.000000;3.343794
3708.000000;3.213484
3707.000000;3.191904
3706.000000;3.277149
3705.000000;3.393738
3704.000000;3.477397
3703.000000;3.569283
3702.000000;3.654503
3701.000000;3.631681
3700.000000;3.533092
3699.000000;3.419631
3698.000000;3.370695
3697.000000;3.328060
3696.000000;3.294387
3695.000000;3.289049
3694.000000;3.263188
3693.000000;3.228688
3692.000000;3.202927
3691.000000;3.334503
3690.000000;3.605298
3689.000000;3.407875
3688.000000;3.334846
3687.000000;3.444499
3686.000000;3.488398
3685.000000;3.490164
3684.000000;3.458137
3683.000000;3.450637
3682.000000;3.320915
3681.000000;3.165091
3680.000000;3.151609
3679.000000;3.261543
3678.000000;3.458337
3677.000000;3.598182
3676.000000;3.480427
3675.000000;3.357926
3674.000000;3.356099
3673.000000;3.622532
3672.000000;3.677223
3671.000000;3.534338
3670.000000;3.738048
3669.000000;3.666586
3668.000000;3.575138
3667.000000;3.636558
3666.000000;3.633624
3665.000000;3.644884
3664.000000;3.599651
3663.000000;3.803582
3662.000000;4.416580
3661.000000;3.856701
3660.000000;3.573544
3659.000000;3.505250
3658.000000;3.476633
3657.000000;3.728925
3656.000000;4.384774
3655.000000;4.020358
3654.000000;3.870189
3653.000000;3.785178
3652.000000;3.699903
3651.000000;3.798094
3650.000000;3.903464
3649.000000;3.696716
3648.000000;3.664656
3647.000000;3.970953
3646.000000;3.714907
3645.000000;3.431018
3644.000000;3.424987
3643.000000;3.458248
3642.000000;3.666150
3641.000000;4.067882
3640.000000;3.631695
3639.000000;3.444290
3638.000000;3.410860
3637.000000;3.343026
3636.000000;3.238593
3635.000000;3.277024
3634.000000;3.684410
3633.000000;3.755250
3632.000000;3.357303
3631.000000;3.170496
3630.000000;3.069476
3629.000000;3.142305
3628.000000;3.370010
3627.000000;3.490879
3626.000000;3.444336
3625.000000;3.368060
3624.000000;3.335260
3623.000000;3.439465
3622.000000;3.973831
3621.000000;4.277475
3620.000000;3.726705
3619.000000;3.720005
3618.000000;3.672080
3617.000000;3.734902
3616.000000;3.976412
3615.000000;4.120127
3614.000000;4.124147
3613.000000;4.078491
3612.000000;3.935503
3611.000000;3.589527
3610.000000;3.361212
3609.000000;3.259296
3608.000000;3.281994
3607.000000;3.306438
3606.000000;3.378384
3605.000000;3.453882
3604.000000;3.620383
3603.000000;4.078833
3602.000000;3.420861
3601.000000;3.161472
3600.000000;3.144178
3599.000000;3.211102
3598.000000;3.411414
3597.000000;3.569760
3596.000000;3.468605
3595.000000;3.290036
3594.000000;3.258054
3593.000000;3.545790
3592.000000;4.021274
3591.000000;3.675028
3590.000000;3.547235
3589.000000;3.817746
3588.000000;3.704753
3587.000000;3.341626
3586.000000;3.284960
3585.000000;3.464555
3584.000000;3.748348
3583.000000;3.470707
3582.000000;3.260104
3581.000000;3.287586
3580.000000;3.382198
3579.000000;3.404474
3578.000000;3.370241
3577.000000;3.314573
3576.000000;3.299699
3575.000000;3.403029
3574.000000;3.639943
3573.000000;4.020307
3572.000000;3.878348
3571.000000;3.644767
3570.000000;3.692106
3569.000000;3.594439
3568.000000;3.400849
3567.000000;3.342515
3566.000000;3.456265
3565.000000;3.623267
3564.000000;3.499938
3563.000000;3.416930
3562.000000;3.543353
3561.000000;3.808966
3560.000000;3.957495
3559.000000;3.812623
3558.000000;3.536717
3557.000000;3.290073
3556.000000;3.193090
3555.000000;3.206639
3554.000000;3.318994
3553.000000;3.571190
3552.000000;3.637320
3551.000000;3.489766
3550.000000;3.402479
3549.000000;3.307412
3548.000000;3.389692
3547.000000;3.811927
3546.000000;3.629795
3545.000000;3.486649
3544.000000;3.845739
3543.000000;3.773618
3542.000000;3.477156
3541.000000;3.344090
3540.000000;3.252726
3539.000000;3.419079
3538.000000;3.686455
3537.000000;3.360163
3536.000000;3.214014
3535.000000;3.222866
3534.000000;3.249097
3533.000000;3.259195
3532.000000;3.111517
3531.000000;2.925139
3530.000000;2.854082
3529.000000;2.916381
3528.000000;3.150573
3527.000000;3.513887
3526.000000;3.822445
3525.000000;4.080026
3524.000000;3.587954
3523.000000;3.271881
3522.000000;3.158507
3521.000000;3.169614
3520.000000;3.509106
3519.000000;4.163034
3518.000000;3.490396
3517.000000;3.305228
3516.000000;3.267768
3515.000000;3.263585
3514.000000;3.283209
3513.000000;3.232297
3512.000000;3.139000
3511.000000;3.046632
3510.000000;3.016721
3509.000000;3.032335
3508.000000;3.134670
3507.000000;3.288398
3506.000000;3.248016
3505.000000;3.212068
3504.000000;3.308902
3503.000000;3.307713
3502.000000;3.257191
3501.000000;3.223121
3500.000000;3.242146
3499.000000;3.305798
3498.000000;3.525026
3497.000000;3.827367
3496.000000;3.365756
3495.000000;3.181433
3494.000000;3.189876
3493.000000;3.266201
3492.000000;3.426253
3491.000000;3.698511
3490.000000;4.279457
3489.000000;4.450886
3488.000000;3.951166
3487.000000;3.471184
3486.000000;3.195662
3485.000000;3.092270
3484.000000;3.090060
3483.000000;3.116502
3482.000000;3.136377
3481.000000;3.228659
3480.000000;3.453713
3479.000000;3.596336
3478.000000;3.411464
3477.000000;3.207513
3476.000000;3.149121
3475.000000;3.206401
3474.000000;3.501851
3473.000000;3.821588
3472.000000;3.543924
3471.000000;3.645090
3470.000000;3.526508
3469.000000;3.304398
3468.000000;3.255601
3467.000000;3.251829
3466.000000;3.231159
3465.000000;3.503471
3464.000000;3.962312
3463.000000;3.342749
3462.000000;3.258976
3461.000000;3.278640
3460.000000;3.263735
3459.000000;3.320153
3458.000000;3.485550
3457.000000;3.847803
3456.000000;3.614789
3455.000000;3.358682
3454.000000;3.351625
3453.000000;3.445501
3452.000000;3.554666
3451.000000;3.439356
3450.000000;3.353638
3449.000000;3.257567
3448.000000;3.317372
3447.000000;3.968800
3446.000000;3.461228
3445.000000;3.172060
3444.000000;3.183178
3443.000000;3.197660
3442.000000;3.184961
3441.000000;3.155606
3440.000000;3.160998
3439.000000;3.119508
3438.000000;3.076832
3437.000000;3.121264
3436.000000;3.467438
3435.000000;3.764958
3434.000000;3.305039
3433.000000;3.149517
3432.000000;3.079184
3431.000000;3.103332
3430.000000;3.293602
3429.000000;3.524289
3428.000000;3.518050
3427.000000;3.639119
3426.000000;3.762402
3425.000000;3.344253
3424.000000;3.155331
3423.000000;3.257408
3422.000000;3.507202
3421.000000;3.388300
3420.000000;3.331476
3419.000000;3.457342
3418.000000;3.370203
3417.000000;3.210540
3416.000000;3.207235
3415.000000;3.315213
3414.000000;3.459908
3413.000000;3.575223
3412.000000;3.502258
3411.000000;3.431226
3410.000000;3.571186
3409.000000;3.911722
3408.000000;3.565372
3407.000000;3.262074
3406.000000;3.221950
3405.000000;3.322338
3404.000000;3.332817
3403.000000;3.147739
3402.000000;3.032372
3401.000000;3.039422
3400.000000;3.123085
3399.000000;3.272998
3398.000000;3.514990
3397.000000;3.712337
3396.000000;3.709281
3395.000000;3.602157
3394.000000;3.491926
3393.000000;3.511186
3392.000000;3.632742
3391.000000;3.755537
3390.000000;3.603718
3389.000000;3.371512
3388.000000;3.235914
3387.000000;3.450000
3386.000000;3.938961
3385.000000;3.427175
3384.000000;3.321552
3383.000000;3.305591
3382.000000;3.268696
3381.000000;3.296727
3380.000000;3.417183
3379.000000;3.610632
3378.000000;3.570418
3377.000000;3.551166
3376.000000;3.575228
3375.000000;3.568677
3374.000000;3.425415
3373.000000;3.250880
3372.000000;3.218839
3371.000000;3.277714
3370.000000;3.392291
3369.000000;3.592314
3368.000000;3.481515
3367.000000;3.266460
3366.000000;3.205400
3365.000000;3.247739
3364.000000;3.351633
3363.000000;3.425409
3362.000000;3.400764
3361.000000;3.375810
3360.000000;3.353256
3359.000000;3.242976
3358.000000;3.168099
3357.000000;3.211229
3356.000000;3.303030
3355.000000;3.367718
3354.000000;3.436010
3353.000000;3.756306
3352.000000;3.904051
3351.000000;3.602624
3350.000000;3.660681
3349.000000;3.572477
3348.000000;3.460954
3347.000000;3.602852
3346.000000;3.960440
3345.000000;3.880956
3344.000000;3.559690
3343.000000;3.402946
3342.000000;3.213358
3341.000000;3.064522
3340.000000;3.013959
3339.000000;3.049780
3338.000000;3.184578
3337.000000;3.228850
3336.000000;3.117241
3335.000000;3.167189
3334.000000;3.428101
3333.000000;3.461451
3332.000000;3.317743
3331.000000;3.358048
3330.000000;3.377535
3329.000000;3.285089
3328.000000;3.275927
3327.000000;3.305320
3326.000000;3.180692
3325.000000;2.990168
3324.000000;2.915964
3323.000000;3.001725
3322.000000;3.205017
3321.000000;3.511273
3320.000000;3.998023
3319.000000;3.838815
3318.000000;3.661193
3317.000000;3.750430
3316.000000;3.924282
3315.000000;3.900681
3314.000000;3.477977
3313.000000;3.274752
3312.000000;3.245620
3311.000000;3.315749
3310.000000;3.523297
3309.000000;3.538978
3308.000000;3.258488
3307.000000;3.183559
3306.000000;3.298323
3305.000000;3.385059
3304.000000;3.308596
3303.000000;3.262227
3302.000000;3.346994
3301.000000;3.473730
3300.000000;3.590707
3299.000000;3.812906
3298.000000;3.473370
3297.000000;3.163054
3296.000000;3.027663
3295.000000;2.924566
3294.000000;2.902333
3293.000000;3.008272
3292.000000;3.292881
3291.000000;3.732091
3290.000000;3.673860
3289.000000;3.421599
3288.000000;3.345451
3287.000000;3.449821
3286.000000;3.825692
3285.000000;4.969949
3284.000000;4.137285
3283.000000;3.816748
3282.000000;3.584657
3281.000000;3.460692
3280.000000;3.509793
3279.000000;3.509761
3278.000000;3.375326
3277.000000;3.282808
3276.000000;3.254823
3275.000000;3.293775
3274.000000;3.436728
3273.000000;3.481118
3272.000000;3.476093
3271.000000;3.622853
3270.000000;3.402706
3269.000000;3.230531
3268.000000;3.277452
3267.000000;3.306688
3266.000000;3.211407
3265.000000;3.100863
3264.000000;3.074621
3263.000000;3.156241
3262.000000;3.349891
3261.000000;3.392875
3260.000000;3.313477
3259.000000;3.540204
3258.000000;3.606624
3257.000000;3.345998
3256.000000;3.357220
3255.000000;3.641493
3254.000000;4.099984
3253.000000;3.798241
3252.000000;3.792216
3251.000000;3.556221
3250.000000;3.296787
3249.000000;3.285745
3248.000000;3.466778
3247.000000;3.685989
3246.000000;3.502521
3245.000000;3.263374
3244.000000;3.185221
3243.000000;3.306042
3242.000000;3.350511
3241.000000;3.186098
3240.000000;3.124883
3239.000000;3.163713
3238.000000;3.283686
3237.000000;3.410219
3236.000000;3.503798
3235.000000;3.574651
3234.000000;3.464825
3233.000000;3.330772
3232.000000;3.240438
3231.000000;3.232754
3230.000000;3.425842
3229.000000;4.002371
3228.000000;4.159888
3227.000000;3.718446
3226.000000;3.462793
3225.000000;3.377812
3224.000000;3.401093
3223.000000;3.403792
3222.000000;3.375234
3221.000000;3.379651
3220.000000;3.404177
3219.000000;3.579973
3218.000000;3.836861
3217.000000;3.589762
3216.000000;3.339509
3215.000000;3.258235
3214.000000;3.289990
3213.000000;3.379584
3212.000000;3.627557
3211.000000;3.746376
3210.000000;3.469939
3209.000000;3.504482
3208.000000;3.647096
3207.000000;3.439261
3206.000000;3.346190
3205.000000;3.285817
3204.000000;3.344832
3203.000000;3.951587
3202.000000;3.413152
3201.000000;3.145190
3200.000000;3.185593
3199.000000;3.384058
3198.000000;3.505306
3197.000000;3.282134
3196.000000;3.080672
3195.000000;2.931846
3194.000000;2.884254
3193.000000;2.976750
3192.000000;3.236406
3191.000000;3.483205
3190.000000;3.393123
3189.000000;3.316341
3188.000000;3.362812
3187.000000;3.617661
3186.000000;4.037220
3185.000000;3.593270
3184.000000;3.232501
3183.000000;3.111631
3182.000000;3.150777
3181.000000;3.296014
3180.000000;3.448808
3179.000000;3.771097
3178.000000;3.963225
3177.000000;3.626609
3176.000000;3.312843
3175.000000;3.138256
3174.000000;3.173014
3173.000000;3.399297
3172.000000;3.533938
3171.000000;3.550714
3170.000000;3.789993
3169.000000;3.822903
3168.000000;3.588327
3167.000000;3.473250
3166.000000;3.565359
3165.000000;4.025708
3164.000000;4.615125
3163.000000;3.693277
3162.000000;3.274916
3161.000000;3.186024
3160.000000;3.240886
3159.000000;3.272154
3158.000000;3.340242
3157.000000;3.520340
3156.000000;3.890192
3155.000000;3.920438
3154.000000;3.731872
3153.000000;3.806168
3152.000000;3.596226
3151.000000;3.455504
3150.000000;3.450710
3149.000000;3.583806
3148.000000;3.877402
3147.000000;3.829531
3146.000000;3.866710
3145.000000;3.890001
3144.000000;3.686745
3143.000000;3.590584
3142.000000;3.576004
3141.000000;3.375486
3140.000000;3.200544
3139.000000;3.177005
3138.000000;3.228390
3137.000000;3.310879
3136.000000;3.359345
3135.000000;3.312419
3134.000000;3.300655
3133.000000;3.420524
3132.000000;3.586381
3131.000000;4.069150
3130.000000;3.902377
3129.000000;3.541674
3128.000000;3.522480
3127.000000;3.522686
3126.000000;3.514711
3125.000000;3.667562
3124.000000;4.048725
3123.000000;3.390146
3122.000000;3.143219
3121.000000;3.122046
3120.000000;3.301268
3119.000000;3.873882
3118.000000;3.564020
3117.000000;3.269002
3116.000000;3.187815
3115.000000;3.127833
3114.000000;3.038027
3113.000000;3.022182
3112.000000;3.105145
3111.000000;3.227858
3110.000000;3.481802
3109.000000;3.904171
3108.000000;3.574560
3107.000000;3.393570
3106.000000;3.417247
3105.000000;3.382814
3104.000000;3.352561
3103.000000;3.424308
3102.000000;3.545582
3101.000000;3.534896
3100.000000;3.495310
3099.000000;3.432063
3098.000000;3.506221
3097.000000;4.240175
3096.000000;3.593962
3095.000000;3.597575
3094.000000;4.152806
3093.000000;3.473402
3092.000000;3.302040
3091.000000;3.252185
3090.000000;3.246916
3089.000000;3.350867
3088.000000;3.571538
3087.000000;3.657012
3086.000000;3.534575
3085.000000;3.452967
3084.000000;3.480166
3083.000000;3.754246
3082.000000;3.803252
3081.000000;3.538746
3080.000000;3.525594
3079.000000;3.491386
3078.000000;3.409207
3077.000000;3.401519
3076.000000;3.382164
3075.000000;3.271136
3074.000000;3.180886
3073.000000;3.124838
3072.000000;3.106180
3071.000000;3.173289
3070.000000;3.357183
3069.000000;3.452539
3068.000000;3.310350
3067.000000;3.210747
3066.000000;3.192299
3065.000000;3.245681
3064.000000;3.372047
3063.000000;3.540139
3062.000000;3.599287
3061.000000;3.701570
3060.000000;3.693255
3059.000000;3.509005
3058.000000;3.348241
3057.000000;3.332502
3056.000000;3.438911
3055.000000;3.507495
3054.000000;3.470258
3053.000000;3.299483
3052.000000;3.161481
3051.000000;3.172181
3050.000000;3.287668
3049.000000;3.380079
3048.000000;3.413972
3047.000000;3.500785
3046.000000;3.570852
3045.000000;3.517500
3044.000000;3.485062
3043.000000;3.533555
3042.000000;3.387245
3041.000000;3.171980
3040.000000;3.053550
3039.000000;3.083601
3038.000000;3.225731
3037.000000;3.330065
3036.000000;3.361353
3035.000000;3.499539
3034.000000;3.799229
3033.000000;3.585032
3032.000000;3.392188
3031.000000;3.312299
3030.000000;3.297381
3029.000000;3.330274
3028.000000;3.433945
3027.000000;3.673982
3026.000000;3.613574
3025.000000;3.724842
3024.000000;3.955163
3023.000000;3.590148
3022.000000;3.462693
3021.000000;3.380500
3020.000000;3.319795
3019.000000;3.470970
3018.000000;4.078088
3017.000000;4.020435
3016.000000;4.212995
3015.000000;3.650022
3014.000000;3.422885
3013.000000;3.367397
3012.000000;3.396133
3011.000000;3.426356
3010.000000;3.341155
3009.000000;3.357839
3008.000000;3.471781
3007.000000;3.451492
3006.000000;3.347991
3005.000000;3.337696
3004.000000;3.423384
3003.000000;3.421256
3002.000000;3.390979
3001.000000;3.558468
3000.000000;3.868658
2999.000000;3.633626
2998.000000;3.300059
2997.000000;3.174634
2996.000000;3.156190
2995.000000;3.155671
2994.000000;3.153752
2993.000000;3.161979
2992.000000;3.218668
2991.000000;3.346593
2990.000000;3.482052
2989.000000;3.412322
2988.000000;3.386976
2987.000000;3.736594
2986.000000;3.719124
2985.000000;3.473392
2984.000000;3.591284
2983.000000;3.982201
2982.000000;4.854069
2981.000000;4.092622
2980.000000;3.838261
2979.000000;3.523580
2978.000000;3.333620
2977.000000;3.366254
2976.000000;3.580497
2975.000000;3.543478
2974.000000;3.358588
2973.000000;3.357656
2972.000000;3.555840
2971.000000;4.044994
2970.000000;4.327677
2969.000000;3.899500
2968.000000;3.573355
2967.000000;3.364095
2966.000000;3.211777
2965.000000;3.161952
2964.000000;3.182574
2963.000000;3.271801
2962.000000;3.490261
2961.000000;3.914936
2960.000000;4.055258
2959.000000;3.492409
2958.000000;3.189069
2957.000000;3.117187
2956.000000;3.201687
2955.000000;3.346610
2954.000000;3.522396
2953.000000;3.571771
2952.000000;3.301353
2951.000000;3.205668
2950.000000;3.255896
2949.000000;3.398423
2948.000000;3.570802
2947.000000;3.757805
2946.000000;3.729705
2945.000000;3.621438
2944.000000;3.748665
2943.000000;3.721213
2942.000000;3.341306
2941.000000;3.176311
2940.000000;3.160394
2939.000000;3.194547
2938.000000;3.264315
2937.000000;3.341978
2936.000000;3.433961
2935.000000;3.898108
2934.000000;3.799706
2933.000000;3.662345
2932.000000;4.410044
2931.000000;3.639247
2930.000000;3.387434
2929.000000;3.226603
2928.000000;3.152010
2927.000000;3.190685
2926.000000;3.336591
2925.000000;3.497572
2924.000000;3.717267
2923.000000;3.738918
2922.000000;3.395169
2921.000000;3.334501
2920.000000;3.427973
2919.000000;3.482489
2918.000000;3.486854
2917.000000;3.544215
2916.000000;3.463027
2915.000000;3.479995
2914.000000;3.416170
2913.000000;3.268353
2912.000000;3.249978
2911.000000;3.254821
2910.000000;3.225308
2909.000000;3.177762
2908.000000;3.146126
2907.000000;3.229157
2906.000000;3.509133
2905.000000;4.179005
2904.000000;3.472959
2903.000000;3.369780
2902.000000;3.389139
2901.000000;3.443484
2900.000000;3.474920
2899.000000;3.336057
2898.000000;3.187580
2897.000000;3.203082
2896.000000;3.464771
2895.000000;3.720915
2894.000000;3.445196
2893.000000;3.310204
2892.000000;3.305837
2891.000000;3.558264
2890.000000;3.835160
2889.000000;3.685104
2888.000000;3.647084
2887.000000;3.382676
2886.000000;3.223109
2885.000000;3.298462
2884.000000;3.439044
2883.000000;3.363647
2882.000000;3.316124
2881.000000;3.313283
2880.000000;3.373814
2879.000000;3.622652
2878.000000;3.498630
2877.000000;3.393373
2876.000000;3.429785
2875.000000;3.435293
2874.000000;3.492047
2873.000000;3.769202
2872.000000;3.713795
2871.000000;3.670946
2870.000000;3.938177
2869.000000;4.226295
2868.000000;3.844632
2867.000000;3.413720
2866.000000;3.290468
2865.000000;3.229137
2864.000000;3.178267
2863.000000;3.156283
2862.000000;3.215670
2861.000000;3.321637
2860.000000;3.424250
2859.000000;3.662972
2858.000000;3.990989
2857.000000;4.081959
2856.000000;4.241472
2855.000000;4.169931
2854.000000;3.707655
2853.000000;3.556572
2852.000000;3.556646
2851.000000;3.433545
2850.000000;3.241768
2849.000000;3.249732
2848.000000;3.486946
2847.000000;3.780834
2846.000000;3.739086
2845.000000;3.490608
2844.000000;3.254468
2843.000000;3.088926
2842.000000;3.042904
2841.000000;3.170124
2840.000000;3.568098
2839.000000;3.755511
2838.000000;3.421405
2837.000000;3.290744
2836.000000;3.296989
2835.000000;3.483959
2834.000000;3.929761
2833.000000;4.060484
2832.000000;3.704197
2831.000000;3.553650
2830.000000;3.531884
2829.000000;3.597453
2828.000000;3.507808
2827.000000;3.259099
2826.000000;3.183915
2825.000000;3.355096
2824.000000;3.352309
2823.000000;3.180710
2822.000000;3.152121
2821.000000;3.133609
2820.000000;3.113718
2819.000000;3.183373
2818.000000;3.384878
2817.000000;3.613903
2816.000000;3.603162
2815.000000;3.513568
2814.000000;3.505717
2813.000000;3.459367
2812.000000;3.404864
2811.000000;3.571622
2810.000000;3.581607
2809.000000;3.313118
2808.000000;3.198323
2807.000000;3.123451
2806.000000;3.093333
2805.000000;3.182080
2804.000000;3.449123
2803.000000;4.066821
2802.000000;4.092311
2801.000000;3.722978
2800.000000;3.499933
2799.000000;3.489409
2798.000000;3.681962
2797.000000;3.817425
2796.000000;3.802665
2795.000000;4.034226
2794.000000;4.508177
2793.000000;4.149533
2792.000000;3.605535
2791.000000;3.536670
2790.000000;3.677227
2789.000000;3.791399
2788.000000;3.719851
2787.000000;4.073899
2786.000000;3.940105
2785.000000;3.573826
2784.000000;3.552868
2783.000000;3.468173
2782.000000;3.395994
2781.000000;3.398723
2780.000000;3.404401
2779.000000;3.265491
2778.000000;3.122599
2777.000000;3.106338
2776.000000;3.174519
2775.000000;3.192354
2774.000000;3.208346
2773.000000;3.250397
2772.000000;3.268552
2771.000000;3.312644
2770.000000;3.396914
2769.000000;3.468014
2768.000000;3.413597
2767.000000;3.337337
2766.000000;3.440303
2765.000000;3.841016
2764.000000;3.687170
2763.000000;3.284783
2762.000000;3.208473
2761.000000;3.324164
2760.000000;3.734820
2759.000000;4.077820
2758.000000;4.187076
2757.000000;4.262175
2756.000000;3.651604
2755.000000;3.411207
2754.000000;3.372020
2753.000000;3.427907
2752.000000;3.424669
2751.000000;3.495934
2750.000000;3.707425
2749.000000;4.003765
2748.000000;3.788191
2747.000000;3.689965
2746.000000;3.791053
2745.000000;3.493682
2744.000000;3.299017
2743.000000;3.186722
2742.000000;3.084190
2741.000000;3.057711
2740.000000;3.105080
2739.000000;3.139055
2738.000000;3.166283
2737.000000;3.270568
2736.000000;3.389129
2735.000000;3.384618
2734.000000;3.346951
2733.000000;3.555670
2732.000000;3.497505
2731.000000;3.183571
2730.000000;3.110267
2729.000000;3.119003
2728.000000;3.147202
2727.000000;3.136113
2726.000000;3.151427
2725.000000;3.239155
2724.000000;3.248746
2723.000000;3.216965
2722.000000;3.253861
2721.000000;3.369116
2720.000000;3.761498
2719.000000;3.889958
2718.000000;3.487206
2717.000000;3.350731
2716.000000;3.375390
2715.000000;3.673145
2714.000000;3.896976
2713.000000;3.662723
2712.000000;3.607978
2711.000000;3.527775
2710.000000;3.419129
2709.000000;3.652196
2708.000000;3.885484
2707.000000;3.295547
2706.000000;3.166880
2705.000000;3.174283
2704.000000;3.334941
2703.000000;3.480316
2702.000000;3.483524
2701.000000;3.611434
2700.000000;4.026109
2699.000000;3.892914
2698.000000;3.574719
2697.000000;3.526576
2696.000000;3.654754
2695.000000;4.244291
2694.000000;3.639577
2693.000000;3.525778
2692.000000;3.819234
2691.000000;4.132249
2690.000000;3.711015
2689.000000;3.622244
2688.000000;3.613428
2687.000000;3.669952
2686.000000;3.933320
2685.000000;3.649176
2684.000000;3.334632
2683.000000;3.343171
2682.000000;3.600036
2681.000000;3.682100
2680.000000;3.421297
2679.000000;3.290643
2678.000000;3.267959
2677.000000;3.461693
2676.000000;3.785298
2675.000000;3.712338
2674.000000;3.572011
2673.000000;3.621766
2672.000000;3.883494
2671.000000;3.952221
2670.000000;3.732263
2669.000000;3.704600
2668.000000;3.847675
2667.000000;3.869566
2666.000000;4.061207
2665.000000;3.798835
2664.000000;3.597672
2663.000000;3.608920
2662.000000;3.496868
2661.000000;3.480762
2660.000000;3.415025
2659.000000;3.228019
2658.000000;3.174114
2657.000000;3.262479
2656.000000;3.450881
2655.000000;3.583973
2654.000000;3.654843
2653.000000;3.704224
2652.000000;3.716888
2651.000000;3.557537
2650.000000;3.340003
2649.000000;3.285853
2648.000000;3.320825
2647.000000;3.455254
2646.000000;3.682614
2645.000000;3.878058
2644.000000;3.802629
2643.000000;3.446816
2642.000000;3.199500
2641.000000;3.112163
2640.000000;3.122202
2639.000000;3.135103
2638.000000;3.138099
2637.000000;3.172532
2636.000000;3.166848
2635.000000;3.070341
2634.000000;3.014539
2633.000000;3.115086
2632.000000;3.434316
2631.000000;4.003034
2630.000000;3.860616
2629.000000;3.452211
2628.000000;3.327307
2627.000000;3.329077
2626.000000;3.369658
2625.000000;3.342543
2624.000000;3.335796
2623.000000;3.440870
2622.000000;3.473689
2621.000000;3.335900
2620.000000;3.253671
2619.000000;3.326734
2618.000000;3.445933
2617.000000;3.362975
2616.000000;3.332976
2615.000000;3.577289
2614.000000;3.523514
2613.000000;3.417327
2612.000000;3.512388
2611.000000;3.523723
2610.000000;3.380998
2609.000000;3.339896
2608.000000;3.388766
2607.000000;3.383885
2606.000000;3.411638
2605.000000;3.517305
2604.000000;3.595835
2603.000000;3.517988
2602.000000;3.469196
2601.000000;3.561727
2600.000000;4.047024
2599.000000;4.012442
2598.000000;3.370453
2597.000000;3.236082
2596.000000;3.228309
2595.000000;3.216139
2594.000000;3.185531
2593.000000;3.235545
2592.000000;3.365496
2591.000000;3.559883
2590.000000;3.998214
2589.000000;4.041051
2588.000000;3.987397
2587.000000;3.585112
2586.000000;3.296187
2585.000000;3.258916
2584.000000;3.360202
2583.000000;3.399987
2582.000000;3.378338
2581.000000;3.409985
2580.000000;3.509660
2579.000000;3.443457
2578.000000;3.234851
2577.000000;3.163276
2576.000000;3.236417
2575.000000;3.455886
2574.000000;3.560334
2573.000000;3.297731
2572.000000;3.138532
2571.000000;3.119655
2570.000000;3.198255
2569.000000;3.246812
2568.000000;3.161112
2567.000000;3.093593
2566.000000;3.190161
2565.000000;3.383144
2564.000000;3.316547
2563.000000;3.169435
2562.000000;3.088312
2561.000000;3.087990
2560.000000;3.071520
2559.000000;2.961646
2558.000000;2.879083
2557.000000;2.875505
2556.000000;2.947550
2555.000000;3.071069
2554.000000;3.178439
2553.000000;3.270808
2552.000000;3.359026
2551.000000;3.352741
2550.000000;3.309934
2549.000000;3.227916
2548.000000;3.079429
2547.000000;2.980612
2546.000000;2.984144
2545.000000;3.077779
2544.000000;3.292030
2543.000000;3.695902
2542.000000;3.618707
2541.000000;3.703027
2540.000000;4.041236
2539.000000;3.852724
2538.000000;3.700312
2537.000000;3.393760
2536.000000;3.249649
2535.000000;3.195429
2534.000000;3.189546
2533.000000;3.267446
2532.000000;3.381600
2531.000000;3.410747
2530.000000;3.384649
2529.000000;3.452444
2528.000000;3.445525
2527.000000;3.329040
2526.000000;3.275543
2525.000000;3.325260
2524.000000;3.469199
2523.000000;3.489496
2522.000000;3.333072
2521.000000;3.191216
2520.000000;3.115791
2519.000000;3.160959
2518.000000;3.382405
2517.000000;3.561227
2516.000000;3.407544
2515.000000;3.271436
2514.000000;3.262481
2513.000000;3.349168
2512.000000;3.300329
2511.000000;3.266159
2510.000000;3.401406
2509.000000;3.631674
2508.000000;3.808330
2507.000000;3.989268
2506.000000;3.977972
2505.000000;3.596403
2504.000000;3.403376
2503.000000;3.316103
2502.000000;3.362295
2501.000000;3.589003
2500.000000;3.580789
2499.000000;3.558704
2498.000000;3.628565
2497.000000;3.531967
2496.000000;3.402377
2495.000000;3.235975
2494.000000;3.101819
2493.000000;3.067118
2492.000000;3.152051
2491.000000;3.301902
2490.000000;3.702989
2489.000000;3.907160
2488.000000;3.422476
2487.000000;3.296962
2486.000000;3.213461
2485.000000;3.224286
2484.000000;3.416055
2483.000000;3.607756
2482.000000;3.621912
2481.000000;3.603687
2480.000000;3.660043
2479.000000;3.555387
2478.000000;3.351253
2477.000000;3.383375
2476.000000;3.526791
2475.000000;3.388604
2474.000000;3.300314
2473.000000;3.342043
2472.000000;3.429243
2471.000000;3.429458
2470.000000;3.444180
2469.000000;3.688653
2468.000000;3.686358
2467.000000;3.517312
2466.000000;3.689837
2465.000000;3.893999
2464.000000;3.841021
2463.000000;3.714670
2462.000000;3.847573
2461.000000;3.967302
2460.000000;3.727538
2459.000000;3.815794
2458.000000;3.694169
2457.000000;3.584433
2456.000000;3.712288
2455.000000;3.683940
2454.000000;3.598943
2453.000000;3.712049
2452.000000;3.916777
2451.000000;3.701855
2450.000000;3.392446
2449.000000;3.174828
2448.000000;3.048376
2447.000000;3.025819
2446.000000;3.165752
2445.000000;3.619999
2444.000000;3.671841
2443.000000;3.324818
2442.000000;3.315718
2441.000000;3.557938
2440.000000;4.265845
2439.000000;3.918725
2438.000000;3.407134
2437.000000;3.238851
2436.000000;3.138615
2435.000000;3.052024
2434.000000;3.069774
2433.000000;3.215051
2432.000000;3.523283
2431.000000;4.055073
2430.000000;3.603021
2429.000000;3.367798
2428.000000;3.369228
2427.000000;3.520017
2426.000000;3.919616
2425.000000;3.411823
2424.000000;3.140122
2423.000000;3.147185
2422.000000;3.404302
2421.000000;4.181767
2420.000000;3.954449
2419.000000;4.021255
2418.000000;4.933562
2417.000000;3.743998
2416.000000;3.623843
2415.000000;3.851252
2414.000000;3.644132
2413.000000;3.370618
2412.000000;3.198856
2411.000000;3.046510
2410.000000;2.993213
2409.000000;3.061765
2408.000000;3.234657
2407.000000;3.342190
2406.000000;3.301421
2405.000000;3.301385
2404.000000;3.321265
2403.000000;3.304198
2402.000000;3.306881
2401.000000;3.315428
2400.000000;3.287249
2399.000000;3.229930
2398.000000;3.269610
2397.000000;3.428077
2396.000000;3.736742
2395.000000;4.533629
2394.000000;3.768265
2393.000000;3.574283
2392.000000;3.504232
2391.000000;3.594752
2390.000000;3.934519
2389.000000;3.806074
2388.000000;3.532164
2387.000000;3.305697
2386.000000;3.223368
2385.000000;3.289409
2384.000000;3.397772
2383.000000;3.357643
2382.000000;3.243983
2381.000000;3.244230
2380.000000;3.355724
2379.000000;3.461933
2378.000000;3.417181
2377.000000;3.553886
2376.000000;3.827031
2375.000000;3.537381
2374.000000;3.443426
2373.000000;3.433963
2372.000000;3.365722
2371.000000;3.341629
2370.000000;3.395540
2369.000000;3.497150
2368.000000;3.478312
2367.000000;3.379206
2366.000000;3.351256
2365.000000;3.583277
2364.000000;3.969820
2363.000000;3.716025
2362.000000;3.721012
2361.000000;3.785534
2360.000000;3.987685
2359.000000;3.687123
2358.000000;3.220082
2357.000000;3.175293
2356.000000;3.376851
2355.000000;3.359317
2354.000000;3.340589
2353.000000;3.533760
2352.000000;3.357909
2351.000000;3.287269
2350.000000;3.509555
2349.000000;3.848592
2348.000000;3.904625
2347.000000;3.547892
2346.000000;3.368570
2345.000000;3.524473
2344.000000;4.102248
2343.000000;3.777121
2342.000000;3.520773
2341.000000;3.595876
2340.000000;3.823998
2339.000000;3.890606
2338.000000;3.611888
2337.000000;3.432528
2336.000000;3.363200
2335.000000;3.379817
2334.000000;3.465753
2333.000000;3.515466
2332.000000;3.444292
2331.000000;3.287844
2330.000000;3.149766
2329.000000;3.083028
2328.000000;3.114851
2327.000000;3.215287
2326.000000;3.465967
2325.000000;3.641145
2324.000000;3.366170
2323.000000;3.222072
2322.000000;3.307629
2321.000000;3.820122
2320.000000;3.436835
2319.000000;3.225129
2318.000000;3.417611
2317.000000;3.461038
2316.000000;3.470250
2315.000000;3.565973
2314.000000;3.916040
2313.000000;3.977926
2312.000000;3.659896
2311.000000;3.757143
2310.000000;3.479666
2309.000000;3.307835
2308.000000;3.327439
2307.000000;3.334459
2306.000000;3.341566
2305.000000;3.364093
2304.000000;3.373357
2303.000000;3.388300
2302.000000;3.447490
2301.000000;3.535694
2300.000000;3.614760
2299.000000;3.503299
2298.000000;3.351961
2297.000000;3.308098
2296.000000;3.335664
2295.000000;3.322393
2294.000000;3.289080
2293.000000;3.367453
2292.000000;3.411350
2291.000000;3.296569
2290.000000;3.255281
2289.000000;3.353772
2288.000000;3.554564
2287.000000;3.724861
2286.000000;3.759416
2285.000000;3.735475
2284.000000;3.733770
2283.000000;3.837662
2282.000000;3.772337
2281.000000;3.907940
2280.000000;4.148593
2279.000000;3.756239
2278.000000;3.720710
2277.000000;3.814220
2276.000000;4.016915
2275.000000;3.691334
2274.000000;3.340553
2273.000000;3.302515
2272.000000;3.337569
2271.000000;3.240161
2270.000000;3.119569
2269.000000;3.086805
2268.000000;3.130902
2267.000000;3.203536
2266.000000;3.272945
2265.000000;3.314869
2264.000000;3.276196
2263.000000;3.207362
2262.000000;3.200731
2261.000000;3.297334
2260.000000;3.493336
2259.000000;3.675359
2258.000000;3.564170
2257.000000;3.370531
2256.000000;3.311556
2255.000000;3.334264
2254.000000;3.652870
2253.000000;3.807980
2252.000000;3.336081
2251.000000;3.215147
2250.000000;3.168620
2249.000000;3.223816
2248.000000;3.331314
2247.000000;3.231773
2246.000000;3.087603
2245.000000;3.036147
2244.000000;3.116296
2243.000000;3.334481
2242.000000;3.566318
2241.000000;3.526391
2240.000000;3.354570
2239.000000;3.179829
2238.000000;3.094197
2237.000000;3.202738
2236.000000;3.470598
2235.000000;3.679634
2234.000000;3.837055
2233.000000;3.586942
2232.000000;3.376283
2231.000000;3.298355
2230.000000;3.359609
2229.000000;3.537767
2228.000000;3.406616
2227.000000;3.305434
2226.000000;3.370812
2225.000000;3.405367
2224.000000;3.375259
2223.000000;3.400619
2222.000000;3.441020
2221.000000;3.435181
2220.000000;3.451826
2219.000000;3.384714
2218.000000;3.333790
2217.000000;3.558283
2216.000000;3.925157
2215.000000;4.047493
2214.000000;4.085487
2213.000000;3.551793
2212.000000;3.287035
2211.000000;3.219640
2210.000000;3.315159
2209.000000;3.647657
2208.000000;4.033455
2207.000000;3.748735
2206.000000;3.463566
2205.000000;3.552611
2204.000000;3.628705
2203.000000;3.524886
2202.000000;3.675725
2201.000000;3.747234
2200.000000;3.814036
2199.000000;3.767597
2198.000000;3.910564
2197.000000;4.143359
2196.000000;3.483507
2195.000000;3.259801
2194.000000;3.213223
2193.000000;3.251134
2192.000000;3.282642
2191.000000;3.266655
2190.000000;3.230925
2189.000000;3.123653
2188.000000;3.074101
2187.000000;3.159628
2186.000000;3.349891
2185.000000;3.401428
2184.000000;3.284778
2183.000000;3.257866
2182.000000;3.279231
2181.000000;3.274885
2180.000000;3.293959
2179.000000;3.363537
2178.000000;3.497391
2177.000000;3.512679
2176.000000;3.402048
2175.000000;3.301430
2174.000000;3.389344
2173.000000;3.654853
2172.000000;3.483964
2171.000000;3.436181
2170.000000;3.513559
2169.000000;3.462635
2168.000000;3.484303
2167.000000;3.367670
2166.000000;3.229752
2165.000000;3.284719
2164.000000;3.564302
2163.000000;4.042234
2162.000000;3.984808
2161.000000;3.871912
2160.000000;3.960943
2159.000000;4.119663
2158.000000;4.195972
2157.000000;3.959410
2156.000000;4.205230
2155.000000;3.665077
2154.000000;3.291921
2153.000000;3.210930
2152.000000;3.336112
2151.000000;3.635424
2150.000000;3.434153
2149.000000;3.317542
2148.000000;3.477890
2147.000000;3.613319
2146.000000;3.580701
2145.000000;3.532857
2144.000000;3.443404
2143.000000;3.399608
2142.000000;3.471626
2141.000000;3.475296
2140.000000;3.404501
2139.000000;3.408576
2138.000000;3.481522
2137.000000;3.417987
2136.000000;3.292898
2135.000000;3.253133
2134.000000;3.318887
2133.000000;3.412097
2132.000000;3.560824
2131.000000;4.058453
2130.000000;4.005087
2129.000000;3.669030
2128.000000;3.608902
2127.000000;3.647477
2126.000000;3.690546
2125.000000;3.668122
2124.000000;3.776973
2123.000000;3.715745
2122.000000;3.524034
2121.000000;3.484473
2120.000000;3.506838
2119.000000;3.472649
2118.000000;3.328266
2117.000000;3.285774
2116.000000;3.414872
2115.000000;3.463053
2114.000000;3.433900
2113.000000;3.643293
2112.000000;4.011477
2111.000000;3.752188
2110.000000;3.433538
2109.000000;3.303171
2108.000000;3.303072
2107.000000;3.362950
2106.000000;3.468202
2105.000000;3.786767
2104.000000;3.724776
2103.000000;3.394933
2102.000000;3.230816
2101.000000;3.352327
2100.000000;4.027645
2099.000000;3.507636
2098.000000;3.268018
2097.000000;3.330532
2096.000000;3.390714
2095.000000;3.408927
2094.000000;3.286267
2093.000000;3.163357
2092.000000;3.102524
2091.000000;3.107077
2090.000000;3.105381
2089.000000;3.163787
2088.000000;3.493829
2087.000000;3.821584
2086.000000;3.661126
2085.000000;3.776414
2084.000000;3.698987
2083.000000;3.467479
2082.000000;3.393241
2081.000000;3.397367
2080.000000;3.462326
2079.000000;3.604108
2078.000000;3.715808
2077.000000;3.674825
2076.000000;3.454059
2075.000000;3.257508
2074.000000;3.251046
2073.000000;3.367694
2072.000000;3.529652
2071.000000;3.818457
2070.000000;3.590464
2069.000000;3.374036
2068.000000;3.451022
2067.000000;3.810273
2066.000000;4.056281
2065.000000;3.690292
2064.000000;3.509096
2063.000000;3.316197
2062.000000;3.214096
2061.000000;3.391082
2060.000000;3.735755
2059.000000;3.477503
2058.000000;3.295567
2057.000000;3.267011
2056.000000;3.267699
2055.000000;3.326650
2054.000000;3.633925
2053.000000;3.910042
2052.000000;3.497648
2051.000000;3.408341
2050.000000;3.474428
2049.000000;3.467999
2048.000000;3.499411
2047.000000;3.680830
2046.000000;3.684004
2045.000000;3.590366
2044.000000;3.525630
2043.000000;3.471395
2042.000000;3.541729
2041.000000;3.607619
2040.000000;3.733406
2039.000000;3.689571
2038.000000;3.512547
2037.000000;3.342105
2036.000000;3.132946
2035.000000;3.070998
2034.000000;3.134069
2033.000000;3.235593
2032.000000;3.321311
2031.000000;3.331860
2030.000000;3.309846
2029.000000;3.303184
2028.000000;3.343363
2027.000000;3.337065
2026.000000;3.291991
2025.000000;3.264442
2024.000000;3.283466
2023.000000;3.279107
2022.000000;3.352782
2021.000000;3.771120
2020.000000;3.588363
2019.000000;3.386570
2018.000000;3.518042
2017.000000;3.454665
2016.000000;3.328107
2015.000000;3.290324
2014.000000;3.342173
2013.000000;3.476522
2012.000000;3.470407
2011.000000;3.338062
2010.000000;3.323027
2009.000000;3.709487
2008.000000;4.018829
2007.000000;3.596677
2006.000000;3.747132
2005.000000;3.562085
2004.000000;3.433266
2003.000000;3.654877
2002.000000;3.709496
2001.000000;3.387989
2000.000000;3.310564
1999.000000;3.751390
1998.000000;3.797698
1997.000000;3.485720
1996.000000;3.479725
1995.000000;3.395397
1994.000000;3.428482
1993.000000;3.512895
1992.000000;3.395005
1991.000000;3.340933
1990.000000;3.483424
1989.000000;3.756153
1988.000000;3.702879
1987.000000;3.404672
1986.000000;3.231158
1985.000000;3.246620
1984.000000;3.287719
1983.000000;3.212833
1982.000000;3.139093
1981.000000;3.125683
1980.000000;3.166224
1979.000000;3.263590
1978.000000;3.582687
1977.000000;3.521691
1976.000000;3.232827
1975.000000;3.351960
1974.000000;3.922014
1973.000000;4.119471
1972.000000;3.636148
1971.000000;3.503480
1970.000000;3.439075
1969.000000;3.317992
1968.000000;3.222222
1967.000000;3.404192
1966.000000;3.860112
1965.000000;3.571241
1964.000000;3.588620
1963.000000;3.855181
1962.000000;4.056718
1961.000000;3.729905
1960.000000;3.266818
1959.000000;3.111194
1958.000000;3.089871
1957.000000;3.130765
1956.000000;3.246855
1955.000000;3.404767
1954.000000;3.909655
1953.000000;3.969399
1952.000000;3.427479
1951.000000;3.496318
1950.000000;3.767704
1949.000000;4.070548
1948.000000;4.212210
1947.000000;3.697266
1946.000000;3.459680
1945.000000;3.559137
1944.000000;3.913963
1943.000000;3.855755
1942.000000;3.848168
1941.000000;4.084119
1940.000000;3.722695
1939.000000;3.421619
1938.000000;3.355776
1937.000000;3.522489
1936.000000;3.825713
1935.000000;3.549798
1934.000000;3.418059
1933.000000;3.740396
1932.000000;3.689829
1931.000000;3.314222
1930.000000;3.306220
1929.000000;3.654812
1928.000000;4.123108
1927.000000;3.616168
1926.000000;3.548696
1925.000000;3.699229
1924.000000;3.585561
1923.000000;3.616986
1922.000000;3.832606
1921.000000;3.444123
1920.000000;3.235202
1919.000000;3.274441
1918.000000;3.439848
1917.000000;3.612845
1916.000000;3.458237
1915.000000;3.294944
1914.000000;3.233870
1913.000000;3.227755
1912.000000;3.259344
1911.000000;3.307383
1910.000000;3.368524
1909.000000;3.475289
1908.000000;3.563534
1907.000000;3.635330
1906.000000;3.649296
1905.000000;3.606594
1904.000000;3.761203
1903.000000;4.104020
1902.000000;4.494902
1901.000000;4.054730
1900.000000;3.725996
1899.000000;3.723964
1898.000000;3.708053
1897.000000;3.710518
1896.000000;3.719215
1895.000000;3.613209
1894.000000;3.470483
1893.000000;3.347059
1892.000000;3.271653
1891.000000;3.205950
1890.000000;3.186622
1889.000000;3.255644
1888.000000;3.351197
1887.000000;3.315820
1886.000000;3.231855
1885.000000;3.256086
1884.000000;3.386968
1883.000000;3.523506
1882.000000;3.710177
1881.000000;4.129702
1880.000000;4.159632
1879.000000;3.711964
1878.000000;3.472724
1877.000000;3.617365
1876.000000;3.690063
1875.000000;3.409625
1874.000000;3.383698
1873.000000;3.622595
1872.000000;3.885450
1871.000000;3.369139
1870.000000;3.144058
1869.000000;3.141319
1868.000000;3.176825
1867.000000;3.182550
1866.000000;3.169358
1865.000000;3.330984
1864.000000;3.721906
1863.000000;3.512322
1862.000000;3.327538
1861.000000;3.488009
1860.000000;4.034552
1859.000000;3.767472
1858.000000;3.776676
1857.000000;3.952592
1856.000000;3.458784
1855.000000;3.269220
1854.000000;3.268433
1853.000000;3.330211
1852.000000;3.377960
1851.000000;3.482868
1850.000000;3.536564
1849.000000;3.490146
1848.000000;3.435183
1847.000000;3.277280
1846.000000;3.189775
1845.000000;3.244813
1844.000000;3.340390
1843.000000;3.394749
1842.000000;3.491919
1841.000000;3.825409
1840.000000;3.601452
1839.000000;3.343249
1838.000000;3.334954
1837.000000;3.358179
1836.000000;3.446315
1835.000000;3.768466
1834.000000;3.920619
1833.000000;3.520428
1832.000000;3.403651
1831.000000;3.648071
1830.000000;4.517901
1829.000000;3.863544
1828.000000;3.418326
1827.000000;3.089343
1826.000000;2.914324
1825.000000;2.938971
1824.000000;3.149412
1823.000000;3.567045
1822.000000;4.188331
1821.000000;3.806231
1820.000000;3.418217
1819.000000;3.322499
1818.000000;3.376828
1817.000000;3.519353
1816.000000;3.579826
1815.000000;3.751204
1814.000000;3.890034
1813.000000;3.626063
1812.000000;3.447825
1811.000000;3.355662
1810.000000;3.368026
1809.000000;3.394524
1808.000000;3.371363
1807.000000;3.423020
1806.000000;3.631522
1805.000000;3.909714
1804.000000;4.153367
1803.000000;3.960479
1802.000000;3.538864
1801.000000;3.542764
1800.000000;3.926253
1799.000000;4.732040
1798.000000;4.138500
1797.000000;3.977265
1796.000000;3.807381
1795.000000;3.832309
1794.000000;3.917796
1793.000000;3.591744
1792.000000;3.374907
1791.000000;3.401534
1790.000000;3.563376
1789.000000;3.666212
1788.000000;4.018014
1787.000000;4.184031
1786.000000;3.801896
1785.000000;3.822771
1784.000000;3.806376
1783.000000;3.517078
1782.000000;3.342496
1781.000000;3.423672
1780.000000;3.815870
1779.000000;4.344264
1778.000000;4.188151
1777.000000;3.776294
1776.000000;3.707571
1775.000000;3.996870
1774.000000;4.034355
1773.000000;3.580636
1772.000000;3.342629
1771.000000;3.221624
1770.000000;3.199531
1769.000000;3.265773
1768.000000;3.449009
1767.000000;3.443884
1766.000000;3.191507
1765.000000;3.091126
1764.000000;3.089848
1763.000000;3.074874
1762.000000;3.042779
1761.000000;3.046845
1760.000000;3.093634
1759.000000;3.172865
1758.000000;3.309669
1757.000000;3.634828
1756.000000;3.597108
1755.000000;3.458887
1754.000000;3.696634
1753.000000;3.725975
1752.000000;3.615732
1751.000000;3.617739
1750.000000;3.614703
1749.000000;3.737253
1748.000000;3.836545
1747.000000;3.872019
1746.000000;3.736325
1745.000000;3.732288
1744.000000;3.862720
1743.000000;3.789136
1742.000000;3.631448
1741.000000;3.866481
1740.000000;4.298050
1739.000000;3.864048
1738.000000;3.831911
1737.000000;3.796598
1736.000000;3.839780
1735.000000;3.584333
1734.000000;3.436628
1733.000000;3.467368
1732.000000;3.511958
1731.000000;3.644229
1730.000000;3.498433
1729.000000;3.402802
1728.000000;3.449752
1727.000000;3.395695
1726.000000;3.355391
1725.000000;3.300665
1724.000000;3.232451
1723.000000;3.220110
1722.000000;3.340387
1721.000000;3.655574
1720.000000;3.717830
1719.000000;3.975235
1718.000000;3.710395
1717.000000;3.370350
1716.000000;3.250382
1715.000000;3.203823
1714.000000;3.274858
1713.000000;3.497066
1712.000000;3.619289
1711.000000;3.702126
1710.000000;3.980431
1709.000000;3.990473
1708.000000;3.676534
1707.000000;3.569996
1706.000000;3.707132
1705.000000;4.139090
1704.000000;3.842910
1703.000000;3.236093
1702.000000;3.087136
1701.000000;3.342037
1700.000000;3.651765
1699.000000;3.583824
1698.000000;3.604525
1697.000000;3.785883
1696.000000;4.081026
1695.000000;3.621775
1694.000000;3.397127
1693.000000;3.531817
1692.000000;4.075904
1691.000000;4.228031
1690.000000;3.884327
1689.000000;3.514867
1688.000000;3.341358
1687.000000;3.373957
1686.000000;3.446856
1685.000000;3.615277
1684.000000;3.793742
1683.000000;3.674517
1682.000000;3.642872
1681.000000;3.622807
1680.000000;3.630754
1679.000000;3.496792
1678.000000;3.331736
1677.000000;3.372757
1676.000000;3.319191
1675.000000;3.283023
1674.000000;3.389106
1673.000000;3.393665
1672.000000;3.396299
1671.000000;3.675747
1670.000000;3.657280
1669.000000;3.363922
1668.000000;3.243872
1667.000000;3.214084
1666.000000;3.243903
1665.000000;3.319221
1664.000000;3.501540
1663.000000;3.611116
1662.000000;3.378080
1661.000000;3.340025
1660.000000;3.392972
1659.000000;3.326448
1658.000000;3.224184
1657.000000;3.189969
1656.000000;3.210999
1655.000000;3.194137
1654.000000;3.153232
1653.000000;3.157220
1652.000000;3.312058
1651.000000;3.449031
1650.000000;3.443594
1649.000000;3.452740
1648.000000;3.490501
1647.000000;3.474354
1646.000000;3.456314
1645.000000;3.669393
1644.000000;4.198982
1643.000000;4.081139
1642.000000;4.110908
1641.000000;3.734385
1640.000000;3.444983
1639.000000;3.440752
1638.000000;3.645913
1637.000000;3.727456
1636.000000;3.620170
1635.000000;3.528987
1634.000000;3.475939
1633.000000;3.379790
1632.000000;3.357698
1631.000000;3.520434
1630.000000;3.649866
1629.000000;3.664737
1628.000000;3.629713
1627.000000;3.637596
1626.000000;3.953109
1625.000000;4.074088
1624.000000;3.830318
1623.000000;3.673121
1622.000000;3.491367
1621.000000;3.305998
1620.000000;3.176200
1619.000000;3.156337
1618.000000;3.238775
1617.000000;3.334965
1616.000000;3.374430
1615.000000;3.335472
1614.000000;3.301801
1613.000000;3.457156
1612.000000;4.000715
1611.000000;3.820243
1610.000000;3.686894
1609.000000;3.706675
1608.000000;3.867874
1607.000000;3.629791
1606.000000;3.372148
1605.000000;3.478721
1604.000000;3.925256
1603.000000;4.330807
1602.000000;3.966885
1601.000000;3.954128
1600.000000;4.062891
1599.000000;3.807405
1598.000000;3.614450
1597.000000;3.490483
1596.000000;3.431168
1595.000000;3.509547
1594.000000;3.601821
1593.000000;3.460027
1592.000000;3.331016
1591.000000;3.399262
1590.000000;3.584808
1589.000000;3.503582
1588.000000;3.303829
1587.000000;3.261784
1586.000000;3.334324
1585.000000;3.393193
1584.000000;3.389365
1583.000000;3.423460
1582.000000;3.488375
1581.000000;3.400942
1580.000000;3.270280
1579.000000;3.258243
1578.000000;3.303393
1577.000000;3.293575
1576.000000;3.310191
1575.000000;3.447674
1574.000000;3.464005
1573.000000;3.313249
1572.000000;3.224074
1571.000000;3.213058
1570.000000;3.260539
1569.000000;3.334537
1568.000000;3.431573
1567.000000;3.428541
1566.000000;3.382464
1565.000000;3.435740
1564.000000;3.501858
1563.000000;3.557491
1562.000000;3.917365
1561.000000;3.654733
1560.000000;3.563135
1559.000000;3.657848
1558.000000;3.645677
1557.000000;3.928733
1556.000000;3.600062
1555.000000;3.348819
1554.000000;3.577127
1553.000000;3.779000
1552.000000;3.277561
1551.000000;3.078445
1550.000000;2.965476
1549.000000;2.955883
1548.000000;3.055232
1547.000000;3.301705
1546.000000;3.651604
1545.000000;3.618231
1544.000000;3.382943
1543.000000;3.345973
1542.000000;3.510423
1541.000000;3.788404
1540.000000;3.934648
1539.000000;3.784328
1538.000000;3.574621
1537.000000;3.508333
1536.000000;3.445583
1535.000000;3.499168
1534.000000;3.624314
1533.000000;3.532485
1532.000000;3.492892
1531.000000;3.575422
1530.000000;3.497589
1529.000000;3.391678
1528.000000;3.431457
1527.000000;3.592488
1526.000000;3.885916
1525.000000;3.814167
1524.000000;3.508838
1523.000000;3.428378
1522.000000;3.461916
1521.000000;3.511485
1520.000000;3.555645
1519.000000;3.451519
1518.000000;3.302347
1517.000000;3.257052
1516.000000;3.336708
1515.000000;3.509587
1514.000000;3.804632
1513.000000;3.811926
1512.000000;3.547734
1511.000000;3.530114
1510.000000;3.587322
1509.000000;3.364282
1508.000000;3.274845
1507.000000;3.266460
1506.000000;3.397580
1505.000000;3.646875
1504.000000;3.545311
1503.000000;3.362507
1502.000000;3.276840
1501.000000;3.338323
1500.000000;3.661606
1499.000000;4.097816
1498.000000;3.547661
1497.000000;3.365653
1496.000000;3.480263
1495.000000;3.909220
1494.000000;3.996104
1493.000000;3.729081
1492.000000;3.392134
1491.000000;3.357820
1490.000000;3.332273
1489.000000;3.173593
1488.000000;3.118692
1487.000000;3.148539
1486.000000;3.418844
1485.000000;3.560045
1484.000000;3.154272
1483.000000;3.142434
1482.000000;3.516727
1481.000000;4.038319
1480.000000;3.638334
1479.000000;3.186690
1478.000000;3.006549
1477.000000;3.028150
1476.000000;3.049077
1475.000000;3.072977
1474.000000;3.275781
1473.000000;3.609445
1472.000000;3.684296
1471.000000;3.376115
1470.000000;3.236092
1469.000000;3.250161
1468.000000;3.306549
1467.000000;3.286880
1466.000000;3.294434
1465.000000;3.289377
1464.000000;3.269245
1463.000000;3.238981
1462.000000;3.132881
1461.000000;3.091084
1460.000000;3.105225
1459.000000;3.277890
1458.000000;3.333841
1457.000000;2.998575
1456.000000;2.929878
1455.000000;2.982434
1454.000000;3.034855
1453.000000;3.113077
1452.000000;3.240892
1451.000000;3.397227
1450.000000;3.464817
1449.000000;3.380550
1448.000000;3.372466
1447.000000;3.502404
1446.000000;3.605792
1445.000000;3.249167
1444.000000;2.967402
1443.000000;2.918826
1442.000000;3.048718
1441.000000;3.247632
1440.000000;3.304758
1439.000000;3.210324
1438.000000;3.066171
1437.000000;2.889374
1436.000000;2.814458
1435.000000;2.881362
1434.000000;3.054932
1433.000000;3.315240
1432.000000;3.435658
1431.000000;3.272453
1430.000000;3.087183
1429.000000;2.997862
1428.000000;3.024227
1427.000000;3.227722
1426.000000;3.911557
1425.000000;3.544649
1424.000000;3.495102
1423.000000;3.537522
1422.000000;3.775712
1421.000000;3.595996
1420.000000;3.313024
1419.000000;3.623892
1418.000000;3.497147
1417.000000;3.334418
1416.000000;3.382281
1415.000000;3.371925
1414.000000;3.355920
1413.000000;3.696813
1412.000000;3.948715
1411.000000;3.597417
1410.000000;3.600491
1409.000000;3.625141
1408.000000;3.594019
1407.000000;3.506729
1406.000000;3.438662
1405.000000;3.330787
1404.000000;3.266910
1403.000000;3.574821
1402.000000;3.438735
1401.000000;3.252514
1400.000000;3.443606
1399.000000;3.369602
1398.000000;3.218497
1397.000000;3.364889
1396.000000;4.006289
1395.000000;3.376593
1394.000000;3.265696
1393.000000;3.279761
1392.000000;3.388732
1391.000000;3.506596
1390.000000;3.551574
1389.000000;3.399146
1388.000000;3.154554
1387.000000;3.202796
1386.000000;3.342270
1385.000000;3.602003
1384.000000;3.760311
1383.000000;3.412709
1382.000000;3.288395
1381.000000;3.254527
1380.000000;3.237121
1379.000000;3.470101
1378.000000;3.686939
1377.000000;3.338133
1376.000000;3.178159
1375.000000;3.065085
1374.000000;2.997038
1373.000000;3.030929
1372.000000;3.169741
1371.000000;3.360176
1370.000000;3.447678
1369.000000;3.424909
1368.000000;3.357117
1367.000000;3.164417
1366.000000;3.007868
1365.000000;2.991348
1364.000000;3.090608
1363.000000;3.180488
1362.000000;3.216807
1361.000000;3.304386
1360.000000;3.390755
1359.000000;3.335621
1358.000000;3.277614
1357.000000;3.449017
1356.000000;3.777359
1355.000000;3.680618
1354.000000;3.698177
1353.000000;3.981469
1352.000000;3.423069
1351.000000;3.235115
1350.000000;3.223266
1349.000000;3.260342
1348.000000;3.465580
1347.000000;3.363046
1346.000000;3.120603
1345.000000;2.989686
1344.000000;2.983599
1343.000000;3.148702
1342.000000;3.526159
1341.000000;3.643058
1340.000000;3.236083
1339.000000;3.050111
1338.000000;2.971109
1337.000000;2.922900
1336.000000;2.925610
1335.000000;3.041012
1334.000000;3.251897
1333.000000;3.370432
1332.000000;3.343241
1331.000000;3.717685
1330.000000;3.805674
1329.000000;3.546119
1328.000000;3.647309
1327.000000;3.531461
1326.000000;4.243296
1325.000000;3.624356
1324.000000;3.196932
1323.000000;3.117340
1322.000000;3.154445
1321.000000;3.208894
1320.000000;3.248201
1319.000000;3.381426
1318.000000;3.536949
1317.000000;3.565483
1316.000000;3.253895
1315.000000;3.231182
1314.000000;3.502946
1313.000000;3.731560
1312.000000;3.509792
1311.000000;3.370510
1310.000000;3.338962
1309.000000;3.311734
1308.000000;3.258651
1307.000000;3.320065
1306.000000;3.464416
1305.000000;3.539335
1304.000000;3.674496
1303.000000;3.586579
1302.000000;3.204951
1301.000000;2.984463
1300.000000;2.868735
1299.000000;2.810901
1298.000000;2.807803
1297.000000;2.830898
1296.000000;2.836868
1295.000000;2.875701
1294.000000;2.972026
1293.000000;3.054158
1292.000000;3.114336
1291.000000;3.207265
1290.000000;3.182725
1289.000000;2.993456
1288.000000;2.873680
1287.000000;2.900833
1286.000000;2.972681
1285.000000;2.902663
1284.000000;2.843527
1283.000000;2.910517
1282.000000;3.121501
1281.000000;3.398887
1280.000000;3.581176
1279.000000;3.501409
1278.000000;3.270471
1277.000000;3.111171
1276.000000;3.077363
1275.000000;3.373079
1274.000000;3.330072
1273.000000;3.094019
1272.000000;3.057725
1271.000000;2.976966
1270.000000;2.877572
1269.000000;2.858915
1268.000000;2.972324
1267.000000;3.160081
1266.000000;3.240584
1265.000000;3.232556
1264.000000;3.109546
1263.000000;2.964947
1262.000000;2.952914
1261.000000;3.132626
1260.000000;3.532884
1259.000000;3.414046
1258.000000;3.093693
1257.000000;2.990811
1256.000000;2.966115
1255.000000;2.904333
1254.000000;2.839419
1253.000000;2.844774
1252.000000;2.942767
1251.000000;3.083952
1250.000000;3.153253
1249.000000;3.108827
1248.000000;3.052603
1247.000000;3.037310
1246.000000;2.977443
1245.000000;2.889253
1244.000000;2.859517
1243.000000;2.944575
1242.000000;3.148556
1241.000000;3.584671
1240.000000;3.214860
1239.000000;2.843530
1238.000000;2.726946
1237.000000;2.810014
1236.000000;3.110799
1235.000000;3.501686
1234.000000;3.299465
1233.000000;3.169100
1232.000000;3.177131
1231.000000;3.168061
1230.000000;3.082894
1229.000000;3.018939
1228.000000;3.021597
1227.000000;3.042029
1226.000000;3.030593
1225.000000;3.088656
1224.000000;3.235729
1223.000000;3.557718
1222.000000;4.013093
1221.000000;3.660784
1220.000000;3.456720
1219.000000;3.333767
1218.000000;3.324519
1217.000000;3.612392
1216.000000;3.644844
1215.000000;3.568153
1214.000000;3.387030
1213.000000;3.379105
1212.000000;3.817188
1211.000000;3.708544
1210.000000;3.329659
1209.000000;3.189301
1208.000000;3.175463
1207.000000;3.170828
1206.000000;3.137447
1205.000000;3.121454
1204.000000;3.048767
1203.000000;2.983041
1202.000000;2.907334
1201.000000;2.910006
1200.000000;2.928068
