Criado como novo conjunto de dados;"e2410_daniel_v2.spp","34384.1 Secs"
cm-1;Abs
10000.000000;0.433241
9999.000000;0.433061
9998.000000;0.432882
9997.000000;0.432703
9996.000000;0.432524
9995.000000;0.432345
9994.000000;0.432166
9993.000000;0.431987
9992.000000;0.431808
9991.000000;0.431630
9990.000000;0.431452
9989.000000;0.431241
9988.000000;0.430799
9987.000000;0.430107
9986.000000;0.429441
9985.000000;0.428983
9984.000000;0.428632
9983.000000;0.428143
9982.000000;0.427431
9981.000000;0.426650
9980.000000;0.426029
9979.000000;0.425654
9978.000000;0.425392
9977.000000;0.424992
9976.000000;0.424314
9975.000000;0.423456
9974.000000;0.422658
9973.000000;0.422079
9972.000000;0.421713
9971.000000;0.421467
9970.000000;0.421226
9969.000000;0.420887
9968.000000;0.420432
9967.000000;0.419991
9966.000000;0.419711
9965.000000;0.419541
9964.000000;0.419245
9963.000000;0.418662
9962.000000;0.417846
9961.000000;0.416921
9960.000000;0.415944
9959.000000;0.414956
9958.000000;0.414074
9957.000000;0.413424
9956.000000;0.413036
9955.000000;0.412858
9954.000000;0.412790
9953.000000;0.412672
9952.000000;0.412328
9951.000000;0.411718
9950.000000;0.410992
9949.000000;0.410340
9948.000000;0.409824
9947.000000;0.409382
9946.000000;0.408923
9945.000000;0.408392
9944.000000;0.407806
9943.000000;0.407266
9942.000000;0.406874
9941.000000;0.406607
9940.000000;0.406348
9939.000000;0.406027
9938.000000;0.405654
9937.000000;0.405201
9936.000000;0.404576
9935.000000;0.403782
9934.000000;0.402992
9933.000000;0.402394
9932.000000;0.402028
9931.000000;0.401808
9930.000000;0.401623
9929.000000;0.401344
9928.000000;0.400827
9927.000000;0.400031
9926.000000;0.399096
9925.000000;0.398256
9924.000000;0.397681
9923.000000;0.397407
9922.000000;0.397342
9921.000000;0.397293
9920.000000;0.397072
9919.000000;0.396619
9918.000000;0.396014
9917.000000;0.395351
9916.000000;0.394687
9915.000000;0.394097
9914.000000;0.393666
9913.000000;0.393359
9912.000000;0.393004
9911.000000;0.392468
9910.000000;0.391783
9909.000000;0.391070
9908.000000;0.390430
9907.000000;0.389918
9906.000000;0.389536
9905.000000;0.389196
9904.000000;0.388788
9903.000000;0.388308
9902.000000;0.387838
9901.000000;0.387380
9900.000000;0.386857
9899.000000;0.386313
9898.000000;0.385916
9897.000000;0.385684
9896.000000;0.385369
9895.000000;0.384759
9894.000000;0.383980
9893.000000;0.383329
9892.000000;0.382901
9891.000000;0.382548
9890.000000;0.382151
9889.000000;0.381720
9888.000000;0.381250
9887.000000;0.380663
9886.000000;0.379955
9885.000000;0.379265
9884.000000;0.378730
9883.000000;0.378334
9882.000000;0.377939
9881.000000;0.377431
9880.000000;0.376802
9879.000000;0.376135
9878.000000;0.375552
9877.000000;0.375142
9876.000000;0.374907
9875.000000;0.374780
9874.000000;0.374679
9873.000000;0.374523
9872.000000;0.374213
9871.000000;0.373652
9870.000000;0.372852
9869.000000;0.371979
9868.000000;0.371235
9867.000000;0.370645
9866.000000;0.370047
9865.000000;0.369332
9864.000000;0.368659
9863.000000;0.368286
9862.000000;0.368202
9861.000000;0.368068
9860.000000;0.367610
9859.000000;0.366933
9858.000000;0.366330
9857.000000;0.365898
9856.000000;0.365504
9855.000000;0.365061
9854.000000;0.364626
9853.000000;0.364226
9852.000000;0.363765
9851.000000;0.363169
9850.000000;0.362498
9849.000000;0.361844
9848.000000;0.361226
9847.000000;0.360629
9846.000000;0.360069
9845.000000;0.359576
9844.000000;0.359177
9843.000000;0.358905
9842.000000;0.358751
9841.000000;0.358605
9840.000000;0.358324
9839.000000;0.357882
9838.000000;0.357379
9837.000000;0.356912
9836.000000;0.356492
9835.000000;0.356090
9834.000000;0.355664
9833.000000;0.355160
9832.000000;0.354565
9831.000000;0.353967
9830.000000;0.353454
9829.000000;0.352987
9828.000000;0.352474
9827.000000;0.351933
9826.000000;0.351477
9825.000000;0.351142
9824.000000;0.350860
9823.000000;0.350573
9822.000000;0.350237
9821.000000;0.349730
9820.000000;0.348966
9819.000000;0.348112
9818.000000;0.347498
9817.000000;0.347239
9816.000000;0.347102
9815.000000;0.346784
9814.000000;0.346206
9813.000000;0.345462
9812.000000;0.344679
9811.000000;0.343992
9810.000000;0.343528
9809.000000;0.343277
9808.000000;0.343068
9807.000000;0.342749
9806.000000;0.342303
9805.000000;0.341779
9804.000000;0.341222
9803.000000;0.340722
9802.000000;0.340368
9801.000000;0.340102
9800.000000;0.339755
9799.000000;0.339279
9798.000000;0.338808
9797.000000;0.338419
9796.000000;0.337993
9795.000000;0.337405
9794.000000;0.336698
9793.000000;0.335989
9792.000000;0.335317
9791.000000;0.334718
9790.000000;0.334270
9789.000000;0.333966
9788.000000;0.333640
9787.000000;0.333156
9786.000000;0.332569
9785.000000;0.331983
9784.000000;0.331383
9783.000000;0.330753
9782.000000;0.330218
9781.000000;0.329902
9780.000000;0.329699
9779.000000;0.329383
9778.000000;0.328916
9777.000000;0.328478
9776.000000;0.328194
9775.000000;0.327958
9774.000000;0.327560
9773.000000;0.326921
9772.000000;0.326178
9771.000000;0.325556
9770.000000;0.325150
9769.000000;0.324826
9768.000000;0.324380
9767.000000;0.323805
9766.000000;0.323291
9765.000000;0.322937
9764.000000;0.322588
9763.000000;0.322053
9762.000000;0.321376
9761.000000;0.320784
9760.000000;0.320415
9759.000000;0.320210
9758.000000;0.320010
9757.000000;0.319662
9756.000000;0.319088
9755.000000;0.318343
9754.000000;0.317595
9753.000000;0.316980
9752.000000;0.316504
9751.000000;0.316112
9750.000000;0.315790
9749.000000;0.315539
9748.000000;0.315311
9747.000000;0.315041
9746.000000;0.314688
9745.000000;0.314222
9744.000000;0.313628
9743.000000;0.312982
9742.000000;0.312429
9741.000000;0.312033
9740.000000;0.311707
9739.000000;0.311344
9738.000000;0.310916
9737.000000;0.310413
9736.000000;0.309786
9735.000000;0.309072
9734.000000;0.308458
9733.000000;0.308100
9732.000000;0.307934
9731.000000;0.307762
9730.000000;0.307468
9729.000000;0.307055
9728.000000;0.306534
9727.000000;0.305907
9726.000000;0.305223
9725.000000;0.304558
9724.000000;0.303950
9723.000000;0.303432
9722.000000;0.303075
9721.000000;0.302920
9720.000000;0.302856
9719.000000;0.302666
9718.000000;0.302208
9717.000000;0.301512
9716.000000;0.300751
9715.000000;0.300141
9714.000000;0.299794
9713.000000;0.299626
9712.000000;0.299441
9711.000000;0.299143
9710.000000;0.298811
9709.000000;0.298512
9708.000000;0.298155
9707.000000;0.297627
9706.000000;0.296987
9705.000000;0.296413
9704.000000;0.295988
9703.000000;0.295644
9702.000000;0.295277
9701.000000;0.294836
9700.000000;0.294321
9699.000000;0.293791
9698.000000;0.293337
9697.000000;0.292979
9696.000000;0.292610
9695.000000;0.292128
9694.000000;0.291578
9693.000000;0.291061
9692.000000;0.290570
9691.000000;0.290018
9690.000000;0.289412
9689.000000;0.288879
9688.000000;0.288501
9687.000000;0.288224
9686.000000;0.287957
9685.000000;0.287667
9684.000000;0.287337
9683.000000;0.286932
9682.000000;0.286461
9681.000000;0.286024
9680.000000;0.285717
9679.000000;0.285506
9678.000000;0.285244
9677.000000;0.284831
9676.000000;0.284326
9675.000000;0.283873
9674.000000;0.283519
9673.000000;0.283162
9672.000000;0.282702
9671.000000;0.282191
9670.000000;0.281749
9669.000000;0.281358
9668.000000;0.280844
9667.000000;0.280130
9666.000000;0.279382
9665.000000;0.278844
9664.000000;0.278551
9663.000000;0.278305
9662.000000;0.277911
9661.000000;0.277369
9660.000000;0.276836
9659.000000;0.276454
9658.000000;0.276223
9657.000000;0.276010
9656.000000;0.275669
9655.000000;0.275162
9654.000000;0.274570
9653.000000;0.273982
9652.000000;0.273418
9651.000000;0.272865
9650.000000;0.272350
9649.000000;0.271938
9648.000000;0.271668
9647.000000;0.271491
9646.000000;0.271269
9645.000000;0.270870
9644.000000;0.270295
9643.000000;0.269719
9642.000000;0.269338
9641.000000;0.269152
9640.000000;0.268944
9639.000000;0.268494
9638.000000;0.267787
9637.000000;0.267000
9636.000000;0.266318
9635.000000;0.265789
9634.000000;0.265325
9633.000000;0.264833
9632.000000;0.264332
9631.000000;0.263940
9630.000000;0.263708
9629.000000;0.263514
9628.000000;0.263188
9627.000000;0.262721
9626.000000;0.262286
9625.000000;0.262030
9624.000000;0.261901
9623.000000;0.261716
9622.000000;0.261329
9621.000000;0.260750
9620.000000;0.260141
9619.000000;0.259705
9618.000000;0.259516
9617.000000;0.259438
9616.000000;0.259242
9615.000000;0.258803
9614.000000;0.258148
9613.000000;0.257378
9612.000000;0.256616
9611.000000;0.255993
9610.000000;0.255572
9609.000000;0.255270
9608.000000;0.254952
9607.000000;0.254590
9606.000000;0.254252
9605.000000;0.253925
9604.000000;0.253492
9603.000000;0.252900
9602.000000;0.252253
9601.000000;0.251689
9600.000000;0.251250
9599.000000;0.250899
9598.000000;0.250575
9597.000000;0.250196
9596.000000;0.249705
9595.000000;0.249162
9594.000000;0.248717
9593.000000;0.248433
9592.000000;0.248227
9591.000000;0.248004
9590.000000;0.247760
9589.000000;0.247501
9588.000000;0.247177
9587.000000;0.246753
9586.000000;0.246275
9585.000000;0.245792
9584.000000;0.245293
9583.000000;0.244765
9582.000000;0.244257
9581.000000;0.243816
9580.000000;0.243442
9579.000000;0.243134
9578.000000;0.242910
9577.000000;0.242714
9576.000000;0.242403
9575.000000;0.241904
9574.000000;0.241330
9573.000000;0.240849
9572.000000;0.240495
9571.000000;0.240188
9570.000000;0.239870
9569.000000;0.239539
9568.000000;0.239178
9567.000000;0.238752
9566.000000;0.238289
9565.000000;0.237878
9564.000000;0.237578
9563.000000;0.237354
9562.000000;0.237111
9561.000000;0.236755
9560.000000;0.236256
9559.000000;0.235665
9558.000000;0.235088
9557.000000;0.234615
9556.000000;0.234272
9555.000000;0.234012
9554.000000;0.233719
9553.000000;0.233265
9552.000000;0.232628
9551.000000;0.231961
9550.000000;0.231471
9549.000000;0.231209
9548.000000;0.231021
9547.000000;0.230717
9546.000000;0.230237
9545.000000;0.229653
9544.000000;0.229102
9543.000000;0.228726
9542.000000;0.228572
9541.000000;0.228505
9540.000000;0.228298
9539.000000;0.227845
9538.000000;0.227234
9537.000000;0.226601
9536.000000;0.225998
9535.000000;0.225452
9534.000000;0.225038
9533.000000;0.224807
9532.000000;0.224683
9531.000000;0.224513
9530.000000;0.224202
9529.000000;0.223763
9528.000000;0.223280
9527.000000;0.222844
9526.000000;0.222505
9525.000000;0.222240
9524.000000;0.221981
9523.000000;0.221690
9522.000000;0.221350
9521.000000;0.220917
9520.000000;0.220343
9519.000000;0.219670
9518.000000;0.219026
9517.000000;0.218499
9516.000000;0.218091
9515.000000;0.217801
9514.000000;0.217643
9513.000000;0.217564
9512.000000;0.217428
9511.000000;0.217172
9510.000000;0.216889
9509.000000;0.216682
9508.000000;0.216510
9507.000000;0.216247
9506.000000;0.215846
9505.000000;0.215354
9504.000000;0.214802
9503.000000;0.214183
9502.000000;0.213516
9501.000000;0.212884
9500.000000;0.212381
9499.000000;0.212059
9498.000000;0.211900
9497.000000;0.211818
9496.000000;0.211693
9495.000000;0.211446
9494.000000;0.211076
9493.000000;0.210638
9492.000000;0.210196
9491.000000;0.209814
9490.000000;0.209538
9489.000000;0.209339
9488.000000;0.209099
9487.000000;0.208698
9486.000000;0.208129
9485.000000;0.207514
9484.000000;0.207011
9483.000000;0.206670
9482.000000;0.206367
9481.000000;0.205924
9480.000000;0.205308
9479.000000;0.204687
9478.000000;0.204236
9477.000000;0.203962
9476.000000;0.203769
9475.000000;0.203606
9474.000000;0.203459
9473.000000;0.203237
9472.000000;0.202828
9471.000000;0.202285
9470.000000;0.201795
9469.000000;0.201456
9468.000000;0.201192
9467.000000;0.200923
9466.000000;0.200668
9465.000000;0.200434
9464.000000;0.200118
9463.000000;0.199647
9462.000000;0.199111
9461.000000;0.198675
9460.000000;0.198392
9459.000000;0.198163
9458.000000;0.197860
9457.000000;0.197431
9456.000000;0.196939
9455.000000;0.196536
9454.000000;0.196335
9453.000000;0.196269
9452.000000;0.196121
9451.000000;0.195752
9450.000000;0.195233
9449.000000;0.194744
9448.000000;0.194387
9447.000000;0.194133
9446.000000;0.193884
9445.000000;0.193524
9444.000000;0.193000
9443.000000;0.192393
9442.000000;0.191884
9441.000000;0.191570
9440.000000;0.191375
9439.000000;0.191168
9438.000000;0.190899
9437.000000;0.190565
9436.000000;0.190126
9435.000000;0.189556
9434.000000;0.188954
9433.000000;0.188504
9432.000000;0.188292
9431.000000;0.188225
9430.000000;0.188116
9429.000000;0.187845
9428.000000;0.187435
9427.000000;0.186997
9426.000000;0.186616
9425.000000;0.186280
9424.000000;0.185941
9423.000000;0.185603
9422.000000;0.185307
9421.000000;0.185033
9420.000000;0.184691
9419.000000;0.184255
9418.000000;0.183828
9417.000000;0.183538
9416.000000;0.183392
9415.000000;0.183285
9414.000000;0.183112
9413.000000;0.182839
9412.000000;0.182487
9411.000000;0.182087
9410.000000;0.181653
9409.000000;0.181181
9408.000000;0.180665
9407.000000;0.180137
9406.000000;0.179662
9405.000000;0.179305
9404.000000;0.179096
9403.000000;0.179009
9402.000000;0.178948
9401.000000;0.178790
9400.000000;0.178482
9399.000000;0.178088
9398.000000;0.177696
9397.000000;0.177313
9396.000000;0.176892
9395.000000;0.176426
9394.000000;0.175968
9393.000000;0.175563
9392.000000;0.175217
9391.000000;0.174927
9390.000000;0.174663
9389.000000;0.174352
9388.000000;0.173952
9387.000000;0.173528
9386.000000;0.173181
9385.000000;0.172910
9384.000000;0.172633
9383.000000;0.172323
9382.000000;0.172041
9381.000000;0.171822
9380.000000;0.171636
9379.000000;0.171454
9378.000000;0.171256
9377.000000;0.170958
9376.000000;0.170452
9375.000000;0.169771
9374.000000;0.169118
9373.000000;0.168673
9372.000000;0.168432
9371.000000;0.168268
9370.000000;0.168090
9369.000000;0.167873
9368.000000;0.167619
9367.000000;0.167337
9366.000000;0.167043
9365.000000;0.166721
9364.000000;0.166339
9363.000000;0.165918
9362.000000;0.165537
9361.000000;0.165241
9360.000000;0.164990
9359.000000;0.164721
9358.000000;0.164415
9357.000000;0.164087
9356.000000;0.163774
9355.000000;0.163550
9354.000000;0.163466
9353.000000;0.163434
9352.000000;0.163252
9351.000000;0.162807
9350.000000;0.162215
9349.000000;0.161696
9348.000000;0.161368
9347.000000;0.161187
9346.000000;0.161055
9345.000000;0.160897
9344.000000;0.160676
9343.000000;0.160380
9342.000000;0.160026
9341.000000;0.159643
9340.000000;0.159269
9339.000000;0.158928
9338.000000;0.158610
9337.000000;0.158259
9336.000000;0.157824
9335.000000;0.157327
9334.000000;0.156864
9333.000000;0.156512
9332.000000;0.156266
9331.000000;0.156061
9330.000000;0.155831
9329.000000;0.155554
9328.000000;0.155266
9327.000000;0.155017
9326.000000;0.154792
9325.000000;0.154523
9324.000000;0.154192
9323.000000;0.153867
9322.000000;0.153596
9321.000000;0.153325
9320.000000;0.152990
9319.000000;0.152639
9318.000000;0.152365
9317.000000;0.152135
9316.000000;0.151830
9315.000000;0.151408
9314.000000;0.150949
9313.000000;0.150510
9312.000000;0.150089
9311.000000;0.149715
9310.000000;0.149477
9309.000000;0.149397
9308.000000;0.149371
9307.000000;0.149287
9306.000000;0.149136
9305.000000;0.148965
9304.000000;0.148775
9303.000000;0.148519
9302.000000;0.148159
9301.000000;0.147698
9300.000000;0.147201
9299.000000;0.146775
9298.000000;0.146479
9297.000000;0.146238
9296.000000;0.145913
9295.000000;0.145452
9294.000000;0.144931
9293.000000;0.144452
9292.000000;0.144083
9291.000000;0.143871
9290.000000;0.143824
9289.000000;0.143859
9288.000000;0.143841
9287.000000;0.143711
9286.000000;0.143499
9285.000000;0.143230
9284.000000;0.142882
9283.000000;0.142455
9282.000000;0.142007
9281.000000;0.141591
9280.000000;0.141216
9279.000000;0.140872
9278.000000;0.140550
9277.000000;0.140240
9276.000000;0.139975
9275.000000;0.139846
9274.000000;0.139878
9273.000000;0.139917
9272.000000;0.139748
9271.000000;0.139324
9270.000000;0.138805
9269.000000;0.138347
9268.000000;0.137985
9267.000000;0.137716
9266.000000;0.137539
9265.000000;0.137387
9264.000000;0.137133
9263.000000;0.136737
9262.000000;0.136305
9261.000000;0.135940
9260.000000;0.135633
9259.000000;0.135358
9258.000000;0.135162
9257.000000;0.135080
9256.000000;0.135026
9255.000000;0.134873
9254.000000;0.134591
9253.000000;0.134259
9252.000000;0.133952
9251.000000;0.133682
9250.000000;0.133418
9249.000000;0.133126
9248.000000;0.132811
9247.000000;0.132528
9246.000000;0.132317
9245.000000;0.132130
9244.000000;0.131871
9243.000000;0.131525
9242.000000;0.131178
9241.000000;0.130910
9240.000000;0.130736
9239.000000;0.130630
9238.000000;0.130536
9237.000000;0.130336
9236.000000;0.129922
9235.000000;0.129330
9234.000000;0.128756
9233.000000;0.128371
9232.000000;0.128195
9231.000000;0.128145
9230.000000;0.128124
9229.000000;0.128042
9228.000000;0.127849
9227.000000;0.127573
9226.000000;0.127293
9225.000000;0.127038
9224.000000;0.126777
9223.000000;0.126521
9222.000000;0.126333
9221.000000;0.126208
9220.000000;0.126037
9219.000000;0.125733
9218.000000;0.125331
9217.000000;0.124915
9216.000000;0.124514
9215.000000;0.124119
9214.000000;0.123743
9213.000000;0.123415
9212.000000;0.123146
9211.000000;0.122928
9210.000000;0.122729
9209.000000;0.122499
9208.000000;0.122229
9207.000000;0.122013
9206.000000;0.121949
9205.000000;0.121976
9204.000000;0.121907
9203.000000;0.121642
9202.000000;0.121281
9201.000000;0.120976
9200.000000;0.120762
9199.000000;0.120571
9198.000000;0.120336
9197.000000;0.120032
9196.000000;0.119666
9195.000000;0.119290
9194.000000;0.118980
9193.000000;0.118773
9192.000000;0.118637
9191.000000;0.118511
9190.000000;0.118341
9189.000000;0.118095
9188.000000;0.117800
9187.000000;0.117540
9186.000000;0.117357
9185.000000;0.117161
9184.000000;0.116845
9183.000000;0.116448
9182.000000;0.116100
9181.000000;0.115829
9180.000000;0.115543
9179.000000;0.115221
9178.000000;0.114959
9177.000000;0.114800
9176.000000;0.114661
9175.000000;0.114473
9174.000000;0.114281
9173.000000;0.114109
9172.000000;0.113881
9171.000000;0.113559
9170.000000;0.113252
9169.000000;0.113068
9168.000000;0.112948
9167.000000;0.112744
9166.000000;0.112428
9165.000000;0.112099
9164.000000;0.111850
9163.000000;0.111691
9162.000000;0.111597
9161.000000;0.111517
9160.000000;0.111379
9159.000000;0.111146
9158.000000;0.110859
9157.000000;0.110578
9156.000000;0.110299
9155.000000;0.109983
9154.000000;0.109631
9153.000000;0.109293
9152.000000;0.109018
9151.000000;0.108833
9150.000000;0.108723
9149.000000;0.108624
9148.000000;0.108465
9147.000000;0.108243
9146.000000;0.108001
9145.000000;0.107744
9144.000000;0.107434
9143.000000;0.107099
9142.000000;0.106860
9141.000000;0.106789
9140.000000;0.106800
9139.000000;0.106736
9138.000000;0.106527
9137.000000;0.106215
9136.000000;0.105883
9135.000000;0.105602
9134.000000;0.105390
9133.000000;0.105188
9132.000000;0.104911
9131.000000;0.104560
9130.000000;0.104242
9129.000000;0.104038
9128.000000;0.103895
9127.000000;0.103711
9126.000000;0.103458
9125.000000;0.103194
9124.000000;0.102982
9123.000000;0.102854
9122.000000;0.102807
9121.000000;0.102789
9120.000000;0.102708
9119.000000;0.102500
9118.000000;0.102179
9117.000000;0.101808
9116.000000;0.101451
9115.000000;0.101153
9114.000000;0.100935
9113.000000;0.100769
9112.000000;0.100597
9111.000000;0.100387
9110.000000;0.100140
9109.000000;0.099866
9108.000000;0.099586
9107.000000;0.099359
9106.000000;0.099234
9105.000000;0.099158
9104.000000;0.099017
9103.000000;0.098763
9102.000000;0.098460
9101.000000;0.098179
9100.000000;0.097932
9099.000000;0.097721
9098.000000;0.097579
9097.000000;0.097503
9096.000000;0.097415
9095.000000;0.097244
9094.000000;0.097007
9093.000000;0.096765
9092.000000;0.096543
9091.000000;0.096315
9090.000000;0.096050
9089.000000;0.095753
9088.000000;0.095471
9087.000000;0.095263
9086.000000;0.095126
9085.000000;0.094976
9084.000000;0.094752
9083.000000;0.094519
9082.000000;0.094399
9081.000000;0.094400
9080.000000;0.094389
9079.000000;0.094245
9078.000000;0.093967
9077.000000;0.093626
9076.000000;0.093308
9075.000000;0.093098
9074.000000;0.093047
9073.000000;0.093090
9072.000000;0.093070
9071.000000;0.092890
9070.000000;0.092578
9069.000000;0.092212
9068.000000;0.091843
9067.000000;0.091511
9066.000000;0.091261
9065.000000;0.091085
9064.000000;0.090942
9063.000000;0.090839
9062.000000;0.090834
9061.000000;0.090902
9060.000000;0.090895
9059.000000;0.090683
9058.000000;0.090295
9057.000000;0.089870
9056.000000;0.089523
9055.000000;0.089294
9054.000000;0.089163
9053.000000;0.089071
9052.000000;0.088950
9051.000000;0.088783
9050.000000;0.088601
9049.000000;0.088421
9048.000000;0.088237
9047.000000;0.088060
9046.000000;0.087910
9045.000000;0.087752
9044.000000;0.087512
9043.000000;0.087181
9042.000000;0.086855
9041.000000;0.086626
9040.000000;0.086499
9039.000000;0.086436
9038.000000;0.086417
9037.000000;0.086411
9036.000000;0.086357
9035.000000;0.086193
9034.000000;0.085899
9033.000000;0.085499
9032.000000;0.085054
9031.000000;0.084660
9030.000000;0.084390
9029.000000;0.084234
9028.000000;0.084138
9027.000000;0.084086
9026.000000;0.084077
9025.000000;0.084049
9024.000000;0.083925
9023.000000;0.083728
9022.000000;0.083553
9021.000000;0.083417
9020.000000;0.083250
9019.000000;0.083034
9018.000000;0.082839
9017.000000;0.082696
9016.000000;0.082545
9015.000000;0.082357
9014.000000;0.082184
9013.000000;0.082035
9012.000000;0.081825
9011.000000;0.081508
9010.000000;0.081157
9009.000000;0.080864
9008.000000;0.080642
9007.000000;0.080479
9006.000000;0.080389
9005.000000;0.080328
9004.000000;0.080186
9003.000000;0.079921
9002.000000;0.079639
9001.000000;0.079448
9000.000000;0.079331
8999.000000;0.079217
8998.000000;0.079099
8997.000000;0.078988
8996.000000;0.078827
8995.000000;0.078567
8994.000000;0.078275
8993.000000;0.078057
8992.000000;0.077905
8991.000000;0.077730
8990.000000;0.077501
8989.000000;0.077265
8988.000000;0.077059
8987.000000;0.076882
8986.000000;0.076734
8985.000000;0.076616
8984.000000;0.076504
8983.000000;0.076386
8982.000000;0.076301
8981.000000;0.076273
8980.000000;0.076231
8979.000000;0.076077
8978.000000;0.075831
8977.000000;0.075624
8976.000000;0.075535
8975.000000;0.075499
8974.000000;0.075392
8973.000000;0.075171
8972.000000;0.074909
8971.000000;0.074709
8970.000000;0.074607
8969.000000;0.074539
8968.000000;0.074409
8967.000000;0.074187
8966.000000;0.073932
8965.000000;0.073712
8964.000000;0.073538
8963.000000;0.073365
8962.000000;0.073145
8961.000000;0.072867
8960.000000;0.072571
8959.000000;0.072340
8958.000000;0.072232
8957.000000;0.072224
8956.000000;0.072234
8955.000000;0.072205
8954.000000;0.072132
8953.000000;0.072016
8952.000000;0.071840
8951.000000;0.071611
8950.000000;0.071375
8949.000000;0.071171
8948.000000;0.071009
8947.000000;0.070891
8946.000000;0.070815
8945.000000;0.070757
8944.000000;0.070684
8943.000000;0.070587
8942.000000;0.070464
8941.000000;0.070279
8940.000000;0.069995
8939.000000;0.069661
8938.000000;0.069379
8937.000000;0.069194
8936.000000;0.069067
8935.000000;0.068963
8934.000000;0.068888
8933.000000;0.068815
8932.000000;0.068669
8931.000000;0.068423
8930.000000;0.068162
8929.000000;0.068006
8928.000000;0.068004
8927.000000;0.068119
8926.000000;0.068247
8925.000000;0.068253
8924.000000;0.068044
8923.000000;0.067662
8922.000000;0.067267
8921.000000;0.066999
8920.000000;0.066885
8919.000000;0.066866
8918.000000;0.066855
8917.000000;0.066769
8916.000000;0.066576
8915.000000;0.066353
8914.000000;0.066232
8913.000000;0.066252
8912.000000;0.066312
8911.000000;0.066288
8910.000000;0.066148
8909.000000;0.065944
8908.000000;0.065747
8907.000000;0.065599
8906.000000;0.065473
8905.000000;0.065255
8904.000000;0.064847
8903.000000;0.064326
8902.000000;0.063937
8901.000000;0.063869
8900.000000;0.064079
8899.000000;0.064360
8898.000000;0.064523
8897.000000;0.064481
8896.000000;0.064240
8895.000000;0.063879
8894.000000;0.063536
8893.000000;0.063327
8892.000000;0.063265
8891.000000;0.063257
8890.000000;0.063187
8889.000000;0.063029
8888.000000;0.062882
8887.000000;0.062884
8886.000000;0.063055
8885.000000;0.063230
8884.000000;0.063219
8883.000000;0.063003
8882.000000;0.062717
8881.000000;0.062481
8880.000000;0.062318
8879.000000;0.062217
8878.000000;0.062168
8877.000000;0.062118
8876.000000;0.061983
8875.000000;0.061752
8874.000000;0.061498
8873.000000;0.061272
8872.000000;0.061061
8871.000000;0.060876
8870.000000;0.060786
8869.000000;0.060828
8868.000000;0.060945
8867.000000;0.061044
8866.000000;0.061060
8865.000000;0.060957
8864.000000;0.060736
8863.000000;0.060484
8862.000000;0.060331
8861.000000;0.060318
8860.000000;0.060373
8859.000000;0.060417
8858.000000;0.060423
8857.000000;0.060352
8856.000000;0.060150
8855.000000;0.059863
8854.000000;0.059648
8853.000000;0.059601
8852.000000;0.059645
8851.000000;0.059662
8850.000000;0.059642
8849.000000;0.059651
8848.000000;0.059686
8847.000000;0.059673
8846.000000;0.059567
8845.000000;0.059398
8844.000000;0.059225
8843.000000;0.059093
8842.000000;0.059008
8841.000000;0.058921
8840.000000;0.058777
8839.000000;0.058596
8838.000000;0.058470
8837.000000;0.058457
8836.000000;0.058529
8835.000000;0.058627
8834.000000;0.058728
8833.000000;0.058807
8832.000000;0.058825
8831.000000;0.058781
8830.000000;0.058743
8829.000000;0.058771
8828.000000;0.058846
8827.000000;0.058912
8826.000000;0.058934
8825.000000;0.058899
8824.000000;0.058808
8823.000000;0.058707
8822.000000;0.058664
8821.000000;0.058694
8820.000000;0.058738
8819.000000;0.058760
8818.000000;0.058802
8817.000000;0.058909
8816.000000;0.059071
8815.000000;0.059245
8814.000000;0.059403
8813.000000;0.059495
8812.000000;0.059458
8811.000000;0.059302
8810.000000;0.059136
8809.000000;0.059040
8808.000000;0.058970
8807.000000;0.058841
8806.000000;0.058682
8805.000000;0.058624
8804.000000;0.058767
8803.000000;0.059082
8802.000000;0.059429
8801.000000;0.059636
8800.000000;0.059599
8799.000000;0.059363
8798.000000;0.059081
8797.000000;0.058881
8796.000000;0.058795
8795.000000;0.058829
8794.000000;0.059006
8793.000000;0.059302
8792.000000;0.059597
8791.000000;0.059764
8790.000000;0.059789
8789.000000;0.059751
8788.000000;0.059726
8787.000000;0.059740
8786.000000;0.059796
8785.000000;0.059890
8784.000000;0.060003
8783.000000;0.060119
8782.000000;0.060223
8781.000000;0.060273
8780.000000;0.060233
8779.000000;0.060148
8778.000000;0.060146
8777.000000;0.060297
8776.000000;0.060508
8775.000000;0.060622
8774.000000;0.060601
8773.000000;0.060555
8772.000000;0.060595
8771.000000;0.060715
8770.000000;0.060836
8769.000000;0.060928
8768.000000;0.061069
8767.000000;0.061354
8766.000000;0.061753
8765.000000;0.062085
8764.000000;0.062201
8763.000000;0.062148
8762.000000;0.062119
8761.000000;0.062212
8760.000000;0.062337
8759.000000;0.062375
8758.000000;0.062350
8757.000000;0.062381
8756.000000;0.062525
8755.000000;0.062728
8754.000000;0.062910
8753.000000;0.063023
8752.000000;0.063069
8751.000000;0.063088
8750.000000;0.063145
8749.000000;0.063280
8748.000000;0.063472
8747.000000;0.063671
8746.000000;0.063842
8745.000000;0.063974
8744.000000;0.064062
8743.000000;0.064142
8742.000000;0.064301
8741.000000;0.064612
8740.000000;0.065033
8739.000000;0.065403
8738.000000;0.065561
8737.000000;0.065489
8736.000000;0.065325
8735.000000;0.065244
8734.000000;0.065305
8733.000000;0.065431
8732.000000;0.065527
8731.000000;0.065589
8730.000000;0.065672
8729.000000;0.065800
8728.000000;0.065953
8727.000000;0.066115
8726.000000;0.066278
8725.000000;0.066420
8724.000000;0.066539
8723.000000;0.066695
8722.000000;0.066932
8721.000000;0.067181
8720.000000;0.067294
8719.000000;0.067225
8718.000000;0.067096
8717.000000;0.067064
8716.000000;0.067182
8715.000000;0.067376
8714.000000;0.067537
8713.000000;0.067587
8712.000000;0.067531
8711.000000;0.067466
8710.000000;0.067504
8709.000000;0.067658
8708.000000;0.067841
8707.000000;0.067982
8706.000000;0.068093
8705.000000;0.068204
8704.000000;0.068284
8703.000000;0.068280
8702.000000;0.068204
8701.000000;0.068151
8700.000000;0.068230
8699.000000;0.068462
8698.000000;0.068752
8697.000000;0.068952
8696.000000;0.068998
8695.000000;0.068960
8694.000000;0.068941
8693.000000;0.068970
8692.000000;0.069020
8691.000000;0.069093
8690.000000;0.069194
8689.000000;0.069267
8688.000000;0.069250
8687.000000;0.069178
8686.000000;0.069151
8685.000000;0.069197
8684.000000;0.069257
8683.000000;0.069296
8682.000000;0.069341
8681.000000;0.069379
8680.000000;0.069350
8679.000000;0.069270
8678.000000;0.069261
8677.000000;0.069380
8676.000000;0.069507
8675.000000;0.069474
8674.000000;0.069260
8673.000000;0.069005
8672.000000;0.068865
8671.000000;0.068906
8670.000000;0.069089
8669.000000;0.069294
8668.000000;0.069386
8667.000000;0.069319
8666.000000;0.069165
8665.000000;0.069035
8664.000000;0.068985
8663.000000;0.069005
8662.000000;0.069043
8661.000000;0.069040
8660.000000;0.068969
8659.000000;0.068879
8658.000000;0.068844
8657.000000;0.068870
8656.000000;0.068875
8655.000000;0.068798
8654.000000;0.068677
8653.000000;0.068598
8652.000000;0.068593
8651.000000;0.068617
8650.000000;0.068599
8649.000000;0.068506
8648.000000;0.068371
8647.000000;0.068271
8646.000000;0.068234
8645.000000;0.068178
8644.000000;0.068000
8643.000000;0.067709
8642.000000;0.067430
8641.000000;0.067268
8640.000000;0.067217
8639.000000;0.067216
8638.000000;0.067222
8637.000000;0.067206
8636.000000;0.067134
8635.000000;0.066991
8634.000000;0.066797
8633.000000;0.066579
8632.000000;0.066365
8631.000000;0.066208
8630.000000;0.066175
8629.000000;0.066276
8628.000000;0.066429
8627.000000;0.066517
8626.000000;0.066468
8625.000000;0.066294
8624.000000;0.066067
8623.000000;0.065871
8622.000000;0.065724
8621.000000;0.065582
8620.000000;0.065415
8619.000000;0.065272
8618.000000;0.065194
8617.000000;0.065137
8616.000000;0.065025
8615.000000;0.064870
8614.000000;0.064744
8613.000000;0.064649
8612.000000;0.064515
8611.000000;0.064319
8610.000000;0.064131
8609.000000;0.064012
8608.000000;0.063942
8607.000000;0.063866
8606.000000;0.063745
8605.000000;0.063547
8604.000000;0.063255
8603.000000;0.062937
8602.000000;0.062724
8601.000000;0.062673
8600.000000;0.062708
8599.000000;0.062719
8598.000000;0.062671
8597.000000;0.062599
8596.000000;0.062528
8595.000000;0.062443
8594.000000;0.062306
8593.000000;0.062081
8592.000000;0.061773
8591.000000;0.061458
8590.000000;0.061225
8589.000000;0.061109
8588.000000;0.061072
8587.000000;0.061069
8586.000000;0.061064
8585.000000;0.061005
8584.000000;0.060851
8583.000000;0.060620
8582.000000;0.060377
8581.000000;0.060163
8580.000000;0.059971
8579.000000;0.059790
8578.000000;0.059618
8577.000000;0.059455
8576.000000;0.059316
8575.000000;0.059245
8574.000000;0.059242
8573.000000;0.059213
8572.000000;0.059067
8571.000000;0.058833
8570.000000;0.058613
8569.000000;0.058429
8568.000000;0.058223
8567.000000;0.057989
8566.000000;0.057806
8565.000000;0.057722
8564.000000;0.057688
8563.000000;0.057643
8562.000000;0.057571
8561.000000;0.057462
8560.000000;0.057301
8559.000000;0.057129
8558.000000;0.057022
8557.000000;0.056970
8556.000000;0.056860
8555.000000;0.056612
8554.000000;0.056283
8553.000000;0.055987
8552.000000;0.055784
8551.000000;0.055659
8550.000000;0.055568
8549.000000;0.055445
8548.000000;0.055242
8547.000000;0.054990
8546.000000;0.054787
8545.000000;0.054694
8544.000000;0.054685
8543.000000;0.054694
8542.000000;0.054671
8541.000000;0.054583
8540.000000;0.054415
8539.000000;0.054202
8538.000000;0.054005
8537.000000;0.053840
8536.000000;0.053689
8535.000000;0.053559
8534.000000;0.053464
8533.000000;0.053365
8532.000000;0.053201
8531.000000;0.052990
8530.000000;0.052815
8529.000000;0.052692
8528.000000;0.052544
8527.000000;0.052318
8526.000000;0.052059
8525.000000;0.051844
8524.000000;0.051708
8523.000000;0.051667
8522.000000;0.051710
8521.000000;0.051755
8520.000000;0.051688
8519.000000;0.051488
8518.000000;0.051235
8517.000000;0.050982
8516.000000;0.050695
8515.000000;0.050365
8514.000000;0.050077
8513.000000;0.049905
8512.000000;0.049819
8511.000000;0.049738
8510.000000;0.049633
8509.000000;0.049520
8508.000000;0.049410
8507.000000;0.049318
8506.000000;0.049270
8505.000000;0.049249
8504.000000;0.049177
8503.000000;0.048996
8502.000000;0.048733
8501.000000;0.048479
8500.000000;0.048303
8499.000000;0.048217
8498.000000;0.048173
8497.000000;0.048093
8496.000000;0.047940
8495.000000;0.047762
8494.000000;0.047623
8493.000000;0.047502
8492.000000;0.047321
8491.000000;0.047075
8490.000000;0.046855
8489.000000;0.046732
8488.000000;0.046686
8487.000000;0.046649
8486.000000;0.046570
8485.000000;0.046400
8484.000000;0.046126
8483.000000;0.045823
8482.000000;0.045622
8481.000000;0.045566
8480.000000;0.045568
8479.000000;0.045522
8478.000000;0.045397
8477.000000;0.045221
8476.000000;0.045027
8475.000000;0.044851
8474.000000;0.044706
8473.000000;0.044552
8472.000000;0.044346
8471.000000;0.044133
8470.000000;0.043999
8469.000000;0.043927
8468.000000;0.043802
8467.000000;0.043593
8466.000000;0.043404
8465.000000;0.043309
8464.000000;0.043246
8463.000000;0.043140
8462.000000;0.043030
8461.000000;0.042984
8460.000000;0.042962
8459.000000;0.042865
8458.000000;0.042658
8457.000000;0.042388
8456.000000;0.042115
8455.000000;0.041894
8454.000000;0.041784
8453.000000;0.041784
8452.000000;0.041804
8451.000000;0.041740
8450.000000;0.041582
8449.000000;0.041406
8448.000000;0.041273
8447.000000;0.041183
8446.000000;0.041093
8445.000000;0.040947
8444.000000;0.040729
8443.000000;0.040513
8442.000000;0.040403
8441.000000;0.040410
8440.000000;0.040423
8439.000000;0.040338
8438.000000;0.040160
8437.000000;0.039954
8436.000000;0.039745
8435.000000;0.039540
8434.000000;0.039371
8433.000000;0.039269
8432.000000;0.039201
8431.000000;0.039107
8430.000000;0.038964
8429.000000;0.038781
8428.000000;0.038566
8427.000000;0.038338
8426.000000;0.038138
8425.000000;0.037999
8424.000000;0.037909
8423.000000;0.037838
8422.000000;0.037772
8421.000000;0.037705
8420.000000;0.037620
8419.000000;0.037509
8418.000000;0.037387
8417.000000;0.037248
8416.000000;0.037052
8415.000000;0.036787
8414.000000;0.036504
8413.000000;0.036271
8412.000000;0.036113
8411.000000;0.036015
8410.000000;0.035950
8409.000000;0.035888
8408.000000;0.035798
8407.000000;0.035685
8406.000000;0.035589
8405.000000;0.035516
8404.000000;0.035413
8403.000000;0.035230
8402.000000;0.034998
8401.000000;0.034788
8400.000000;0.034641
8399.000000;0.034538
8398.000000;0.034438
8397.000000;0.034314
8396.000000;0.034169
8395.000000;0.034042
8394.000000;0.033961
8393.000000;0.033893
8392.000000;0.033757
8391.000000;0.033516
8390.000000;0.033214
8389.000000;0.032931
8388.000000;0.032727
8387.000000;0.032622
8386.000000;0.032587
8385.000000;0.032555
8384.000000;0.032478
8383.000000;0.032371
8382.000000;0.032281
8381.000000;0.032192
8380.000000;0.032032
8379.000000;0.031778
8378.000000;0.031500
8377.000000;0.031278
8376.000000;0.031125
8375.000000;0.031002
8374.000000;0.030862
8373.000000;0.030682
8372.000000;0.030473
8371.000000;0.030286
8370.000000;0.030158
8369.000000;0.030063
8368.000000;0.029947
8367.000000;0.029821
8366.000000;0.029736
8365.000000;0.029688
8364.000000;0.029597
8363.000000;0.029416
8362.000000;0.029191
8361.000000;0.028991
8360.000000;0.028838
8359.000000;0.028729
8358.000000;0.028662
8357.000000;0.028617
8356.000000;0.028538
8355.000000;0.028390
8354.000000;0.028202
8353.000000;0.028019
8352.000000;0.027857
8351.000000;0.027708
8350.000000;0.027563
8349.000000;0.027400
8348.000000;0.027206
8347.000000;0.027006
8346.000000;0.026831
8345.000000;0.026657
8344.000000;0.026425
8343.000000;0.026150
8342.000000;0.025929
8341.000000;0.025820
8340.000000;0.025763
8339.000000;0.025662
8338.000000;0.025496
8337.000000;0.025296
8336.000000;0.025081
8335.000000;0.024849
8334.000000;0.024622
8333.000000;0.024427
8332.000000;0.024269
8331.000000;0.024136
8330.000000;0.024026
8329.000000;0.023936
8328.000000;0.023837
8327.000000;0.023704
8326.000000;0.023539
8325.000000;0.023369
8324.000000;0.023212
8323.000000;0.023070
8322.000000;0.022923
8321.000000;0.022738
8320.000000;0.022489
8319.000000;0.022181
8318.000000;0.021855
8317.000000;0.021556
8316.000000;0.021322
8315.000000;0.021171
8314.000000;0.021074
8313.000000;0.020956
8312.000000;0.020770
8311.000000;0.020553
8310.000000;0.020387
8309.000000;0.020304
8308.000000;0.020266
8307.000000;0.020216
8306.000000;0.020101
8305.000000;0.019884
8304.000000;0.019585
8303.000000;0.019303
8302.000000;0.019122
8301.000000;0.019018
8300.000000;0.018907
8299.000000;0.018778
8298.000000;0.018685
8297.000000;0.018620
8296.000000;0.018493
8295.000000;0.018260
8294.000000;0.017997
8293.000000;0.017800
8292.000000;0.017670
8291.000000;0.017551
8290.000000;0.017410
8289.000000;0.017245
8288.000000;0.017052
8287.000000;0.016840
8286.000000;0.016640
8285.000000;0.016486
8284.000000;0.016372
8283.000000;0.016265
8282.000000;0.016124
8281.000000;0.015911
8280.000000;0.015631
8279.000000;0.015346
8278.000000;0.015125
8277.000000;0.014964
8276.000000;0.014812
8275.000000;0.014654
8274.000000;0.014527
8273.000000;0.014441
8272.000000;0.014350
8271.000000;0.014207
8270.000000;0.014009
8269.000000;0.013768
8268.000000;0.013495
8267.000000;0.013219
8266.000000;0.012984
8265.000000;0.012798
8264.000000;0.012626
8263.000000;0.012452
8262.000000;0.012301
8261.000000;0.012186
8260.000000;0.012081
8259.000000;0.011948
8258.000000;0.011778
8257.000000;0.011583
8256.000000;0.011382
8255.000000;0.011194
8254.000000;0.011018
8253.000000;0.010821
8252.000000;0.010590
8251.000000;0.010376
8250.000000;0.010231
8249.000000;0.010131
8248.000000;0.010009
8247.000000;0.009856
8246.000000;0.009711
8245.000000;0.009563
8244.000000;0.009342
8243.000000;0.009033
8242.000000;0.008720
8241.000000;0.008489
8240.000000;0.008349
8239.000000;0.008260
8238.000000;0.008194
8237.000000;0.008126
8236.000000;0.008026
8235.000000;0.007882
8234.000000;0.007702
8233.000000;0.007481
8232.000000;0.007198
8231.000000;0.006875
8230.000000;0.006580
8229.000000;0.006363
8228.000000;0.006217
8227.000000;0.006104
8226.000000;0.005977
8225.000000;0.005787
8224.000000;0.005533
8223.000000;0.005293
8222.000000;0.005154
8221.000000;0.005100
8220.000000;0.005014
8219.000000;0.004812
8218.000000;0.004520
8217.000000;0.004214
8216.000000;0.003956
8215.000000;0.003784
8214.000000;0.003703
8213.000000;0.003660
8212.000000;0.003574
8211.000000;0.003421
8210.000000;0.003248
8209.000000;0.003095
8208.000000;0.002947
8207.000000;0.002781
8206.000000;0.002610
8205.000000;0.002454
8204.000000;0.002314
8203.000000;0.002171
8202.000000;0.001993
8201.000000;0.001750
8200.000000;0.001459
8199.000000;0.001213
8198.000000;0.001091
8197.000000;0.001049
8196.000000;0.000956
8195.000000;0.000735
8194.000000;0.000432
8193.000000;0.000135
8192.000000;-0.000101
8191.000000;-0.000248
8190.000000;-0.000319
8189.000000;-0.000384
8188.000000;-0.000539
8187.000000;-0.000796
8186.000000;-0.001071
8185.000000;-0.001283
8184.000000;-0.001423
8183.000000;-0.001531
8182.000000;-0.001654
8181.000000;-0.001837
8180.000000;-0.002086
8179.000000;-0.002343
8178.000000;-0.002535
8177.000000;-0.002676
8176.000000;-0.002847
8175.000000;-0.003086
8174.000000;-0.003339
8173.000000;-0.003540
8172.000000;-0.003675
8171.000000;-0.003757
8170.000000;-0.003816
8169.000000;-0.003904
8168.000000;-0.004066
8167.000000;-0.004272
8166.000000;-0.004440
8165.000000;-0.004555
8164.000000;-0.004686
8163.000000;-0.004886
8162.000000;-0.005122
8161.000000;-0.005338
8160.000000;-0.005524
8159.000000;-0.005703
8158.000000;-0.005896
8157.000000;-0.006117
8156.000000;-0.006361
8155.000000;-0.006583
8154.000000;-0.006736
8153.000000;-0.006846
8152.000000;-0.006994
8151.000000;-0.007218
8150.000000;-0.007485
8149.000000;-0.007748
8148.000000;-0.007983
8147.000000;-0.008177
8146.000000;-0.008324
8145.000000;-0.008455
8144.000000;-0.008599
8143.000000;-0.008729
8142.000000;-0.008799
8141.000000;-0.008842
8140.000000;-0.008944
8139.000000;-0.009127
8138.000000;-0.009336
8137.000000;-0.009549
8136.000000;-0.009802
8135.000000;-0.010088
8134.000000;-0.010335
8133.000000;-0.010511
8132.000000;-0.010673
8131.000000;-0.010868
8130.000000;-0.011056
8129.000000;-0.011192
8128.000000;-0.011310
8127.000000;-0.011469
8126.000000;-0.011681
8125.000000;-0.011918
8124.000000;-0.012157
8123.000000;-0.012368
8122.000000;-0.012527
8121.000000;-0.012651
8120.000000;-0.012804
8119.000000;-0.013007
8118.000000;-0.013219
8117.000000;-0.013408
8116.000000;-0.013609
8115.000000;-0.013851
8114.000000;-0.014117
8113.000000;-0.014383
8112.000000;-0.014659
8111.000000;-0.014933
8110.000000;-0.015149
8109.000000;-0.015279
8108.000000;-0.015374
8107.000000;-0.015504
8106.000000;-0.015673
8105.000000;-0.015842
8104.000000;-0.015996
8103.000000;-0.016150
8102.000000;-0.016319
8101.000000;-0.016512
8100.000000;-0.016732
8099.000000;-0.016949
8098.000000;-0.017109
8097.000000;-0.017203
8096.000000;-0.017288
8095.000000;-0.017436
8094.000000;-0.017663
8093.000000;-0.017938
8092.000000;-0.018214
8091.000000;-0.018443
8090.000000;-0.018604
8089.000000;-0.018727
8088.000000;-0.018865
8087.000000;-0.019025
8086.000000;-0.019172
8085.000000;-0.019306
8084.000000;-0.019471
8083.000000;-0.019683
8082.000000;-0.019893
8081.000000;-0.020060
8080.000000;-0.020205
8079.000000;-0.020370
8078.000000;-0.020557
8077.000000;-0.020747
8076.000000;-0.020944
8075.000000;-0.021163
8074.000000;-0.021399
8073.000000;-0.021626
8072.000000;-0.021816
8071.000000;-0.021950
8070.000000;-0.022041
8069.000000;-0.022146
8068.000000;-0.022319
8067.000000;-0.022555
8066.000000;-0.022802
8065.000000;-0.023035
8064.000000;-0.023269
8063.000000;-0.023513
8062.000000;-0.023745
8061.000000;-0.023949
8060.000000;-0.024129
8059.000000;-0.024283
8058.000000;-0.024414
8057.000000;-0.024555
8056.000000;-0.024745
8055.000000;-0.024971
8054.000000;-0.025183
8053.000000;-0.025374
8052.000000;-0.025582
8051.000000;-0.025818
8050.000000;-0.026041
8049.000000;-0.026217
8048.000000;-0.026355
8047.000000;-0.026483
8046.000000;-0.026646
8045.000000;-0.026892
8044.000000;-0.027215
8043.000000;-0.027514
8042.000000;-0.027679
8041.000000;-0.027742
8040.000000;-0.027845
8039.000000;-0.028056
8038.000000;-0.028308
8037.000000;-0.028508
8036.000000;-0.028649
8035.000000;-0.028772
8034.000000;-0.028908
8033.000000;-0.029086
8032.000000;-0.029327
8031.000000;-0.029594
8030.000000;-0.029813
8029.000000;-0.029967
8028.000000;-0.030120
8027.000000;-0.030313
8026.000000;-0.030507
8025.000000;-0.030668
8024.000000;-0.030832
8023.000000;-0.031041
8022.000000;-0.031272
8021.000000;-0.031476
8020.000000;-0.031638
8019.000000;-0.031781
8018.000000;-0.031936
8017.000000;-0.032138
8016.000000;-0.032405
8015.000000;-0.032690
8014.000000;-0.032915
8013.000000;-0.033067
8012.000000;-0.033218
8011.000000;-0.033415
8010.000000;-0.033617
8009.000000;-0.033770
8008.000000;-0.033886
8007.000000;-0.034008
8006.000000;-0.034160
8005.000000;-0.034354
8004.000000;-0.034604
8003.000000;-0.034884
8002.000000;-0.035129
8001.000000;-0.035314
8000.000000;-0.035482
7999.000000;-0.035674
7998.000000;-0.035874
7997.000000;-0.036055
7996.000000;-0.036231
7995.000000;-0.036427
7994.000000;-0.036627
7993.000000;-0.036809
7992.000000;-0.036979
7991.000000;-0.037151
7990.000000;-0.037319
7989.000000;-0.037495
7988.000000;-0.037703
7987.000000;-0.037941
7986.000000;-0.038159
7985.000000;-0.038331
7984.000000;-0.038484
7983.000000;-0.038651
7982.000000;-0.038829
7981.000000;-0.039009
7980.000000;-0.039203
7979.000000;-0.039408
7978.000000;-0.039595
7977.000000;-0.039759
7976.000000;-0.039941
7975.000000;-0.040174
7974.000000;-0.040437
7973.000000;-0.040686
7972.000000;-0.040894
7971.000000;-0.041044
7970.000000;-0.041142
7969.000000;-0.041245
7968.000000;-0.041443
7967.000000;-0.041743
7966.000000;-0.042048
7965.000000;-0.042273
7964.000000;-0.042436
7963.000000;-0.042611
7962.000000;-0.042831
7961.000000;-0.043081
7960.000000;-0.043335
7959.000000;-0.043563
7958.000000;-0.043730
7957.000000;-0.043842
7956.000000;-0.043944
7955.000000;-0.044071
7954.000000;-0.044208
7953.000000;-0.044345
7952.000000;-0.044517
7951.000000;-0.044757
7950.000000;-0.045047
7949.000000;-0.045338
7948.000000;-0.045605
7947.000000;-0.045832
7946.000000;-0.046011
7945.000000;-0.046160
7944.000000;-0.046317
7943.000000;-0.046483
7942.000000;-0.046613
7941.000000;-0.046693
7940.000000;-0.046783
7939.000000;-0.046950
7938.000000;-0.047188
7937.000000;-0.047447
7936.000000;-0.047699
7935.000000;-0.047934
7934.000000;-0.048131
7933.000000;-0.048277
7932.000000;-0.048410
7931.000000;-0.048581
7930.000000;-0.048801
7929.000000;-0.049029
7928.000000;-0.049224
7927.000000;-0.049377
7926.000000;-0.049500
7925.000000;-0.049623
7924.000000;-0.049767
7923.000000;-0.049922
7922.000000;-0.050057
7921.000000;-0.050176
7920.000000;-0.050320
7919.000000;-0.050516
7918.000000;-0.050739
7917.000000;-0.050953
7916.000000;-0.051158
7915.000000;-0.051372
7914.000000;-0.051596
7913.000000;-0.051810
7912.000000;-0.052002
7911.000000;-0.052170
7910.000000;-0.052324
7909.000000;-0.052483
7908.000000;-0.052660
7907.000000;-0.052838
7906.000000;-0.052996
7905.000000;-0.053153
7904.000000;-0.053363
7903.000000;-0.053651
7902.000000;-0.053976
7901.000000;-0.054271
7900.000000;-0.054502
7899.000000;-0.054667
7898.000000;-0.054786
7897.000000;-0.054885
7896.000000;-0.054994
7895.000000;-0.055126
7894.000000;-0.055279
7893.000000;-0.055451
7892.000000;-0.055636
7891.000000;-0.055810
7890.000000;-0.055954
7889.000000;-0.056092
7888.000000;-0.056262
7887.000000;-0.056466
7886.000000;-0.056680
7885.000000;-0.056899
7884.000000;-0.057131
7883.000000;-0.057350
7882.000000;-0.057506
7881.000000;-0.057600
7880.000000;-0.057696
7879.000000;-0.057833
7878.000000;-0.057987
7877.000000;-0.058119
7876.000000;-0.058239
7875.000000;-0.058389
7874.000000;-0.058592
7873.000000;-0.058850
7872.000000;-0.059139
7871.000000;-0.059405
7870.000000;-0.059597
7869.000000;-0.059726
7868.000000;-0.059854
7867.000000;-0.060022
7866.000000;-0.060212
7865.000000;-0.060392
7864.000000;-0.060553
7863.000000;-0.060698
7862.000000;-0.060817
7861.000000;-0.060914
7860.000000;-0.061020
7859.000000;-0.061162
7858.000000;-0.061340
7857.000000;-0.061542
7856.000000;-0.061754
7855.000000;-0.061950
7854.000000;-0.062113
7853.000000;-0.062258
7852.000000;-0.062411
7851.000000;-0.062567
7850.000000;-0.062700
7849.000000;-0.062817
7848.000000;-0.062958
7847.000000;-0.063125
7846.000000;-0.063278
7845.000000;-0.063397
7844.000000;-0.063524
7843.000000;-0.063713
7842.000000;-0.063970
7841.000000;-0.064256
7840.000000;-0.064518
7839.000000;-0.064714
7838.000000;-0.064834
7837.000000;-0.064912
7836.000000;-0.065000
7835.000000;-0.065129
7834.000000;-0.065304
7833.000000;-0.065526
7832.000000;-0.065774
7831.000000;-0.065983
7830.000000;-0.066103
7829.000000;-0.066162
7828.000000;-0.066240
7827.000000;-0.066365
7826.000000;-0.066497
7825.000000;-0.066606
7824.000000;-0.066717
7823.000000;-0.066859
7822.000000;-0.067022
7821.000000;-0.067182
7820.000000;-0.067338
7819.000000;-0.067493
7818.000000;-0.067641
7817.000000;-0.067786
7816.000000;-0.067942
7815.000000;-0.068111
7814.000000;-0.068274
7813.000000;-0.068421
7812.000000;-0.068565
7811.000000;-0.068723
7810.000000;-0.068897
7809.000000;-0.069091
7808.000000;-0.069288
7807.000000;-0.069450
7806.000000;-0.069551
7805.000000;-0.069624
7804.000000;-0.069722
7803.000000;-0.069856
7802.000000;-0.069988
7801.000000;-0.070093
7800.000000;-0.070185
7799.000000;-0.070285
7798.000000;-0.070403
7797.000000;-0.070556
7796.000000;-0.070742
7795.000000;-0.070919
7794.000000;-0.071043
7793.000000;-0.071121
7792.000000;-0.071198
7791.000000;-0.071288
7790.000000;-0.071382
7789.000000;-0.071499
7788.000000;-0.071684
7787.000000;-0.071928
7786.000000;-0.072167
7785.000000;-0.072354
7784.000000;-0.072494
7783.000000;-0.072612
7782.000000;-0.072722
7781.000000;-0.072839
7780.000000;-0.072966
7779.000000;-0.073078
7778.000000;-0.073157
7777.000000;-0.073237
7776.000000;-0.073361
7775.000000;-0.073507
7774.000000;-0.073618
7773.000000;-0.073693
7772.000000;-0.073791
7771.000000;-0.073926
7770.000000;-0.074051
7769.000000;-0.074137
7768.000000;-0.074219
7767.000000;-0.074330
7766.000000;-0.074462
7765.000000;-0.074600
7764.000000;-0.074750
7763.000000;-0.074906
7762.000000;-0.075042
7761.000000;-0.075158
7760.000000;-0.075283
7759.000000;-0.075416
7758.000000;-0.075519
7757.000000;-0.075579
7756.000000;-0.075631
7755.000000;-0.075716
7754.000000;-0.075841
7753.000000;-0.076004
7752.000000;-0.076209
7751.000000;-0.076427
7750.000000;-0.076593
7749.000000;-0.076671
7748.000000;-0.076686
7747.000000;-0.076696
7746.000000;-0.076740
7745.000000;-0.076829
7744.000000;-0.076947
7743.000000;-0.077056
7742.000000;-0.077134
7741.000000;-0.077201
7740.000000;-0.077284
7739.000000;-0.077367
7738.000000;-0.077420
7737.000000;-0.077471
7736.000000;-0.077576
7735.000000;-0.077735
7734.000000;-0.077892
7733.000000;-0.078014
7732.000000;-0.078117
7731.000000;-0.078215
7730.000000;-0.078286
7729.000000;-0.078324
7728.000000;-0.078359
7727.000000;-0.078422
7726.000000;-0.078518
7725.000000;-0.078642
7724.000000;-0.078781
7723.000000;-0.078908
7722.000000;-0.079005
7721.000000;-0.079087
7720.000000;-0.079170
7719.000000;-0.079230
7718.000000;-0.079250
7717.000000;-0.079282
7716.000000;-0.079387
7715.000000;-0.079532
7714.000000;-0.079629
7713.000000;-0.079662
7712.000000;-0.079704
7711.000000;-0.079795
7710.000000;-0.079893
7709.000000;-0.079963
7708.000000;-0.080029
7707.000000;-0.080119
7706.000000;-0.080221
7705.000000;-0.080325
7704.000000;-0.080453
7703.000000;-0.080608
7702.000000;-0.080755
7701.000000;-0.080858
7700.000000;-0.080908
7699.000000;-0.080898
7698.000000;-0.080835
7697.000000;-0.080781
7696.000000;-0.080822
7695.000000;-0.080961
7694.000000;-0.081112
7693.000000;-0.081207
7692.000000;-0.081258
7691.000000;-0.081299
7690.000000;-0.081335
7689.000000;-0.081369
7688.000000;-0.081421
7687.000000;-0.081499
7686.000000;-0.081578
7685.000000;-0.081642
7684.000000;-0.081693
7683.000000;-0.081711
7682.000000;-0.081675
7681.000000;-0.081624
7680.000000;-0.081641
7679.000000;-0.081751
7678.000000;-0.081882
7677.000000;-0.081962
7676.000000;-0.081988
7675.000000;-0.081994
7674.000000;-0.081991
7673.000000;-0.081988
7672.000000;-0.082005
7671.000000;-0.082048
7670.000000;-0.082089
7669.000000;-0.082120
7668.000000;-0.082164
7667.000000;-0.082230
7666.000000;-0.082295
7665.000000;-0.082349
7664.000000;-0.082407
7663.000000;-0.082471
7662.000000;-0.082515
7661.000000;-0.082537
7660.000000;-0.082552
7659.000000;-0.082546
7658.000000;-0.082478
7657.000000;-0.082363
7656.000000;-0.082291
7655.000000;-0.082329
7654.000000;-0.082447
7653.000000;-0.082564
7652.000000;-0.082635
7651.000000;-0.082653
7650.000000;-0.082634
7649.000000;-0.082608
7648.000000;-0.082596
7647.000000;-0.082589
7646.000000;-0.082560
7645.000000;-0.082518
7644.000000;-0.082498
7643.000000;-0.082513
7642.000000;-0.082544
7641.000000;-0.082571
7640.000000;-0.082584
7639.000000;-0.082550
7638.000000;-0.082446
7637.000000;-0.082319
7636.000000;-0.082250
7635.000000;-0.082256
7634.000000;-0.082282
7633.000000;-0.082292
7632.000000;-0.082298
7631.000000;-0.082305
7630.000000;-0.082297
7629.000000;-0.082292
7628.000000;-0.082326
7627.000000;-0.082385
7626.000000;-0.082392
7625.000000;-0.082321
7624.000000;-0.082225
7623.000000;-0.082158
7622.000000;-0.082114
7621.000000;-0.082080
7620.000000;-0.082073
7619.000000;-0.082090
7618.000000;-0.082087
7617.000000;-0.082031
7616.000000;-0.081942
7615.000000;-0.081849
7614.000000;-0.081763
7613.000000;-0.081701
7612.000000;-0.081683
7611.000000;-0.081686
7610.000000;-0.081645
7609.000000;-0.081547
7608.000000;-0.081454
7607.000000;-0.081416
7606.000000;-0.081405
7605.000000;-0.081363
7604.000000;-0.081273
7603.000000;-0.081150
7602.000000;-0.081020
7601.000000;-0.080921
7600.000000;-0.080889
7599.000000;-0.080903
7598.000000;-0.080901
7597.000000;-0.080856
7596.000000;-0.080796
7595.000000;-0.080745
7594.000000;-0.080681
7593.000000;-0.080593
7592.000000;-0.080498
7591.000000;-0.080407
7590.000000;-0.080303
7589.000000;-0.080184
7588.000000;-0.080079
7587.000000;-0.079997
7586.000000;-0.079920
7585.000000;-0.079836
7584.000000;-0.079744
7583.000000;-0.079622
7582.000000;-0.079450
7581.000000;-0.079268
7580.000000;-0.079145
7579.000000;-0.079085
7578.000000;-0.079020
7577.000000;-0.078911
7576.000000;-0.078781
7575.000000;-0.078645
7574.000000;-0.078489
7573.000000;-0.078330
7572.000000;-0.078226
7571.000000;-0.078190
7570.000000;-0.078155
7569.000000;-0.078073
7568.000000;-0.077964
7567.000000;-0.077854
7566.000000;-0.077732
7565.000000;-0.077590
7564.000000;-0.077455
7563.000000;-0.077331
7562.000000;-0.077181
7561.000000;-0.076994
7560.000000;-0.076810
7559.000000;-0.076666
7558.000000;-0.076553
7557.000000;-0.076456
7556.000000;-0.076380
7555.000000;-0.076299
7554.000000;-0.076152
7553.000000;-0.075919
7552.000000;-0.075653
7551.000000;-0.075408
7550.000000;-0.075201
7549.000000;-0.075043
7548.000000;-0.074952
7547.000000;-0.074897
7546.000000;-0.074804
7545.000000;-0.074649
7544.000000;-0.074485
7543.000000;-0.074349
7542.000000;-0.074202
7541.000000;-0.074008
7540.000000;-0.073797
7539.000000;-0.073619
7538.000000;-0.073474
7537.000000;-0.073332
7536.000000;-0.073178
7535.000000;-0.072999
7534.000000;-0.072778
7533.000000;-0.072541
7532.000000;-0.072338
7531.000000;-0.072174
7530.000000;-0.071993
7529.000000;-0.071761
7528.000000;-0.071511
7527.000000;-0.071289
7526.000000;-0.071098
7525.000000;-0.070925
7524.000000;-0.070771
7523.000000;-0.070622
7522.000000;-0.070453
7521.000000;-0.070275
7520.000000;-0.070125
7519.000000;-0.069992
7518.000000;-0.069818
7517.000000;-0.069589
7516.000000;-0.069360
7515.000000;-0.069159
7514.000000;-0.068952
7513.000000;-0.068708
7512.000000;-0.068451
7511.000000;-0.068205
7510.000000;-0.067949
7509.000000;-0.067677
7508.000000;-0.067419
7507.000000;-0.067182
7506.000000;-0.066940
7505.000000;-0.066690
7504.000000;-0.066476
7503.000000;-0.066318
7502.000000;-0.066178
7501.000000;-0.066023
7500.000000;-0.065863
7499.000000;-0.065694
7498.000000;-0.065486
7497.000000;-0.065237
7496.000000;-0.064987
7495.000000;-0.064742
7494.000000;-0.064458
7493.000000;-0.064135
7492.000000;-0.063836
7491.000000;-0.063621
7490.000000;-0.063327
7489.000000;-0.063138
7488.000000;-0.062941
7487.000000;-0.062730
7486.000000;-0.062494
7485.000000;-0.062237
7484.000000;-0.061986
7483.000000;-0.061735
7482.000000;-0.061463
7481.000000;-0.061192
7480.000000;-0.060981
7479.000000;-0.060820
7478.000000;-0.060622
7477.000000;-0.060353
7476.000000;-0.060074
7475.000000;-0.059837
7474.000000;-0.059621
7473.000000;-0.059404
7472.000000;-0.059208
7471.000000;-0.059033
7470.000000;-0.058825
7469.000000;-0.058559
7468.000000;-0.058284
7467.000000;-0.058038
7466.000000;-0.057793
7465.000000;-0.057522
7464.000000;-0.057246
7463.000000;-0.056974
7462.000000;-0.056681
7461.000000;-0.056364
7460.000000;-0.056063
7459.000000;-0.055785
7458.000000;-0.055491
7457.000000;-0.055185
7456.000000;-0.054932
7455.000000;-0.054751
7454.000000;-0.054577
7453.000000;-0.054358
7452.000000;-0.054120
7451.000000;-0.053901
7450.000000;-0.053700
7449.000000;-0.053511
7448.000000;-0.053350
7447.000000;-0.053191
7446.000000;-0.052976
7445.000000;-0.052699
7444.000000;-0.052418
7443.000000;-0.052148
7442.000000;-0.051845
7441.000000;-0.051511
7440.000000;-0.051215
7439.000000;-0.050969
7438.000000;-0.050690
7437.000000;-0.050351
7436.000000;-0.050046
7435.000000;-0.049847
7434.000000;-0.049696
7433.000000;-0.049514
7432.000000;-0.049307
7431.000000;-0.049111
7430.000000;-0.048899
7429.000000;-0.048632
7428.000000;-0.048324
7427.000000;-0.048017
7426.000000;-0.047728
7425.000000;-0.047467
7424.000000;-0.047234
7423.000000;-0.046953
7422.000000;-0.046514
7421.000000;-0.045932
7420.000000;-0.045375
7419.000000;-0.044972
7418.000000;-0.044644
7417.000000;-0.044238
7416.000000;-0.043732
7415.000000;-0.043228
7414.000000;-0.042808
7413.000000;-0.042488
7412.000000;-0.042260
7411.000000;-0.042102
7410.000000;-0.041973
7409.000000;-0.041837
7408.000000;-0.041645
7407.000000;-0.041340
7406.000000;-0.040959
7405.000000;-0.040665
7404.000000;-0.040554
7403.000000;-0.040456
7402.000000;-0.040090
7401.000000;-0.039421
7400.000000;-0.038723
7399.000000;-0.038248
7398.000000;-0.037988
7397.000000;-0.037774
7396.000000;-0.037450
7395.000000;-0.036964
7394.000000;-0.036453
7393.000000;-0.036124
7392.000000;-0.035936
7391.000000;-0.035591
7390.000000;-0.034929
7389.000000;-0.034147
7388.000000;-0.033486
7387.000000;-0.032852
7386.000000;-0.032036
7385.000000;-0.031144
7384.000000;-0.030422
7383.000000;-0.029766
7382.000000;-0.028897
7381.000000;-0.027968
7380.000000;-0.027454
7379.000000;-0.027260
7378.000000;-0.026517
7377.000000;-0.024765
7376.000000;-0.022867
7375.000000;-0.022119
7374.000000;-0.022663
7373.000000;-0.023341
7372.000000;-0.023120
7371.000000;-0.022166
7370.000000;-0.021458
7369.000000;-0.021722
7368.000000;-0.022797
7367.000000;-0.023782
7366.000000;-0.023825
7365.000000;-0.022966
7364.000000;-0.022057
7363.000000;-0.021789
7362.000000;-0.022072
7361.000000;-0.022396
7360.000000;-0.022406
7359.000000;-0.021888
7358.000000;-0.020547
7357.000000;-0.018516
7356.000000;-0.016863
7355.000000;-0.016691
7354.000000;-0.017666
7353.000000;-0.018221
7352.000000;-0.017348
7351.000000;-0.015531
7350.000000;-0.013957
7349.000000;-0.013349
7348.000000;-0.013540
7347.000000;-0.013615
7346.000000;-0.012506
7345.000000;-0.010061
7344.000000;-0.007366
7343.000000;-0.005368
7342.000000;-0.003431
7341.000000;-0.000354
7340.000000;0.003399
7339.000000;0.005791
7338.000000;0.005835
7337.000000;0.004808
7336.000000;0.004233
7335.000000;0.003842
7334.000000;0.002364
7333.000000;-0.000403
7332.000000;-0.003306
7331.000000;-0.005119
7330.000000;-0.005341
7329.000000;-0.004392
7328.000000;-0.003564
7327.000000;-0.003884
7326.000000;-0.004494
7325.000000;-0.003302
7324.000000;0.000123
7323.000000;0.003498
7322.000000;0.004570
7321.000000;0.003823
7320.000000;0.003413
7319.000000;0.004112
7318.000000;0.004568
7317.000000;0.003361
7316.000000;0.000696
7315.000000;-0.002049
7314.000000;-0.003643
7313.000000;-0.003712
7312.000000;-0.002834
7311.000000;-0.002033
7310.000000;-0.001480
7309.000000;-0.000004
7308.000000;0.003190
7307.000000;0.006823
7306.000000;0.008773
7305.000000;0.008848
7304.000000;0.009052
7303.000000;0.010861
7302.000000;0.013409
7301.000000;0.014820
7300.000000;0.014364
7299.000000;0.012885
7298.000000;0.011773
7297.000000;0.012126
7296.000000;0.014181
7295.000000;0.016719
7294.000000;0.017789
7293.000000;0.016887
7292.000000;0.015966
7291.000000;0.017284
7290.000000;0.020579
7289.000000;0.023370
7288.000000;0.023794
7287.000000;0.022358
7286.000000;0.020903
7285.000000;0.020541
7284.000000;0.020905
7283.000000;0.020978
7282.000000;0.020258
7281.000000;0.019172
7280.000000;0.018537
7279.000000;0.018817
7278.000000;0.019787
7277.000000;0.020895
7276.000000;0.021910
7275.000000;0.022987
7274.000000;0.024253
7273.000000;0.025603
7272.000000;0.026901
7271.000000;0.028192
7270.000000;0.029681
7269.000000;0.031430
7268.000000;0.033202
7267.000000;0.034714
7266.000000;0.036046
7265.000000;0.037670
7264.000000;0.039913
7263.000000;0.042437
7262.000000;0.044468
7261.000000;0.045665
7260.000000;0.046542
7259.000000;0.047853
7258.000000;0.049777
7257.000000;0.051926
7256.000000;0.054054
7255.000000;0.056373
7254.000000;0.059020
7253.000000;0.061592
7252.000000;0.063565
7251.000000;0.064998
7250.000000;0.066496
7249.000000;0.068467
7248.000000;0.070788
7247.000000;0.073275
7246.000000;0.076322
7245.000000;0.080740
7244.000000;0.086511
7243.000000;0.092142
7242.000000;0.096041
7241.000000;0.098424
7240.000000;0.101084
7239.000000;0.105095
7238.000000;0.109445
7237.000000;0.112510
7236.000000;0.114398
7235.000000;0.117033
7234.000000;0.121761
7233.000000;0.127431
7232.000000;0.131446
7231.000000;0.132676
7230.000000;0.132800
7229.000000;0.134493
7228.000000;0.138628
7227.000000;0.143506
7226.000000;0.146866
7225.000000;0.148375
7224.000000;0.149590
7223.000000;0.151850
7222.000000;0.154900
7221.000000;0.157468
7220.000000;0.158747
7219.000000;0.159236
7218.000000;0.160323
7217.000000;0.163057
7216.000000;0.167175
7215.000000;0.171389
7214.000000;0.174661
7213.000000;0.177126
7212.000000;0.179712
7211.000000;0.183000
7210.000000;0.186664
7209.000000;0.190107
7208.000000;0.193391
7207.000000;0.197170
7206.000000;0.201787
7205.000000;0.206832
7204.000000;0.211604
7203.000000;0.215849
7202.000000;0.219968
7201.000000;0.224465
7200.000000;0.229320
7199.000000;0.234051
7198.000000;0.238357
7197.000000;0.242470
7196.000000;0.246750
7195.000000;0.251092
7194.000000;0.255015
7193.000000;0.258375
7192.000000;0.261689
7191.000000;0.265529
7190.000000;0.269879
7189.000000;0.274367
7188.000000;0.278937
7187.000000;0.283876
7186.000000;0.289320
7185.000000;0.295214
7184.000000;0.301690
7183.000000;0.308942
7182.000000;0.316552
7181.000000;0.323648
7180.000000;0.330056
7179.000000;0.336666
7178.000000;0.344131
7177.000000;0.351701
7176.000000;0.357937
7175.000000;0.362410
7174.000000;0.366129
7173.000000;0.370334
7172.000000;0.375382
7171.000000;0.380890
7170.000000;0.386399
7169.000000;0.391701
7168.000000;0.397010
7167.000000;0.402832
7166.000000;0.409485
7165.000000;0.416794
7164.000000;0.424532
7163.000000;0.432787
7162.000000;0.441349
7161.000000;0.449255
7160.000000;0.455745
7159.000000;0.461413
7158.000000;0.467511
7157.000000;0.474141
7156.000000;0.479978
7155.000000;0.484088
7154.000000;0.487291
7153.000000;0.491120
7152.000000;0.495947
7151.000000;0.500834
7150.000000;0.505001
7149.000000;0.508775
7148.000000;0.513214
7147.000000;0.519095
7146.000000;0.526224
7145.000000;0.533708
7144.000000;0.540932
7143.000000;0.548148
7142.000000;0.556024
7141.000000;0.564663
7140.000000;0.573234
7139.000000;0.580836
7138.000000;0.587624
7137.000000;0.594610
7136.000000;0.602240
7135.000000;0.609621
7134.000000;0.615504
7133.000000;0.619818
7132.000000;0.623774
7131.000000;0.628424
7130.000000;0.633606
7129.000000;0.638445
7128.000000;0.642558
7127.000000;0.646381
7126.000000;0.650483
7125.000000;0.655086
7124.000000;0.660180
7123.000000;0.665660
7122.000000;0.671428
7121.000000;0.677695
7120.000000;0.685022
7119.000000;0.693544
7118.000000;0.702178
7117.000000;0.709361
7116.000000;0.714849
7115.000000;0.720117
7114.000000;0.726445
7113.000000;0.733246
7112.000000;0.738946
7111.000000;0.743122
7110.000000;0.746929
7109.000000;0.751459
7108.000000;0.756528
7107.000000;0.761284
7106.000000;0.765380
7105.000000;0.769186
7104.000000;0.773249
7103.000000;0.777880
7102.000000;0.782981
7101.000000;0.788101
7100.000000;0.792902
7099.000000;0.797504
7098.000000;0.802259
7097.000000;0.807308
7096.000000;0.812414
7095.000000;0.817216
7094.000000;0.821649
7093.000000;0.826026
7092.000000;0.830695
7091.000000;0.835597
7090.000000;0.840176
7089.000000;0.843868
7088.000000;0.846764
7087.000000;0.849527
7086.000000;0.852605
7085.000000;0.855808
7084.000000;0.858846
7083.000000;0.861908
7082.000000;0.865340
7081.000000;0.869016
7080.000000;0.872497
7079.000000;0.875720
7078.000000;0.879095
7077.000000;0.882887
7076.000000;0.886809
7075.000000;0.890406
7074.000000;0.893683
7073.000000;0.897075
7072.000000;0.900836
7071.000000;0.904736
7070.000000;0.908387
7069.000000;0.911711
7068.000000;0.914984
7067.000000;0.918391
7066.000000;0.921686
7065.000000;0.924470
7064.000000;0.926713
7063.000000;0.928784
7062.000000;0.930915
7061.000000;0.932937
7060.000000;0.934643
7059.000000;0.936113
7058.000000;0.937532
7057.000000;0.939007
7056.000000;0.940698
7055.000000;0.942789
7054.000000;0.945218
7053.000000;0.947701
7052.000000;0.950159
7051.000000;0.952888
7050.000000;0.956020
7049.000000;0.959115
7048.000000;0.961655
7047.000000;0.963729
7046.000000;0.965795
7045.000000;0.967997
7044.000000;0.970108
7043.000000;0.971985
7042.000000;0.973669
7041.000000;0.975148
7040.000000;0.976410
7039.000000;0.977669
7038.000000;0.979193
7037.000000;0.980916
7036.000000;0.982486
7035.000000;0.983661
7034.000000;0.984448
7033.000000;0.984967
7032.000000;0.985408
7031.000000;0.986045
7030.000000;0.987044
7029.000000;0.988284
7028.000000;0.989572
7027.000000;0.990922
7026.000000;0.992437
7025.000000;0.994050
7024.000000;0.995592
7023.000000;0.996970
7022.000000;0.998114
7021.000000;0.998959
7020.000000;0.999669
7019.000000;1.000637
7018.000000;1.002016
7017.000000;1.003490
7016.000000;1.004745
7015.000000;1.005883
7014.000000;1.007015
7013.000000;1.007782
7012.000000;1.007772
7011.000000;1.007243
7010.000000;1.006952
7009.000000;1.007363
7008.000000;1.008376
7007.000000;1.009677
7006.000000;1.010969
7005.000000;1.011990
7004.000000;1.012672
7003.000000;1.013234
7002.000000;1.013838
7001.000000;1.014300
7000.000000;1.014437
6999.000000;1.014514
6998.000000;1.014942
6997.000000;1.015684
6996.000000;1.016341
6995.000000;1.016673
6994.000000;1.016680
6993.000000;1.016353
6992.000000;1.015763
6991.000000;1.015259
6990.000000;1.015144
6989.000000;1.015297
6988.000000;1.015498
6987.000000;1.015953
6986.000000;1.017004
6985.000000;1.018410
6984.000000;1.019449
6983.000000;1.019758
6982.000000;1.019646
6981.000000;1.019584
6980.000000;1.019796
6979.000000;1.020271
6978.000000;1.020754
6977.000000;1.020759
6976.000000;1.019999
6975.000000;1.018884
6974.000000;1.018211
6973.000000;1.018317
6972.000000;1.018853
6971.000000;1.019353
6970.000000;1.019636
6969.000000;1.019640
6968.000000;1.019287
6967.000000;1.018671
6966.000000;1.018060
6965.000000;1.017577
6964.000000;1.017079
6963.000000;1.016376
6962.000000;1.015409
6961.000000;1.014271
6960.000000;1.013281
6959.000000;1.012861
6958.000000;1.013086
6957.000000;1.013458
6956.000000;1.013429
6955.000000;1.013053
6954.000000;1.012785
6953.000000;1.012703
6952.000000;1.012392
6951.000000;1.011635
6950.000000;1.010767
6949.000000;1.010171
6948.000000;1.009759
6947.000000;1.009189
6946.000000;1.008387
6945.000000;1.007636
6944.000000;1.007221
6943.000000;1.007130
6942.000000;1.007102
6941.000000;1.006928
6940.000000;1.006665
6939.000000;1.006458
6938.000000;1.006215
6937.000000;1.005702
6936.000000;1.004974
6935.000000;1.004393
6934.000000;1.004077
6933.000000;1.003638
6932.000000;1.002660
6931.000000;1.001213
6930.000000;0.999680
6929.000000;0.998353
6928.000000;0.997384
6927.000000;0.996828
6926.000000;0.996436
6925.000000;0.995674
6924.000000;0.994318
6923.000000;0.992855
6922.000000;0.991937
6921.000000;0.991619
6920.000000;0.991465
6919.000000;0.991181
6918.000000;0.990750
6917.000000;0.990173
6916.000000;0.989519
6915.000000;0.989071
6914.000000;0.989006
6913.000000;0.989019
6912.000000;0.988625
6911.000000;0.987760
6910.000000;0.986734
6909.000000;0.985665
6908.000000;0.984366
6907.000000;0.982774
6906.000000;0.981139
6905.000000;0.979752
6904.000000;0.978744
6903.000000;0.978132
6902.000000;0.977820
6901.000000;0.977534
6900.000000;0.976994
6899.000000;0.976146
6898.000000;0.975104
6897.000000;0.974000
6896.000000;0.973031
6895.000000;0.972430
6894.000000;0.972172
6893.000000;0.971888
6892.000000;0.971251
6891.000000;0.970294
6890.000000;0.969227
6889.000000;0.968193
6888.000000;0.967371
6887.000000;0.966965
6886.000000;0.966799
6885.000000;0.966245
6884.000000;0.964911
6883.000000;0.963139
6882.000000;0.961520
6881.000000;0.960203
6880.000000;0.959032
6879.000000;0.958020
6878.000000;0.957212
6877.000000;0.956339
6876.000000;0.955135
6875.000000;0.953808
6874.000000;0.952740
6873.000000;0.951845
6872.000000;0.950691
6871.000000;0.949207
6870.000000;0.947801
6869.000000;0.946777
6868.000000;0.946046
6867.000000;0.945422
6866.000000;0.944857
6865.000000;0.944323
6864.000000;0.943747
6863.000000;0.943110
6862.000000;0.942415
6861.000000;0.941569
6860.000000;0.940487
6859.000000;0.939248
6858.000000;0.937982
6857.000000;0.936684
6856.000000;0.935327
6855.000000;0.933995
6854.000000;0.932743
6853.000000;0.931470
6852.000000;0.930102
6851.000000;0.928755
6850.000000;0.927506
6849.000000;0.926211
6848.000000;0.924769
6847.000000;0.923316
6846.000000;0.921893
6845.000000;0.920221
6844.000000;0.918110
6843.000000;0.915887
6842.000000;0.914035
6841.000000;0.912587
6840.000000;0.911207
6839.000000;0.909685
6838.000000;0.908027
6837.000000;0.906225
6836.000000;0.904311
6835.000000;0.902493
6834.000000;0.900919
6833.000000;0.899427
6832.000000;0.897760
6831.000000;0.895878
6830.000000;0.893789
6829.000000;0.891341
6828.000000;0.888564
6827.000000;0.885959
6826.000000;0.883996
6825.000000;0.882468
6824.000000;0.880743
6823.000000;0.878542
6822.000000;0.876076
6821.000000;0.873564
6820.000000;0.871048
6819.000000;0.868620
6818.000000;0.866376
6817.000000;0.864191
6816.000000;0.861875
6815.000000;0.859526
6814.000000;0.857379
6813.000000;0.855346
6812.000000;0.853085
6811.000000;0.850509
6810.000000;0.847881
6809.000000;0.845382
6808.000000;0.842914
6807.000000;0.840351
6806.000000;0.837688
6805.000000;0.834904
6804.000000;0.831984
6803.000000;0.829086
6802.000000;0.826455
6801.000000;0.824138
6800.000000;0.821969
6799.000000;0.819799
6798.000000;0.817541
6797.000000;0.815065
6796.000000;0.812288
6795.000000;0.809368
6794.000000;0.806566
6793.000000;0.803923
6792.000000;0.801254
6791.000000;0.798443
6790.000000;0.795574
6789.000000;0.792771
6788.000000;0.790058
6787.000000;0.787336
6786.000000;0.784399
6785.000000;0.781084
6784.000000;0.777542
6783.000000;0.774230
6782.000000;0.771440
6781.000000;0.768961
6780.000000;0.766364
6779.000000;0.763490
6778.000000;0.760485
6777.000000;0.757509
6776.000000;0.754623
6775.000000;0.751839
6774.000000;0.749082
6773.000000;0.746200
6772.000000;0.743210
6771.000000;0.740358
6770.000000;0.737736
6769.000000;0.735041
6768.000000;0.731951
6767.000000;0.728580
6766.000000;0.725302
6765.000000;0.722268
6764.000000;0.719377
6763.000000;0.716573
6762.000000;0.713862
6761.000000;0.711120
6760.000000;0.708192
6759.000000;0.705137
6758.000000;0.702139
6757.000000;0.699223
6756.000000;0.696275
6755.000000;0.693290
6754.000000;0.690335
6753.000000;0.687365
6752.000000;0.684319
6751.000000;0.681309
6750.000000;0.678468
6749.000000;0.675682
6748.000000;0.672737
6747.000000;0.669676
6746.000000;0.666744
6745.000000;0.663985
6744.000000;0.661159
6743.000000;0.658070
6742.000000;0.654774
6741.000000;0.651461
6740.000000;0.648306
6739.000000;0.645428
6738.000000;0.642800
6737.000000;0.640189
6736.000000;0.637344
6735.000000;0.634253
6734.000000;0.631092
6733.000000;0.627977
6732.000000;0.624928
6731.000000;0.621996
6730.000000;0.619245
6729.000000;0.616629
6728.000000;0.614039
6727.000000;0.611435
6726.000000;0.608807
6725.000000;0.606080
6724.000000;0.603205
6723.000000;0.600283
6722.000000;0.597430
6721.000000;0.594602
6720.000000;0.591708
6719.000000;0.588821
6718.000000;0.586066
6717.000000;0.583378
6716.000000;0.580560
6715.000000;0.577549
6714.000000;0.574450
6713.000000;0.571350
6712.000000;0.568278
6711.000000;0.565302
6710.000000;0.562463
6709.000000;0.559679
6708.000000;0.556875
6707.000000;0.554150
6706.000000;0.551670
6705.000000;0.549310
6704.000000;0.546800
6703.000000;0.544059
6702.000000;0.541190
6701.000000;0.538263
6700.000000;0.535292
6699.000000;0.532243
6698.000000;0.529267
6697.000000;0.526211
6696.000000;0.523336
6695.000000;0.520693
6694.000000;0.518175
6693.000000;0.515730
6692.000000;0.513177
6691.000000;0.510516
6690.000000;0.507808
6689.000000;0.505029
6688.000000;0.502112
6687.000000;0.499168
6686.000000;0.496422
6685.000000;0.493936
6684.000000;0.491537
6683.000000;0.489051
6682.000000;0.486455
6681.000000;0.483805
6680.000000;0.481138
6679.000000;0.478487
6678.000000;0.475865
6677.000000;0.473221
6676.000000;0.470509
6675.000000;0.467774
6674.000000;0.465098
6673.000000;0.462469
6672.000000;0.459826
6671.000000;0.457188
6670.000000;0.454610
6669.000000;0.452052
6668.000000;0.449426
6667.000000;0.446749
6666.000000;0.444135
6665.000000;0.441618
6664.000000;0.439121
6663.000000;0.436584
6662.000000;0.434009
6661.000000;0.431407
6660.000000;0.428784
6659.000000;0.426192
6658.000000;0.423688
6657.000000;0.421254
6656.000000;0.418843
6655.000000;0.416467
6654.000000;0.414149
6653.000000;0.411833
6652.000000;0.409441
6651.000000;0.406998
6650.000000;0.404575
6649.000000;0.402154
6648.000000;0.399660
6647.000000;0.397102
6646.000000;0.394562
6645.000000;0.392074
6644.000000;0.389625
6643.000000;0.387221
6642.000000;0.384860
6641.000000;0.382465
6640.000000;0.379964
6639.000000;0.377422
6638.000000;0.374963
6637.000000;0.372595
6636.000000;0.370224
6635.000000;0.367825
6634.000000;0.365475
6633.000000;0.363217
6632.000000;0.361005
6631.000000;0.358777
6630.000000;0.356499
6629.000000;0.354132
6628.000000;0.351674
6627.000000;0.349222
6626.000000;0.346904
6625.000000;0.344725
6624.000000;0.342569
6623.000000;0.340327
6622.000000;0.337978
6621.000000;0.335562
6620.000000;0.333163
6619.000000;0.330884
6618.000000;0.328754
6617.000000;0.326671
6616.000000;0.324528
6615.000000;0.322350
6614.000000;0.320215
6613.000000;0.318093
6612.000000;0.315894
6611.000000;0.313643
6610.000000;0.311461
6609.000000;0.309373
6608.000000;0.307250
6607.000000;0.304982
6606.000000;0.302606
6605.000000;0.300234
6604.000000;0.297947
6603.000000;0.295764
6602.000000;0.293658
6601.000000;0.291568
6600.000000;0.289453
6599.000000;0.287335
6598.000000;0.285250
6597.000000;0.283179
6596.000000;0.281096
6595.000000;0.279037
6594.000000;0.277062
6593.000000;0.275150
6592.000000;0.273217
6591.000000;0.271214
6590.000000;0.269153
6589.000000;0.267048
6588.000000;0.264909
6587.000000;0.262770
6586.000000;0.260669
6585.000000;0.258612
6584.000000;0.256598
6583.000000;0.254634
6582.000000;0.252685
6581.000000;0.250657
6580.000000;0.248516
6579.000000;0.246363
6578.000000;0.244317
6577.000000;0.242364
6576.000000;0.240401
6575.000000;0.238405
6574.000000;0.236451
6573.000000;0.234599
6572.000000;0.232827
6571.000000;0.231080
6570.000000;0.229296
6569.000000;0.227416
6568.000000;0.225437
6567.000000;0.223427
6566.000000;0.221435
6565.000000;0.219425
6564.000000;0.217366
6563.000000;0.215337
6562.000000;0.213444
6561.000000;0.211675
6560.000000;0.209930
6559.000000;0.208160
6558.000000;0.206370
6557.000000;0.204542
6556.000000;0.202653
6555.000000;0.200751
6554.000000;0.198913
6553.000000;0.197123
6552.000000;0.195309
6551.000000;0.193472
6550.000000;0.191680
6549.000000;0.189944
6548.000000;0.188197
6547.000000;0.186401
6546.000000;0.184577
6545.000000;0.182735
6544.000000;0.180866
6543.000000;0.179006
6542.000000;0.177213
6541.000000;0.175470
6540.000000;0.173703
6539.000000;0.171901
6538.000000;0.170132
6537.000000;0.168434
6536.000000;0.166778
6535.000000;0.165135
6534.000000;0.163506
6533.000000;0.161876
6532.000000;0.160198
6531.000000;0.158466
6530.000000;0.156729
6529.000000;0.155013
6528.000000;0.153296
6527.000000;0.151569
6526.000000;0.149859
6525.000000;0.148193
6524.000000;0.146568
6523.000000;0.144971
6522.000000;0.143383
6521.000000;0.141768
6520.000000;0.140112
6519.000000;0.138444
6518.000000;0.136796
6517.000000;0.135159
6516.000000;0.133525
6515.000000;0.131936
6514.000000;0.130414
6513.000000;0.128900
6512.000000;0.127331
6511.000000;0.125744
6510.000000;0.124216
6509.000000;0.122722
6508.000000;0.121159
6507.000000;0.119498
6506.000000;0.117814
6505.000000;0.116176
6504.000000;0.114595
6503.000000;0.113080
6502.000000;0.111635
6501.000000;0.110197
6500.000000;0.108672
6499.000000;0.107053
6498.000000;0.105435
6497.000000;0.103882
6496.000000;0.102367
6495.000000;0.100845
6494.000000;0.099335
6493.000000;0.097875
6492.000000;0.096465
6491.000000;0.095078
6490.000000;0.093683
6489.000000;0.092234
6488.000000;0.090693
6487.000000;0.089093
6486.000000;0.087520
6485.000000;0.086031
6484.000000;0.084612
6483.000000;0.083231
6482.000000;0.081864
6481.000000;0.080478
6480.000000;0.079044
6479.000000;0.077580
6478.000000;0.076150
6477.000000;0.074790
6476.000000;0.073466
6475.000000;0.072130
6474.000000;0.070769
6473.000000;0.069400
6472.000000;0.068041
6471.000000;0.066697
6470.000000;0.065347
6469.000000;0.063942
6468.000000;0.062460
6467.000000;0.060953
6466.000000;0.059505
6465.000000;0.058146
6464.000000;0.056844
6463.000000;0.055552
6462.000000;0.054251
6461.000000;0.052931
6460.000000;0.051595
6459.000000;0.050272
6458.000000;0.048991
6457.000000;0.047738
6456.000000;0.046475
6455.000000;0.045185
6454.000000;0.043875
6453.000000;0.042556
6452.000000;0.041239
6451.000000;0.039948
6450.000000;0.038677
6449.000000;0.037376
6448.000000;0.036025
6447.000000;0.034691
6446.000000;0.033453
6445.000000;0.032286
6444.000000;0.031091
6443.000000;0.029823
6442.000000;0.028521
6441.000000;0.027227
6440.000000;0.025937
6439.000000;0.024653
6438.000000;0.023405
6437.000000;0.022211
6436.000000;0.021050
6435.000000;0.019890
6434.000000;0.018716
6433.000000;0.017516
6432.000000;0.016284
6431.000000;0.015044
6430.000000;0.013834
6429.000000;0.012658
6428.000000;0.011490
6427.000000;0.010321
6426.000000;0.009161
6425.000000;0.008007
6424.000000;0.006842
6423.000000;0.005674
6422.000000;0.004519
6421.000000;0.003369
6420.000000;0.002192
6419.000000;0.000984
6418.000000;-0.000223
6417.000000;-0.001399
6416.000000;-0.002537
6415.000000;-0.003643
6414.000000;-0.004736
6413.000000;-0.005851
6412.000000;-0.006996
6411.000000;-0.008128
6410.000000;-0.009203
6409.000000;-0.010236
6408.000000;-0.011289
6407.000000;-0.012386
6406.000000;-0.013501
6405.000000;-0.014607
6404.000000;-0.015696
6403.000000;-0.016760
6402.000000;-0.017791
6401.000000;-0.018804
6400.000000;-0.019831
6399.000000;-0.020888
6398.000000;-0.021972
6397.000000;-0.023077
6396.000000;-0.024181
6395.000000;-0.025248
6394.000000;-0.026271
6393.000000;-0.027306
6392.000000;-0.028407
6391.000000;-0.029547
6390.000000;-0.030640
6389.000000;-0.031646
6388.000000;-0.032612
6387.000000;-0.033597
6386.000000;-0.034610
6385.000000;-0.035622
6384.000000;-0.036605
6383.000000;-0.037558
6382.000000;-0.038508
6381.000000;-0.039492
6380.000000;-0.040522
6379.000000;-0.041571
6378.000000;-0.042614
6377.000000;-0.043651
6376.000000;-0.044673
6375.000000;-0.045649
6374.000000;-0.046563
6373.000000;-0.047450
6372.000000;-0.048358
6371.000000;-0.049284
6370.000000;-0.050201
6369.000000;-0.051110
6368.000000;-0.052034
6367.000000;-0.052976
6366.000000;-0.053925
6365.000000;-0.054887
6364.000000;-0.055866
6363.000000;-0.056833
6362.000000;-0.057757
6361.000000;-0.058656
6360.000000;-0.059576
6359.000000;-0.060520
6358.000000;-0.061454
6357.000000;-0.062362
6356.000000;-0.063258
6355.000000;-0.064158
6354.000000;-0.065071
6353.000000;-0.066013
6352.000000;-0.066990
6351.000000;-0.067971
6350.000000;-0.068919
6349.000000;-0.069832
6348.000000;-0.070727
6347.000000;-0.071601
6346.000000;-0.072444
6345.000000;-0.073273
6344.000000;-0.074113
6343.000000;-0.074956
6342.000000;-0.075777
6341.000000;-0.076581
6340.000000;-0.077395
6339.000000;-0.078223
6338.000000;-0.079059
6337.000000;-0.079915
6336.000000;-0.080797
6335.000000;-0.081673
6334.000000;-0.082510
6333.000000;-0.083325
6332.000000;-0.084157
6331.000000;-0.085005
6330.000000;-0.085836
6329.000000;-0.086653
6328.000000;-0.087483
6327.000000;-0.088325
6326.000000;-0.089143
6325.000000;-0.089929
6324.000000;-0.090706
6323.000000;-0.091493
6322.000000;-0.092286
6321.000000;-0.093094
6320.000000;-0.093929
6319.000000;-0.094781
6318.000000;-0.095620
6317.000000;-0.096434
6316.000000;-0.097233
6315.000000;-0.098015
6314.000000;-0.098778
6313.000000;-0.099543
6312.000000;-0.100327
6311.000000;-0.101096
6310.000000;-0.101806
6309.000000;-0.102477
6308.000000;-0.103178
6307.000000;-0.103946
6306.000000;-0.104750
6305.000000;-0.105544
6304.000000;-0.106318
6303.000000;-0.107083
6302.000000;-0.107843
6301.000000;-0.108596
6300.000000;-0.109343
6299.000000;-0.110082
6298.000000;-0.110819
6297.000000;-0.111568
6296.000000;-0.112328
6295.000000;-0.113074
6294.000000;-0.113786
6293.000000;-0.114485
6292.000000;-0.115195
6291.000000;-0.115907
6290.000000;-0.116605
6289.000000;-0.117306
6288.000000;-0.118037
6287.000000;-0.118777
6286.000000;-0.119479
6285.000000;-0.120139
6284.000000;-0.120797
6283.000000;-0.121475
6282.000000;-0.122156
6281.000000;-0.122836
6280.000000;-0.123529
6279.000000;-0.124240
6278.000000;-0.124943
6277.000000;-0.125631
6276.000000;-0.126319
6275.000000;-0.127018
6274.000000;-0.127715
6273.000000;-0.128405
6272.000000;-0.129103
6271.000000;-0.129817
6270.000000;-0.130529
6269.000000;-0.131213
6268.000000;-0.131854
6267.000000;-0.132461
6266.000000;-0.133060
6265.000000;-0.133681
6264.000000;-0.134323
6263.000000;-0.134956
6262.000000;-0.135564
6261.000000;-0.136176
6260.000000;-0.136824
6259.000000;-0.137499
6258.000000;-0.138177
6257.000000;-0.138857
6256.000000;-0.139549
6255.000000;-0.140230
6254.000000;-0.140867
6253.000000;-0.141471
6252.000000;-0.142077
6251.000000;-0.142700
6250.000000;-0.143324
6249.000000;-0.143947
6248.000000;-0.144587
6247.000000;-0.145240
6246.000000;-0.145877
6245.000000;-0.146487
6244.000000;-0.147087
6243.000000;-0.147697
6242.000000;-0.148318
6241.000000;-0.148944
6240.000000;-0.149558
6239.000000;-0.150142
6238.000000;-0.150693
6237.000000;-0.151245
6236.000000;-0.151835
6235.000000;-0.152460
6234.000000;-0.153085
6233.000000;-0.153690
6232.000000;-0.154278
6231.000000;-0.154864
6230.000000;-0.155459
6229.000000;-0.156063
6228.000000;-0.156658
6227.000000;-0.157215
6226.000000;-0.157740
6225.000000;-0.158280
6224.000000;-0.158868
6223.000000;-0.159479
6222.000000;-0.160064
6221.000000;-0.160618
6220.000000;-0.161163
6219.000000;-0.161705
6218.000000;-0.162234
6217.000000;-0.162766
6216.000000;-0.163323
6215.000000;-0.163889
6214.000000;-0.164421
6213.000000;-0.164918
6212.000000;-0.165430
6211.000000;-0.165996
6210.000000;-0.166605
6209.000000;-0.167212
6208.000000;-0.167781
6207.000000;-0.168305
6206.000000;-0.168808
6205.000000;-0.169318
6204.000000;-0.169838
6203.000000;-0.170348
6202.000000;-0.170852
6201.000000;-0.171389
6200.000000;-0.171981
6199.000000;-0.172584
6198.000000;-0.173142
6197.000000;-0.173657
6196.000000;-0.174177
6195.000000;-0.174723
6194.000000;-0.175279
6193.000000;-0.175831
6192.000000;-0.176376
6191.000000;-0.176900
6190.000000;-0.177386
6189.000000;-0.177843
6188.000000;-0.178302
6187.000000;-0.178784
6186.000000;-0.179287
6185.000000;-0.179815
6184.000000;-0.180363
6183.000000;-0.180904
6182.000000;-0.181409
6181.000000;-0.181879
6180.000000;-0.182347
6179.000000;-0.182838
6178.000000;-0.183356
6177.000000;-0.183898
6176.000000;-0.184445
6175.000000;-0.184961
6174.000000;-0.185423
6173.000000;-0.185855
6172.000000;-0.186303
6171.000000;-0.186789
6170.000000;-0.187300
6169.000000;-0.187815
6168.000000;-0.188318
6167.000000;-0.188791
6166.000000;-0.189231
6165.000000;-0.189660
6164.000000;-0.190114
6163.000000;-0.190599
6162.000000;-0.191096
6161.000000;-0.191586
6160.000000;-0.192063
6159.000000;-0.192531
6158.000000;-0.193005
6157.000000;-0.193495
6156.000000;-0.193985
6155.000000;-0.194442
6154.000000;-0.194870
6153.000000;-0.195314
6152.000000;-0.195800
6151.000000;-0.196293
6150.000000;-0.196749
6149.000000;-0.197177
6148.000000;-0.197618
6147.000000;-0.198082
6146.000000;-0.198546
6145.000000;-0.199001
6144.000000;-0.199455
6143.000000;-0.199907
6142.000000;-0.200342
6141.000000;-0.200755
6140.000000;-0.201158
6139.000000;-0.201559
6138.000000;-0.201965
6137.000000;-0.202386
6136.000000;-0.202823
6135.000000;-0.203257
6134.000000;-0.203686
6133.000000;-0.204135
6132.000000;-0.204621
6131.000000;-0.205122
6130.000000;-0.205601
6129.000000;-0.206051
6128.000000;-0.206481
6127.000000;-0.206891
6126.000000;-0.207278
6125.000000;-0.207661
6124.000000;-0.208064
6123.000000;-0.208478
6122.000000;-0.208886
6121.000000;-0.209294
6120.000000;-0.209713
6119.000000;-0.210135
6118.000000;-0.210545
6117.000000;-0.210952
6116.000000;-0.211370
6115.000000;-0.211791
6114.000000;-0.212193
6113.000000;-0.212579
6112.000000;-0.212964
6111.000000;-0.213341
6110.000000;-0.213701
6109.000000;-0.214064
6108.000000;-0.214455
6107.000000;-0.214871
6106.000000;-0.215286
6105.000000;-0.215692
6104.000000;-0.216087
6103.000000;-0.216462
6102.000000;-0.216816
6101.000000;-0.217172
6100.000000;-0.217551
6099.000000;-0.217941
6098.000000;-0.218328
6097.000000;-0.218726
6096.000000;-0.219153
6095.000000;-0.219591
6094.000000;-0.220002
6093.000000;-0.220383
6092.000000;-0.220754
6091.000000;-0.221123
6090.000000;-0.221481
6089.000000;-0.221825
6088.000000;-0.222165
6087.000000;-0.222505
6086.000000;-0.222859
6085.000000;-0.223249
6084.000000;-0.223663
6083.000000;-0.224044
6082.000000;-0.224357
6081.000000;-0.224645
6080.000000;-0.224978
6079.000000;-0.225362
6078.000000;-0.225749
6077.000000;-0.226107
6076.000000;-0.226455
6075.000000;-0.226810
6074.000000;-0.227163
6073.000000;-0.227509
6072.000000;-0.227855
6071.000000;-0.228210
6070.000000;-0.228578
6069.000000;-0.228961
6068.000000;-0.229352
6067.000000;-0.229724
6066.000000;-0.230065
6065.000000;-0.230398
6064.000000;-0.230744
6063.000000;-0.231084
6062.000000;-0.231392
6061.000000;-0.231678
6060.000000;-0.231975
6059.000000;-0.232288
6058.000000;-0.232601
6057.000000;-0.232905
6056.000000;-0.233207
6055.000000;-0.233503
6054.000000;-0.233791
6053.000000;-0.234088
6052.000000;-0.234403
6051.000000;-0.234716
6050.000000;-0.235020
6049.000000;-0.235342
6048.000000;-0.235703
6047.000000;-0.236064
6046.000000;-0.236368
6045.000000;-0.236616
6044.000000;-0.236865
6043.000000;-0.237148
6042.000000;-0.237452
6041.000000;-0.237763
6040.000000;-0.238080
6039.000000;-0.238396
6038.000000;-0.238698
6037.000000;-0.238995
6036.000000;-0.239309
6035.000000;-0.239635
6034.000000;-0.239948
6033.000000;-0.240243
6032.000000;-0.240535
6031.000000;-0.240825
6030.000000;-0.241094
6029.000000;-0.241350
6028.000000;-0.241625
6027.000000;-0.241926
6026.000000;-0.242228
6025.000000;-0.242501
6024.000000;-0.242748
6023.000000;-0.242983
6022.000000;-0.243221
6021.000000;-0.243473
6020.000000;-0.243746
6019.000000;-0.244032
6018.000000;-0.244309
6017.000000;-0.244564
6016.000000;-0.244797
6015.000000;-0.245014
6014.000000;-0.245237
6013.000000;-0.245493
6012.000000;-0.245780
6011.000000;-0.246064
6010.000000;-0.246324
6009.000000;-0.246569
6008.000000;-0.246816
6007.000000;-0.247060
6006.000000;-0.247302
6005.000000;-0.247565
6004.000000;-0.247858
6003.000000;-0.248144
6002.000000;-0.248388
6001.000000;-0.248601
6000.000000;-0.248821
5999.000000;-0.249050
5998.000000;-0.249266
5997.000000;-0.249475
5996.000000;-0.249704
5995.000000;-0.249950
5994.000000;-0.250182
5993.000000;-0.250382
5992.000000;-0.250561
5991.000000;-0.250736
5990.000000;-0.250916
5989.000000;-0.251112
5988.000000;-0.251331
5987.000000;-0.251564
5986.000000;-0.251803
5985.000000;-0.252056
5984.000000;-0.252316
5983.000000;-0.252555
5982.000000;-0.252747
5981.000000;-0.252905
5980.000000;-0.253064
5979.000000;-0.253233
5978.000000;-0.253407
5977.000000;-0.253593
5976.000000;-0.253800
5975.000000;-0.254008
5974.000000;-0.254200
5973.000000;-0.254388
5972.000000;-0.254592
5971.000000;-0.254796
5970.000000;-0.254967
5969.000000;-0.255102
5968.000000;-0.255235
5967.000000;-0.255392
5966.000000;-0.255574
5965.000000;-0.255775
5964.000000;-0.255991
5963.000000;-0.256204
5962.000000;-0.256395
5961.000000;-0.256559
5960.000000;-0.256702
5959.000000;-0.256825
5958.000000;-0.256939
5957.000000;-0.257076
5956.000000;-0.257251
5955.000000;-0.257437
5954.000000;-0.257598
5953.000000;-0.257735
5952.000000;-0.257870
5951.000000;-0.258009
5950.000000;-0.258146
5949.000000;-0.258288
5948.000000;-0.258440
5947.000000;-0.258586
5946.000000;-0.258708
5945.000000;-0.258823
5944.000000;-0.258959
5943.000000;-0.259114
5942.000000;-0.259258
5941.000000;-0.259377
5940.000000;-0.259475
5939.000000;-0.259555
5938.000000;-0.259627
5937.000000;-0.259719
5936.000000;-0.259846
5935.000000;-0.259987
5934.000000;-0.260111
5933.000000;-0.260215
5932.000000;-0.260320
5931.000000;-0.260431
5930.000000;-0.260546
5929.000000;-0.260674
5928.000000;-0.260821
5927.000000;-0.260962
5926.000000;-0.261065
5925.000000;-0.261131
5924.000000;-0.261190
5923.000000;-0.261261
5922.000000;-0.261337
5921.000000;-0.261413
5920.000000;-0.261480
5919.000000;-0.261531
5918.000000;-0.261575
5917.000000;-0.261650
5916.000000;-0.261778
5915.000000;-0.261931
5914.000000;-0.262061
5913.000000;-0.262151
5912.000000;-0.262214
5911.000000;-0.262266
5910.000000;-0.262323
5909.000000;-0.262404
5908.000000;-0.262503
5907.000000;-0.262583
5906.000000;-0.262626
5905.000000;-0.262674
5904.000000;-0.262783
5903.000000;-0.262945
5902.000000;-0.263095
5901.000000;-0.263193
5900.000000;-0.263240
5899.000000;-0.263256
5898.000000;-0.263258
5897.000000;-0.263278
5896.000000;-0.263333
5895.000000;-0.263407
5894.000000;-0.263476
5893.000000;-0.263548
5892.000000;-0.263646
5891.000000;-0.263753
5890.000000;-0.263828
5889.000000;-0.263852
5888.000000;-0.263850
5887.000000;-0.263844
5886.000000;-0.263841
5885.000000;-0.263849
5884.000000;-0.263869
5883.000000;-0.263888
5882.000000;-0.263892
5881.000000;-0.263900
5880.000000;-0.263939
5879.000000;-0.264006
5878.000000;-0.264069
5877.000000;-0.264116
5876.000000;-0.264152
5875.000000;-0.264180
5874.000000;-0.264201
5873.000000;-0.264218
5872.000000;-0.264229
5871.000000;-0.264202
5870.000000;-0.264120
5869.000000;-0.264021
5868.000000;-0.263965
5867.000000;-0.263973
5866.000000;-0.264010
5865.000000;-0.264041
5864.000000;-0.264047
5863.000000;-0.264018
5862.000000;-0.263950
5861.000000;-0.263868
5860.000000;-0.263807
5859.000000;-0.263778
5858.000000;-0.263762
5857.000000;-0.263743
5856.000000;-0.263715
5855.000000;-0.263670
5854.000000;-0.263602
5853.000000;-0.263520
5852.000000;-0.263440
5851.000000;-0.263355
5850.000000;-0.263260
5849.000000;-0.263172
5848.000000;-0.263115
5847.000000;-0.263081
5846.000000;-0.263038
5845.000000;-0.262964
5844.000000;-0.262867
5843.000000;-0.262759
5842.000000;-0.262650
5841.000000;-0.262543
5840.000000;-0.262429
5839.000000;-0.262298
5838.000000;-0.262159
5837.000000;-0.262040
5836.000000;-0.261950
5835.000000;-0.261860
5834.000000;-0.261735
5833.000000;-0.261580
5832.000000;-0.261414
5831.000000;-0.261242
5830.000000;-0.261065
5829.000000;-0.260907
5828.000000;-0.260789
5827.000000;-0.260701
5826.000000;-0.260615
5825.000000;-0.260517
5824.000000;-0.260400
5823.000000;-0.260245
5822.000000;-0.260055
5821.000000;-0.259866
5820.000000;-0.259711
5819.000000;-0.259583
5818.000000;-0.259447
5817.000000;-0.259287
5816.000000;-0.259095
5815.000000;-0.258863
5814.000000;-0.258602
5813.000000;-0.258364
5812.000000;-0.258193
5811.000000;-0.258068
5810.000000;-0.257930
5809.000000;-0.257742
5808.000000;-0.257513
5807.000000;-0.257262
5806.000000;-0.257003
5805.000000;-0.256752
5804.000000;-0.256521
5803.000000;-0.256304
5802.000000;-0.256090
5801.000000;-0.255885
5800.000000;-0.255691
5799.000000;-0.255486
5798.000000;-0.255255
5797.000000;-0.255015
5796.000000;-0.254786
5795.000000;-0.254560
5794.000000;-0.254312
5793.000000;-0.254045
5792.000000;-0.253777
5791.000000;-0.253510
5790.000000;-0.253237
5789.000000;-0.252964
5788.000000;-0.252704
5787.000000;-0.252454
5786.000000;-0.252205
5785.000000;-0.251952
5784.000000;-0.251679
5783.000000;-0.251362
5782.000000;-0.251000
5781.000000;-0.250629
5780.000000;-0.250282
5779.000000;-0.249953
5778.000000;-0.249623
5777.000000;-0.249296
5776.000000;-0.248979
5775.000000;-0.248661
5774.000000;-0.248331
5773.000000;-0.248004
5772.000000;-0.247686
5771.000000;-0.247358
5770.000000;-0.247004
5769.000000;-0.246640
5768.000000;-0.246289
5767.000000;-0.245945
5766.000000;-0.245595
5765.000000;-0.245248
5764.000000;-0.244916
5763.000000;-0.244575
5762.000000;-0.244197
5761.000000;-0.243780
5760.000000;-0.243340
5759.000000;-0.242881
5758.000000;-0.242426
5757.000000;-0.242026
5756.000000;-0.241699
5755.000000;-0.241387
5754.000000;-0.241011
5753.000000;-0.240560
5752.000000;-0.240082
5751.000000;-0.239616
5750.000000;-0.239163
5749.000000;-0.238712
5748.000000;-0.238248
5747.000000;-0.237765
5746.000000;-0.237276
5745.000000;-0.236814
5744.000000;-0.236392
5743.000000;-0.235969
5742.000000;-0.235506
5741.000000;-0.235012
5740.000000;-0.234517
5739.000000;-0.234021
5738.000000;-0.233511
5737.000000;-0.233007
5736.000000;-0.232545
5735.000000;-0.232120
5734.000000;-0.231690
5733.000000;-0.231223
5732.000000;-0.230712
5731.000000;-0.230158
5730.000000;-0.229574
5729.000000;-0.228991
5728.000000;-0.228432
5727.000000;-0.227889
5726.000000;-0.227346
5725.000000;-0.226804
5724.000000;-0.226258
5723.000000;-0.225687
5722.000000;-0.225086
5721.000000;-0.224491
5720.000000;-0.223939
5719.000000;-0.223411
5718.000000;-0.222863
5717.000000;-0.222285
5716.000000;-0.221692
5715.000000;-0.221089
5714.000000;-0.220472
5713.000000;-0.219849
5712.000000;-0.219235
5711.000000;-0.218631
5710.000000;-0.218029
5709.000000;-0.217430
5708.000000;-0.216829
5707.000000;-0.216211
5706.000000;-0.215576
5705.000000;-0.214953
5704.000000;-0.214346
5703.000000;-0.213723
5702.000000;-0.213066
5701.000000;-0.212406
5700.000000;-0.211772
5699.000000;-0.211144
5698.000000;-0.210497
5697.000000;-0.209849
5696.000000;-0.209235
5695.000000;-0.208612
5694.000000;-0.207951
5693.000000;-0.207160
5692.000000;-0.206368
5691.000000;-0.205648
5690.000000;-0.204973
5689.000000;-0.204377
5688.000000;-0.203818
5687.000000;-0.203234
5686.000000;-0.202585
5685.000000;-0.201913
5684.000000;-0.201270
5683.000000;-0.200651
5682.000000;-0.200010
5681.000000;-0.199342
5680.000000;-0.198671
5679.000000;-0.197996
5678.000000;-0.197297
5677.000000;-0.196577
5676.000000;-0.195866
5675.000000;-0.195174
5674.000000;-0.194491
5673.000000;-0.193814
5672.000000;-0.193147
5671.000000;-0.192487
5670.000000;-0.191828
5669.000000;-0.191185
5668.000000;-0.190564
5667.000000;-0.189940
5666.000000;-0.189273
5665.000000;-0.188563
5664.000000;-0.187846
5663.000000;-0.187157
5662.000000;-0.186503
5661.000000;-0.185875
5660.000000;-0.185257
5659.000000;-0.184632
5658.000000;-0.184004
5657.000000;-0.183397
5656.000000;-0.182820
5655.000000;-0.182255
5654.000000;-0.181684
5653.000000;-0.181109
5652.000000;-0.180533
5651.000000;-0.179947
5650.000000;-0.179353
5649.000000;-0.178772
5648.000000;-0.178207
5647.000000;-0.177627
5646.000000;-0.177016
5645.000000;-0.176405
5644.000000;-0.175827
5643.000000;-0.175272
5642.000000;-0.174714
5641.000000;-0.174145
5640.000000;-0.173578
5639.000000;-0.173016
5638.000000;-0.172467
5637.000000;-0.171951
5636.000000;-0.171470
5635.000000;-0.170996
5634.000000;-0.170506
5633.000000;-0.170004
5632.000000;-0.169501
5631.000000;-0.168995
5630.000000;-0.168495
5629.000000;-0.168025
5628.000000;-0.167589
5627.000000;-0.167155
5626.000000;-0.166699
5625.000000;-0.166233
5624.000000;-0.165767
5623.000000;-0.165298
5622.000000;-0.164849
5621.000000;-0.164461
5620.000000;-0.164139
5619.000000;-0.163833
5618.000000;-0.163505
5617.000000;-0.163159
5616.000000;-0.162800
5615.000000;-0.162421
5614.000000;-0.162043
5613.000000;-0.161716
5612.000000;-0.161445
5611.000000;-0.161166
5610.000000;-0.160834
5609.000000;-0.160485
5608.000000;-0.160169
5607.000000;-0.159885
5606.000000;-0.159605
5605.000000;-0.159321
5604.000000;-0.159037
5603.000000;-0.158735
5602.000000;-0.158403
5601.000000;-0.158074
5600.000000;-0.157790
5599.000000;-0.157549
5598.000000;-0.157330
5597.000000;-0.157124
5596.000000;-0.156937
5595.000000;-0.156776
5594.000000;-0.156656
5593.000000;-0.156581
5592.000000;-0.156527
5591.000000;-0.156449
5590.000000;-0.156347
5589.000000;-0.156268
5588.000000;-0.156233
5587.000000;-0.156210
5586.000000;-0.156168
5585.000000;-0.156109
5584.000000;-0.156036
5583.000000;-0.155926
5582.000000;-0.155768
5581.000000;-0.155591
5580.000000;-0.155423
5579.000000;-0.155261
5578.000000;-0.155106
5577.000000;-0.154982
5576.000000;-0.154892
5575.000000;-0.154814
5574.000000;-0.154745
5573.000000;-0.154704
5572.000000;-0.154679
5571.000000;-0.154633
5570.000000;-0.154572
5569.000000;-0.154548
5568.000000;-0.154569
5567.000000;-0.154586
5566.000000;-0.154581
5565.000000;-0.154594
5564.000000;-0.154635
5563.000000;-0.154668
5562.000000;-0.154696
5561.000000;-0.154791
5560.000000;-0.154962
5559.000000;-0.155106
5558.000000;-0.155144
5557.000000;-0.155119
5556.000000;-0.155086
5555.000000;-0.154995
5554.000000;-0.154776
5553.000000;-0.154476
5552.000000;-0.154191
5551.000000;-0.153926
5550.000000;-0.153632
5549.000000;-0.153350
5548.000000;-0.153192
5547.000000;-0.153212
5546.000000;-0.153379
5545.000000;-0.153651
5544.000000;-0.153997
5543.000000;-0.154374
5542.000000;-0.154745
5541.000000;-0.155097
5540.000000;-0.155374
5539.000000;-0.155461
5538.000000;-0.155320
5537.000000;-0.155075
5536.000000;-0.154859
5535.000000;-0.154648
5534.000000;-0.154384
5533.000000;-0.154153
5532.000000;-0.154097
5531.000000;-0.154214
5530.000000;-0.154397
5529.000000;-0.154642
5528.000000;-0.155039
5527.000000;-0.155566
5526.000000;-0.156034
5525.000000;-0.156239
5524.000000;-0.156127
5523.000000;-0.155807
5522.000000;-0.155461
5521.000000;-0.155207
5520.000000;-0.154977
5519.000000;-0.154587
5518.000000;-0.154018
5517.000000;-0.153505
5516.000000;-0.153273
5515.000000;-0.153308
5514.000000;-0.153486
5513.000000;-0.153808
5512.000000;-0.154273
5511.000000;-0.154607
5510.000000;-0.154461
5509.000000;-0.153874
5508.000000;-0.153261
5507.000000;-0.152880
5506.000000;-0.152567
5505.000000;-0.152103
5504.000000;-0.151624
5503.000000;-0.151454
5502.000000;-0.151647
5501.000000;-0.151972
5500.000000;-0.152323
5499.000000;-0.152855
5498.000000;-0.153657
5497.000000;-0.154321
5496.000000;-0.154058
5495.000000;-0.152513
5494.000000;-0.150204
5493.000000;-0.147971
5492.000000;-0.146071
5491.000000;-0.144120
5490.000000;-0.141999
5489.000000;-0.140298
5488.000000;-0.139616
5487.000000;-0.139878
5486.000000;-0.140718
5485.000000;-0.142157
5484.000000;-0.144359
5483.000000;-0.146969
5482.000000;-0.149261
5481.000000;-0.150961
5480.000000;-0.152304
5479.000000;-0.153060
5478.000000;-0.152339
5477.000000;-0.149769
5476.000000;-0.146274
5475.000000;-0.143298
5474.000000;-0.141380
5473.000000;-0.140052
5472.000000;-0.138991
5471.000000;-0.138472
5470.000000;-0.138651
5469.000000;-0.139127
5468.000000;-0.139470
5467.000000;-0.139682
5466.000000;-0.139949
5465.000000;-0.140039
5464.000000;-0.139271
5463.000000;-0.137301
5462.000000;-0.134704
5461.000000;-0.132561
5460.000000;-0.131465
5459.000000;-0.131078
5458.000000;-0.130835
5457.000000;-0.130765
5456.000000;-0.131248
5455.000000;-0.132316
5454.000000;-0.133544
5453.000000;-0.134435
5452.000000;-0.134706
5451.000000;-0.134376
5450.000000;-0.133556
5449.000000;-0.132016
5448.000000;-0.129254
5447.000000;-0.125312
5446.000000;-0.121260
5445.000000;-0.117998
5444.000000;-0.114977
5443.000000;-0.111235
5442.000000;-0.107337
5441.000000;-0.104998
5440.000000;-0.104886
5439.000000;-0.105753
5438.000000;-0.106059
5437.000000;-0.105641
5436.000000;-0.105222
5435.000000;-0.105129
5434.000000;-0.105093
5433.000000;-0.104524
5432.000000;-0.102756
5431.000000;-0.099603
5430.000000;-0.095707
5429.000000;-0.092085
5428.000000;-0.089417
5427.000000;-0.087846
5426.000000;-0.087332
5425.000000;-0.087812
5424.000000;-0.089040
5423.000000;-0.090668
5422.000000;-0.092575
5421.000000;-0.094897
5420.000000;-0.097678
5419.000000;-0.100493
5418.000000;-0.102196
5417.000000;-0.101308
5416.000000;-0.097231
5415.000000;-0.090882
5414.000000;-0.083770
5413.000000;-0.076420
5412.000000;-0.068320
5411.000000;-0.059699
5410.000000;-0.052243
5409.000000;-0.047415
5408.000000;-0.044986
5407.000000;-0.044079
5406.000000;-0.044788
5405.000000;-0.047544
5404.000000;-0.051510
5403.000000;-0.054910
5402.000000;-0.056794
5401.000000;-0.057443
5400.000000;-0.057035
5399.000000;-0.055271
5398.000000;-0.052084
5397.000000;-0.047598
5396.000000;-0.041803
5395.000000;-0.034845
5394.000000;-0.027554
5393.000000;-0.020911
5392.000000;-0.015025
5391.000000;-0.009527
5390.000000;-0.004580
5389.000000;-0.000624
5388.000000;0.002598
5387.000000;0.005851
5386.000000;0.009217
5385.000000;0.012115
5384.000000;0.014642
5383.000000;0.017840
5382.000000;0.022093
5381.000000;0.026766
5380.000000;0.031782
5379.000000;0.037855
5378.000000;0.045061
5377.000000;0.052485
5376.000000;0.059613
5375.000000;0.067116
5374.000000;0.075459
5373.000000;0.083678
5372.000000;0.090578
5371.000000;0.096137
5370.000000;0.100921
5369.000000;0.104947
5368.000000;0.108120
5367.000000;0.111412
5366.000000;0.116380
5365.000000;0.123536
5364.000000;0.132059
5363.000000;0.141148
5362.000000;0.150633
5361.000000;0.160371
5360.000000;0.169981
5359.000000;0.179327
5358.000000;0.188895
5357.000000;0.199427
5356.000000;0.211438
5355.000000;0.225084
5354.000000;0.240015
5353.000000;0.255404
5352.000000;0.270584
5351.000000;0.285560
5350.000000;0.300350
5349.000000;0.314545
5348.000000;0.328345
5347.000000;0.343115
5346.000000;0.359850
5345.000000;0.377605
5344.000000;0.394488
5343.000000;0.410319
5342.000000;0.426974
5341.000000;0.445498
5340.000000;0.464802
5339.000000;0.483694
5338.000000;0.502350
5337.000000;0.521094
5336.000000;0.539332
5335.000000;0.556752
5334.000000;0.574255
5333.000000;0.592668
5332.000000;0.611371
5331.000000;0.629445
5330.000000;0.647413
5329.000000;0.666645
5328.000000;0.687648
5327.000000;0.709988
5326.000000;0.733492
5325.000000;0.758172
5324.000000;0.783176
5323.000000;0.807431
5322.000000;0.831253
5321.000000;0.855723
5320.000000;0.880927
5319.000000;0.906314
5318.000000;0.932285
5317.000000;0.959807
5316.000000;0.988847
5315.000000;1.018641
5314.000000;1.048972
5313.000000;1.079761
5312.000000;1.110139
5311.000000;1.139739
5310.000000;1.169886
5309.000000;1.201771
5308.000000;1.234488
5307.000000;1.266454
5306.000000;1.297586
5305.000000;1.328317
5304.000000;1.358117
5303.000000;1.386961
5302.000000;1.416233
5301.000000;1.445920
5300.000000;1.473178
5299.000000;1.496323
5298.000000;1.517671
5297.000000;1.539646
5296.000000;1.561244
5295.000000;1.581118
5294.000000;1.600646
5293.000000;1.620582
5292.000000;1.638549
5291.000000;1.653495
5290.000000;1.668341
5289.000000;1.684638
5288.000000;1.699269
5287.000000;1.709944
5286.000000;1.719026
5285.000000;1.728643
5284.000000;1.737293
5283.000000;1.743922
5282.000000;1.750057
5281.000000;1.755321
5280.000000;1.756819
5279.000000;1.755565
5278.000000;1.756842
5277.000000;1.762023
5276.000000;1.766660
5275.000000;1.768327
5274.000000;1.769820
5273.000000;1.772161
5272.000000;1.771933
5271.000000;1.768454
5270.000000;1.766303
5269.000000;1.767971
5268.000000;1.771029
5267.000000;1.774447
5266.000000;1.780831
5265.000000;1.790320
5264.000000;1.799079
5263.000000;1.805930
5262.000000;1.813304
5261.000000;1.819714
5260.000000;1.819723
5259.000000;1.813899
5258.000000;1.809562
5257.000000;1.809342
5256.000000;1.807861
5255.000000;1.802148
5254.000000;1.797162
5253.000000;1.797295
5252.000000;1.800792
5251.000000;1.805567
5250.000000;1.812725
5249.000000;1.820586
5248.000000;1.822945
5247.000000;1.818109
5246.000000;1.812102
5245.000000;1.808974
5244.000000;1.806113
5243.000000;1.801526
5242.000000;1.798050
5241.000000;1.797339
5240.000000;1.796550
5239.000000;1.794049
5238.000000;1.792272
5237.000000;1.792033
5236.000000;1.790127
5235.000000;1.785732
5234.000000;1.783077
5233.000000;1.784958
5232.000000;1.789313
5231.000000;1.793955
5230.000000;1.799322
5229.000000;1.804588
5228.000000;1.806807
5227.000000;1.806028
5226.000000;1.805537
5225.000000;1.805900
5224.000000;1.804469
5223.000000;1.801360
5222.000000;1.799734
5221.000000;1.799477
5220.000000;1.797012
5219.000000;1.792303
5218.000000;1.789573
5217.000000;1.789972
5216.000000;1.790094
5215.000000;1.788874
5214.000000;1.789248
5213.000000;1.791535
5212.000000;1.791950
5211.000000;1.789430
5210.000000;1.787557
5209.000000;1.787970
5208.000000;1.788628
5207.000000;1.789816
5206.000000;1.794931
5205.000000;1.803538
5204.000000;1.810144
5203.000000;1.811919
5202.000000;1.811380
5201.000000;1.809749
5200.000000;1.804669
5199.000000;1.796307
5198.000000;1.789251
5197.000000;1.786327
5196.000000;1.786207
5195.000000;1.787989
5194.000000;1.792314
5193.000000;1.796975
5192.000000;1.797687
5191.000000;1.794655
5190.000000;1.792241
5189.000000;1.791215
5188.000000;1.788069
5187.000000;1.782890
5186.000000;1.780827
5185.000000;1.784288
5184.000000;1.789977
5183.000000;1.794632
5182.000000;1.798050
5181.000000;1.799205
5180.000000;1.796016
5179.000000;1.790564
5178.000000;1.788072
5177.000000;1.789618
5176.000000;1.791518
5175.000000;1.792662
5174.000000;1.795894
5173.000000;1.800582
5172.000000;1.801420
5171.000000;1.797039
5170.000000;1.792455
5169.000000;1.790723
5168.000000;1.789400
5167.000000;1.786893
5166.000000;1.785540
5165.000000;1.786222
5164.000000;1.786214
5163.000000;1.784684
5162.000000;1.784674
5161.000000;1.787359
5160.000000;1.789976
5159.000000;1.791119
5158.000000;1.792579
5157.000000;1.794463
5156.000000;1.794187
5155.000000;1.791805
5154.000000;1.790552
5153.000000;1.791030
5152.000000;1.790836
5151.000000;1.790587
5150.000000;1.793768
5149.000000;1.799435
5148.000000;1.801596
5147.000000;1.798060
5146.000000;1.793416
5145.000000;1.791074
5144.000000;1.789376
5143.000000;1.787102
5142.000000;1.786315
5141.000000;1.787661
5140.000000;1.788689
5139.000000;1.788945
5138.000000;1.791217
5137.000000;1.795889
5136.000000;1.799338
5135.000000;1.799551
5134.000000;1.798352
5133.000000;1.796517
5132.000000;1.792419
5131.000000;1.787195
5130.000000;1.785210
5129.000000;1.787565
5128.000000;1.790194
5127.000000;1.789723
5126.000000;1.786909
5125.000000;1.783337
5124.000000;1.779866
5123.000000;1.778962
5122.000000;1.783096
5121.000000;1.789699
5120.000000;1.792441
5119.000000;1.789186
5118.000000;1.783985
5117.000000;1.780421
5116.000000;1.778661
5115.000000;1.778987
5114.000000;1.782372
5113.000000;1.786818
5112.000000;1.788458
5111.000000;1.787200
5110.000000;1.786303
5109.000000;1.786382
5108.000000;1.785338
5107.000000;1.784011
5106.000000;1.785859
5105.000000;1.790746
5104.000000;1.794616
5103.000000;1.795661
5102.000000;1.795547
5101.000000;1.794628
5100.000000;1.792043
5099.000000;1.790054
5098.000000;1.791664
5097.000000;1.794252
5096.000000;1.791980
5095.000000;1.785034
5094.000000;1.779326
5093.000000;1.776991
5092.000000;1.774848
5091.000000;1.772236
5090.000000;1.773178
5089.000000;1.779426
5088.000000;1.787363
5087.000000;1.793364
5086.000000;1.797071
5085.000000;1.797811
5084.000000;1.793767
5083.000000;1.786729
5082.000000;1.781673
5081.000000;1.780198
5080.000000;1.779554
5079.000000;1.778435
5078.000000;1.778437
5077.000000;1.779374
5076.000000;1.778828
5075.000000;1.777191
5074.000000;1.777698
5073.000000;1.780586
5072.000000;1.782391
5071.000000;1.781726
5070.000000;1.780808
5069.000000;1.780952
5068.000000;1.781675
5067.000000;1.783728
5066.000000;1.787406
5065.000000;1.788566
5064.000000;1.782808
5063.000000;1.773558
5062.000000;1.768712
5061.000000;1.769862
5060.000000;1.771579
5059.000000;1.770905
5058.000000;1.770602
5057.000000;1.771945
5056.000000;1.771809
5055.000000;1.768785
5054.000000;1.765665
5053.000000;1.763838
5052.000000;1.761582
5051.000000;1.759338
5050.000000;1.760408
5049.000000;1.764781
5048.000000;1.767706
5047.000000;1.766338
5046.000000;1.763106
5045.000000;1.760749
5044.000000;1.759356
5043.000000;1.759352
5042.000000;1.761876
5041.000000;1.764807
5040.000000;1.763489
5039.000000;1.757395
5038.000000;1.751296
5037.000000;1.748594
5036.000000;1.748251
5035.000000;1.748510
5034.000000;1.748975
5033.000000;1.748272
5032.000000;1.744421
5031.000000;1.738610
5030.000000;1.734417
5029.000000;1.732978
5028.000000;1.732719
5027.000000;1.733176
5026.000000;1.734661
5025.000000;1.734616
5024.000000;1.729723
5023.000000;1.721989
5022.000000;1.717061
5021.000000;1.716595
5020.000000;1.717255
5019.000000;1.716732
5018.000000;1.715901
5017.000000;1.714767
5016.000000;1.711531
5015.000000;1.706575
5014.000000;1.702670
5013.000000;1.700481
5012.000000;1.698005
5011.000000;1.694554
5010.000000;1.691187
5009.000000;1.687426
5008.000000;1.682104
5007.000000;1.677223
5006.000000;1.676182
5005.000000;1.678247
5004.000000;1.679146
5003.000000;1.677299
5002.000000;1.674865
5001.000000;1.672489
5000.000000;1.668200
4999.000000;1.662082
4998.000000;1.656815
4997.000000;1.653063
4996.000000;1.648838
4995.000000;1.643957
4994.000000;1.641127
4993.000000;1.641119
4992.000000;1.641154
4991.000000;1.638899
4990.000000;1.634852
4989.000000;1.629859
4988.000000;1.623891
4987.000000;1.618049
4986.000000;1.614296
4985.000000;1.612463
4984.000000;1.610363
4983.000000;1.607176
4982.000000;1.603940
4981.000000;1.600742
4980.000000;1.596452
4979.000000;1.591189
4978.000000;1.586065
4977.000000;1.580771
4976.000000;1.574396
4975.000000;1.568158
4974.000000;1.564064
4973.000000;1.561365
4972.000000;1.557538
4971.000000;1.552409
4970.000000;1.547968
4969.000000;1.544367
4968.000000;1.539594
4967.000000;1.533097
4966.000000;1.526608
4965.000000;1.521271
4964.000000;1.516855
4963.000000;1.513478
4962.000000;1.511229
4961.000000;1.508411
4960.000000;1.503105
4959.000000;1.496313
4958.000000;1.490699
4957.000000;1.486690
4956.000000;1.482556
4955.000000;1.477673
4954.000000;1.472755
4953.000000;1.467408
4952.000000;1.460700
4951.000000;1.453816
4950.000000;1.448922
4949.000000;1.445561
4948.000000;1.441210
4947.000000;1.435384
4946.000000;1.430145
4945.000000;1.426384
4944.000000;1.422620
4943.000000;1.417735
4942.000000;1.412220
4941.000000;1.406479
4940.000000;1.400354
4939.000000;1.394540
4938.000000;1.390062
4937.000000;1.386164
4936.000000;1.380978
4935.000000;1.374446
4934.000000;1.368400
4933.000000;1.363688
4932.000000;1.359377
4931.000000;1.354791
4930.000000;1.350219
4929.000000;1.345525
4928.000000;1.340152
4927.000000;1.334610
4926.000000;1.329998
4925.000000;1.326016
4924.000000;1.321271
4923.000000;1.315466
4922.000000;1.309432
4921.000000;1.303240
4920.000000;1.296345
4919.000000;1.289404
4918.000000;1.283850
4917.000000;1.279637
4916.000000;1.275262
4915.000000;1.270089
4914.000000;1.264937
4913.000000;1.260289
4912.000000;1.255637
4911.000000;1.250705
4910.000000;1.245730
4909.000000;1.240431
4908.000000;1.234197
4907.000000;1.227356
4906.000000;1.220941
4905.000000;1.215361
4904.000000;1.210534
4903.000000;1.206774
4902.000000;1.204049
4901.000000;1.200842
4900.000000;1.195557
4899.000000;1.188843
4898.000000;1.182779
4897.000000;1.178016
4896.000000;1.173481
4895.000000;1.168566
4894.000000;1.163727
4893.000000;1.158908
4892.000000;1.153279
4891.000000;1.146880
4890.000000;1.140939
4889.000000;1.136170
4888.000000;1.132048
4887.000000;1.127922
4886.000000;1.123651
4885.000000;1.119032
4884.000000;1.113816
4883.000000;1.108416
4882.000000;1.103493
4881.000000;1.098825
4880.000000;1.093688
4879.000000;1.088241
4878.000000;1.083330
4877.000000;1.078981
4876.000000;1.074312
4875.000000;1.069026
4874.000000;1.063812
4873.000000;1.059167
4872.000000;1.054835
4871.000000;1.050466
4870.000000;1.045899
4869.000000;1.040844
4868.000000;1.035234
4867.000000;1.029749
4866.000000;1.025044
4865.000000;1.020629
4864.000000;1.015543
4863.000000;1.009947
4862.000000;1.004901
4861.000000;1.000702
4860.000000;0.996635
4859.000000;0.992293
4858.000000;0.987996
4857.000000;0.983810
4856.000000;0.979314
4855.000000;0.974533
4854.000000;0.970067
4853.000000;0.966083
4852.000000;0.962058
4851.000000;0.957707
4850.000000;0.953292
4849.000000;0.948915
4848.000000;0.944369
4847.000000;0.939827
4846.000000;0.935826
4845.000000;0.932364
4844.000000;0.928724
4843.000000;0.924413
4842.000000;0.919646
4841.000000;0.914809
4840.000000;0.910071
4839.000000;0.905567
4838.000000;0.901335
4837.000000;0.897053
4836.000000;0.892440
4835.000000;0.887863
4834.000000;0.883926
4833.000000;0.880527
4832.000000;0.876942
4831.000000;0.872795
4830.000000;0.868343
4829.000000;0.863888
4828.000000;0.859579
4827.000000;0.855676
4826.000000;0.852285
4825.000000;0.848868
4824.000000;0.844727
4823.000000;0.839987
4822.000000;0.835442
4821.000000;0.831452
4820.000000;0.827667
4819.000000;0.823779
4818.000000;0.819878
4817.000000;0.816020
4816.000000;0.812093
4815.000000;0.808186
4814.000000;0.804493
4813.000000;0.800859
4812.000000;0.796950
4811.000000;0.792895
4810.000000;0.789158
4809.000000;0.785768
4808.000000;0.782262
4807.000000;0.778413
4806.000000;0.774455
4805.000000;0.770573
4804.000000;0.766687
4803.000000;0.762818
4802.000000;0.759170
4801.000000;0.755753
4800.000000;0.752355
4799.000000;0.748886
4798.000000;0.745376
4797.000000;0.741705
4796.000000;0.737783
4795.000000;0.733886
4794.000000;0.730375
4793.000000;0.727115
4792.000000;0.723668
4791.000000;0.719976
4790.000000;0.716361
4789.000000;0.712919
4788.000000;0.709426
4787.000000;0.705821
4786.000000;0.702307
4785.000000;0.698960
4784.000000;0.695655
4783.000000;0.692372
4782.000000;0.689171
4781.000000;0.685933
4780.000000;0.682556
4779.000000;0.679273
4778.000000;0.676338
4777.000000;0.673485
4776.000000;0.670204
4775.000000;0.666511
4774.000000;0.662922
4773.000000;0.659688
4772.000000;0.656578
4771.000000;0.653418
4770.000000;0.650348
4769.000000;0.647451
4768.000000;0.644585
4767.000000;0.641655
4766.000000;0.638708
4765.000000;0.635679
4764.000000;0.632427
4763.000000;0.629043
4762.000000;0.625801
4761.000000;0.622765
4760.000000;0.619777
4759.000000;0.616818
4758.000000;0.614051
4757.000000;0.611482
4756.000000;0.608897
4755.000000;0.606147
4754.000000;0.603211
4753.000000;0.600044
4752.000000;0.596677
4751.000000;0.593424
4750.000000;0.590639
4749.000000;0.588277
4748.000000;0.585959
4747.000000;0.583424
4746.000000;0.580675
4745.000000;0.577761
4744.000000;0.574764
4743.000000;0.571907
4742.000000;0.569341
4741.000000;0.566883
4740.000000;0.564270
4739.000000;0.561586
4738.000000;0.559096
4737.000000;0.556768
4736.000000;0.554312
4735.000000;0.551624
4734.000000;0.548854
4733.000000;0.546118
4732.000000;0.543492
4731.000000;0.541180
4730.000000;0.539306
4729.000000;0.537556
4728.000000;0.535431
4727.000000;0.532865
4726.000000;0.530233
4725.000000;0.527790
4724.000000;0.525458
4723.000000;0.523159
4722.000000;0.520953
4721.000000;0.518811
4720.000000;0.516578
4719.000000;0.514238
4718.000000;0.511943
4717.000000;0.509743
4716.000000;0.507538
4715.000000;0.505329
4714.000000;0.503232
4713.000000;0.501248
4712.000000;0.499251
4711.000000;0.497222
4710.000000;0.495259
4709.000000;0.493364
4708.000000;0.491422
4707.000000;0.489395
4706.000000;0.487328
4705.000000;0.485205
4704.000000;0.483009
4703.000000;0.480872
4702.000000;0.478943
4701.000000;0.477186
4700.000000;0.475500
4699.000000;0.473924
4698.000000;0.472497
4697.000000;0.471027
4696.000000;0.469285
4695.000000;0.467330
4694.000000;0.465393
4693.000000;0.463537
4692.000000;0.461692
4691.000000;0.459913
4690.000000;0.458297
4689.000000;0.456729
4688.000000;0.455022
4687.000000;0.453236
4686.000000;0.451560
4685.000000;0.449967
4684.000000;0.448293
4683.000000;0.446603
4682.000000;0.445128
4681.000000;0.443877
4680.000000;0.442636
4679.000000;0.441309
4678.000000;0.439978
4677.000000;0.438632
4676.000000;0.437158
4675.000000;0.435586
4674.000000;0.434078
4673.000000;0.432667
4672.000000;0.431262
4671.000000;0.429891
4670.000000;0.428653
4669.000000;0.427471
4668.000000;0.426179
4667.000000;0.424838
4666.000000;0.423676
4665.000000;0.422726
4664.000000;0.421770
4663.000000;0.420657
4662.000000;0.419422
4661.000000;0.418092
4660.000000;0.416639
4659.000000;0.415151
4658.000000;0.413811
4657.000000;0.412695
4656.000000;0.411767
4655.000000;0.411015
4654.000000;0.410384
4653.000000;0.409635
4652.000000;0.408536
4651.000000;0.407185
4650.000000;0.405882
4649.000000;0.404748
4648.000000;0.403688
4647.000000;0.402685
4646.000000;0.401824
4645.000000;0.401035
4644.000000;0.400117
4643.000000;0.399063
4642.000000;0.398091
4641.000000;0.397318
4640.000000;0.396635
4639.000000;0.395914
4638.000000;0.395142
4637.000000;0.394317
4636.000000;0.393411
4635.000000;0.392487
4634.000000;0.391664
4633.000000;0.390956
4632.000000;0.390290
4631.000000;0.389663
4630.000000;0.389114
4629.000000;0.388582
4628.000000;0.387948
4627.000000;0.387204
4626.000000;0.386431
4625.000000;0.385652
4624.000000;0.384877
4623.000000;0.384192
4622.000000;0.383631
4621.000000;0.383058
4620.000000;0.382370
4619.000000;0.381721
4618.000000;0.381332
4617.000000;0.381136
4616.000000;0.380856
4615.000000;0.380355
4614.000000;0.379721
4613.000000;0.379068
4612.000000;0.378468
4611.000000;0.378005
4610.000000;0.377674
4609.000000;0.377306
4608.000000;0.376802
4607.000000;0.376330
4606.000000;0.376081
4605.000000;0.375931
4604.000000;0.375613
4603.000000;0.375134
4602.000000;0.374738
4601.000000;0.374533
4600.000000;0.374426
4599.000000;0.374351
4598.000000;0.374296
4597.000000;0.374157
4596.000000;0.373845
4595.000000;0.373498
4594.000000;0.373326
4593.000000;0.373293
4592.000000;0.373196
4591.000000;0.373007
4590.000000;0.372867
4589.000000;0.372806
4588.000000;0.372744
4587.000000;0.372712
4586.000000;0.372809
4585.000000;0.372949
4584.000000;0.372942
4583.000000;0.372819
4582.000000;0.372806
4581.000000;0.372971
4580.000000;0.373168
4579.000000;0.373326
4578.000000;0.373526
4577.000000;0.373779
4576.000000;0.373983
4575.000000;0.374118
4574.000000;0.374276
4573.000000;0.374483
4572.000000;0.374699
4571.000000;0.374964
4570.000000;0.375343
4569.000000;0.375744
4568.000000;0.376022
4567.000000;0.376221
4566.000000;0.376517
4565.000000;0.376952
4564.000000;0.377433
4563.000000;0.377945
4562.000000;0.378518
4561.000000;0.379052
4560.000000;0.379422
4559.000000;0.379727
4558.000000;0.380183
4557.000000;0.380814
4556.000000;0.381466
4555.000000;0.382097
4554.000000;0.382788
4553.000000;0.383533
4552.000000;0.384255
4551.000000;0.385019
4550.000000;0.385958
4549.000000;0.387005
4548.000000;0.387946
4547.000000;0.388737
4546.000000;0.389521
4545.000000;0.390363
4544.000000;0.391205
4543.000000;0.392046
4542.000000;0.392940
4541.000000;0.393832
4540.000000;0.394624
4539.000000;0.395390
4538.000000;0.396285
4537.000000;0.397291
4536.000000;0.398254
4535.000000;0.399135
4534.000000;0.399980
4533.000000;0.400733
4532.000000;0.401340
4531.000000;0.401962
4530.000000;0.402802
4529.000000;0.403771
4528.000000;0.404627
4527.000000;0.405385
4526.000000;0.406312
4525.000000;0.407496
4524.000000;0.408740
4523.000000;0.409880
4522.000000;0.410944
4521.000000;0.411970
4520.000000;0.412912
4519.000000;0.413763
4518.000000;0.414572
4517.000000;0.415341
4516.000000;0.416091
4515.000000;0.416955
4514.000000;0.417997
4513.000000;0.419018
4512.000000;0.419808
4511.000000;0.420497
4510.000000;0.421409
4509.000000;0.422598
4508.000000;0.423840
4507.000000;0.425003
4506.000000;0.426143
4505.000000;0.427252
4504.000000;0.428236
4503.000000;0.429135
4502.000000;0.430112
4501.000000;0.431200
4500.000000;0.432286
4499.000000;0.433346
4498.000000;0.434465
4497.000000;0.435658
4496.000000;0.436889
4495.000000;0.438198
4494.000000;0.439599
4493.000000;0.440945
4492.000000;0.442139
4491.000000;0.443375
4490.000000;0.444897
4489.000000;0.446625
4488.000000;0.448284
4487.000000;0.449812
4486.000000;0.451330
4485.000000;0.452810
4484.000000;0.454137
4483.000000;0.455417
4482.000000;0.456867
4481.000000;0.458449
4480.000000;0.459938
4479.000000;0.461329
4478.000000;0.462838
4477.000000;0.464533
4476.000000;0.466288
4475.000000;0.468066
4474.000000;0.469922
4473.000000;0.471766
4472.000000;0.473445
4471.000000;0.475047
4470.000000;0.476811
4469.000000;0.478741
4468.000000;0.480648
4467.000000;0.482515
4466.000000;0.484501
4465.000000;0.486592
4464.000000;0.488600
4463.000000;0.490499
4462.000000;0.492443
4461.000000;0.494448
4460.000000;0.496371
4459.000000;0.498230
4458.000000;0.500214
4457.000000;0.502392
4456.000000;0.504652
4455.000000;0.506929
4454.000000;0.509216
4453.000000;0.511410
4452.000000;0.513433
4451.000000;0.515439
4450.000000;0.517611
4449.000000;0.519847
4448.000000;0.521970
4447.000000;0.524107
4446.000000;0.526489
4445.000000;0.528974
4444.000000;0.531203
4443.000000;0.533195
4442.000000;0.535348
4441.000000;0.537877
4440.000000;0.540640
4439.000000;0.543517
4438.000000;0.546522
4437.000000;0.549497
4436.000000;0.552119
4435.000000;0.554324
4434.000000;0.556414
4433.000000;0.558684
4432.000000;0.561192
4431.000000;0.563905
4430.000000;0.566753
4429.000000;0.569572
4428.000000;0.572279
4427.000000;0.575073
4426.000000;0.578186
4425.000000;0.581487
4424.000000;0.584644
4423.000000;0.587571
4422.000000;0.590398
4421.000000;0.593134
4420.000000;0.595757
4419.000000;0.598500
4418.000000;0.601589
4417.000000;0.604770
4416.000000;0.607580
4415.000000;0.610072
4414.000000;0.612816
4413.000000;0.616137
4412.000000;0.619779
4411.000000;0.623345
4410.000000;0.626678
4409.000000;0.629771
4408.000000;0.632699
4407.000000;0.635680
4406.000000;0.638901
4405.000000;0.642242
4404.000000;0.645431
4403.000000;0.648451
4402.000000;0.651527
4401.000000;0.654800
4400.000000;0.658294
4399.000000;0.662042
4398.000000;0.665939
4397.000000;0.669645
4396.000000;0.672971
4395.000000;0.676171
4394.000000;0.679534
4393.000000;0.682949
4392.000000;0.686254
4391.000000;0.689682
4390.000000;0.693463
4389.000000;0.697279
4388.000000;0.700682
4387.000000;0.703834
4386.000000;0.707253
4385.000000;0.711054
4384.000000;0.715006
4383.000000;0.719056
4382.000000;0.723197
4381.000000;0.727062
4380.000000;0.730369
4379.000000;0.733585
4378.000000;0.737411
4377.000000;0.741762
4376.000000;0.745960
4375.000000;0.749794
4374.000000;0.753643
4373.000000;0.757631
4372.000000;0.761483
4371.000000;0.765220
4370.000000;0.769234
4369.000000;0.773623
4368.000000;0.778074
4367.000000;0.782443
4366.000000;0.786837
4365.000000;0.791164
4364.000000;0.795249
4363.000000;0.799364
4362.000000;0.803937
4361.000000;0.808787
4360.000000;0.813286
4359.000000;0.817289
4358.000000;0.821272
4357.000000;0.825571
4356.000000;0.830119
4355.000000;0.834837
4354.000000;0.839677
4353.000000;0.844343
4352.000000;0.848582
4351.000000;0.852680
4350.000000;0.857103
4349.000000;0.861865
4348.000000;0.866828
4347.000000;0.872260
4346.000000;0.878341
4345.000000;0.884443
4344.000000;0.889743
4343.000000;0.894321
4342.000000;0.898816
4341.000000;0.903338
4340.000000;0.907666
4339.000000;0.912179
4338.000000;0.917443
4337.000000;0.923086
4336.000000;0.928199
4335.000000;0.932785
4334.000000;0.937752
4333.000000;0.943501
4332.000000;0.949509
4331.000000;0.955247
4330.000000;0.960581
4329.000000;0.965428
4328.000000;0.969910
4327.000000;0.974716
4326.000000;0.980315
4325.000000;0.986097
4324.000000;0.991300
4323.000000;0.996424
4322.000000;1.002475
4321.000000;1.009142
4320.000000;1.015130
4319.000000;1.020213
4318.000000;1.025508
4317.000000;1.031664
4316.000000;1.038127
4315.000000;1.044253
4314.000000;1.049944
4313.000000;1.055139
4312.000000;1.059885
4311.000000;1.064907
4310.000000;1.070929
4309.000000;1.077515
4308.000000;1.083678
4307.000000;1.089424
4306.000000;1.095452
4305.000000;1.101671
4304.000000;1.107451
4303.000000;1.113041
4302.000000;1.119196
4301.000000;1.125596
4300.000000;1.131259
4299.000000;1.136352
4298.000000;1.141975
4297.000000;1.148354
4296.000000;1.154893
4295.000000;1.161716
4294.000000;1.169354
4293.000000;1.177066
4292.000000;1.183412
4291.000000;1.188600
4290.000000;1.194320
4289.000000;1.201186
4288.000000;1.208155
4287.000000;1.214581
4286.000000;1.221002
4285.000000;1.227694
4284.000000;1.234212
4283.000000;1.240580
4282.000000;1.247322
4281.000000;1.254264
4280.000000;1.260827
4279.000000;1.267307
4278.000000;1.274233
4277.000000;1.280922
4276.000000;1.286526
4275.000000;1.291967
4274.000000;1.298701
4273.000000;1.306209
4272.000000;1.313040
4271.000000;1.319768
4270.000000;1.328177
4269.000000;1.337847
4268.000000;1.346358
4267.000000;1.352913
4266.000000;1.358934
4265.000000;1.365050
4264.000000;1.370514
4263.000000;1.375715
4262.000000;1.382337
4261.000000;1.390494
4260.000000;1.398225
4259.000000;1.404495
4258.000000;1.410367
4257.000000;1.416872
4256.000000;1.424155
4255.000000;1.432732
4254.000000;1.443024
4253.000000;1.453519
4252.000000;1.461950
4251.000000;1.468434
4250.000000;1.474850
4249.000000;1.481488
4248.000000;1.487321
4247.000000;1.493163
4246.000000;1.501084
4245.000000;1.510641
4244.000000;1.519030
4243.000000;1.525240
4242.000000;1.531272
4241.000000;1.538849
4240.000000;1.547946
4239.000000;1.558159
4238.000000;1.568677
4237.000000;1.577421
4236.000000;1.583350
4235.000000;1.588990
4234.000000;1.597523
4233.000000;1.608369
4232.000000;1.618683
4231.000000;1.627767
4230.000000;1.636411
4229.000000;1.643573
4228.000000;1.648184
4227.000000;1.652738
4226.000000;1.660376
4225.000000;1.669842
4224.000000;1.677707
4223.000000;1.684037
4222.000000;1.691012
4221.000000;1.697868
4220.000000;1.702880
4219.000000;1.708558
4218.000000;1.718697
4217.000000;1.731717
4216.000000;1.742643
4215.000000;1.750260
4214.000000;1.756310
4213.000000;1.759960
4212.000000;1.760630
4211.000000;1.763791
4210.000000;1.775381
4209.000000;1.791818
4208.000000;1.802921
4207.000000;1.806006
4206.000000;1.808849
4205.000000;1.817523
4204.000000;1.830565
4203.000000;1.844341
4202.000000;1.856760
4201.000000;1.865835
4200.000000;1.871505
4199.000000;1.878866
4198.000000;1.892297
4197.000000;1.907348
4196.000000;1.915685
4195.000000;1.917799
4194.000000;1.921764
4193.000000;1.930398
4192.000000;1.939453
4191.000000;1.946939
4190.000000;1.955631
4189.000000;1.967207
4188.000000;1.982144
4187.000000;2.002672
4186.000000;2.026448
4185.000000;2.041352
4184.000000;2.038556
4183.000000;2.027036
4182.000000;2.022568
4181.000000;2.028433
4180.000000;2.037187
4179.000000;2.047375
4178.000000;2.064398
4177.000000;2.085520
4176.000000;2.100050
4175.000000;2.105544
4174.000000;2.109101
4173.000000;2.112560
4172.000000;2.112177
4171.000000;2.111435
4170.000000;2.117917
4169.000000;2.129123
4168.000000;2.135457
4167.000000;2.136039
4166.000000;2.138871
4165.000000;2.147706
4164.000000;2.161908
4163.000000;2.185224
4162.000000;2.217464
4161.000000;2.239726
4160.000000;2.234153
4159.000000;2.217103
4158.000000;2.217109
4157.000000;2.237683
4156.000000;2.258824
4155.000000;2.265112
4154.000000;2.260599
4153.000000;2.253811
4152.000000;2.247232
4151.000000;2.245272
4150.000000;2.254543
4149.000000;2.272668
4148.000000;2.290538
4147.000000;2.306319
4146.000000;2.322653
4145.000000;2.333399
4144.000000;2.331890
4143.000000;2.328372
4142.000000;2.337658
4141.000000;2.355858
4140.000000;2.369978
4139.000000;2.386197
4138.000000;2.419872
4137.000000;2.461342
4136.000000;2.479835
4135.000000;2.469562
4134.000000;2.457959
4133.000000;2.459636
4132.000000;2.466603
4131.000000;2.477033
4130.000000;2.496764
4129.000000;2.516007
4128.000000;2.519320
4127.000000;2.519876
4126.000000;2.543139
4125.000000;2.579123
4124.000000;2.584977
4123.000000;2.553884
4122.000000;2.524790
4121.000000;2.519571
4120.000000;2.531973
4119.000000;2.550262
4118.000000;2.566964
4117.000000;2.571419
4116.000000;2.554277
4115.000000;2.530584
4114.000000;2.521352
4113.000000;2.521093
4112.000000;2.515580
4111.000000;2.520726
4110.000000;2.564254
4109.000000;2.636341
4108.000000;2.688975
4107.000000;2.694308
4106.000000;2.661047
4105.000000;2.602719
4104.000000;2.545554
4103.000000;2.529606
4102.000000;2.577895
4101.000000;2.666552
4100.000000;2.717319
4099.000000;2.689472
4098.000000;2.642783
4097.000000;2.619444
4096.000000;2.615531
4095.000000;2.628901
4094.000000;2.665391
4093.000000;2.709798
4092.000000;2.729356
4091.000000;2.721922
4090.000000;2.709953
4089.000000;2.700005
4088.000000;2.696379
4087.000000;2.718271
4086.000000;2.762207
4085.000000;2.764010
4084.000000;2.700069
4083.000000;2.650815
4082.000000;2.663387
4081.000000;2.711424
4080.000000;2.735872
4079.000000;2.724944
4078.000000;2.721455
4077.000000;2.750435
4076.000000;2.794889
4075.000000;2.831042
4074.000000;2.836156
4073.000000;2.791687
4072.000000;2.728708
4071.000000;2.703824
4070.000000;2.739375
4069.000000;2.797712
4068.000000;2.812201
4067.000000;2.794139
4066.000000;2.804172
4065.000000;2.830981
4064.000000;2.812072
4063.000000;2.769444
4062.000000;2.761325
4061.000000;2.784209
4060.000000;2.800865
4059.000000;2.804557
4058.000000;2.800661
4057.000000;2.769908
4056.000000;2.719984
4055.000000;2.701019
4054.000000;2.741109
4053.000000;2.803667
4052.000000;2.820328
4051.000000;2.804407
4050.000000;2.818207
4049.000000;2.862974
4048.000000;2.878480
4047.000000;2.860306
4046.000000;2.867099
4045.000000;2.876093
4044.000000;2.843049
4043.000000;2.824188
4042.000000;2.867598
4041.000000;2.933055
4040.000000;2.948683
4039.000000;2.914740
4038.000000;2.885538
4037.000000;2.871083
4036.000000;2.854177
4035.000000;2.853588
4034.000000;2.884196
4033.000000;2.903250
4032.000000;2.865749
4031.000000;2.816044
4030.000000;2.807762
4029.000000;2.829588
4028.000000;2.832269
4027.000000;2.819463
4026.000000;2.837265
4025.000000;2.883345
4024.000000;2.906646
4023.000000;2.899803
4022.000000;2.914026
4021.000000;2.936273
4020.000000;2.888190
4019.000000;2.805957
4018.000000;2.776375
4017.000000;2.801579
4016.000000;2.822627
4015.000000;2.817825
4014.000000;2.831196
4013.000000;2.877791
4012.000000;2.924648
4011.000000;2.961930
4010.000000;3.008571
4009.000000;3.038130
4008.000000;3.012677
4007.000000;2.972472
4006.000000;2.969309
4005.000000;2.986647
4004.000000;2.957505
4003.000000;2.893062
4002.000000;2.866713
4001.000000;2.904178
4000.000000;2.976044
3999.000000;3.046445
3998.000000;3.118133
3997.000000;3.176695
3996.000000;3.258115
3995.000000;3.302432
3994.000000;3.166318
3993.000000;3.061890
3992.000000;3.033309
3991.000000;3.043230
3990.000000;3.099311
3989.000000;3.126308
3988.000000;3.070155
3987.000000;3.032021
3986.000000;3.111316
3985.000000;3.254800
3984.000000;3.225933
3983.000000;3.120555
3982.000000;3.070014
3981.000000;3.068097
3980.000000;3.087672
3979.000000;3.139782
3978.000000;3.246996
3977.000000;3.311679
3976.000000;3.200655
3975.000000;3.060425
3974.000000;3.039924
3973.000000;3.163197
3972.000000;3.382969
3971.000000;3.464602
3970.000000;3.321146
3969.000000;3.190546
3968.000000;3.127079
3967.000000;3.148452
3966.000000;3.217673
3965.000000;3.218665
3964.000000;3.158848
3963.000000;3.134837
3962.000000;3.213403
3961.000000;3.386004
3960.000000;3.540516
3959.000000;3.578998
3958.000000;3.690473
3957.000000;3.901493
3956.000000;3.804997
3955.000000;3.697309
3954.000000;3.684453
3953.000000;3.634479
3952.000000;3.521266
3951.000000;3.501746
3950.000000;3.626938
3949.000000;3.759533
3948.000000;3.643993
3947.000000;3.454479
3946.000000;3.344655
3945.000000;3.277838
3944.000000;3.231620
3943.000000;3.225632
3942.000000;3.276959
3941.000000;3.336394
3940.000000;3.323925
3939.000000;3.292673
3938.000000;3.333552
3937.000000;3.428924
3936.000000;3.419340
3935.000000;3.277500
3934.000000;3.191259
3933.000000;3.214566
3932.000000;3.297933
3931.000000;3.450864
3930.000000;3.631813
3929.000000;3.558594
3928.000000;3.469516
3927.000000;3.462076
3926.000000;3.426517
3925.000000;3.309504
3924.000000;3.189777
3923.000000;3.185831
3922.000000;3.390741
3921.000000;3.622007
3920.000000;3.543076
3919.000000;3.480088
3918.000000;3.344702
3917.000000;3.245984
3916.000000;3.259597
3915.000000;3.358198
3914.000000;3.487616
3913.000000;3.600583
3912.000000;3.629805
3911.000000;3.598059
3910.000000;3.666793
3909.000000;3.737476
3908.000000;3.505065
3907.000000;3.281604
3906.000000;3.287253
3905.000000;3.469835
3904.000000;3.591993
3903.000000;3.631279
3902.000000;3.820940
3901.000000;4.288788
3900.000000;4.311124
3899.000000;4.306027
3898.000000;4.685087
3897.000000;4.732297
3896.000000;4.199583
3895.000000;4.147267
3894.000000;4.039221
3893.000000;3.651269
3892.000000;3.504424
3891.000000;3.594950
3890.000000;3.752910
3889.000000;3.665521
3888.000000;3.493145
3887.000000;3.441328
3886.000000;3.498589
3885.000000;3.525426
3884.000000;3.413201
3883.000000;3.304472
3882.000000;3.352607
3881.000000;3.515039
3880.000000;3.689441
3879.000000;3.919074
3878.000000;4.302465
3877.000000;4.217143
3876.000000;3.710134
3875.000000;3.508431
3874.000000;3.476547
3873.000000;3.539480
3872.000000;3.674392
3871.000000;3.692261
3870.000000;3.612718
3869.000000;3.586521
3868.000000;3.570434
3867.000000;3.643490
3866.000000;3.684888
3865.000000;3.688311
3864.000000;3.771661
3863.000000;3.704924
3862.000000;3.688348
3861.000000;3.728243
3860.000000;3.722267
3859.000000;3.697388
3858.000000;3.731913
3857.000000;3.954657
3856.000000;4.379459
3855.000000;4.404849
3854.000000;3.908892
3853.000000;3.605355
3852.000000;3.430956
3851.000000;3.610618
3850.000000;4.034640
3849.000000;3.755903
3848.000000;3.751401
3847.000000;3.695432
3846.000000;3.634641
3845.000000;3.519357
3844.000000;3.637029
3843.000000;4.123099
3842.000000;3.592886
3841.000000;3.449622
3840.000000;3.758111
3839.000000;3.873149
3838.000000;3.736250
3837.000000;3.899009
3836.000000;4.145914
3835.000000;4.464277
3834.000000;4.231670
3833.000000;3.824725
3832.000000;3.721436
3831.000000;3.726676
3830.000000;3.746518
3829.000000;3.678597
3828.000000;3.747802
3827.000000;4.254650
3826.000000;4.646518
3825.000000;4.066838
3824.000000;3.773453
3823.000000;3.702136
3822.000000;3.993449
3821.000000;4.162002
3820.000000;3.816728
3819.000000;3.701622
3818.000000;3.750822
3817.000000;3.928897
3816.000000;4.044984
3815.000000;4.084612
3814.000000;4.217463
3813.000000;8.000000
3812.000000;3.989515
3811.000000;3.497893
3810.000000;3.501996
3809.000000;3.670013
3808.000000;3.676844
3807.000000;3.489914
3806.000000;3.386687
3805.000000;3.361936
3804.000000;3.647052
3803.000000;3.705354
3802.000000;3.471925
3801.000000;3.583735
3800.000000;3.713242
3799.000000;3.737270
3798.000000;3.675498
3797.000000;3.862114
3796.000000;4.035682
3795.000000;3.797611
3794.000000;3.566932
3793.000000;3.412468
3792.000000;3.434668
3791.000000;3.591196
3790.000000;3.686005
3789.000000;3.575534
3788.000000;3.284132
3787.000000;3.084125
3786.000000;3.094266
3785.000000;3.294580
3784.000000;3.502784
3783.000000;3.574085
3782.000000;3.676601
3781.000000;3.757101
3780.000000;3.652208
3779.000000;3.676343
3778.000000;3.858492
3777.000000;3.912040
3776.000000;3.991282
3775.000000;3.614177
3774.000000;3.377568
3773.000000;3.351324
3772.000000;3.363305
3771.000000;3.417538
3770.000000;3.547804
3769.000000;3.634624
3768.000000;3.550689
3767.000000;3.480317
3766.000000;3.746619
3765.000000;4.775625
3764.000000;4.134508
3763.000000;3.918103
3762.000000;3.753140
3761.000000;3.579006
3760.000000;3.498456
3759.000000;3.855656
3758.000000;4.175137
3757.000000;3.610714
3756.000000;3.616385
3755.000000;3.590863
3754.000000;3.550017
3753.000000;3.638658
3752.000000;3.728699
3751.000000;3.827849
3750.000000;3.753066
3749.000000;3.682677
3748.000000;3.606549
3747.000000;3.757917
3746.000000;4.648838
3745.000000;4.159866
3744.000000;3.964385
3743.000000;3.855821
3742.000000;3.854614
3741.000000;4.170294
3740.000000;3.720248
3739.000000;3.673126
3738.000000;3.843910
3737.000000;3.722426
3736.000000;3.724866
3735.000000;3.769810
3734.000000;4.127127
3733.000000;4.760448
3732.000000;4.190984
3731.000000;4.163920
3730.000000;4.143029
3729.000000;4.251830
3728.000000;4.419608
3727.000000;4.758997
3726.000000;4.204732
3725.000000;3.744846
3724.000000;3.770014
3723.000000;3.881389
3722.000000;4.140351
3721.000000;4.183706
3720.000000;3.717127
3719.000000;3.546940
3718.000000;3.462966
3717.000000;3.403719
3716.000000;3.462364
3715.000000;3.709327
3714.000000;3.830851
3713.000000;3.826198
3712.000000;3.864911
3711.000000;3.731134
3710.000000;3.700699
3709.000000;3.886508
3708.000000;4.276327
3707.000000;4.226956
3706.000000;4.149655
3705.000000;4.374796
3704.000000;3.817113
3703.000000;3.468325
3702.000000;3.471406
3701.000000;3.763944
3700.000000;4.413475
3699.000000;4.751195
3698.000000;4.176891
3697.000000;4.133301
3696.000000;3.966488
3695.000000;3.669192
3694.000000;3.512855
3693.000000;3.590839
3692.000000;4.112289
3691.000000;4.040127
3690.000000;3.807502
3689.000000;3.913304
3688.000000;3.903132
3687.000000;3.892549
3686.000000;3.755389
3685.000000;3.633952
3684.000000;3.705882
3683.000000;3.910849
3682.000000;4.011633
3681.000000;3.760367
3680.000000;3.616119
3679.000000;3.465337
3678.000000;3.374780
3677.000000;3.481593
3676.000000;3.714726
3675.000000;3.810525
3674.000000;3.736435
3673.000000;3.627784
3672.000000;3.695261
3671.000000;4.361505
3670.000000;4.425902
3669.000000;3.879997
3668.000000;3.717540
3667.000000;3.846314
3666.000000;4.337328
3665.000000;4.009630
3664.000000;3.738258
3663.000000;3.568602
3662.000000;3.424241
3661.000000;3.278144
3660.000000;3.215379
3659.000000;3.295907
3658.000000;3.435060
3657.000000;3.477704
3656.000000;3.612507
3655.000000;3.997104
3654.000000;3.538379
3653.000000;3.258772
3652.000000;3.351556
3651.000000;3.889911
3650.000000;4.510248
3649.000000;3.846554
3648.000000;3.709598
3647.000000;3.881403
3646.000000;4.369287
3645.000000;4.324745
3644.000000;4.213680
3643.000000;4.152104
3642.000000;3.944033
3641.000000;3.768098
3640.000000;3.758918
3639.000000;3.689552
3638.000000;3.368176
3637.000000;3.228641
3636.000000;3.213478
3635.000000;3.296649
3634.000000;3.509823
3633.000000;3.589675
3632.000000;3.655281
3631.000000;3.678957
3630.000000;3.952818
3629.000000;4.486924
3628.000000;3.924388
3627.000000;3.888601
3626.000000;3.910476
3625.000000;4.199573
3624.000000;4.006169
3623.000000;3.595557
3622.000000;3.494973
3621.000000;3.544138
3620.000000;3.732071
3619.000000;3.823660
3618.000000;3.547096
3617.000000;3.394314
3616.000000;3.422318
3615.000000;3.635108
3614.000000;4.303896
3613.000000;4.091751
3612.000000;3.791695
3611.000000;3.895942
3610.000000;4.059099
3609.000000;4.633479
3608.000000;4.267697
3607.000000;4.057815
3606.000000;4.101930
3605.000000;3.679517
3604.000000;3.575943
3603.000000;3.636535
3602.000000;3.681135
3601.000000;3.786646
3600.000000;3.979737
3599.000000;3.951585
3598.000000;3.643086
3597.000000;3.705769
3596.000000;3.883544
3595.000000;3.682955
3594.000000;3.657710
3593.000000;3.784159
3592.000000;3.939877
3591.000000;3.956311
3590.000000;3.895783
3589.000000;3.887901
3588.000000;3.986853
3587.000000;4.234090
3586.000000;4.047708
3585.000000;3.749732
3584.000000;3.603750
3583.000000;3.563993
3582.000000;3.559496
3581.000000;3.623777
3580.000000;3.668614
3579.000000;3.458999
3578.000000;3.328058
3577.000000;3.547900
3576.000000;3.822408
3575.000000;3.406089
3574.000000;3.383882
3573.000000;3.463285
3572.000000;3.343370
3571.000000;3.233022
3570.000000;3.191396
3569.000000;3.210096
3568.000000;3.245372
3567.000000;3.286042
3566.000000;3.336656
3565.000000;3.472131
3564.000000;3.716774
3563.000000;4.080566
3562.000000;4.327237
3561.000000;4.436335
3560.000000;4.187434
3559.000000;3.667124
3558.000000;3.750570
3557.000000;3.847586
3556.000000;3.852632
3555.000000;3.934737
3554.000000;3.470211
3553.000000;3.314708
3552.000000;3.314880
3551.000000;3.536763
3550.000000;3.680357
3549.000000;3.342153
3548.000000;3.351562
3547.000000;3.472631
3546.000000;3.363739
3545.000000;3.297131
3544.000000;3.312668
3543.000000;3.336254
3542.000000;3.422157
3541.000000;3.507464
3540.000000;3.397943
3539.000000;3.302544
3538.000000;3.327746
3537.000000;3.532000
3536.000000;3.730654
3535.000000;3.580478
3534.000000;3.385605
3533.000000;3.306417
3532.000000;3.391982
3531.000000;3.627794
3530.000000;3.721452
3529.000000;3.844495
3528.000000;4.493639
3527.000000;3.911520
3526.000000;3.850341
3525.000000;4.128707
3524.000000;4.490691
3523.000000;4.159578
3522.000000;4.015768
3521.000000;4.424274
3520.000000;4.092394
3519.000000;3.758057
3518.000000;3.746120
3517.000000;3.654363
3516.000000;3.436134
3515.000000;3.232005
3514.000000;3.221306
3513.000000;3.617130
3512.000000;3.657769
3511.000000;3.362918
3510.000000;3.440691
3509.000000;3.365987
3508.000000;3.253989
3507.000000;3.286706
3506.000000;3.553413
3505.000000;3.958545
3504.000000;3.494889
3503.000000;3.305490
3502.000000;3.330735
3501.000000;3.535222
3500.000000;3.897996
3499.000000;3.630457
3498.000000;3.542930
3497.000000;3.757568
3496.000000;3.801758
3495.000000;3.404222
3494.000000;3.194790
3493.000000;3.248400
3492.000000;3.595648
3491.000000;3.492418
3490.000000;3.452602
3489.000000;3.850899
3488.000000;3.575655
3487.000000;3.412238
3486.000000;3.496026
3485.000000;3.521053
3484.000000;3.503872
3483.000000;3.565206
3482.000000;3.745855
3481.000000;3.699430
3480.000000;3.626125
3479.000000;3.617460
3478.000000;3.566028
3477.000000;3.562661
3476.000000;3.193041
3475.000000;2.901641
3474.000000;2.831336
3473.000000;2.944379
3472.000000;3.260534
3471.000000;3.651468
3470.000000;3.655049
3469.000000;3.728587
3468.000000;3.766765
3467.000000;3.957612
3466.000000;4.388313
3465.000000;3.813365
3464.000000;3.417029
3463.000000;3.302733
3462.000000;3.384316
3461.000000;3.508652
3460.000000;3.432387
3459.000000;3.348661
3458.000000;3.276799
3457.000000;3.094567
3456.000000;3.011199
3455.000000;3.055743
3454.000000;3.090211
3453.000000;3.060869
3452.000000;3.050205
3451.000000;3.115189
3450.000000;3.256311
3449.000000;3.549059
3448.000000;3.827906
3447.000000;3.730415
3446.000000;3.941841
3445.000000;4.479730
3444.000000;4.471370
3443.000000;4.003774
3442.000000;4.151512
3441.000000;3.643151
3440.000000;3.498855
3439.000000;3.576880
3438.000000;3.741519
3437.000000;4.290233
3436.000000;4.161779
3435.000000;3.562126
3434.000000;3.741892
3433.000000;3.851882
3432.000000;3.414431
3431.000000;3.358701
3430.000000;3.290110
3429.000000;3.194017
3428.000000;3.104865
3427.000000;3.034538
3426.000000;3.001259
3425.000000;3.023489
3424.000000;3.084776
3423.000000;3.210752
3422.000000;3.503895
3421.000000;3.359795
3420.000000;3.265478
3419.000000;3.513580
3418.000000;4.089739
3417.000000;3.963681
3416.000000;3.647292
3415.000000;3.414756
3414.000000;3.276257
3413.000000;3.332689
3412.000000;3.666785
3411.000000;3.402138
3410.000000;3.141960
3409.000000;3.136327
3408.000000;3.207848
3407.000000;3.216675
3406.000000;3.101196
3405.000000;3.035540
3404.000000;3.101217
3403.000000;3.200070
3402.000000;3.252321
3401.000000;3.339964
3400.000000;3.550699
3399.000000;4.352132
3398.000000;4.205558
3397.000000;3.679417
3396.000000;3.342477
3395.000000;3.113678
3394.000000;3.043445
3393.000000;3.097734
3392.000000;3.261149
3391.000000;3.603844
3390.000000;3.874474
3389.000000;3.396392
3388.000000;3.548157
3387.000000;4.044899
3386.000000;3.326922
3385.000000;3.176007
3384.000000;3.103999
3383.000000;3.111665
3382.000000;3.259894
3381.000000;3.428735
3380.000000;3.326013
3379.000000;3.173671
3378.000000;3.126383
3377.000000;3.216524
3376.000000;3.699269
3375.000000;4.027600
3374.000000;3.851765
3373.000000;4.037075
3372.000000;3.600403
3371.000000;3.534047
3370.000000;3.713987
3369.000000;3.877582
3368.000000;3.575960
3367.000000;3.284572
3366.000000;3.091382
3365.000000;3.050450
3364.000000;3.201039
3363.000000;3.352249
3362.000000;3.335736
3361.000000;3.327021
3360.000000;3.492043
3359.000000;4.082815
3358.000000;3.939660
3357.000000;3.343041
3356.000000;3.124887
3355.000000;3.108011
3354.000000;3.205766
3353.000000;3.368446
3352.000000;3.384488
3351.000000;3.289441
3350.000000;3.328275
3349.000000;3.323535
3348.000000;3.198814
3347.000000;3.139206
3346.000000;3.198439
3345.000000;3.188778
3344.000000;3.131618
3343.000000;3.127516
3342.000000;3.076025
3341.000000;3.032039
3340.000000;3.144946
3339.000000;3.551179
3338.000000;3.453234
3337.000000;3.378062
3336.000000;3.680098
3335.000000;3.682341
3334.000000;3.382704
3333.000000;3.432780
3332.000000;3.478477
3331.000000;3.303900
3330.000000;3.205439
3329.000000;3.060823
3328.000000;3.011883
3327.000000;3.098021
3326.000000;3.198575
3325.000000;3.224742
3324.000000;3.223123
3323.000000;3.254667
3322.000000;3.386265
3321.000000;3.550697
3320.000000;3.495730
3319.000000;3.443283
3318.000000;3.582718
3317.000000;3.828915
3316.000000;3.562101
3315.000000;3.160629
3314.000000;2.975593
3313.000000;2.949790
3312.000000;3.053257
3311.000000;3.250381
3310.000000;3.289893
3309.000000;3.175061
3308.000000;3.153011
3307.000000;3.219310
3306.000000;3.302997
3305.000000;3.321125
3304.000000;3.159882
3303.000000;3.004959
3302.000000;2.968664
3301.000000;2.988902
3300.000000;3.022708
3299.000000;3.089415
3298.000000;3.342292
3297.000000;3.463852
3296.000000;3.249822
3295.000000;3.596053
3294.000000;3.622854
3293.000000;3.226709
3292.000000;3.156039
3291.000000;3.212006
3290.000000;3.395523
3289.000000;3.724412
3288.000000;3.689925
3287.000000;3.589550
3286.000000;3.744687
3285.000000;3.297913
3284.000000;3.139128
3283.000000;3.255357
3282.000000;3.880013
3281.000000;3.473438
3280.000000;3.419872
3279.000000;3.368927
3278.000000;3.310628
3277.000000;3.620287
3276.000000;3.712126
3275.000000;3.296334
3274.000000;3.233800
3273.000000;3.203209
3272.000000;3.233091
3271.000000;3.325421
3270.000000;3.205222
3269.000000;3.048072
3268.000000;3.089568
3267.000000;3.309331
3266.000000;3.536493
3265.000000;3.706994
3264.000000;3.656651
3263.000000;3.422649
3262.000000;3.246238
3261.000000;3.106241
3260.000000;3.136954
3259.000000;3.378710
3258.000000;4.053763
3257.000000;3.482585
3256.000000;3.222890
3255.000000;3.117452
3254.000000;3.051096
3253.000000;3.120631
3252.000000;3.587861
3251.000000;3.383840
3250.000000;3.232392
3249.000000;3.305979
3248.000000;3.316890
3247.000000;3.570022
3246.000000;3.831414
3245.000000;3.503294
3244.000000;3.173477
3243.000000;2.973673
3242.000000;2.876547
3241.000000;2.850392
3240.000000;2.907976
3239.000000;3.043674
3238.000000;3.159322
3237.000000;3.130036
3236.000000;3.072442
3235.000000;3.053434
3234.000000;3.059065
3233.000000;3.126724
3232.000000;3.173422
3231.000000;3.211154
3230.000000;3.557361
3229.000000;3.436744
3228.000000;3.187881
3227.000000;3.331873
3226.000000;4.105655
3225.000000;3.183458
3224.000000;3.061230
3223.000000;3.184957
3222.000000;3.725417
3221.000000;3.513258
3220.000000;3.461873
3219.000000;3.639250
3218.000000;3.901920
3217.000000;4.078403
3216.000000;3.682509
3215.000000;3.541681
3214.000000;3.349583
3213.000000;3.298163
3212.000000;3.484905
3211.000000;3.926789
3210.000000;3.541847
3209.000000;3.454339
3208.000000;3.586882
3207.000000;3.239739
3206.000000;2.959745
3205.000000;2.866406
3204.000000;2.945921
3203.000000;3.178693
3202.000000;3.370712
3201.000000;3.472987
3200.000000;3.685457
3199.000000;3.339826
3198.000000;3.198115
3197.000000;3.276161
3196.000000;3.431959
3195.000000;3.670585
3194.000000;4.086403
3193.000000;3.413907
3192.000000;3.177015
3191.000000;3.235739
3190.000000;3.430219
3189.000000;3.178993
3188.000000;3.098014
3187.000000;3.240976
3186.000000;3.679987
3185.000000;3.909668
3184.000000;3.519791
3183.000000;3.364201
3182.000000;3.245842
3181.000000;3.249545
3180.000000;3.446802
3179.000000;3.347362
3178.000000;3.298630
3177.000000;3.375159
3176.000000;3.416161
3175.000000;3.486929
3174.000000;3.331480
3173.000000;3.139928
3172.000000;3.030226
3171.000000;3.062609
3170.000000;3.176329
3169.000000;3.196632
3168.000000;3.201873
3167.000000;3.174873
3166.000000;3.186051
3165.000000;3.474500
3164.000000;3.270677
3163.000000;3.022453
3162.000000;3.191530
3161.000000;3.717254
3160.000000;4.511085
3159.000000;3.504460
3158.000000;3.144265
3157.000000;3.009385
3156.000000;3.000145
3155.000000;3.104691
3154.000000;3.514078
3153.000000;3.656542
3152.000000;3.639490
3151.000000;3.888253
3150.000000;3.362517
3149.000000;3.251490
3148.000000;3.411631
3147.000000;3.476018
3146.000000;3.137452
3145.000000;2.969879
3144.000000;2.986942
3143.000000;3.219248
3142.000000;3.484814
3141.000000;3.454534
3140.000000;3.857024
3139.000000;3.789068
3138.000000;3.531859
3137.000000;3.768281
3136.000000;3.345453
3135.000000;3.201747
3134.000000;3.482229
3133.000000;3.469962
3132.000000;3.336491
3131.000000;3.461670
3130.000000;3.473173
3129.000000;3.339787
3128.000000;3.194815
3127.000000;3.184459
3126.000000;3.278063
3125.000000;3.392722
3124.000000;3.708709
3123.000000;3.078032
3122.000000;2.960704
3121.000000;3.124541
3120.000000;3.349076
3119.000000;3.467217
3118.000000;3.611862
3117.000000;3.156780
3116.000000;2.937936
3115.000000;3.031933
3114.000000;3.493426
3113.000000;3.064655
3112.000000;2.892877
3111.000000;2.950195
3110.000000;3.072664
3109.000000;3.204504
3108.000000;3.405098
3107.000000;3.653917
3106.000000;3.433711
3105.000000;3.209203
3104.000000;3.251502
3103.000000;3.431229
3102.000000;3.454557
3101.000000;3.421085
3100.000000;3.662784
3099.000000;3.376748
3098.000000;3.019347
3097.000000;2.911308
3096.000000;2.990720
3095.000000;3.243769
3094.000000;3.418844
3093.000000;3.373231
3092.000000;3.548427
3091.000000;3.472673
3090.000000;3.634487
3089.000000;3.600136
3088.000000;3.205671
3087.000000;3.157307
3086.000000;3.280644
3085.000000;3.644512
3084.000000;3.852151
3083.000000;3.607003
3082.000000;3.302071
3081.000000;3.037454
3080.000000;2.937314
3079.000000;3.064412
3078.000000;3.314898
3077.000000;3.465280
3076.000000;3.233420
3075.000000;3.014005
3074.000000;3.001499
3073.000000;3.197548
3072.000000;3.542436
3071.000000;3.044942
3070.000000;2.880947
3069.000000;3.036298
3068.000000;3.878541
3067.000000;3.097185
3066.000000;3.058357
3065.000000;3.318491
3064.000000;3.349283
3063.000000;3.370678
3062.000000;3.713842
3061.000000;3.295696
3060.000000;3.373164
3059.000000;3.840931
3058.000000;3.857516
3057.000000;3.801221
3056.000000;3.260197
3055.000000;3.025217
3054.000000;3.024869
3053.000000;3.299812
3052.000000;3.590707
3051.000000;3.267908
3050.000000;3.284919
3049.000000;3.244808
3048.000000;3.024732
3047.000000;3.002451
3046.000000;3.152772
3045.000000;3.456674
3044.000000;3.464410
3043.000000;3.295459
3042.000000;3.325738
3041.000000;3.290183
3040.000000;3.187811
3039.000000;3.168909
3038.000000;3.178851
3037.000000;3.350437
3036.000000;3.924196
3035.000000;3.461623
3034.000000;3.489045
3033.000000;3.602994
3032.000000;3.385751
3031.000000;3.283963
3030.000000;3.570988
3029.000000;3.837461
3028.000000;3.238875
3027.000000;3.131321
3026.000000;3.238673
3025.000000;3.842409
3024.000000;4.177387
3023.000000;4.011754
3022.000000;3.686073
3021.000000;3.447939
3020.000000;3.992214
3019.000000;3.637986
3018.000000;3.420726
3017.000000;3.323802
3016.000000;3.437386
3015.000000;3.426954
3014.000000;3.067869
3013.000000;2.974863
3012.000000;3.092657
3011.000000;3.441566
3010.000000;3.301742
3009.000000;3.191762
3008.000000;3.394048
3007.000000;3.381864
3006.000000;3.290769
3005.000000;3.598853
3004.000000;3.679523
3003.000000;3.376175
3002.000000;3.804421
3001.000000;3.796681
3000.000000;3.425555
2999.000000;3.694869
2998.000000;3.551047
2997.000000;3.341193
2996.000000;3.277591
2995.000000;3.201315
2994.000000;3.352845
2993.000000;3.531373
2992.000000;3.143787
2991.000000;3.007255
2990.000000;3.155125
2989.000000;3.483887
2988.000000;3.232538
2987.000000;3.127068
2986.000000;3.293869
2985.000000;3.755160
2984.000000;4.216171
2983.000000;3.774960
2982.000000;3.633517
2981.000000;3.546789
2980.000000;3.401506
2979.000000;3.338163
2978.000000;3.304333
2977.000000;3.346303
2976.000000;3.446260
2975.000000;3.362394
2974.000000;3.104024
2973.000000;2.918719
2972.000000;2.897017
2971.000000;3.035802
2970.000000;3.379489
2969.000000;4.078245
2968.000000;4.445028
2967.000000;3.583744
2966.000000;3.143253
2965.000000;3.030453
2964.000000;3.232525
2963.000000;3.786592
2962.000000;4.219650
2961.000000;3.543006
2960.000000;3.488031
2959.000000;3.930475
2958.000000;3.229504
2957.000000;3.058729
2956.000000;3.175332
2955.000000;3.451467
2954.000000;3.390541
2953.000000;3.352974
2952.000000;3.535529
2951.000000;3.323708
2950.000000;3.043056
2949.000000;3.022643
2948.000000;3.154904
2947.000000;3.260368
2946.000000;3.755953
2945.000000;3.643719
2944.000000;3.013911
2943.000000;2.832813
2942.000000;2.827653
2941.000000;3.000951
2940.000000;3.539653
2939.000000;3.627339
2938.000000;3.291194
2937.000000;3.368264
2936.000000;4.049487
2935.000000;3.630754
2934.000000;3.316511
2933.000000;3.166096
2932.000000;3.066942
2931.000000;3.114506
2930.000000;3.320062
2929.000000;3.698709
2928.000000;3.884688
2927.000000;3.456709
2926.000000;3.204277
2925.000000;3.129211
2924.000000;3.177626
2923.000000;3.274262
2922.000000;3.523353
2921.000000;4.190931
2920.000000;3.695869
2919.000000;3.267455
2918.000000;3.225135
2917.000000;3.394492
2916.000000;3.845335
2915.000000;3.906381
2914.000000;3.236336
2913.000000;2.938468
2912.000000;2.854969
2911.000000;2.888134
2910.000000;2.980850
2909.000000;3.139220
2908.000000;3.401772
2907.000000;3.678255
2906.000000;3.546250
2905.000000;3.295009
2904.000000;3.197978
2903.000000;3.317018
2902.000000;3.663799
2901.000000;3.372961
2900.000000;3.161542
2899.000000;3.244974
2898.000000;3.277866
2897.000000;3.236606
2896.000000;3.192752
2895.000000;2.971611
2894.000000;2.883114
2893.000000;2.990561
2892.000000;3.309231
2891.000000;3.998257
2890.000000;3.690741
2889.000000;3.200649
2888.000000;2.957780
2887.000000;2.873591
2886.000000;2.941583
2885.000000;3.073747
2884.000000;3.176229
2883.000000;3.366985
2882.000000;3.592604
2881.000000;3.394612
2880.000000;3.209083
2879.000000;3.154023
2878.000000;3.125847
2877.000000;3.089499
2876.000000;3.196810
2875.000000;3.441511
2874.000000;3.275185
2873.000000;3.116023
2872.000000;3.127166
2871.000000;3.150065
2870.000000;3.025160
2869.000000;2.943453
2868.000000;2.992043
2867.000000;3.026747
2866.000000;3.011203
2865.000000;2.982385
2864.000000;2.947927
2863.000000;2.985310
2862.000000;3.140896
2861.000000;3.395067
2860.000000;3.373401
2859.000000;3.245469
2858.000000;3.204619
2857.000000;3.090874
2856.000000;3.009407
2855.000000;3.023512
2854.000000;3.103074
2853.000000;3.236966
2852.000000;3.354214
2851.000000;3.090740
2850.000000;2.939417
2849.000000;2.990546
2848.000000;3.212190
2847.000000;3.498751
2846.000000;3.411427
2845.000000;3.306028
2844.000000;3.191508
2843.000000;3.117561
2842.000000;3.295879
2841.000000;3.721272
2840.000000;3.383118
2839.000000;3.358931
2838.000000;3.466253
2837.000000;3.067795
2836.000000;2.989429
2835.000000;3.271733
2834.000000;4.098808
2833.000000;3.531233
2832.000000;3.023157
2831.000000;2.866411
2830.000000;2.892246
2829.000000;2.997501
2828.000000;3.063280
2827.000000;3.192517
2826.000000;3.383706
2825.000000;3.349838
2824.000000;3.266110
2823.000000;3.295441
2822.000000;3.472035
2821.000000;3.781700
2820.000000;3.386196
2819.000000;3.043073
2818.000000;2.985464
2817.000000;3.036738
2816.000000;3.056447
2815.000000;3.065508
2814.000000;3.087060
2813.000000;3.073757
2812.000000;3.020761
2811.000000;3.004194
2810.000000;3.045782
2809.000000;3.061752
2808.000000;2.973780
2807.000000;2.891208
2806.000000;3.003814
2805.000000;3.241462
2804.000000;3.113637
2803.000000;3.105627
2802.000000;3.418694
2801.000000;3.351714
2800.000000;3.212618
2799.000000;3.379481
2798.000000;3.272618
2797.000000;3.136471
2796.000000;3.297281
2795.000000;3.269278
2794.000000;3.410099
2793.000000;3.670900
2792.000000;3.232181
2791.000000;3.231943
2790.000000;3.249265
2789.000000;3.115514
2788.000000;3.132024
2787.000000;3.322716
2786.000000;3.422386
2785.000000;3.595073
2784.000000;3.371905
2783.000000;3.018889
2782.000000;2.950073
2781.000000;3.136931
2780.000000;3.680627
2779.000000;3.589632
2778.000000;4.022874
2777.000000;3.560610
2776.000000;3.222577
2775.000000;3.578554
2774.000000;3.370640
2773.000000;3.004396
2772.000000;2.985386
2771.000000;3.201964
2770.000000;3.239746
2769.000000;3.365934
2768.000000;3.569898
2767.000000;3.070176
2766.000000;2.916363
2765.000000;2.923467
2764.000000;3.095679
2763.000000;3.402982
2762.000000;3.228773
2761.000000;3.075996
2760.000000;3.021238
2759.000000;3.015299
2758.000000;3.107343
2757.000000;3.220566
2756.000000;3.133180
2755.000000;2.970915
2754.000000;2.881443
2753.000000;2.930391
2752.000000;3.138215
2751.000000;3.204877
2750.000000;3.105304
2749.000000;3.171865
2748.000000;3.234318
2747.000000;3.138900
2746.000000;3.160305
2745.000000;3.182526
2744.000000;3.055309
2743.000000;2.963158
2742.000000;3.040031
2741.000000;3.262336
2740.000000;3.350720
2739.000000;3.311288
2738.000000;3.325448
2737.000000;3.307228
2736.000000;3.232847
2735.000000;3.475153
2734.000000;3.758059
2733.000000;3.773953
2732.000000;3.489603
2731.000000;2.947564
2730.000000;2.851469
2729.000000;3.061890
2728.000000;3.151436
2727.000000;2.954821
2726.000000;2.882424
2725.000000;2.968855
2724.000000;3.193337
2723.000000;3.321581
2722.000000;3.220953
2721.000000;3.142159
2720.000000;3.215670
2719.000000;3.252580
2718.000000;3.392566
2717.000000;4.149747
2716.000000;3.379257
2715.000000;3.148201
2714.000000;3.172973
2713.000000;3.171701
2712.000000;3.084693
2711.000000;3.124237
2710.000000;3.386134
2709.000000;3.370005
2708.000000;3.112553
2707.000000;3.003792
2706.000000;3.462728
2705.000000;3.540038
2704.000000;3.041678
2703.000000;3.191663
2702.000000;3.543841
2701.000000;3.640184
2700.000000;3.529521
2699.000000;3.365631
2698.000000;3.303053
2697.000000;3.566910
2696.000000;3.526307
2695.000000;3.122497
2694.000000;3.091575
2693.000000;3.277762
2692.000000;3.269172
2691.000000;3.194617
2690.000000;3.263512
2689.000000;3.598914
2688.000000;4.004207
2687.000000;3.209656
2686.000000;3.010029
2685.000000;3.022512
2684.000000;3.324014
2683.000000;3.715793
2682.000000;3.123832
2681.000000;2.991920
2680.000000;3.102648
2679.000000;3.303686
2678.000000;3.259418
2677.000000;3.049452
2676.000000;2.930546
2675.000000;2.852203
2674.000000;2.789664
2673.000000;2.773475
2672.000000;2.866493
2671.000000;3.066072
2670.000000;3.150672
2669.000000;3.000399
2668.000000;2.882333
2667.000000;2.915351
2666.000000;3.065065
2665.000000;3.039583
2664.000000;2.882093
2663.000000;2.832579
2662.000000;2.940475
2661.000000;3.253256
2660.000000;3.349714
2659.000000;3.036042
2658.000000;2.937263
2657.000000;3.012360
2656.000000;3.172244
2655.000000;3.249991
2654.000000;3.189978
2653.000000;3.459425
2652.000000;3.600473
2651.000000;3.224244
2650.000000;3.136597
2649.000000;2.919830
2648.000000;2.728144
2647.000000;2.707759
2646.000000;2.919236
2645.000000;3.384451
2644.000000;3.442981
2643.000000;3.320072
2642.000000;3.282207
2641.000000;3.342037
2640.000000;3.350929
2639.000000;3.156031
2638.000000;2.961560
2637.000000;2.840152
2636.000000;2.825276
2635.000000;2.976177
2634.000000;3.446705
2633.000000;3.627076
2632.000000;3.132121
2631.000000;3.044920
2630.000000;3.234169
2629.000000;3.192826
2628.000000;3.327172
2627.000000;3.657261
2626.000000;3.144256
2625.000000;3.030131
2624.000000;3.034152
2623.000000;3.019117
2622.000000;3.064590
2621.000000;3.212438
2620.000000;3.161213
2619.000000;2.898368
2618.000000;2.819818
2617.000000;2.905618
2616.000000;3.201942
2615.000000;3.473654
2614.000000;3.226023
2613.000000;3.170950
2612.000000;3.272190
2611.000000;3.499199
2610.000000;3.481755
2609.000000;3.461582
2608.000000;3.963395
2607.000000;3.476307
2606.000000;3.382255
2605.000000;3.360590
2604.000000;3.355488
2603.000000;3.589425
2602.000000;3.183075
2601.000000;2.974974
2600.000000;2.966671
2599.000000;3.072841
2598.000000;3.269526
2597.000000;3.419780
2596.000000;3.486729
2595.000000;3.400152
2594.000000;3.421761
2593.000000;3.333278
2592.000000;3.211802
2591.000000;3.162184
2590.000000;3.251085
2589.000000;3.801227
2588.000000;3.574004
2587.000000;3.271788
2586.000000;3.445521
2585.000000;3.656197
2584.000000;3.270265
2583.000000;3.126807
2582.000000;3.142621
2581.000000;3.306970
2580.000000;3.786614
2579.000000;3.302577
2578.000000;3.032204
2577.000000;3.027217
2576.000000;3.033542
2575.000000;3.087186
2574.000000;3.283018
2573.000000;3.351209
2572.000000;3.217620
2571.000000;3.221455
2570.000000;3.429878
2569.000000;3.217471
2568.000000;2.853057
2567.000000;2.772420
2566.000000;2.988729
2565.000000;3.293590
2564.000000;3.236054
2563.000000;3.230371
2562.000000;3.289497
2561.000000;3.487769
2560.000000;3.388701
2559.000000;3.465092
2558.000000;3.647679
2557.000000;3.233682
2556.000000;3.432459
2555.000000;3.485694
2554.000000;3.143697
2553.000000;3.163490
2552.000000;3.092341
2551.000000;2.913208
2550.000000;2.830052
2549.000000;2.848579
2548.000000;2.896415
2547.000000;2.829117
2546.000000;2.749758
2545.000000;2.752144
2544.000000;2.782051
2543.000000;2.820766
2542.000000;2.911481
2541.000000;2.990704
2540.000000;3.004823
2539.000000;3.012412
2538.000000;3.077102
2537.000000;2.988776
2536.000000;2.986022
2535.000000;3.629093
2534.000000;3.296029
2533.000000;3.036770
2532.000000;3.347185
2531.000000;3.845938
2530.000000;3.987856
2529.000000;3.129253
2528.000000;2.940613
2527.000000;3.028809
2526.000000;3.264106
2525.000000;3.676553
2524.000000;3.251292
2523.000000;2.961723
2522.000000;2.880245
2521.000000;3.098095
2520.000000;3.535421
2519.000000;3.140285
2518.000000;3.033009
2517.000000;2.909540
2516.000000;2.761076
2515.000000;2.853397
2514.000000;3.064013
2513.000000;2.949656
2512.000000;2.841192
2511.000000;2.933171
2510.000000;3.123774
2509.000000;3.374007
2508.000000;3.292551
2507.000000;3.004058
2506.000000;2.864799
2505.000000;2.918861
2504.000000;3.077471
2503.000000;3.044732
2502.000000;3.020179
2501.000000;2.996879
2500.000000;2.917500
2499.000000;2.906349
2498.000000;2.991437
2497.000000;3.365123
2496.000000;3.269110
2495.000000;2.872301
2494.000000;2.856749
2493.000000;2.990556
2492.000000;3.114195
2491.000000;3.105048
2490.000000;3.027275
2489.000000;2.980124
2488.000000;3.097580
2487.000000;3.430110
2486.000000;3.397253
2485.000000;3.225066
2484.000000;3.278773
2483.000000;3.723656
2482.000000;3.333386
2481.000000;2.990799
2480.000000;3.016365
2479.000000;3.141777
2478.000000;3.309678
2477.000000;3.596191
2476.000000;3.389743
2475.000000;3.180775
2474.000000;3.034172
2473.000000;2.982712
2472.000000;3.095920
2471.000000;3.266006
2470.000000;3.142517
2469.000000;2.914458
2468.000000;2.811079
2467.000000;2.950852
2466.000000;3.390725
2465.000000;3.115748
2464.000000;2.844016
2463.000000;2.914998
2462.000000;3.386137
2461.000000;3.279849
2460.000000;3.024255
2459.000000;3.165549
2458.000000;2.977525
2457.000000;2.806398
2456.000000;2.796162
2455.000000;2.817101
2454.000000;2.861444
2453.000000;2.974337
2452.000000;3.267068
2451.000000;3.397474
2450.000000;3.191811
2449.000000;3.270612
2448.000000;3.417655
2447.000000;3.162225
2446.000000;2.968030
2445.000000;2.889250
2444.000000;2.841430
2443.000000;2.780351
2442.000000;2.778119
2441.000000;2.874230
2440.000000;3.120421
2439.000000;3.431240
2438.000000;3.214157
2437.000000;2.992352
2436.000000;2.933144
2435.000000;3.095775
2434.000000;3.409491
2433.000000;3.301848
2432.000000;3.189717
2431.000000;3.211761
2430.000000;3.224648
2429.000000;3.248138
2428.000000;3.216587
2427.000000;2.985107
2426.000000;2.860127
2425.000000;2.908984
2424.000000;3.011268
2423.000000;3.067529
2422.000000;3.078314
2421.000000;3.064603
2420.000000;3.038661
2419.000000;3.197237
2418.000000;3.522259
2417.000000;3.225703
2416.000000;3.156583
2415.000000;3.058632
2414.000000;2.865915
2413.000000;2.758424
2412.000000;2.722029
2411.000000;2.786925
2410.000000;2.883088
2409.000000;2.917719
2408.000000;3.037702
2407.000000;3.474281
2406.000000;3.890956
2405.000000;3.803950
2404.000000;3.288805
2403.000000;3.046704
2402.000000;3.242910
2401.000000;3.279459
2400.000000;3.044690
2399.000000;2.970567
2398.000000;3.100475
2397.000000;3.683126
2396.000000;3.424006
2395.000000;3.101650
2394.000000;3.039563
2393.000000;3.223488
2392.000000;3.734908
2391.000000;3.413079
2390.000000;3.279793
2389.000000;3.405625
2388.000000;3.628749
2387.000000;3.072948
2386.000000;2.761558
2385.000000;2.733247
2384.000000;2.970218
2383.000000;3.405118
2382.000000;3.244988
2381.000000;3.005569
2380.000000;3.032194
2379.000000;3.525612
2378.000000;3.462032
2377.000000;3.104146
2376.000000;3.018399
2375.000000;2.933997
2374.000000;2.949806
2373.000000;3.360850
2372.000000;3.255073
2371.000000;3.081184
2370.000000;3.813208
2369.000000;3.150071
2368.000000;3.217703
2367.000000;4.093310
2366.000000;3.658022
2365.000000;3.493991
2364.000000;3.256633
2363.000000;3.459732
2362.000000;4.032071
2361.000000;3.480674
2360.000000;3.308440
2359.000000;3.132433
2358.000000;2.919606
2357.000000;2.830139
2356.000000;2.895174
2355.000000;3.000761
2354.000000;3.143880
2353.000000;3.039403
2352.000000;2.861380
2351.000000;2.960274
2350.000000;3.107451
2349.000000;3.042379
2348.000000;2.986638
2347.000000;3.013135
2346.000000;3.067434
2345.000000;3.102561
2344.000000;3.037130
2343.000000;2.953006
2342.000000;3.269054
2341.000000;3.073541
2340.000000;2.911388
2339.000000;3.319540
2338.000000;3.134932
2337.000000;2.918843
2336.000000;2.969896
2335.000000;2.935862
2334.000000;3.005342
2333.000000;3.324807
2332.000000;3.137239
2331.000000;3.098531
2330.000000;3.422395
2329.000000;3.383602
2328.000000;3.422055
2327.000000;3.357159
2326.000000;3.304503
2325.000000;2.961254
2324.000000;2.722013
2323.000000;2.750926
2322.000000;2.922665
2321.000000;3.091380
2320.000000;3.169078
2319.000000;3.511630
2318.000000;3.766971
2317.000000;3.849483
2316.000000;3.085510
2315.000000;2.870065
2314.000000;2.876623
2313.000000;2.960763
2312.000000;3.159514
2311.000000;3.154408
2310.000000;3.085328
2309.000000;3.304011
2308.000000;3.570719
2307.000000;3.216960
2306.000000;3.370415
2305.000000;3.689233
2304.000000;3.151228
2303.000000;3.154153
2302.000000;3.193078
2301.000000;3.031272
2300.000000;3.196357
2299.000000;3.519284
2298.000000;3.165481
2297.000000;3.011829
2296.000000;3.057264
2295.000000;3.271567
2294.000000;3.711942
2293.000000;3.609222
2292.000000;3.249478
2291.000000;3.281989
2290.000000;3.173218
2289.000000;2.865667
2288.000000;2.828625
2287.000000;2.990148
2286.000000;3.017924
2285.000000;2.944262
2284.000000;3.050819
2283.000000;3.310905
2282.000000;3.436836
2281.000000;3.650611
2280.000000;3.631405
2279.000000;3.148701
2278.000000;3.324949
2277.000000;3.517519
2276.000000;3.225518
2275.000000;3.096365
2274.000000;2.945998
2273.000000;2.959308
2272.000000;3.153783
2271.000000;3.699496
2270.000000;3.880230
2269.000000;3.243836
2268.000000;2.899341
2267.000000;2.750191
2266.000000;2.741222
2265.000000;2.803825
2264.000000;2.947783
2263.000000;2.981953
2262.000000;2.937251
2261.000000;3.007902
2260.000000;2.979684
2259.000000;2.931425
2258.000000;3.073963
2257.000000;3.403076
2256.000000;3.204475
2255.000000;3.324561
2254.000000;3.289726
2253.000000;2.874939
2252.000000;2.878366
2251.000000;3.232070
2250.000000;3.883568
2249.000000;3.392575
2248.000000;3.157465
2247.000000;2.973850
2246.000000;2.963410
2245.000000;3.099902
2244.000000;2.972997
2243.000000;2.785603
2242.000000;2.797795
2241.000000;2.962477
2240.000000;3.224645
2239.000000;3.152195
2238.000000;3.163315
2237.000000;3.341486
2236.000000;3.234014
2235.000000;3.119417
2234.000000;3.114281
2233.000000;3.174888
2232.000000;3.170494
2231.000000;3.117434
2230.000000;3.029412
2229.000000;2.780269
2228.000000;2.676469
2227.000000;2.808497
2226.000000;3.132196
2225.000000;3.015406
2224.000000;3.175668
2223.000000;3.446842
2222.000000;2.917946
2221.000000;2.853093
2220.000000;3.018316
2219.000000;3.040014
2218.000000;2.919587
2217.000000;2.999916
2216.000000;3.177381
2215.000000;3.305847
2214.000000;3.517095
2213.000000;3.456334
2212.000000;3.196945
2211.000000;3.505150
2210.000000;3.251968
2209.000000;2.925536
2208.000000;2.850114
2207.000000;2.843596
2206.000000;2.841932
2205.000000;2.853615
2204.000000;2.849909
2203.000000;2.885681
2202.000000;2.931435
2201.000000;2.822334
2200.000000;2.931955
2199.000000;3.014678
2198.000000;2.700152
2197.000000;2.633357
2196.000000;2.728153
2195.000000;2.961165
2194.000000;3.228995
2193.000000;3.147011
2192.000000;2.983681
2191.000000;2.976401
2190.000000;3.694966
2189.000000;3.599920
2188.000000;3.337934
2187.000000;3.888460
2186.000000;3.403448
2185.000000;3.223894
2184.000000;3.066510
2183.000000;2.867238
2182.000000;2.743135
2181.000000;2.762473
2180.000000;3.084820
2179.000000;3.267917
2178.000000;2.975470
2177.000000;3.058107
2176.000000;3.103572
2175.000000;3.131074
2174.000000;3.265734
2173.000000;3.256532
2172.000000;3.150629
2171.000000;3.218596
2170.000000;3.103573
2169.000000;2.859357
2168.000000;2.926866
2167.000000;3.036028
2166.000000;2.909903
2165.000000;2.896782
2164.000000;3.076222
2163.000000;3.643536
2162.000000;3.443401
2161.000000;3.044877
2160.000000;2.908680
2159.000000;2.921910
2158.000000;3.354721
2157.000000;3.232938
2156.000000;2.983722
2155.000000;2.911376
2154.000000;2.896982
2153.000000;2.979896
2152.000000;3.117412
2151.000000;3.171833
2150.000000;3.402333
2149.000000;4.292742
2148.000000;3.404913
2147.000000;3.360706
2146.000000;3.073322
2145.000000;3.000027
2144.000000;3.020894
2143.000000;2.912926
2142.000000;2.783159
2141.000000;2.747177
2140.000000;2.811639
2139.000000;2.896583
2138.000000;2.899991
2137.000000;2.845031
2136.000000;2.728607
2135.000000;2.643030
2134.000000;2.675720
2133.000000;2.806798
2132.000000;2.974228
2131.000000;2.832033
2130.000000;2.693340
2129.000000;2.692545
2128.000000;2.799146
2127.000000;3.089421
2126.000000;3.289641
2125.000000;3.236931
2124.000000;3.896101
2123.000000;3.152115
2122.000000;2.961613
2121.000000;3.110743
2120.000000;3.408302
2119.000000;3.079788
2118.000000;3.380133
2117.000000;3.684016
2116.000000;3.212362
2115.000000;3.356524
2114.000000;3.622440
2113.000000;3.715609
2112.000000;3.914153
2111.000000;3.665306
2110.000000;3.244382
2109.000000;3.199887
2108.000000;3.280607
2107.000000;3.275477
2106.000000;3.031891
2105.000000;2.893206
2104.000000;2.883761
2103.000000;3.062557
2102.000000;3.124269
2101.000000;2.844768
2100.000000;2.779192
2099.000000;2.853510
2098.000000;2.997335
2097.000000;3.330080
2096.000000;3.296380
2095.000000;3.041485
2094.000000;3.049884
2093.000000;3.155346
2092.000000;2.931876
2091.000000;2.684108
2090.000000;2.675078
2089.000000;2.817096
2088.000000;3.002065
2087.000000;3.213904
2086.000000;3.257179
2085.000000;3.045970
2084.000000;2.911362
2083.000000;2.814429
2082.000000;2.782751
2081.000000;2.784576
2080.000000;2.801470
2079.000000;2.858448
2078.000000;3.317203
2077.000000;3.409217
2076.000000;3.167738
2075.000000;3.698514
2074.000000;3.421984
2073.000000;3.137867
2072.000000;3.155935
2071.000000;4.084746
2070.000000;2.965103
2069.000000;2.761656
2068.000000;2.887292
2067.000000;2.891553
2066.000000;2.650217
2065.000000;2.686553
2064.000000;2.831177
2063.000000;2.821416
2062.000000;2.734345
2061.000000;2.759961
2060.000000;2.868121
2059.000000;2.964076
2058.000000;2.906307
2057.000000;2.823726
2056.000000;2.864449
2055.000000;3.233564
2054.000000;3.000574
2053.000000;2.773568
2052.000000;2.908520
2051.000000;3.096927
2050.000000;3.030621
2049.000000;3.138996
2048.000000;3.421109
2047.000000;3.135995
2046.000000;2.929591
2045.000000;2.926250
2044.000000;3.140246
2043.000000;3.203970
2042.000000;2.970280
2041.000000;2.796772
2040.000000;2.761247
2039.000000;2.861677
2038.000000;2.941831
2037.000000;2.902176
2036.000000;3.018151
2035.000000;2.945956
2034.000000;2.725842
2033.000000;2.738451
2032.000000;3.221771
2031.000000;3.313856
2030.000000;2.872334
2029.000000;3.054100
2028.000000;3.165309
2027.000000;3.052324
2026.000000;3.150088
2025.000000;3.248089
2024.000000;3.193782
2023.000000;3.223210
2022.000000;3.468478
2021.000000;3.185077
2020.000000;3.079956
2019.000000;3.259593
2018.000000;3.053727
2017.000000;3.011548
2016.000000;3.217905
2015.000000;3.008082
2014.000000;2.918736
2013.000000;2.907476
2012.000000;2.877553
2011.000000;3.013653
2010.000000;2.819180
2009.000000;2.610396
2008.000000;2.628761
2007.000000;2.806951
2006.000000;3.019278
2005.000000;2.755803
2004.000000;2.606356
2003.000000;2.703437
2002.000000;2.957412
2001.000000;3.184226
2000.000000;3.164293
1999.000000;3.062441
1998.000000;2.945119
1997.000000;2.815201
1996.000000;2.712396
1995.000000;2.657632
1994.000000;2.620365
1993.000000;2.608479
1992.000000;2.631840
1991.000000;2.676783
1990.000000;2.757379
1989.000000;2.832443
1988.000000;2.811863
1987.000000;2.724213
1986.000000;2.674373
1985.000000;2.744972
1984.000000;2.990514
1983.000000;2.990281
1982.000000;2.778394
1981.000000;2.715609
1980.000000;2.738446
1979.000000;2.922863
1978.000000;3.032524
1977.000000;2.963149
1976.000000;3.092764
1975.000000;3.228381
1974.000000;3.303437
1973.000000;3.188730
1972.000000;2.937140
1971.000000;2.806628
1970.000000;2.819322
1969.000000;3.211024
1968.000000;2.940065
1967.000000;2.749564
1966.000000;2.899456
1965.000000;3.040901
1964.000000;3.015638
1963.000000;2.927416
1962.000000;2.775970
1961.000000;2.689500
1960.000000;2.677632
1959.000000;2.829380
1958.000000;3.324215
1957.000000;3.243489
1956.000000;3.177373
1955.000000;3.287931
1954.000000;2.903109
1953.000000;2.764218
1952.000000;2.738439
1951.000000;2.792807
1950.000000;2.917101
1949.000000;3.119364
1948.000000;3.047625
1947.000000;2.864598
1946.000000;2.818950
1945.000000;2.785901
1944.000000;2.743558
1943.000000;2.767532
1942.000000;2.902933
1941.000000;2.974236
1940.000000;2.896049
1939.000000;2.950224
1938.000000;2.813556
1937.000000;2.624892
1936.000000;2.645807
1935.000000;2.886154
1934.000000;3.382407
1933.000000;3.361185
1932.000000;3.002954
1931.000000;3.040661
1930.000000;3.274081
1929.000000;3.167953
1928.000000;3.124466
1927.000000;2.828913
1926.000000;2.695480
1925.000000;2.768832
1924.000000;2.798459
1923.000000;2.798470
1922.000000;2.976727
1921.000000;3.382971
1920.000000;3.221933
1919.000000;2.989300
1918.000000;2.893492
1917.000000;2.857350
1916.000000;2.868378
1915.000000;2.740898
1914.000000;2.706684
1913.000000;2.889110
1912.000000;2.841419
1911.000000;2.660082
1910.000000;2.673161
1909.000000;2.890570
1908.000000;2.907339
1907.000000;2.786964
1906.000000;2.759849
1905.000000;2.598791
1904.000000;2.521895
1903.000000;2.538129
1902.000000;2.574153
1901.000000;2.687214
1900.000000;2.935024
1899.000000;3.238471
1898.000000;3.008423
1897.000000;2.644526
1896.000000;2.467248
1895.000000;2.426119
1894.000000;2.476107
1893.000000;2.524826
1892.000000;2.539766
1891.000000;2.652660
1890.000000;2.890039
1889.000000;2.926493
1888.000000;2.923392
1887.000000;2.882101
1886.000000;2.727951
1885.000000;2.614413
1884.000000;2.542208
1883.000000;2.454156
1882.000000;2.371834
1881.000000;2.360440
1880.000000;2.454555
1879.000000;2.590750
1878.000000;2.609643
1877.000000;2.554394
1876.000000;2.530604
1875.000000;2.641027
1874.000000;2.712599
1873.000000;2.578092
1872.000000;2.577913
1871.000000;2.755302
1870.000000;3.363189
1869.000000;3.472838
1868.000000;2.896395
1867.000000;2.976036
1866.000000;3.052760
1865.000000;2.783185
1864.000000;2.766680
1863.000000;3.081885
1862.000000;3.124461
1861.000000;3.182403
1860.000000;3.314467
1859.000000;2.851603
1858.000000;2.674197
1857.000000;2.876878
1856.000000;3.367895
1855.000000;2.792535
1854.000000;2.826385
1853.000000;2.977039
1852.000000;2.750485
1851.000000;2.753943
1850.000000;3.049901
1849.000000;2.971817
1848.000000;2.607459
1847.000000;2.738226
1846.000000;2.916113
1845.000000;2.669013
1844.000000;2.834641
1843.000000;2.729608
1842.000000;2.455936
1841.000000;2.472327
1840.000000;2.734278
1839.000000;3.007427
1838.000000;2.819981
1837.000000;2.696120
1836.000000;2.615644
1835.000000;2.584248
1834.000000;2.658040
1833.000000;2.737319
1832.000000;2.685393
1831.000000;2.627627
1830.000000;2.635644
1829.000000;2.650622
1828.000000;2.632998
1827.000000;2.628199
1826.000000;2.611693
1825.000000;2.539402
1824.000000;2.522098
1823.000000;2.611153
1822.000000;2.804342
1821.000000;3.143484
1820.000000;3.607185
1819.000000;3.154954
1818.000000;2.817418
1817.000000;2.802986
1816.000000;2.994635
1815.000000;3.351666
1814.000000;3.122325
1813.000000;2.883854
1812.000000;3.159482
1811.000000;3.360104
1810.000000;3.006745
1809.000000;2.944934
1808.000000;2.893208
1807.000000;2.892206
1806.000000;3.048429
1805.000000;2.873129
1804.000000;2.670208
1803.000000;2.664533
1802.000000;2.795341
1801.000000;2.875804
1800.000000;2.895914
1799.000000;3.016231
1798.000000;3.038914
1797.000000;3.170820
1796.000000;3.009585
1795.000000;2.659118
1794.000000;2.689025
1793.000000;2.940428
1792.000000;2.844315
1791.000000;2.903361
1790.000000;3.010347
1789.000000;2.871845
1788.000000;3.366452
1787.000000;3.087021
1786.000000;2.711153
1785.000000;2.759578
1784.000000;2.806539
1783.000000;2.733153
1782.000000;2.808535
1781.000000;3.464641
1780.000000;2.872449
1779.000000;2.614517
1778.000000;2.610425
1777.000000;2.596922
1776.000000;2.626509
1775.000000;2.650125
1774.000000;2.945386
1773.000000;3.886283
1772.000000;3.088558
1771.000000;3.166520
1770.000000;3.439234
1769.000000;3.554643
1768.000000;3.134200
1767.000000;2.697372
1766.000000;2.658766
1765.000000;3.111918
1764.000000;3.531247
1763.000000;3.264597
1762.000000;3.252069
1761.000000;2.916143
1760.000000;2.927363
1759.000000;2.836075
1758.000000;2.648962
1757.000000;2.683895
1756.000000;2.847176
1755.000000;2.829522
1754.000000;2.689022
1753.000000;2.773042
1752.000000;3.216019
1751.000000;2.851000
1750.000000;2.589637
1749.000000;2.566692
1748.000000;2.599041
1747.000000;2.638822
1746.000000;2.614447
1745.000000;2.629873
1744.000000;2.701776
1743.000000;3.103418
1742.000000;3.669131
1741.000000;2.887224
1740.000000;2.836474
1739.000000;2.939882
1738.000000;3.048964
1737.000000;3.225973
1736.000000;3.361296
1735.000000;3.102593
1734.000000;2.838082
1733.000000;2.892310
1732.000000;3.233802
1731.000000;3.492689
1730.000000;3.207350
1729.000000;3.182081
1728.000000;3.751778
1727.000000;3.466771
1726.000000;3.184117
1725.000000;3.356192
1724.000000;3.232091
1723.000000;3.044695
1722.000000;2.964963
1721.000000;2.867919
1720.000000;2.791677
1719.000000;2.708672
1718.000000;2.678904
1717.000000;2.788144
1716.000000;3.000156
1715.000000;3.112373
1714.000000;2.921619
1713.000000;2.779760
1712.000000;2.817490
1711.000000;3.026751
1710.000000;3.448922
1709.000000;3.091463
1708.000000;2.764538
1707.000000;2.760227
1706.000000;2.876752
1705.000000;2.872658
1704.000000;2.761912
1703.000000;2.737324
1702.000000;2.802582
1701.000000;2.946920
1700.000000;3.072118
1699.000000;3.022711
1698.000000;2.927357
1697.000000;2.709280
1696.000000;2.578724
1695.000000;2.657966
1694.000000;2.885860
1693.000000;3.099194
1692.000000;2.977405
1691.000000;2.735272
1690.000000;2.637997
1689.000000;2.677711
1688.000000;2.845013
1687.000000;2.913277
1686.000000;2.693183
1685.000000;2.581036
1684.000000;2.626941
1683.000000;2.699095
1682.000000;2.656836
1681.000000;2.581295
1680.000000;2.610751
1679.000000;2.781857
1678.000000;3.007640
1677.000000;2.923865
1676.000000;2.867760
1675.000000;3.144532
1674.000000;2.945496
1673.000000;2.893924
1672.000000;3.390152
1671.000000;2.841577
1670.000000;2.631038
1669.000000;2.725705
1668.000000;2.863116
1667.000000;3.145749
1666.000000;3.258417
1665.000000;2.932306
1664.000000;2.783073
1663.000000;2.828630
1662.000000;3.162117
1661.000000;3.247548
1660.000000;2.773819
1659.000000;2.637984
1658.000000;2.694514
1657.000000;2.895619
1656.000000;3.168422
1655.000000;3.181856
1654.000000;2.792632
1653.000000;2.596553
1652.000000;2.612988
1651.000000;2.627682
1650.000000;2.634536
1649.000000;2.657719
1648.000000;2.641348
1647.000000;2.646523
1646.000000;2.675504
1645.000000;2.655983
1644.000000;2.629278
1643.000000;2.699833
1642.000000;3.026016
1641.000000;3.494577
1640.000000;2.899177
1639.000000;2.559201
1638.000000;2.455790
1637.000000;2.588114
1636.000000;2.742241
1635.000000;2.636052
1634.000000;2.665208
1633.000000;2.846501
1632.000000;2.859835
1631.000000;2.763012
1630.000000;2.816890
1629.000000;2.732315
1628.000000;2.641928
1627.000000;2.681142
1626.000000;2.596627
1625.000000;2.468610
1624.000000;2.475647
1623.000000;2.747603
1622.000000;3.138453
1621.000000;2.885082
1620.000000;2.730274
1619.000000;2.674201
1618.000000;2.738276
1617.000000;2.940004
1616.000000;2.906127
1615.000000;2.985228
1614.000000;3.303597
1613.000000;2.784002
1612.000000;2.511865
1611.000000;2.520893
1610.000000;2.830375
1609.000000;3.209928
1608.000000;2.835343
1607.000000;2.805561
1606.000000;2.900785
1605.000000;2.895523
1604.000000;3.255011
1603.000000;3.428168
1602.000000;2.857832
1601.000000;2.726710
1600.000000;2.691504
1599.000000;2.687457
1598.000000;2.830961
1597.000000;2.989706
1596.000000;2.855338
1595.000000;2.705492
1594.000000;2.597679
1593.000000;2.486243
1592.000000;2.563086
1591.000000;2.803248
1590.000000;2.681681
1589.000000;2.588725
1588.000000;2.869043
1587.000000;2.947768
1586.000000;2.941710
1585.000000;3.022197
1584.000000;2.518117
1583.000000;2.384154
1582.000000;2.459451
1581.000000;2.560138
1580.000000;2.680282
1579.000000;2.764875
1578.000000;3.087681
1577.000000;3.215591
1576.000000;2.904925
1575.000000;2.847448
1574.000000;2.767292
1573.000000;2.565894
1572.000000;2.512161
1571.000000;2.761778
1570.000000;2.899308
1569.000000;2.985942
1568.000000;3.210795
1567.000000;2.729595
1566.000000;2.640743
1565.000000;2.818742
1564.000000;2.890360
1563.000000;2.930549
1562.000000;3.221733
1561.000000;3.186976
1560.000000;2.888203
1559.000000;2.878049
1558.000000;2.893401
1557.000000;2.885052
1556.000000;3.042534
1555.000000;3.705207
1554.000000;3.354945
1553.000000;2.686995
1552.000000;2.487286
1551.000000;2.453605
1550.000000;2.533021
1549.000000;2.704062
1548.000000;2.759267
1547.000000;2.775777
1546.000000;3.054614
1545.000000;3.080235
1544.000000;2.684452
1543.000000;2.477562
1542.000000;2.621652
1541.000000;3.182914
1540.000000;3.137612
1539.000000;3.386782
1538.000000;3.305937
1537.000000;2.937256
1536.000000;3.114292
1535.000000;3.157193
1534.000000;3.210774
1533.000000;3.001166
1532.000000;2.668350
1531.000000;2.698312
1530.000000;2.919489
1529.000000;2.840182
1528.000000;2.612986
1527.000000;2.470848
1526.000000;2.437001
1525.000000;2.724053
1524.000000;2.955748
1523.000000;2.729646
1522.000000;3.055141
1521.000000;2.789980
1520.000000;2.464374
1519.000000;2.432546
1518.000000;2.439010
1517.000000;2.507091
1516.000000;2.471761
1515.000000;2.496359
1514.000000;2.718821
1513.000000;2.759594
1512.000000;3.033099
1511.000000;2.789519
1510.000000;2.360299
1509.000000;2.257197
1508.000000;2.229506
1507.000000;2.244836
1506.000000;2.358931
1505.000000;2.469065
1504.000000;2.395141
1503.000000;2.242638
1502.000000;2.172290
1501.000000;2.210983
1500.000000;2.342476
1499.000000;2.540610
1498.000000;2.536133
1497.000000;2.388255
1496.000000;2.338533
1495.000000;2.414755
1494.000000;2.787201
1493.000000;2.982443
1492.000000;2.688274
1491.000000;2.689801
1490.000000;2.658569
1489.000000;2.705278
1488.000000;3.148476
1487.000000;3.304526
1486.000000;2.977895
1485.000000;3.006293
1484.000000;2.788225
1483.000000;2.565790
1482.000000;2.576579
1481.000000;2.777385
1480.000000;2.859801
1479.000000;2.825214
1478.000000;2.933435
1477.000000;2.718349
1476.000000;2.534408
1475.000000;2.573263
1474.000000;2.978355
1473.000000;3.883476
1472.000000;2.871277
1471.000000;2.568013
1470.000000;2.482974
1469.000000;2.486788
1468.000000;2.462225
1467.000000;2.605704
1466.000000;2.932040
1465.000000;2.761258
1464.000000;2.878709
1463.000000;3.303214
1462.000000;2.925742
1461.000000;2.705642
1460.000000;2.574381
1459.000000;2.757457
1458.000000;2.975908
1457.000000;2.532126
1456.000000;2.479576
1455.000000;2.780287
1454.000000;2.813973
1453.000000;2.588244
1452.000000;2.667045
1451.000000;2.870655
1450.000000;2.871680
1449.000000;3.085405
1448.000000;3.045198
1447.000000;2.798562
1446.000000;2.954163
1445.000000;3.282133
1444.000000;3.236936
1443.000000;2.966855
1442.000000;2.678146
1441.000000;2.596555
1440.000000;2.673381
1439.000000;2.495613
1438.000000;2.234103
1437.000000;2.168524
1436.000000;2.311117
1435.000000;2.536197
1434.000000;2.426860
1433.000000;2.416094
1432.000000;2.682666
1431.000000;2.588789
1430.000000;2.434915
1429.000000;2.492212
1428.000000;2.617145
1427.000000;2.705851
1426.000000;2.904655
1425.000000;2.843391
1424.000000;2.580718
1423.000000;2.529871
1422.000000;2.618294
1421.000000;2.926676
1420.000000;2.872075
1419.000000;2.526421
1418.000000;2.537867
1417.000000;2.902444
1416.000000;2.850159
1415.000000;2.557479
1414.000000;2.660848
1413.000000;2.867900
1412.000000;2.873854
1411.000000;2.708245
1410.000000;2.464894
1409.000000;2.286088
1408.000000;2.213980
1407.000000;2.244926
1406.000000;2.336203
1405.000000;2.421806
1404.000000;2.449395
1403.000000;2.488582
1402.000000;2.630625
1401.000000;2.720980
1400.000000;2.599376
1399.000000;2.476848
1398.000000;2.393641
1397.000000;2.411461
1396.000000;2.584857
1395.000000;2.725795
1394.000000;2.632901
1393.000000;2.500360
1392.000000;2.422735
1391.000000;2.386113
1390.000000;2.354439
1389.000000;2.392947
1388.000000;2.599080
1387.000000;2.999828
1386.000000;2.794755
1385.000000;2.491286
1384.000000;2.531938
1383.000000;2.721421
1382.000000;2.810870
1381.000000;2.875149
1380.000000;2.752377
1379.000000;2.771960
1378.000000;2.993505
1377.000000;3.218057
1376.000000;3.016421
1375.000000;2.610564
1374.000000;2.484109
1373.000000;2.499612
1372.000000;2.566078
1371.000000;2.537934
1370.000000;2.384443
1369.000000;2.353807
1368.000000;2.510545
1367.000000;2.803192
1366.000000;2.858017
1365.000000;2.667023
1364.000000;2.620496
1363.000000;2.940070
1362.000000;3.491171
1361.000000;3.006403
1360.000000;2.900544
1359.000000;2.910381
1358.000000;2.718863
1357.000000;2.495873
1356.000000;2.458187
1355.000000;2.580421
1354.000000;2.711283
1353.000000;2.645054
1352.000000;2.551730
1351.000000;2.544996
1350.000000;2.472227
1349.000000;2.338012
1348.000000;2.290626
1347.000000;2.363475
1346.000000;2.537027
1345.000000;2.661042
1344.000000;2.724096
1343.000000;2.766211
1342.000000;2.862777
1341.000000;3.192445
1340.000000;2.571448
1339.000000;2.270956
1338.000000;2.211233
1337.000000;2.254178
1336.000000;2.492812
1335.000000;2.950133
1334.000000;2.617032
1333.000000;2.460122
1332.000000;2.639588
1331.000000;2.738258
1330.000000;2.623130
1329.000000;2.652325
1328.000000;2.963601
1327.000000;3.286950
1326.000000;2.878819
1325.000000;2.720662
1324.000000;2.795718
1323.000000;3.137428
1322.000000;3.446291
1321.000000;3.050831
1320.000000;2.828041
1319.000000;2.694194
1318.000000;2.761732
1317.000000;3.186607
1316.000000;3.338768
1315.000000;3.379088
1314.000000;3.051933
1313.000000;2.834580
1312.000000;2.935712
1311.000000;2.922731
1310.000000;2.658413
1309.000000;2.541296
1308.000000;2.677325
1307.000000;2.943998
1306.000000;3.400724
1305.000000;3.093128
1304.000000;2.691284
1303.000000;2.664509
1302.000000;2.674581
1301.000000;2.533630
1300.000000;2.393706
1299.000000;2.407094
1298.000000;2.627608
1297.000000;3.015634
1296.000000;2.996447
1295.000000;2.884195
1294.000000;2.573164
1293.000000;2.365966
1292.000000;2.345545
1291.000000;2.440194
1290.000000;2.512350
1289.000000;2.429657
1288.000000;2.354734
1287.000000;2.425708
1286.000000;2.614759
1285.000000;2.834676
1284.000000;2.695993
1283.000000;2.304467
1282.000000;2.187481
1281.000000;2.288921
1280.000000;2.579382
1279.000000;3.170974
1278.000000;2.819424
1277.000000;2.397059
1276.000000;2.315724
1275.000000;2.403720
1274.000000;2.627455
1273.000000;2.647489
1272.000000;2.542331
1271.000000;2.533498
1270.000000;2.551932
1269.000000;2.758703
1268.000000;3.123460
1267.000000;2.542896
1266.000000;2.376691
1265.000000;2.467195
1264.000000;2.832522
1263.000000;3.154776
1262.000000;2.784013
1261.000000;2.660106
1260.000000;2.616622
1259.000000;2.629064
1258.000000;2.491057
1257.000000;2.334573
1256.000000;2.244246
1255.000000;2.173300
1254.000000;2.122130
1253.000000;2.131325
1252.000000;2.254657
1251.000000;2.439075
1250.000000;2.546501
1249.000000;2.421081
1248.000000;2.233371
1247.000000;2.169987
1246.000000;2.196486
1245.000000;2.230279
1244.000000;2.192660
1243.000000;2.148028
1242.000000;2.188721
1241.000000;2.321715
1240.000000;2.532120
1239.000000;2.638236
1238.000000;2.316666
1237.000000;2.114712
1236.000000;2.070980
1235.000000;2.174123
1234.000000;2.469866
1233.000000;2.789822
1232.000000;2.609930
1231.000000;2.549830
1230.000000;2.754640
1229.000000;3.038058
1228.000000;2.718802
1227.000000;2.873859
1226.000000;2.709994
1225.000000;2.452343
1224.000000;2.504495
1223.000000;2.577423
1222.000000;2.691274
1221.000000;3.352069
1220.000000;3.019332
1219.000000;2.719152
1218.000000;2.670225
1217.000000;2.588846
1216.000000;2.599954
1215.000000;2.604762
1214.000000;2.591185
1213.000000;2.459087
1212.000000;2.354776
1211.000000;2.363410
1210.000000;2.481870
1209.000000;2.788570
1208.000000;2.853065
1207.000000;2.554774
1206.000000;2.528385
1205.000000;2.714518
1204.000000;2.782099
1203.000000;2.463688
1202.000000;2.385569
1201.000000;2.441217
1200.000000;2.526068
