Criado como novo conjunto de dados;"e2410_daniel_v2.spp","83886.1 Secs"
cm-1;Abs
10000.000000;1.142658
9999.000000;1.140931
9998.000000;1.139184
9997.000000;1.137787
9996.000000;1.136905
9995.000000;1.136623
9994.000000;1.136828
9993.000000;1.136946
9992.000000;1.136450
9991.000000;1.135453
9990.000000;1.134605
9989.000000;1.134307
9988.000000;1.134270
9987.000000;1.133849
9986.000000;1.132673
9985.000000;1.130983
9984.000000;1.129429
9983.000000;1.128547
9982.000000;1.128364
9981.000000;1.128527
9980.000000;1.128726
9979.000000;1.128861
9978.000000;1.128834
9977.000000;1.128480
9976.000000;1.127772
9975.000000;1.126872
9974.000000;1.125898
9973.000000;1.124831
9972.000000;1.123756
9971.000000;1.122912
9970.000000;1.122361
9969.000000;1.121830
9968.000000;1.121044
9967.000000;1.120009
9966.000000;1.118874
9965.000000;1.117761
9964.000000;1.116874
9963.000000;1.116503
9962.000000;1.116676
9961.000000;1.116994
9960.000000;1.117062
9959.000000;1.116983
9958.000000;1.117194
9957.000000;1.117877
9956.000000;1.118689
9955.000000;1.118982
9954.000000;1.118262
9953.000000;1.116602
9952.000000;1.114690
9951.000000;1.113281
9950.000000;1.112507
9949.000000;1.111867
9948.000000;1.110929
9947.000000;1.109823
9946.000000;1.108989
9945.000000;1.108667
9944.000000;1.108764
9943.000000;1.108990
9942.000000;1.109012
9941.000000;1.108640
9940.000000;1.108014
9939.000000;1.107490
9938.000000;1.107244
9937.000000;1.107121
9936.000000;1.106877
9935.000000;1.106396
9934.000000;1.105627
9933.000000;1.104527
9932.000000;1.103173
9931.000000;1.101798
9930.000000;1.100622
9929.000000;1.099721
9928.000000;1.099001
9927.000000;1.098250
9926.000000;1.097336
9925.000000;1.096524
9924.000000;1.096367
9923.000000;1.097020
9922.000000;1.097833
9921.000000;1.098031
9920.000000;1.097614
9919.000000;1.097114
9918.000000;1.096651
9917.000000;1.095876
9916.000000;1.094831
9915.000000;1.094164
9914.000000;1.094264
9913.000000;1.094728
9912.000000;1.094895
9911.000000;1.094467
9910.000000;1.093450
9909.000000;1.092005
9908.000000;1.090615
9907.000000;1.089871
9906.000000;1.089764
9905.000000;1.089628
9904.000000;1.089030
9903.000000;1.088286
9902.000000;1.087782
9901.000000;1.087338
9900.000000;1.086637
9899.000000;1.085818
9898.000000;1.085206
9897.000000;1.084799
9896.000000;1.084463
9895.000000;1.084255
9894.000000;1.084162
9893.000000;1.083859
9892.000000;1.083212
9891.000000;1.082666
9890.000000;1.082629
9889.000000;1.082733
9888.000000;1.082279
9887.000000;1.081200
9886.000000;1.080058
9885.000000;1.079204
9884.000000;1.078510
9883.000000;1.077866
9882.000000;1.077423
9881.000000;1.077298
9880.000000;1.077393
9879.000000;1.077518
9878.000000;1.077408
9877.000000;1.076726
9876.000000;1.075453
9875.000000;1.074173
9874.000000;1.073499
9873.000000;1.073248
9872.000000;1.072631
9871.000000;1.071344
9870.000000;1.069987
9869.000000;1.069234
9868.000000;1.069037
9867.000000;1.068911
9866.000000;1.068682
9865.000000;1.068535
9864.000000;1.068461
9863.000000;1.068069
9862.000000;1.067083
9861.000000;1.065802
9860.000000;1.064881
9859.000000;1.064698
9858.000000;1.065027
9857.000000;1.065316
9856.000000;1.065195
9855.000000;1.064670
9854.000000;1.063925
9853.000000;1.063084
9852.000000;1.062150
9851.000000;1.061091
9850.000000;1.059977
9849.000000;1.059100
9848.000000;1.058822
9847.000000;1.059171
9846.000000;1.059658
9845.000000;1.059729
9844.000000;1.059342
9843.000000;1.058855
9842.000000;1.058377
9841.000000;1.057622
9840.000000;1.056515
9839.000000;1.055566
9838.000000;1.055334
9837.000000;1.055684
9836.000000;1.055878
9835.000000;1.055381
9834.000000;1.054393
9833.000000;1.053541
9832.000000;1.053166
9831.000000;1.052989
9830.000000;1.052447
9829.000000;1.051350
9828.000000;1.050124
9827.000000;1.049345
9826.000000;1.049148
9825.000000;1.049165
9824.000000;1.048904
9823.000000;1.048042
9822.000000;1.046510
9821.000000;1.044614
9820.000000;1.043001
9819.000000;1.042212
9818.000000;1.042204
9817.000000;1.042528
9816.000000;1.042921
9815.000000;1.043418
9814.000000;1.043902
9813.000000;1.043958
9812.000000;1.043365
9811.000000;1.042445
9810.000000;1.041726
9809.000000;1.041381
9808.000000;1.041109
9807.000000;1.040481
9806.000000;1.039369
9805.000000;1.038121
9804.000000;1.037285
9803.000000;1.037057
9802.000000;1.037100
9801.000000;1.037029
9800.000000;1.036879
9799.000000;1.036820
9798.000000;1.036642
9797.000000;1.035991
9796.000000;1.034984
9795.000000;1.034106
9794.000000;1.033514
9793.000000;1.032953
9792.000000;1.032341
9791.000000;1.031890
9790.000000;1.031560
9789.000000;1.030995
9788.000000;1.030189
9787.000000;1.029635
9786.000000;1.029516
9785.000000;1.029311
9784.000000;1.028550
9783.000000;1.027528
9782.000000;1.026845
9781.000000;1.026633
9780.000000;1.026590
9779.000000;1.026427
9778.000000;1.025860
9777.000000;1.024602
9776.000000;1.022853
9775.000000;1.021548
9774.000000;1.021543
9773.000000;1.022592
9772.000000;1.023526
9771.000000;1.023418
9770.000000;1.022282
9769.000000;1.020754
9768.000000;1.019472
9767.000000;1.018792
9766.000000;1.018699
9765.000000;1.018834
9764.000000;1.018796
9763.000000;1.018416
9762.000000;1.017669
9761.000000;1.016502
9760.000000;1.015019
9759.000000;1.013706
9758.000000;1.013165
9757.000000;1.013573
9756.000000;1.014513
9755.000000;1.015327
9754.000000;1.015526
9753.000000;1.015019
9752.000000;1.014143
9751.000000;1.013415
9750.000000;1.013053
9749.000000;1.012742
9748.000000;1.012008
9747.000000;1.010770
9746.000000;1.009404
9745.000000;1.008341
9744.000000;1.007773
9743.000000;1.007656
9742.000000;1.007786
9741.000000;1.007867
9740.000000;1.007666
9739.000000;1.007142
9738.000000;1.006384
9737.000000;1.005501
9736.000000;1.004662
9735.000000;1.004129
9734.000000;1.004043
9733.000000;1.004198
9732.000000;1.004182
9731.000000;1.003756
9730.000000;1.003026
9729.000000;1.002250
9728.000000;1.001590
9727.000000;1.001063
9726.000000;1.000652
9725.000000;1.000382
9724.000000;1.000253
9723.000000;1.000108
9722.000000;0.999674
9721.000000;0.998831
9720.000000;0.997813
9719.000000;0.997005
9718.000000;0.996555
9717.000000;0.996270
9716.000000;0.995857
9715.000000;0.995159
9714.000000;0.994173
9713.000000;0.993019
9712.000000;0.991965
9711.000000;0.991350
9710.000000;0.991331
9709.000000;0.991669
9708.000000;0.991785
9707.000000;0.991128
9706.000000;0.989650
9705.000000;0.987974
9704.000000;0.986955
9703.000000;0.986931
9702.000000;0.987469
9701.000000;0.987865
9700.000000;0.987779
9699.000000;0.987304
9698.000000;0.986671
9697.000000;0.986105
9696.000000;0.985772
9695.000000;0.985580
9694.000000;0.985160
9693.000000;0.984289
9692.000000;0.983196
9691.000000;0.982201
9690.000000;0.981278
9689.000000;0.980303
9688.000000;0.979539
9687.000000;0.979405
9686.000000;0.979830
9685.000000;0.980274
9684.000000;0.980390
9683.000000;0.980240
9682.000000;0.979889
9681.000000;0.979276
9680.000000;0.978556
9679.000000;0.978093
9678.000000;0.977936
9677.000000;0.977710
9676.000000;0.977186
9675.000000;0.976598
9674.000000;0.976199
9673.000000;0.975879
9672.000000;0.975419
9671.000000;0.974841
9670.000000;0.974256
9669.000000;0.973650
9668.000000;0.972987
9667.000000;0.972310
9666.000000;0.971602
9665.000000;0.970803
9664.000000;0.970095
9663.000000;0.969846
9662.000000;0.970071
9661.000000;0.970246
9660.000000;0.969877
9659.000000;0.969031
9658.000000;0.968097
9657.000000;0.967258
9656.000000;0.966462
9655.000000;0.965727
9654.000000;0.965215
9653.000000;0.965032
9652.000000;0.965126
9651.000000;0.965301
9650.000000;0.965289
9649.000000;0.964932
9648.000000;0.964365
9647.000000;0.963868
9646.000000;0.963500
9645.000000;0.963066
9644.000000;0.962454
9643.000000;0.961751
9642.000000;0.961015
9641.000000;0.960192
9640.000000;0.959379
9639.000000;0.958872
9638.000000;0.958800
9637.000000;0.958933
9636.000000;0.958976
9635.000000;0.958894
9634.000000;0.958836
9633.000000;0.958911
9632.000000;0.959086
9631.000000;0.959089
9630.000000;0.958390
9629.000000;0.956633
9628.000000;0.954221
9627.000000;0.952166
9626.000000;0.951174
9625.000000;0.951103
9624.000000;0.951360
9623.000000;0.951544
9622.000000;0.951526
9621.000000;0.951241
9620.000000;0.950709
9619.000000;0.950100
9618.000000;0.949550
9617.000000;0.949009
9616.000000;0.948395
9615.000000;0.947750
9614.000000;0.947168
9613.000000;0.946760
9612.000000;0.946741
9611.000000;0.947249
9610.000000;0.947958
9609.000000;0.948199
9608.000000;0.947708
9607.000000;0.946966
9606.000000;0.946532
9605.000000;0.946293
9604.000000;0.945676
9603.000000;0.944412
9602.000000;0.942782
9601.000000;0.941252
9600.000000;0.940138
9599.000000;0.939551
9598.000000;0.939358
9597.000000;0.939222
9596.000000;0.938898
9595.000000;0.938462
9594.000000;0.938140
9593.000000;0.937982
9592.000000;0.937878
9591.000000;0.937768
9590.000000;0.937655
9589.000000;0.937452
9588.000000;0.937024
9587.000000;0.936351
9586.000000;0.935529
9585.000000;0.934637
9584.000000;0.933754
9583.000000;0.933040
9582.000000;0.932668
9581.000000;0.932632
9580.000000;0.932721
9579.000000;0.932710
9578.000000;0.932533
9577.000000;0.932292
9576.000000;0.932104
9575.000000;0.931936
9574.000000;0.931645
9573.000000;0.931191
9572.000000;0.930751
9571.000000;0.930492
9570.000000;0.930315
9569.000000;0.929985
9568.000000;0.929453
9567.000000;0.928863
9566.000000;0.928234
9565.000000;0.927391
9564.000000;0.926267
9563.000000;0.925069
9562.000000;0.924059
9561.000000;0.923359
9560.000000;0.923002
9559.000000;0.922994
9558.000000;0.923181
9557.000000;0.923219
9556.000000;0.922804
9555.000000;0.921934
9554.000000;0.920881
9553.000000;0.919989
9552.000000;0.919497
9551.000000;0.919395
9550.000000;0.919396
9549.000000;0.919122
9548.000000;0.918392
9547.000000;0.917336
9546.000000;0.916286
9545.000000;0.915605
9544.000000;0.915497
9543.000000;0.915822
9542.000000;0.916148
9541.000000;0.916115
9540.000000;0.915716
9539.000000;0.915143
9538.000000;0.914547
9537.000000;0.914079
9536.000000;0.913933
9535.000000;0.914039
9534.000000;0.913928
9533.000000;0.913263
9532.000000;0.912381
9531.000000;0.911912
9530.000000;0.911939
9529.000000;0.911932
9528.000000;0.911501
9527.000000;0.910794
9526.000000;0.910096
9525.000000;0.909480
9524.000000;0.908975
9523.000000;0.908707
9522.000000;0.908710
9521.000000;0.908823
9520.000000;0.908862
9519.000000;0.908673
9518.000000;0.908054
9517.000000;0.906974
9516.000000;0.905879
9515.000000;0.905346
9514.000000;0.905362
9513.000000;0.905354
9512.000000;0.905032
9511.000000;0.904744
9510.000000;0.904775
9509.000000;0.904793
9508.000000;0.904326
9507.000000;0.903430
9506.000000;0.902529
9505.000000;0.901854
9504.000000;0.901358
9503.000000;0.900995
9502.000000;0.900749
9501.000000;0.900493
9500.000000;0.900090
9499.000000;0.899577
9498.000000;0.899057
9497.000000;0.898518
9496.000000;0.897890
9495.000000;0.897183
9494.000000;0.896474
9493.000000;0.895888
9492.000000;0.895648
9491.000000;0.895900
9490.000000;0.896360
9489.000000;0.896403
9488.000000;0.895714
9487.000000;0.894661
9486.000000;0.893852
9485.000000;0.893492
9484.000000;0.893372
9483.000000;0.893265
9482.000000;0.893082
9481.000000;0.892769
9480.000000;0.892269
9479.000000;0.891577
9478.000000;0.890733
9477.000000;0.889838
9476.000000;0.889122
9475.000000;0.888802
9474.000000;0.888773
9473.000000;0.888657
9472.000000;0.888285
9471.000000;0.887897
9470.000000;0.887728
9469.000000;0.887621
9468.000000;0.887295
9467.000000;0.886791
9466.000000;0.886395
9465.000000;0.886225
9464.000000;0.886126
9463.000000;0.885902
9462.000000;0.885449
9461.000000;0.884741
9460.000000;0.883867
9459.000000;0.883071
9458.000000;0.882579
9457.000000;0.882353
9456.000000;0.882121
9455.000000;0.881650
9454.000000;0.880947
9453.000000;0.880242
9452.000000;0.879802
9451.000000;0.879722
9450.000000;0.879873
9449.000000;0.880062
9448.000000;0.880155
9447.000000;0.879987
9446.000000;0.879309
9445.000000;0.878082
9444.000000;0.876774
9443.000000;0.876067
9442.000000;0.876202
9441.000000;0.876801
9440.000000;0.877322
9439.000000;0.877462
9438.000000;0.877132
9437.000000;0.876389
9436.000000;0.875540
9435.000000;0.875007
9434.000000;0.874854
9433.000000;0.874649
9432.000000;0.873984
9431.000000;0.872983
9430.000000;0.872106
9429.000000;0.871612
9428.000000;0.871413
9427.000000;0.871324
9426.000000;0.871251
9425.000000;0.871167
9424.000000;0.871029
9423.000000;0.870751
9422.000000;0.870244
9421.000000;0.869572
9420.000000;0.869020
9419.000000;0.868822
9418.000000;0.868813
9417.000000;0.868568
9416.000000;0.867938
9415.000000;0.867249
9414.000000;0.866856
9413.000000;0.866742
9412.000000;0.866674
9411.000000;0.866577
9410.000000;0.866525
9409.000000;0.866477
9408.000000;0.866197
9407.000000;0.865440
9406.000000;0.864184
9405.000000;0.862730
9404.000000;0.861572
9403.000000;0.861053
9402.000000;0.861100
9401.000000;0.861337
9400.000000;0.861444
9399.000000;0.861306
9398.000000;0.860916
9397.000000;0.860345
9396.000000;0.859807
9395.000000;0.859511
9394.000000;0.859413
9393.000000;0.859302
9392.000000;0.859103
9391.000000;0.858876
9390.000000;0.858563
9389.000000;0.858018
9388.000000;0.857337
9387.000000;0.856820
9386.000000;0.856530
9385.000000;0.856174
9384.000000;0.855532
9383.000000;0.854736
9382.000000;0.854021
9381.000000;0.853479
9380.000000;0.853180
9379.000000;0.853211
9378.000000;0.853402
9377.000000;0.853303
9376.000000;0.852704
9375.000000;0.851931
9374.000000;0.851430
9373.000000;0.851229
9372.000000;0.851042
9371.000000;0.850727
9370.000000;0.850370
9369.000000;0.850020
9368.000000;0.849616
9367.000000;0.849144
9366.000000;0.848697
9365.000000;0.848383
9364.000000;0.848247
9363.000000;0.848189
9362.000000;0.847925
9361.000000;0.847180
9360.000000;0.846051
9359.000000;0.845040
9358.000000;0.844586
9357.000000;0.844659
9356.000000;0.844894
9355.000000;0.845024
9354.000000;0.845044
9353.000000;0.845083
9352.000000;0.845212
9351.000000;0.845329
9350.000000;0.845173
9349.000000;0.844546
9348.000000;0.843571
9347.000000;0.842612
9346.000000;0.841922
9345.000000;0.841486
9344.000000;0.841195
9343.000000;0.840998
9342.000000;0.840801
9341.000000;0.840445
9340.000000;0.839896
9339.000000;0.839334
9338.000000;0.838951
9337.000000;0.838789
9336.000000;0.838776
9335.000000;0.838789
9334.000000;0.838639
9333.000000;0.838217
9332.000000;0.837702
9331.000000;0.837421
9330.000000;0.837388
9329.000000;0.837235
9328.000000;0.836695
9327.000000;0.835948
9326.000000;0.835353
9325.000000;0.835052
9324.000000;0.834982
9323.000000;0.835068
9322.000000;0.835199
9321.000000;0.835189
9320.000000;0.834921
9319.000000;0.834442
9318.000000;0.833843
9317.000000;0.833165
9316.000000;0.832495
9315.000000;0.831956
9314.000000;0.831490
9313.000000;0.830888
9312.000000;0.830173
9311.000000;0.829739
9310.000000;0.829894
9309.000000;0.830415
9308.000000;0.830758
9307.000000;0.830587
9306.000000;0.829967
9305.000000;0.829175
9304.000000;0.828514
9303.000000;0.828177
9302.000000;0.828069
9301.000000;0.827854
9300.000000;0.827354
9299.000000;0.826782
9298.000000;0.826422
9297.000000;0.826206
9296.000000;0.825839
9295.000000;0.825255
9294.000000;0.824716
9293.000000;0.824453
9292.000000;0.824427
9291.000000;0.824462
9290.000000;0.824438
9289.000000;0.824301
9288.000000;0.824002
9287.000000;0.823506
9286.000000;0.822829
9285.000000;0.822059
9284.000000;0.821374
9283.000000;0.820973
9282.000000;0.820920
9281.000000;0.821029
9280.000000;0.820964
9279.000000;0.820496
9278.000000;0.819716
9277.000000;0.819035
9276.000000;0.818886
9275.000000;0.819316
9274.000000;0.819869
9273.000000;0.819985
9272.000000;0.819537
9271.000000;0.818868
9270.000000;0.818319
9269.000000;0.817888
9268.000000;0.817375
9267.000000;0.816680
9266.000000;0.815881
9265.000000;0.815146
9264.000000;0.814656
9263.000000;0.814516
9262.000000;0.814644
9261.000000;0.814837
9260.000000;0.814956
9259.000000;0.814970
9258.000000;0.814832
9257.000000;0.814473
9256.000000;0.813964
9255.000000;0.813531
9254.000000;0.813331
9253.000000;0.813293
9252.000000;0.813222
9251.000000;0.812957
9250.000000;0.812402
9249.000000;0.811571
9248.000000;0.810669
9247.000000;0.810005
9246.000000;0.809744
9245.000000;0.809792
9244.000000;0.809944
9243.000000;0.810035
9242.000000;0.809945
9241.000000;0.809625
9240.000000;0.809178
9239.000000;0.808793
9238.000000;0.808524
9237.000000;0.808224
9236.000000;0.807755
9235.000000;0.807156
9234.000000;0.806589
9233.000000;0.806214
9232.000000;0.806121
9231.000000;0.806239
9230.000000;0.806306
9229.000000;0.806080
9228.000000;0.805625
9227.000000;0.805267
9226.000000;0.805236
9225.000000;0.805440
9224.000000;0.805596
9223.000000;0.805444
9222.000000;0.804861
9221.000000;0.803947
9220.000000;0.803023
9219.000000;0.802384
9218.000000;0.802029
9217.000000;0.801769
9216.000000;0.801561
9215.000000;0.801520
9214.000000;0.801629
9213.000000;0.801671
9212.000000;0.801523
9211.000000;0.801280
9210.000000;0.801007
9209.000000;0.800611
9208.000000;0.800061
9207.000000;0.799543
9206.000000;0.799222
9205.000000;0.799034
9204.000000;0.798807
9203.000000;0.798465
9202.000000;0.797997
9201.000000;0.797426
9200.000000;0.796901
9199.000000;0.796682
9198.000000;0.796853
9197.000000;0.797139
9196.000000;0.797142
9195.000000;0.796704
9194.000000;0.795971
9193.000000;0.795214
9192.000000;0.794638
9191.000000;0.794279
9190.000000;0.794003
9189.000000;0.793686
9188.000000;0.793407
9187.000000;0.793336
9186.000000;0.793435
9185.000000;0.793443
9184.000000;0.793224
9183.000000;0.792924
9182.000000;0.792713
9181.000000;0.792533
9180.000000;0.792230
9179.000000;0.791788
9178.000000;0.791322
9177.000000;0.790924
9176.000000;0.790626
9175.000000;0.790419
9174.000000;0.790240
9173.000000;0.790049
9172.000000;0.789922
9171.000000;0.789929
9170.000000;0.789891
9169.000000;0.789479
9168.000000;0.788660
9167.000000;0.787859
9166.000000;0.787522
9165.000000;0.787639
9164.000000;0.787857
9163.000000;0.787916
9162.000000;0.787818
9161.000000;0.787621
9160.000000;0.787295
9159.000000;0.786797
9158.000000;0.786195
9157.000000;0.785668
9156.000000;0.785385
9155.000000;0.785368
9154.000000;0.785439
9153.000000;0.785350
9152.000000;0.784966
9151.000000;0.784331
9150.000000;0.783595
9149.000000;0.782947
9148.000000;0.782555
9147.000000;0.782431
9146.000000;0.782373
9145.000000;0.782176
9144.000000;0.781894
9143.000000;0.781775
9142.000000;0.781945
9141.000000;0.782292
9140.000000;0.782627
9139.000000;0.782803
9138.000000;0.782673
9137.000000;0.782132
9136.000000;0.781269
9135.000000;0.780339
9134.000000;0.779561
9133.000000;0.779057
9132.000000;0.778931
9131.000000;0.779187
9130.000000;0.779572
9129.000000;0.779723
9128.000000;0.779530
9127.000000;0.779181
9126.000000;0.778792
9125.000000;0.778248
9124.000000;0.777501
9123.000000;0.776814
9122.000000;0.776501
9121.000000;0.776533
9120.000000;0.776568
9119.000000;0.776315
9118.000000;0.775788
9117.000000;0.775227
9116.000000;0.774866
9115.000000;0.774732
9114.000000;0.774663
9113.000000;0.774536
9112.000000;0.774445
9111.000000;0.774550
9110.000000;0.774785
9109.000000;0.774870
9108.000000;0.774615
9107.000000;0.774088
9106.000000;0.773493
9105.000000;0.773034
9104.000000;0.772881
9103.000000;0.773091
9102.000000;0.773480
9101.000000;0.773731
9100.000000;0.773652
9099.000000;0.773279
9098.000000;0.772728
9097.000000;0.772115
9096.000000;0.771592
9095.000000;0.771258
9094.000000;0.770982
9093.000000;0.770528
9092.000000;0.769886
9091.000000;0.769320
9090.000000;0.769009
9089.000000;0.768839
9088.000000;0.768635
9087.000000;0.768429
9086.000000;0.768361
9085.000000;0.768432
9084.000000;0.768458
9083.000000;0.768225
9082.000000;0.767686
9081.000000;0.767056
9080.000000;0.766703
9079.000000;0.766809
9078.000000;0.767138
9077.000000;0.767254
9076.000000;0.766989
9075.000000;0.766567
9074.000000;0.766282
9073.000000;0.766186
9072.000000;0.766106
9071.000000;0.765815
9070.000000;0.765199
9069.000000;0.764404
9068.000000;0.763780
9067.000000;0.763529
9066.000000;0.763433
9065.000000;0.763136
9064.000000;0.762631
9063.000000;0.762256
9062.000000;0.762205
9061.000000;0.762301
9060.000000;0.762298
9059.000000;0.762151
9058.000000;0.761910
9057.000000;0.761596
9056.000000;0.761277
9055.000000;0.761063
9054.000000;0.760957
9053.000000;0.760863
9052.000000;0.760770
9051.000000;0.760724
9050.000000;0.760593
9049.000000;0.760130
9048.000000;0.759362
9047.000000;0.758671
9046.000000;0.758340
9045.000000;0.758257
9044.000000;0.758171
9043.000000;0.758049
9042.000000;0.758006
9041.000000;0.758065
9040.000000;0.758142
9039.000000;0.758144
9038.000000;0.757958
9037.000000;0.757482
9036.000000;0.756805
9035.000000;0.756225
9034.000000;0.755972
9033.000000;0.755999
9032.000000;0.756145
9031.000000;0.756330
9030.000000;0.756501
9029.000000;0.756529
9028.000000;0.756311
9027.000000;0.755894
9026.000000;0.755390
9025.000000;0.754875
9024.000000;0.754423
9023.000000;0.754126
9022.000000;0.753988
9021.000000;0.753877
9020.000000;0.753666
9019.000000;0.753344
9018.000000;0.752964
9017.000000;0.752600
9016.000000;0.752367
9015.000000;0.752350
9014.000000;0.752455
9013.000000;0.752481
9012.000000;0.752371
9011.000000;0.752237
9010.000000;0.752128
9009.000000;0.751947
9008.000000;0.751672
9007.000000;0.751438
9006.000000;0.751301
9005.000000;0.751106
9004.000000;0.750711
9003.000000;0.750215
9002.000000;0.749818
9001.000000;0.749605
9000.000000;0.749554
8999.000000;0.749629
8998.000000;0.749721
8997.000000;0.749621
8996.000000;0.749212
8995.000000;0.748635
8994.000000;0.748164
8993.000000;0.747949
8992.000000;0.747937
8991.000000;0.747965
8990.000000;0.747877
8989.000000;0.747619
8988.000000;0.747277
8987.000000;0.746976
8986.000000;0.746734
8985.000000;0.746499
8984.000000;0.746292
8983.000000;0.746184
8982.000000;0.746141
8981.000000;0.746048
8980.000000;0.745900
8979.000000;0.745812
8978.000000;0.745792
8977.000000;0.745672
8976.000000;0.745319
8975.000000;0.744794
8974.000000;0.744268
8973.000000;0.743904
8972.000000;0.743814
8971.000000;0.743964
8970.000000;0.744107
8969.000000;0.744005
8968.000000;0.743757
8967.000000;0.743698
8966.000000;0.743924
8965.000000;0.744131
8964.000000;0.744013
8963.000000;0.743610
8962.000000;0.743150
8961.000000;0.742743
8960.000000;0.742370
8959.000000;0.742034
8958.000000;0.741753
8957.000000;0.741492
8956.000000;0.741201
8955.000000;0.740844
8954.000000;0.740406
8953.000000;0.739965
8952.000000;0.739764
8951.000000;0.739973
8950.000000;0.740341
8949.000000;0.740317
8948.000000;0.739654
8947.000000;0.738700
8946.000000;0.737988
8945.000000;0.737735
8944.000000;0.737872
8943.000000;0.738309
8942.000000;0.738961
8941.000000;0.739609
8940.000000;0.739978
8939.000000;0.739922
8938.000000;0.739462
8937.000000;0.738735
8936.000000;0.737993
8935.000000;0.737491
8934.000000;0.737252
8933.000000;0.737045
8932.000000;0.736720
8931.000000;0.736424
8930.000000;0.736369
8929.000000;0.736491
8928.000000;0.736538
8927.000000;0.736379
8926.000000;0.736058
8925.000000;0.735616
8924.000000;0.735058
8923.000000;0.734485
8922.000000;0.734095
8921.000000;0.733993
8920.000000;0.734070
8919.000000;0.734121
8918.000000;0.734045
8917.000000;0.733909
8916.000000;0.733854
8915.000000;0.733919
8914.000000;0.733985
8913.000000;0.733929
8912.000000;0.733775
8911.000000;0.733615
8910.000000;0.733415
8909.000000;0.733041
8908.000000;0.732503
8907.000000;0.732017
8906.000000;0.731774
8905.000000;0.731744
8904.000000;0.731756
8903.000000;0.731679
8902.000000;0.731485
8901.000000;0.731244
8900.000000;0.731096
8899.000000;0.731131
8898.000000;0.731263
8897.000000;0.731274
8896.000000;0.731041
8895.000000;0.730634
8894.000000;0.730213
8893.000000;0.729911
8892.000000;0.729789
8891.000000;0.729789
8890.000000;0.729723
8889.000000;0.729473
8888.000000;0.729196
8887.000000;0.729166
8886.000000;0.729388
8885.000000;0.729537
8884.000000;0.729355
8883.000000;0.728939
8882.000000;0.728554
8881.000000;0.728311
8880.000000;0.728138
8879.000000;0.727947
8878.000000;0.727717
8877.000000;0.727459
8876.000000;0.727171
8875.000000;0.726839
8874.000000;0.726470
8873.000000;0.726158
8872.000000;0.726039
8871.000000;0.726112
8870.000000;0.726184
8869.000000;0.726125
8868.000000;0.726064
8867.000000;0.726138
8866.000000;0.726154
8865.000000;0.725775
8864.000000;0.725056
8863.000000;0.724479
8862.000000;0.724403
8861.000000;0.724704
8860.000000;0.725039
8859.000000;0.725223
8858.000000;0.725237
8857.000000;0.725114
8856.000000;0.724975
8855.000000;0.724997
8854.000000;0.725190
8853.000000;0.725349
8852.000000;0.725333
8851.000000;0.725250
8850.000000;0.725226
8849.000000;0.725193
8848.000000;0.725034
8847.000000;0.724811
8846.000000;0.724646
8845.000000;0.724508
8844.000000;0.724269
8843.000000;0.723916
8842.000000;0.723571
8841.000000;0.723351
8840.000000;0.723295
8839.000000;0.723373
8838.000000;0.723476
8837.000000;0.723474
8836.000000;0.723356
8835.000000;0.723252
8834.000000;0.723268
8833.000000;0.723366
8832.000000;0.723441
8831.000000;0.723420
8830.000000;0.723250
8829.000000;0.722920
8828.000000;0.722542
8827.000000;0.722307
8826.000000;0.722301
8825.000000;0.722456
8824.000000;0.722675
8823.000000;0.722873
8822.000000;0.722880
8821.000000;0.722524
8820.000000;0.721911
8819.000000;0.721449
8818.000000;0.721441
8817.000000;0.721785
8816.000000;0.722149
8815.000000;0.722342
8814.000000;0.722406
8813.000000;0.722454
8812.000000;0.722529
8811.000000;0.722561
8810.000000;0.722402
8809.000000;0.721991
8808.000000;0.721507
8807.000000;0.721256
8806.000000;0.721337
8805.000000;0.721577
8804.000000;0.721835
8803.000000;0.722170
8802.000000;0.722608
8801.000000;0.722912
8800.000000;0.722783
8799.000000;0.722220
8798.000000;0.721543
8797.000000;0.721092
8796.000000;0.720991
8795.000000;0.721115
8794.000000;0.721218
8793.000000;0.721168
8792.000000;0.721101
8791.000000;0.721251
8790.000000;0.721604
8789.000000;0.721872
8788.000000;0.721903
8787.000000;0.721932
8786.000000;0.722265
8785.000000;0.722837
8784.000000;0.723261
8783.000000;0.723276
8782.000000;0.723001
8781.000000;0.722753
8780.000000;0.722716
8779.000000;0.722789
8778.000000;0.722725
8777.000000;0.722409
8776.000000;0.722009
8775.000000;0.721801
8774.000000;0.721864
8773.000000;0.722063
8772.000000;0.722304
8771.000000;0.722631
8770.000000;0.723019
8769.000000;0.723268
8768.000000;0.723256
8767.000000;0.723165
8766.000000;0.723296
8765.000000;0.723695
8764.000000;0.724101
8763.000000;0.724237
8762.000000;0.724082
8761.000000;0.723874
8760.000000;0.723878
8759.000000;0.724127
8758.000000;0.724354
8757.000000;0.724255
8756.000000;0.723839
8755.000000;0.723436
8754.000000;0.723343
8753.000000;0.723558
8752.000000;0.723905
8751.000000;0.724287
8750.000000;0.724695
8749.000000;0.725058
8748.000000;0.725245
8747.000000;0.725217
8746.000000;0.725100
8745.000000;0.725067
8744.000000;0.725152
8743.000000;0.725231
8742.000000;0.725218
8741.000000;0.725260
8740.000000;0.725607
8739.000000;0.726234
8738.000000;0.726738
8737.000000;0.726787
8736.000000;0.726554
8735.000000;0.726500
8734.000000;0.726770
8733.000000;0.727056
8732.000000;0.727084
8731.000000;0.726960
8730.000000;0.726949
8729.000000;0.727110
8728.000000;0.727278
8727.000000;0.727277
8726.000000;0.727026
8725.000000;0.726579
8724.000000;0.726144
8723.000000;0.725956
8722.000000;0.726030
8721.000000;0.726157
8720.000000;0.726202
8719.000000;0.726277
8718.000000;0.726499
8717.000000;0.726746
8716.000000;0.726795
8715.000000;0.726654
8714.000000;0.726582
8713.000000;0.726794
8712.000000;0.727231
8711.000000;0.727627
8710.000000;0.727741
8709.000000;0.727563
8708.000000;0.727330
8707.000000;0.727322
8706.000000;0.727609
8705.000000;0.728004
8704.000000;0.728262
8703.000000;0.728290
8702.000000;0.728175
8701.000000;0.728085
8700.000000;0.728139
8699.000000;0.728306
8698.000000;0.728442
8697.000000;0.728452
8696.000000;0.728397
8695.000000;0.728374
8694.000000;0.728363
8693.000000;0.728293
8692.000000;0.728191
8691.000000;0.728122
8690.000000;0.728033
8689.000000;0.727856
8688.000000;0.727715
8687.000000;0.727828
8686.000000;0.728192
8685.000000;0.728549
8684.000000;0.728693
8683.000000;0.728654
8682.000000;0.728527
8681.000000;0.728336
8680.000000;0.728135
8679.000000;0.728055
8678.000000;0.728135
8677.000000;0.728225
8676.000000;0.728159
8675.000000;0.727925
8674.000000;0.727617
8673.000000;0.727317
8672.000000;0.727085
8671.000000;0.726960
8670.000000;0.726912
8669.000000;0.726873
8668.000000;0.726851
8667.000000;0.726917
8666.000000;0.727054
8665.000000;0.727154
8664.000000;0.727177
8663.000000;0.727172
8662.000000;0.727144
8661.000000;0.727033
8660.000000;0.726888
8659.000000;0.726868
8658.000000;0.727017
8657.000000;0.727169
8656.000000;0.727152
8655.000000;0.726953
8654.000000;0.726642
8653.000000;0.726273
8652.000000;0.725929
8651.000000;0.725712
8650.000000;0.725592
8649.000000;0.725387
8648.000000;0.724998
8647.000000;0.724555
8646.000000;0.724271
8645.000000;0.724251
8644.000000;0.724484
8643.000000;0.724882
8642.000000;0.725241
8641.000000;0.725296
8640.000000;0.724959
8639.000000;0.724425
8638.000000;0.723981
8637.000000;0.723744
8636.000000;0.723646
8635.000000;0.723563
8634.000000;0.723417
8633.000000;0.723200
8632.000000;0.722998
8631.000000;0.722892
8630.000000;0.722835
8629.000000;0.722683
8628.000000;0.722380
8627.000000;0.722035
8626.000000;0.721773
8625.000000;0.721634
8624.000000;0.721619
8623.000000;0.721740
8622.000000;0.721942
8621.000000;0.722092
8620.000000;0.722096
8619.000000;0.721979
8618.000000;0.721794
8617.000000;0.721553
8616.000000;0.721250
8615.000000;0.720917
8614.000000;0.720611
8613.000000;0.720410
8612.000000;0.720395
8611.000000;0.720543
8610.000000;0.720669
8609.000000;0.720594
8608.000000;0.720369
8607.000000;0.720200
8606.000000;0.720164
8605.000000;0.720148
8604.000000;0.720054
8603.000000;0.719896
8602.000000;0.719675
8601.000000;0.719340
8600.000000;0.718928
8599.000000;0.718583
8598.000000;0.718360
8597.000000;0.718141
8596.000000;0.717832
8595.000000;0.717518
8594.000000;0.717344
8593.000000;0.717322
8592.000000;0.717325
8591.000000;0.717211
8590.000000;0.716927
8589.000000;0.716571
8588.000000;0.716344
8587.000000;0.716363
8586.000000;0.716494
8585.000000;0.716463
8584.000000;0.716142
8583.000000;0.715624
8582.000000;0.715059
8581.000000;0.714588
8580.000000;0.714387
8579.000000;0.714581
8578.000000;0.715040
8577.000000;0.715401
8576.000000;0.715396
8575.000000;0.715039
8574.000000;0.714484
8573.000000;0.713859
8572.000000;0.713299
8571.000000;0.712972
8570.000000;0.712959
8569.000000;0.713146
8568.000000;0.713314
8567.000000;0.713282
8566.000000;0.712998
8565.000000;0.712579
8564.000000;0.712274
8563.000000;0.712271
8562.000000;0.712493
8561.000000;0.712680
8560.000000;0.712626
8559.000000;0.712264
8558.000000;0.711597
8557.000000;0.710753
8556.000000;0.710050
8555.000000;0.709778
8554.000000;0.709861
8553.000000;0.709920
8552.000000;0.709722
8551.000000;0.709380
8550.000000;0.709084
8549.000000;0.708860
8548.000000;0.708672
8547.000000;0.708550
8546.000000;0.708488
8545.000000;0.708362
8544.000000;0.708104
8543.000000;0.707825
8542.000000;0.707656
8541.000000;0.707571
8540.000000;0.707468
8539.000000;0.707331
8538.000000;0.707206
8537.000000;0.707077
8536.000000;0.706884
8535.000000;0.706611
8534.000000;0.706306
8533.000000;0.706055
8532.000000;0.705944
8531.000000;0.705995
8530.000000;0.706109
8529.000000;0.706156
8528.000000;0.706121
8527.000000;0.706083
8526.000000;0.706056
8525.000000;0.705973
8524.000000;0.705799
8523.000000;0.705560
8522.000000;0.705258
8521.000000;0.704898
8520.000000;0.704575
8519.000000;0.704390
8518.000000;0.704285
8517.000000;0.704101
8516.000000;0.703801
8515.000000;0.703483
8514.000000;0.703191
8513.000000;0.702878
8512.000000;0.702578
8511.000000;0.702414
8510.000000;0.702392
8509.000000;0.702363
8508.000000;0.702213
8507.000000;0.701941
8506.000000;0.701547
8505.000000;0.701043
8504.000000;0.700590
8503.000000;0.700387
8502.000000;0.700361
8501.000000;0.700200
8500.000000;0.699789
8499.000000;0.699403
8498.000000;0.699348
8497.000000;0.699576
8496.000000;0.699806
8495.000000;0.699869
8494.000000;0.699782
8493.000000;0.699613
8492.000000;0.699402
8491.000000;0.699152
8490.000000;0.698811
8489.000000;0.698350
8488.000000;0.697893
8487.000000;0.697653
8486.000000;0.697674
8485.000000;0.697760
8484.000000;0.697696
8483.000000;0.697428
8482.000000;0.696990
8481.000000;0.696454
8480.000000;0.696015
8479.000000;0.695915
8478.000000;0.696152
8477.000000;0.696393
8476.000000;0.696317
8475.000000;0.695939
8474.000000;0.695495
8473.000000;0.695156
8472.000000;0.694962
8471.000000;0.694914
8470.000000;0.694960
8469.000000;0.694974
8468.000000;0.694874
8467.000000;0.694713
8466.000000;0.694577
8465.000000;0.694471
8464.000000;0.694370
8463.000000;0.694292
8462.000000;0.694225
8461.000000;0.694087
8460.000000;0.693822
8459.000000;0.693464
8458.000000;0.693051
8457.000000;0.692579
8456.000000;0.692116
8455.000000;0.691818
8454.000000;0.691730
8453.000000;0.691710
8452.000000;0.691639
8451.000000;0.691577
8450.000000;0.691601
8449.000000;0.691591
8448.000000;0.691377
8447.000000;0.690995
8446.000000;0.690651
8445.000000;0.690439
8444.000000;0.690253
8443.000000;0.689977
8442.000000;0.689651
8441.000000;0.689404
8440.000000;0.689289
8439.000000;0.689236
8438.000000;0.689129
8437.000000;0.688917
8436.000000;0.688639
8435.000000;0.688351
8434.000000;0.688076
8433.000000;0.687852
8432.000000;0.687763
8431.000000;0.687841
8430.000000;0.687990
8429.000000;0.688092
8428.000000;0.688152
8427.000000;0.688216
8426.000000;0.688209
8425.000000;0.688000
8424.000000;0.687628
8423.000000;0.687280
8422.000000;0.687039
8421.000000;0.686816
8420.000000;0.686562
8419.000000;0.686367
8418.000000;0.686276
8417.000000;0.686184
8416.000000;0.686003
8415.000000;0.685815
8414.000000;0.685760
8413.000000;0.685830
8412.000000;0.685871
8411.000000;0.685724
8410.000000;0.685337
8409.000000;0.684830
8408.000000;0.684453
8407.000000;0.684370
8406.000000;0.684448
8405.000000;0.684389
8404.000000;0.684075
8403.000000;0.683665
8402.000000;0.683308
8401.000000;0.682954
8400.000000;0.682521
8399.000000;0.682096
8398.000000;0.681837
8397.000000;0.681774
8396.000000;0.681821
8395.000000;0.681893
8394.000000;0.681927
8393.000000;0.681869
8392.000000;0.681709
8391.000000;0.681492
8390.000000;0.681246
8389.000000;0.680971
8388.000000;0.680714
8387.000000;0.680555
8386.000000;0.680485
8385.000000;0.680373
8384.000000;0.680147
8383.000000;0.679904
8382.000000;0.679775
8381.000000;0.679760
8380.000000;0.679742
8379.000000;0.679628
8378.000000;0.679410
8377.000000;0.679147
8376.000000;0.678907
8375.000000;0.678689
8374.000000;0.678428
8373.000000;0.678108
8372.000000;0.677831
8371.000000;0.677675
8370.000000;0.677545
8369.000000;0.677292
8368.000000;0.676946
8367.000000;0.676679
8366.000000;0.676550
8365.000000;0.676460
8364.000000;0.676349
8363.000000;0.676236
8362.000000;0.676051
8361.000000;0.675649
8360.000000;0.675056
8359.000000;0.674522
8358.000000;0.674241
8357.000000;0.674159
8356.000000;0.674125
8355.000000;0.674096
8354.000000;0.674096
8353.000000;0.674108
8352.000000;0.674116
8351.000000;0.674138
8350.000000;0.674132
8349.000000;0.673977
8348.000000;0.673615
8347.000000;0.673126
8346.000000;0.672634
8345.000000;0.672219
8344.000000;0.671955
8343.000000;0.671906
8342.000000;0.672019
8341.000000;0.672123
8340.000000;0.672087
8339.000000;0.671900
8338.000000;0.671606
8337.000000;0.671276
8336.000000;0.671034
8335.000000;0.670937
8334.000000;0.670839
8333.000000;0.670553
8332.000000;0.670157
8331.000000;0.669922
8330.000000;0.669904
8329.000000;0.669847
8328.000000;0.669581
8327.000000;0.669267
8326.000000;0.669095
8325.000000;0.668962
8324.000000;0.668642
8323.000000;0.668146
8322.000000;0.667708
8321.000000;0.667488
8320.000000;0.667451
8319.000000;0.667470
8318.000000;0.667418
8317.000000;0.667221
8316.000000;0.666931
8315.000000;0.666698
8314.000000;0.666598
8313.000000;0.666552
8312.000000;0.666459
8311.000000;0.666303
8310.000000;0.666054
8309.000000;0.665644
8308.000000;0.665136
8307.000000;0.664776
8306.000000;0.664710
8305.000000;0.664741
8304.000000;0.664543
8303.000000;0.664063
8302.000000;0.663583
8301.000000;0.663381
8300.000000;0.663462
8299.000000;0.663607
8298.000000;0.663588
8297.000000;0.663341
8296.000000;0.662984
8295.000000;0.662675
8294.000000;0.662461
8293.000000;0.662272
8292.000000;0.662032
8291.000000;0.661721
8290.000000;0.661346
8289.000000;0.660954
8288.000000;0.660665
8287.000000;0.660565
8286.000000;0.660554
8285.000000;0.660435
8284.000000;0.660175
8283.000000;0.659924
8282.000000;0.659774
8281.000000;0.659637
8280.000000;0.659437
8279.000000;0.659243
8278.000000;0.659121
8277.000000;0.658997
8276.000000;0.658770
8275.000000;0.658456
8274.000000;0.658141
8273.000000;0.657880
8272.000000;0.657719
8271.000000;0.657699
8270.000000;0.657744
8269.000000;0.657671
8268.000000;0.657379
8267.000000;0.656952
8266.000000;0.656521
8265.000000;0.656136
8264.000000;0.655824
8263.000000;0.655615
8262.000000;0.655449
8261.000000;0.655192
8260.000000;0.654835
8259.000000;0.654543
8258.000000;0.654415
8257.000000;0.654340
8256.000000;0.654197
8255.000000;0.654056
8254.000000;0.654024
8253.000000;0.654034
8252.000000;0.653924
8251.000000;0.653648
8250.000000;0.653260
8249.000000;0.652799
8248.000000;0.652315
8247.000000;0.651925
8246.000000;0.651710
8245.000000;0.651585
8244.000000;0.651400
8243.000000;0.651121
8242.000000;0.650830
8241.000000;0.650603
8240.000000;0.650489
8239.000000;0.650533
8238.000000;0.650706
8237.000000;0.650853
8236.000000;0.650819
8235.000000;0.650602
8234.000000;0.650321
8233.000000;0.650074
8232.000000;0.649883
8231.000000;0.649716
8230.000000;0.649505
8229.000000;0.649203
8228.000000;0.648866
8227.000000;0.648594
8226.000000;0.648371
8225.000000;0.648060
8224.000000;0.647608
8223.000000;0.647126
8222.000000;0.646718
8221.000000;0.646383
8220.000000;0.646155
8219.000000;0.646148
8218.000000;0.646331
8217.000000;0.646418
8216.000000;0.646173
8215.000000;0.645739
8214.000000;0.645444
8213.000000;0.645364
8212.000000;0.645272
8211.000000;0.644978
8210.000000;0.644548
8209.000000;0.644175
8208.000000;0.643968
8207.000000;0.643912
8206.000000;0.643909
8205.000000;0.643834
8204.000000;0.643641
8203.000000;0.643392
8202.000000;0.643152
8201.000000;0.642877
8200.000000;0.642496
8199.000000;0.642044
8198.000000;0.641621
8197.000000;0.641250
8196.000000;0.640884
8195.000000;0.640544
8194.000000;0.640341
8193.000000;0.640360
8192.000000;0.640554
8191.000000;0.640766
8190.000000;0.640810
8189.000000;0.640579
8188.000000;0.640132
8187.000000;0.639667
8186.000000;0.639337
8185.000000;0.639127
8184.000000;0.638950
8183.000000;0.638785
8182.000000;0.638654
8181.000000;0.638504
8180.000000;0.638242
8179.000000;0.637857
8178.000000;0.637449
8177.000000;0.637108
8176.000000;0.636842
8175.000000;0.636621
8174.000000;0.636437
8173.000000;0.636301
8172.000000;0.636219
8171.000000;0.636149
8170.000000;0.636016
8169.000000;0.635778
8168.000000;0.635488
8167.000000;0.635240
8166.000000;0.635043
8165.000000;0.634800
8164.000000;0.634458
8163.000000;0.634091
8162.000000;0.633807
8161.000000;0.633622
8160.000000;0.633471
8159.000000;0.633291
8158.000000;0.633053
8157.000000;0.632757
8156.000000;0.632444
8155.000000;0.632171
8154.000000;0.631951
8153.000000;0.631743
8152.000000;0.631534
8151.000000;0.631361
8150.000000;0.631229
8149.000000;0.631084
8148.000000;0.630917
8147.000000;0.630790
8146.000000;0.630734
8145.000000;0.630683
8144.000000;0.630582
8143.000000;0.630471
8142.000000;0.630391
8141.000000;0.630290
8140.000000;0.630099
8139.000000;0.629848
8138.000000;0.629603
8137.000000;0.629340
8136.000000;0.628983
8135.000000;0.628542
8134.000000;0.628127
8133.000000;0.627832
8132.000000;0.627662
8131.000000;0.627565
8130.000000;0.627490
8129.000000;0.627410
8128.000000;0.627337
8127.000000;0.627301
8126.000000;0.627286
8125.000000;0.627227
8124.000000;0.627061
8123.000000;0.626777
8122.000000;0.626391
8121.000000;0.625942
8120.000000;0.625534
8119.000000;0.625280
8118.000000;0.625163
8117.000000;0.624995
8116.000000;0.624597
8115.000000;0.623984
8114.000000;0.623355
8113.000000;0.622906
8112.000000;0.622696
8111.000000;0.622636
8110.000000;0.622578
8109.000000;0.622432
8108.000000;0.622234
8107.000000;0.622074
8106.000000;0.621971
8105.000000;0.621861
8104.000000;0.621715
8103.000000;0.621590
8102.000000;0.621532
8101.000000;0.621497
8100.000000;0.621411
8099.000000;0.621249
8098.000000;0.621022
8097.000000;0.620726
8096.000000;0.620346
8095.000000;0.619880
8094.000000;0.619344
8093.000000;0.618801
8092.000000;0.618379
8091.000000;0.618190
8090.000000;0.618186
8089.000000;0.618173
8088.000000;0.617998
8087.000000;0.617673
8086.000000;0.617306
8085.000000;0.616967
8084.000000;0.616686
8083.000000;0.616478
8082.000000;0.616327
8081.000000;0.616169
8080.000000;0.615946
8079.000000;0.615659
8078.000000;0.615358
8077.000000;0.615091
8076.000000;0.614885
8075.000000;0.614731
8074.000000;0.614579
8073.000000;0.614405
8072.000000;0.614259
8071.000000;0.614188
8070.000000;0.614135
8069.000000;0.613990
8068.000000;0.613730
8067.000000;0.613437
8066.000000;0.613173
8065.000000;0.612934
8064.000000;0.612728
8063.000000;0.612579
8062.000000;0.612443
8061.000000;0.612225
8060.000000;0.611901
8059.000000;0.611545
8058.000000;0.611211
8057.000000;0.610909
8056.000000;0.610684
8055.000000;0.610579
8054.000000;0.610494
8053.000000;0.610253
8052.000000;0.609865
8051.000000;0.609560
8050.000000;0.609491
8049.000000;0.609516
8048.000000;0.609389
8047.000000;0.609060
8046.000000;0.608673
8045.000000;0.608345
8044.000000;0.608090
8043.000000;0.607880
8042.000000;0.607694
8041.000000;0.607501
8040.000000;0.607289
8039.000000;0.607079
8038.000000;0.606884
8037.000000;0.606690
8036.000000;0.606504
8035.000000;0.606355
8034.000000;0.606205
8033.000000;0.605960
8032.000000;0.605605
8031.000000;0.605253
8030.000000;0.604996
8029.000000;0.604796
8028.000000;0.604580
8027.000000;0.604364
8026.000000;0.604193
8025.000000;0.604046
8024.000000;0.603874
8023.000000;0.603670
8022.000000;0.603437
8021.000000;0.603155
8020.000000;0.602850
8019.000000;0.602610
8018.000000;0.602456
8017.000000;0.602282
8016.000000;0.602009
8015.000000;0.601723
8014.000000;0.601535
8013.000000;0.601399
8012.000000;0.601178
8011.000000;0.600841
8010.000000;0.600469
8009.000000;0.600117
8008.000000;0.599781
8007.000000;0.599484
8006.000000;0.599276
8005.000000;0.599140
8004.000000;0.598996
8003.000000;0.598802
8002.000000;0.598581
8001.000000;0.598342
8000.000000;0.598068
7999.000000;0.597774
7998.000000;0.597519
7997.000000;0.597343
7996.000000;0.597217
7995.000000;0.597080
7994.000000;0.596891
7993.000000;0.596643
7992.000000;0.596352
7991.000000;0.596022
7990.000000;0.595647
7989.000000;0.595267
7988.000000;0.594990
7987.000000;0.594892
7986.000000;0.594882
7985.000000;0.594765
7984.000000;0.594484
7983.000000;0.594184
7982.000000;0.593985
7981.000000;0.593806
7980.000000;0.593507
7979.000000;0.593120
7978.000000;0.592813
7977.000000;0.592663
7976.000000;0.592583
7975.000000;0.592463
7974.000000;0.592271
7973.000000;0.592002
7972.000000;0.591658
7971.000000;0.591288
7970.000000;0.590996
7969.000000;0.590852
7968.000000;0.590816
7967.000000;0.590748
7966.000000;0.590510
7965.000000;0.590080
7964.000000;0.589606
7963.000000;0.589302
7962.000000;0.589231
7961.000000;0.589216
7960.000000;0.589009
7959.000000;0.588549
7958.000000;0.588004
7957.000000;0.587584
7956.000000;0.587378
7955.000000;0.587339
7954.000000;0.587364
7953.000000;0.587348
7952.000000;0.587215
7951.000000;0.586940
7950.000000;0.586563
7949.000000;0.586179
7948.000000;0.585885
7947.000000;0.585714
7946.000000;0.585602
7945.000000;0.585444
7944.000000;0.585199
7943.000000;0.584909
7942.000000;0.584627
7941.000000;0.584357
7940.000000;0.584082
7939.000000;0.583814
7938.000000;0.583573
7937.000000;0.583367
7936.000000;0.583185
7935.000000;0.583007
7934.000000;0.582817
7933.000000;0.582621
7932.000000;0.582464
7931.000000;0.582364
7930.000000;0.582270
7929.000000;0.582119
7928.000000;0.581935
7927.000000;0.581773
7926.000000;0.581597
7925.000000;0.581302
7924.000000;0.580891
7923.000000;0.580516
7922.000000;0.580281
7921.000000;0.580105
7920.000000;0.579848
7919.000000;0.579484
7918.000000;0.579079
7917.000000;0.578670
7916.000000;0.578259
7915.000000;0.577894
7914.000000;0.577648
7913.000000;0.577518
7912.000000;0.577436
7911.000000;0.577366
7910.000000;0.577319
7909.000000;0.577271
7908.000000;0.577146
7907.000000;0.576911
7906.000000;0.576642
7905.000000;0.576433
7904.000000;0.576284
7903.000000;0.576109
7902.000000;0.575860
7901.000000;0.575599
7900.000000;0.575426
7899.000000;0.575345
7898.000000;0.575255
7897.000000;0.575082
7896.000000;0.574852
7895.000000;0.574616
7894.000000;0.574356
7893.000000;0.574037
7892.000000;0.573712
7891.000000;0.573475
7890.000000;0.573312
7889.000000;0.573103
7888.000000;0.572782
7887.000000;0.572424
7886.000000;0.572139
7885.000000;0.571957
7884.000000;0.571835
7883.000000;0.571719
7882.000000;0.571561
7881.000000;0.571335
7880.000000;0.571069
7879.000000;0.570841
7878.000000;0.570710
7877.000000;0.570681
7876.000000;0.570707
7875.000000;0.570703
7874.000000;0.570561
7873.000000;0.570237
7872.000000;0.569825
7871.000000;0.569474
7870.000000;0.569238
7869.000000;0.569042
7868.000000;0.568813
7867.000000;0.568548
7866.000000;0.568261
7865.000000;0.567948
7864.000000;0.567630
7863.000000;0.567358
7862.000000;0.567136
7861.000000;0.566919
7860.000000;0.566699
7859.000000;0.566523
7858.000000;0.566390
7857.000000;0.566223
7856.000000;0.565974
7855.000000;0.565693
7854.000000;0.565461
7853.000000;0.565310
7852.000000;0.565241
7851.000000;0.565230
7850.000000;0.565196
7849.000000;0.565033
7848.000000;0.564709
7847.000000;0.564305
7846.000000;0.563907
7845.000000;0.563556
7844.000000;0.563288
7843.000000;0.563146
7842.000000;0.563103
7841.000000;0.563078
7840.000000;0.563038
7839.000000;0.563015
7838.000000;0.562983
7837.000000;0.562834
7836.000000;0.562541
7835.000000;0.562231
7834.000000;0.562029
7833.000000;0.561908
7832.000000;0.561774
7831.000000;0.561606
7830.000000;0.561438
7829.000000;0.561269
7828.000000;0.561088
7827.000000;0.560909
7826.000000;0.560727
7825.000000;0.560478
7824.000000;0.560126
7823.000000;0.559731
7822.000000;0.559364
7821.000000;0.559026
7820.000000;0.558720
7819.000000;0.558535
7818.000000;0.558539
7817.000000;0.558644
7816.000000;0.558676
7815.000000;0.558561
7814.000000;0.558371
7813.000000;0.558201
7812.000000;0.558083
7811.000000;0.557986
7810.000000;0.557834
7809.000000;0.557556
7808.000000;0.557176
7807.000000;0.556810
7806.000000;0.556551
7805.000000;0.556362
7804.000000;0.556176
7803.000000;0.556013
7802.000000;0.555926
7801.000000;0.555884
7800.000000;0.555786
7799.000000;0.555585
7798.000000;0.555315
7797.000000;0.555015
7796.000000;0.554721
7795.000000;0.554494
7794.000000;0.554391
7793.000000;0.554389
7792.000000;0.554407
7791.000000;0.554399
7790.000000;0.554361
7789.000000;0.554268
7788.000000;0.554078
7787.000000;0.553800
7786.000000;0.553505
7785.000000;0.553251
7784.000000;0.553042
7783.000000;0.552855
7782.000000;0.552672
7781.000000;0.552478
7780.000000;0.552272
7779.000000;0.552071
7778.000000;0.551897
7777.000000;0.551737
7776.000000;0.551561
7775.000000;0.551341
7774.000000;0.551070
7773.000000;0.550772
7772.000000;0.550505
7771.000000;0.550314
7770.000000;0.550173
7769.000000;0.550017
7768.000000;0.549862
7767.000000;0.549804
7766.000000;0.549876
7765.000000;0.549974
7764.000000;0.549978
7763.000000;0.549896
7762.000000;0.549788
7761.000000;0.549629
7760.000000;0.549340
7759.000000;0.548930
7758.000000;0.548529
7757.000000;0.548262
7756.000000;0.548171
7755.000000;0.548229
7754.000000;0.548351
7753.000000;0.548405
7752.000000;0.548297
7751.000000;0.548057
7750.000000;0.547810
7749.000000;0.547638
7748.000000;0.547519
7747.000000;0.547390
7746.000000;0.547227
7745.000000;0.547060
7744.000000;0.546939
7743.000000;0.546876
7742.000000;0.546788
7741.000000;0.546540
7740.000000;0.546110
7739.000000;0.545667
7738.000000;0.545423
7737.000000;0.545406
7736.000000;0.545452
7735.000000;0.545403
7734.000000;0.545251
7733.000000;0.545070
7732.000000;0.544904
7731.000000;0.544763
7730.000000;0.544667
7729.000000;0.544638
7728.000000;0.544662
7727.000000;0.544681
7726.000000;0.544629
7725.000000;0.544462
7724.000000;0.544181
7723.000000;0.543854
7722.000000;0.543581
7721.000000;0.543430
7720.000000;0.543391
7719.000000;0.543387
7718.000000;0.543338
7717.000000;0.543219
7716.000000;0.543080
7715.000000;0.542991
7714.000000;0.542953
7713.000000;0.542897
7712.000000;0.542768
7711.000000;0.542596
7710.000000;0.542444
7709.000000;0.542336
7708.000000;0.542254
7707.000000;0.542193
7706.000000;0.542172
7705.000000;0.542179
7704.000000;0.542163
7703.000000;0.542088
7702.000000;0.541977
7701.000000;0.541884
7700.000000;0.541827
7699.000000;0.541762
7698.000000;0.541631
7697.000000;0.541427
7696.000000;0.541216
7695.000000;0.541056
7694.000000;0.540898
7693.000000;0.540640
7692.000000;0.540276
7691.000000;0.539958
7690.000000;0.539852
7689.000000;0.539951
7688.000000;0.540082
7687.000000;0.540089
7686.000000;0.539966
7685.000000;0.539811
7684.000000;0.539686
7683.000000;0.539572
7682.000000;0.539430
7681.000000;0.539276
7680.000000;0.539160
7679.000000;0.539096
7678.000000;0.539046
7677.000000;0.538985
7676.000000;0.538940
7675.000000;0.538939
7674.000000;0.538936
7673.000000;0.538864
7672.000000;0.538737
7671.000000;0.538660
7670.000000;0.538702
7669.000000;0.538809
7668.000000;0.538863
7667.000000;0.538794
7666.000000;0.538607
7665.000000;0.538360
7664.000000;0.538136
7663.000000;0.538010
7662.000000;0.537984
7661.000000;0.537975
7660.000000;0.537919
7659.000000;0.537864
7658.000000;0.537906
7657.000000;0.538058
7656.000000;0.538219
7655.000000;0.538278
7654.000000;0.538210
7653.000000;0.538060
7652.000000;0.537871
7651.000000;0.537665
7650.000000;0.537467
7649.000000;0.537330
7648.000000;0.537301
7647.000000;0.537370
7646.000000;0.537455
7645.000000;0.537467
7644.000000;0.537393
7643.000000;0.537290
7642.000000;0.537198
7641.000000;0.537108
7640.000000;0.537010
7639.000000;0.536951
7638.000000;0.536996
7637.000000;0.537142
7636.000000;0.537300
7635.000000;0.537371
7634.000000;0.537331
7633.000000;0.537231
7632.000000;0.537132
7631.000000;0.537047
7630.000000;0.536954
7629.000000;0.536847
7628.000000;0.536756
7627.000000;0.536703
7626.000000;0.536668
7625.000000;0.536631
7624.000000;0.536614
7623.000000;0.536644
7622.000000;0.536698
7621.000000;0.536726
7620.000000;0.536724
7619.000000;0.536728
7618.000000;0.536738
7617.000000;0.536707
7616.000000;0.536617
7615.000000;0.536535
7614.000000;0.536551
7613.000000;0.536689
7612.000000;0.536887
7611.000000;0.537036
7610.000000;0.537056
7609.000000;0.536957
7608.000000;0.536849
7607.000000;0.536842
7606.000000;0.536926
7605.000000;0.536997
7604.000000;0.536996
7603.000000;0.536973
7602.000000;0.536993
7601.000000;0.537040
7600.000000;0.537053
7599.000000;0.537011
7598.000000;0.536940
7597.000000;0.536864
7596.000000;0.536792
7595.000000;0.536749
7594.000000;0.536764
7593.000000;0.536838
7592.000000;0.536942
7591.000000;0.537034
7590.000000;0.537067
7589.000000;0.537011
7588.000000;0.536883
7587.000000;0.536773
7586.000000;0.536786
7585.000000;0.536960
7584.000000;0.537235
7583.000000;0.537494
7582.000000;0.537650
7581.000000;0.537702
7580.000000;0.537716
7579.000000;0.537749
7578.000000;0.537799
7577.000000;0.537846
7576.000000;0.537913
7575.000000;0.538045
7574.000000;0.538215
7573.000000;0.538333
7572.000000;0.538345
7571.000000;0.538308
7570.000000;0.538331
7569.000000;0.538473
7568.000000;0.538699
7567.000000;0.538919
7566.000000;0.539043
7565.000000;0.539044
7564.000000;0.538975
7563.000000;0.538933
7562.000000;0.538977
7561.000000;0.539091
7560.000000;0.539218
7559.000000;0.539313
7558.000000;0.539365
7557.000000;0.539400
7556.000000;0.539469
7555.000000;0.539598
7554.000000;0.539763
7553.000000;0.539915
7552.000000;0.540042
7551.000000;0.540163
7550.000000;0.540292
7549.000000;0.540420
7548.000000;0.540545
7547.000000;0.540668
7546.000000;0.540776
7545.000000;0.540855
7544.000000;0.540924
7543.000000;0.541026
7542.000000;0.541178
7541.000000;0.541365
7540.000000;0.541579
7539.000000;0.541823
7538.000000;0.542075
7537.000000;0.542279
7536.000000;0.542399
7535.000000;0.542436
7534.000000;0.542421
7533.000000;0.542417
7532.000000;0.542514
7531.000000;0.542757
7530.000000;0.543064
7529.000000;0.543295
7528.000000;0.543389
7527.000000;0.543417
7526.000000;0.543464
7525.000000;0.543547
7524.000000;0.543654
7523.000000;0.543790
7522.000000;0.543956
7521.000000;0.544125
7520.000000;0.544286
7519.000000;0.544468
7518.000000;0.544690
7517.000000;0.544913
7516.000000;0.545076
7515.000000;0.545169
7514.000000;0.545239
7513.000000;0.545351
7512.000000;0.545528
7511.000000;0.545736
7510.000000;0.545904
7509.000000;0.545991
7508.000000;0.546034
7507.000000;0.546104
7506.000000;0.546231
7505.000000;0.546416
7504.000000;0.546666
7503.000000;0.546978
7502.000000;0.547284
7501.000000;0.547517
7500.000000;0.547669
7499.000000;0.547798
7498.000000;0.547948
7497.000000;0.548108
7496.000000;0.548303
7495.000000;0.548557
7494.000000;0.548815
7493.000000;0.548973
7492.000000;0.549040
7491.000000;0.549149
7490.000000;0.549392
7489.000000;0.549702
7488.000000;0.549964
7487.000000;0.550153
7486.000000;0.550303
7485.000000;0.550422
7484.000000;0.550511
7483.000000;0.550608
7482.000000;0.550751
7481.000000;0.550916
7480.000000;0.551050
7479.000000;0.551147
7478.000000;0.551259
7477.000000;0.551447
7476.000000;0.551751
7475.000000;0.552163
7474.000000;0.552606
7473.000000;0.552979
7472.000000;0.553248
7471.000000;0.553462
7470.000000;0.553666
7469.000000;0.553861
7468.000000;0.554041
7467.000000;0.554203
7466.000000;0.554312
7465.000000;0.554342
7464.000000;0.554356
7463.000000;0.554471
7462.000000;0.554688
7461.000000;0.554888
7460.000000;0.555021
7459.000000;0.555196
7458.000000;0.555501
7457.000000;0.555847
7456.000000;0.556093
7455.000000;0.556239
7454.000000;0.556371
7453.000000;0.556504
7452.000000;0.556605
7451.000000;0.556718
7450.000000;0.556916
7449.000000;0.557158
7448.000000;0.557344
7447.000000;0.557484
7446.000000;0.557702
7445.000000;0.558061
7444.000000;0.558486
7443.000000;0.558880
7442.000000;0.559200
7441.000000;0.559424
7440.000000;0.559541
7439.000000;0.559618
7438.000000;0.559773
7437.000000;0.560045
7436.000000;0.560349
7435.000000;0.560578
7434.000000;0.560720
7433.000000;0.560826
7432.000000;0.560943
7431.000000;0.561102
7430.000000;0.561321
7429.000000;0.561573
7428.000000;0.561812
7427.000000;0.562022
7426.000000;0.562231
7425.000000;0.562474
7424.000000;0.562774
7423.000000;0.563130
7422.000000;0.563486
7421.000000;0.563755
7420.000000;0.563891
7419.000000;0.563949
7418.000000;0.564014
7417.000000;0.564120
7416.000000;0.564263
7415.000000;0.564451
7414.000000;0.564687
7413.000000;0.564923
7412.000000;0.565082
7411.000000;0.565158
7410.000000;0.565231
7409.000000;0.565368
7408.000000;0.565540
7407.000000;0.565670
7406.000000;0.565720
7405.000000;0.565751
7404.000000;0.565885
7403.000000;0.566189
7402.000000;0.566601
7401.000000;0.566997
7400.000000;0.567287
7399.000000;0.567484
7398.000000;0.567644
7397.000000;0.567748
7396.000000;0.567756
7395.000000;0.567784
7394.000000;0.567970
7393.000000;0.568193
7392.000000;0.568164
7391.000000;0.567852
7390.000000;0.567633
7389.000000;0.567861
7388.000000;0.568480
7387.000000;0.569201
7386.000000;0.569867
7385.000000;0.570434
7384.000000;0.570832
7383.000000;0.570988
7382.000000;0.570953
7381.000000;0.570918
7380.000000;0.571031
7379.000000;0.571237
7378.000000;0.571323
7377.000000;0.571152
7376.000000;0.570896
7375.000000;0.570928
7374.000000;0.571410
7373.000000;0.572080
7372.000000;0.572515
7371.000000;0.572522
7370.000000;0.572269
7369.000000;0.572066
7368.000000;0.572086
7367.000000;0.572402
7366.000000;0.573010
7365.000000;0.573639
7364.000000;0.573881
7363.000000;0.573676
7362.000000;0.573404
7361.000000;0.573512
7360.000000;0.574106
7359.000000;0.574875
7358.000000;0.575333
7357.000000;0.575233
7356.000000;0.574821
7355.000000;0.574630
7354.000000;0.575013
7353.000000;0.575826
7352.000000;0.576615
7351.000000;0.577047
7350.000000;0.577155
7349.000000;0.577224
7348.000000;0.577460
7347.000000;0.577773
7346.000000;0.577879
7345.000000;0.577676
7344.000000;0.577449
7343.000000;0.577637
7342.000000;0.578347
7341.000000;0.579233
7340.000000;0.579866
7339.000000;0.580135
7338.000000;0.580226
7337.000000;0.580280
7336.000000;0.580319
7335.000000;0.580409
7334.000000;0.580668
7333.000000;0.581152
7332.000000;0.581784
7331.000000;0.582306
7330.000000;0.582414
7329.000000;0.582186
7328.000000;0.582209
7327.000000;0.582874
7326.000000;0.583776
7325.000000;0.584254
7324.000000;0.584204
7323.000000;0.584110
7322.000000;0.584422
7321.000000;0.585131
7320.000000;0.585921
7319.000000;0.586571
7318.000000;0.587182
7317.000000;0.587942
7316.000000;0.588798
7315.000000;0.589490
7314.000000;0.589809
7313.000000;0.589931
7312.000000;0.590389
7311.000000;0.591452
7310.000000;0.592642
7309.000000;0.593192
7308.000000;0.592958
7307.000000;0.592552
7306.000000;0.592609
7305.000000;0.593287
7304.000000;0.594372
7303.000000;0.595427
7302.000000;0.596023
7301.000000;0.596077
7300.000000;0.596051
7299.000000;0.596634
7298.000000;0.597974
7297.000000;0.599415
7296.000000;0.600196
7295.000000;0.600375
7294.000000;0.600740
7293.000000;0.601816
7292.000000;0.603397
7291.000000;0.604976
7290.000000;0.606290
7289.000000;0.607429
7288.000000;0.608567
7287.000000;0.609664
7286.000000;0.610488
7285.000000;0.611010
7284.000000;0.611551
7283.000000;0.612378
7282.000000;0.613439
7281.000000;0.614515
7280.000000;0.615525
7279.000000;0.616582
7278.000000;0.617734
7277.000000;0.618899
7276.000000;0.620059
7275.000000;0.621296
7274.000000;0.622623
7273.000000;0.623993
7272.000000;0.625419
7271.000000;0.626893
7270.000000;0.628272
7269.000000;0.629430
7268.000000;0.630494
7267.000000;0.631735
7266.000000;0.633247
7265.000000;0.634905
7264.000000;0.636624
7263.000000;0.638425
7262.000000;0.640261
7261.000000;0.642003
7260.000000;0.643614
7259.000000;0.645166
7258.000000;0.646705
7257.000000;0.648250
7256.000000;0.649887
7255.000000;0.651715
7254.000000;0.653723
7253.000000;0.655754
7252.000000;0.657596
7251.000000;0.659237
7250.000000;0.660867
7249.000000;0.662675
7248.000000;0.664836
7247.000000;0.667386
7246.000000;0.669991
7245.000000;0.672169
7244.000000;0.673924
7243.000000;0.675850
7242.000000;0.678361
7241.000000;0.681136
7240.000000;0.683626
7239.000000;0.685728
7238.000000;0.687784
7237.000000;0.690181
7236.000000;0.692975
7235.000000;0.695862
7234.000000;0.698572
7233.000000;0.701132
7232.000000;0.703690
7231.000000;0.706343
7230.000000;0.709015
7229.000000;0.711533
7228.000000;0.713980
7227.000000;0.716687
7226.000000;0.719794
7225.000000;0.723059
7224.000000;0.726187
7223.000000;0.729107
7222.000000;0.731883
7221.000000;0.734659
7220.000000;0.737658
7219.000000;0.740937
7218.000000;0.744234
7217.000000;0.747318
7216.000000;0.750325
7215.000000;0.753530
7214.000000;0.756982
7213.000000;0.760548
7212.000000;0.764185
7211.000000;0.767985
7210.000000;0.771947
7209.000000;0.775916
7208.000000;0.779847
7207.000000;0.783841
7206.000000;0.787902
7205.000000;0.791926
7204.000000;0.795908
7203.000000;0.799942
7202.000000;0.804005
7201.000000;0.808008
7200.000000;0.811989
7199.000000;0.816028
7198.000000;0.820085
7197.000000;0.824140
7196.000000;0.828381
7195.000000;0.832990
7194.000000;0.837811
7193.000000;0.842528
7192.000000;0.847106
7191.000000;0.851770
7190.000000;0.856590
7189.000000;0.861431
7188.000000;0.866244
7187.000000;0.871116
7186.000000;0.876028
7185.000000;0.880758
7184.000000;0.885183
7183.000000;0.889523
7182.000000;0.894189
7181.000000;0.899422
7180.000000;0.905173
7179.000000;0.911176
7178.000000;0.917031
7177.000000;0.922498
7176.000000;0.927756
7175.000000;0.933156
7174.000000;0.938746
7173.000000;0.944303
7172.000000;0.949771
7171.000000;0.955366
7170.000000;0.961177
7169.000000;0.967010
7168.000000;0.972603
7167.000000;0.977925
7166.000000;0.983259
7165.000000;0.988803
7164.000000;0.994360
7163.000000;0.999554
7162.000000;1.004389
7161.000000;1.009412
7160.000000;1.015172
7159.000000;1.021584
7158.000000;1.027935
7157.000000;1.033592
7156.000000;1.038654
7155.000000;1.043739
7154.000000;1.049327
7153.000000;1.055438
7152.000000;1.061695
7151.000000;1.067665
7150.000000;1.073240
7149.000000;1.078649
7148.000000;1.084118
7147.000000;1.089699
7146.000000;1.095429
7145.000000;1.101502
7144.000000;1.108098
7143.000000;1.114935
7142.000000;1.121270
7141.000000;1.126605
7140.000000;1.131283
7139.000000;1.136120
7138.000000;1.141501
7137.000000;1.147176
7136.000000;1.152819
7135.000000;1.158355
7134.000000;1.163802
7133.000000;1.169219
7132.000000;1.174773
7131.000000;1.180530
7130.000000;1.186205
7129.000000;1.191413
7128.000000;1.196267
7127.000000;1.201330
7126.000000;1.206877
7125.000000;1.212623
7124.000000;1.218293
7123.000000;1.224054
7122.000000;1.230049
7121.000000;1.235863
7120.000000;1.240916
7119.000000;1.245214
7118.000000;1.249352
7117.000000;1.253861
7116.000000;1.258816
7115.000000;1.263998
7114.000000;1.269116
7113.000000;1.273926
7112.000000;1.278377
7111.000000;1.282660
7110.000000;1.286972
7109.000000;1.291356
7108.000000;1.295809
7107.000000;1.300367
7106.000000;1.305094
7105.000000;1.309978
7104.000000;1.314876
7103.000000;1.319684
7102.000000;1.324385
7101.000000;1.328884
7100.000000;1.333028
7099.000000;1.336792
7098.000000;1.340307
7097.000000;1.343726
7096.000000;1.347097
7095.000000;1.350408
7094.000000;1.353758
7093.000000;1.357432
7092.000000;1.361668
7091.000000;1.366334
7090.000000;1.370981
7089.000000;1.375304
7088.000000;1.379347
7087.000000;1.383164
7086.000000;1.386573
7085.000000;1.389413
7084.000000;1.391792
7083.000000;1.393894
7082.000000;1.395820
7081.000000;1.397881
7080.000000;1.400735
7079.000000;1.404734
7078.000000;1.409228
7077.000000;1.413124
7076.000000;1.416094
7075.000000;1.418671
7074.000000;1.421303
7073.000000;1.423937
7072.000000;1.426547
7071.000000;1.429424
7070.000000;1.432704
7069.000000;1.436041
7068.000000;1.438934
7067.000000;1.441075
7066.000000;1.442407
7065.000000;1.443162
7064.000000;1.443855
7063.000000;1.444968
7062.000000;1.446693
7061.000000;1.449058
7060.000000;1.452030
7059.000000;1.455220
7058.000000;1.457748
7057.000000;1.459060
7056.000000;1.459734
7055.000000;1.460827
7054.000000;1.462632
7053.000000;1.464631
7052.000000;1.466436
7051.000000;1.468068
7050.000000;1.469497
7049.000000;1.470721
7048.000000;1.472254
7047.000000;1.474700
7046.000000;1.477718
7045.000000;1.480160
7044.000000;1.481437
7043.000000;1.482149
7042.000000;1.483172
7041.000000;1.484687
7040.000000;1.486305
7039.000000;1.487628
7038.000000;1.488494
7037.000000;1.489122
7036.000000;1.490140
7035.000000;1.492001
7034.000000;1.494343
7033.000000;1.496328
7032.000000;1.497591
7031.000000;1.498367
7030.000000;1.498837
7029.000000;1.498970
7028.000000;1.498935
7027.000000;1.498968
7026.000000;1.498891
7025.000000;1.498454
7024.000000;1.498051
7023.000000;1.498362
7022.000000;1.499362
7021.000000;1.500504
7020.000000;1.501827
7019.000000;1.503924
7018.000000;1.506645
7017.000000;1.508834
7016.000000;1.509744
7015.000000;1.509914
7014.000000;1.510243
7013.000000;1.511014
7012.000000;1.512151
7011.000000;1.513576
7010.000000;1.514853
7009.000000;1.515217
7008.000000;1.514569
7007.000000;1.513858
7006.000000;1.513928
7005.000000;1.514545
7004.000000;1.515055
7003.000000;1.515448
7002.000000;1.516183
7001.000000;1.517364
7000.000000;1.518678
6999.000000;1.519892
6998.000000;1.520889
6997.000000;1.521402
6996.000000;1.521172
6995.000000;1.520311
6994.000000;1.519209
6993.000000;1.518228
6992.000000;1.517629
6991.000000;1.517525
6990.000000;1.517706
6989.000000;1.517755
6988.000000;1.517502
6987.000000;1.517118
6986.000000;1.516663
6985.000000;1.515976
6984.000000;1.515207
6983.000000;1.515018
6982.000000;1.515889
6981.000000;1.517501
6980.000000;1.519066
6979.000000;1.520085
6978.000000;1.520530
6977.000000;1.520558
6976.000000;1.520362
6975.000000;1.520173
6974.000000;1.520086
6973.000000;1.519872
6972.000000;1.519092
6971.000000;1.517499
6970.000000;1.515401
6969.000000;1.513654
6968.000000;1.513068
6967.000000;1.513631
6966.000000;1.514463
6965.000000;1.514758
6964.000000;1.514572
6963.000000;1.514392
6962.000000;1.514207
6961.000000;1.513553
6960.000000;1.512405
6959.000000;1.511413
6958.000000;1.511174
6957.000000;1.511694
6956.000000;1.512612
6955.000000;1.513510
6954.000000;1.513967
6953.000000;1.513750
6952.000000;1.513076
6951.000000;1.512380
6950.000000;1.511793
6949.000000;1.511139
6948.000000;1.510406
6947.000000;1.509803
6946.000000;1.509352
6945.000000;1.508791
6944.000000;1.507911
6943.000000;1.506751
6942.000000;1.505550
6941.000000;1.504735
6940.000000;1.504730
6939.000000;1.505354
6938.000000;1.505574
6937.000000;1.504407
6936.000000;1.502084
6935.000000;1.499853
6934.000000;1.498661
6933.000000;1.498455
6932.000000;1.498646
6931.000000;1.498721
6930.000000;1.498462
6929.000000;1.498055
6928.000000;1.497997
6927.000000;1.498416
6926.000000;1.498554
6925.000000;1.497439
6924.000000;1.495079
6923.000000;1.492540
6922.000000;1.490833
6921.000000;1.490155
6920.000000;1.490129
6919.000000;1.490305
6918.000000;1.490395
6917.000000;1.490393
6916.000000;1.490500
6915.000000;1.490640
6914.000000;1.490226
6913.000000;1.488826
6912.000000;1.486859
6911.000000;1.485112
6910.000000;1.483803
6909.000000;1.482692
6908.000000;1.481916
6907.000000;1.481880
6906.000000;1.482354
6905.000000;1.482469
6904.000000;1.481836
6903.000000;1.481004
6902.000000;1.480562
6901.000000;1.480389
6900.000000;1.480059
6899.000000;1.479471
6898.000000;1.478735
6897.000000;1.477789
6896.000000;1.476469
6895.000000;1.474812
6894.000000;1.473114
6893.000000;1.471779
6892.000000;1.471038
6891.000000;1.470598
6890.000000;1.469763
6889.000000;1.468238
6888.000000;1.466639
6887.000000;1.465789
6886.000000;1.465709
6885.000000;1.465804
6884.000000;1.465820
6883.000000;1.465915
6882.000000;1.465857
6881.000000;1.464993
6880.000000;1.463259
6879.000000;1.461536
6878.000000;1.460650
6877.000000;1.460481
6876.000000;1.460344
6875.000000;1.459806
6874.000000;1.458890
6873.000000;1.457805
6872.000000;1.456762
6871.000000;1.455855
6870.000000;1.455007
6869.000000;1.454174
6868.000000;1.453541
6867.000000;1.453180
6866.000000;1.452626
6865.000000;1.451281
6864.000000;1.449251
6863.000000;1.447327
6862.000000;1.446090
6861.000000;1.445415
6860.000000;1.444876
6859.000000;1.444191
6858.000000;1.443272
6857.000000;1.442266
6856.000000;1.441577
6855.000000;1.441384
6854.000000;1.441148
6853.000000;1.440102
6852.000000;1.438260
6851.000000;1.436388
6850.000000;1.434946
6849.000000;1.433673
6848.000000;1.432312
6847.000000;1.431054
6846.000000;1.430023
6845.000000;1.428895
6844.000000;1.427384
6843.000000;1.425689
6842.000000;1.424175
6841.000000;1.422930
6840.000000;1.421871
6839.000000;1.420937
6838.000000;1.419922
6837.000000;1.418447
6836.000000;1.416347
6835.000000;1.413862
6834.000000;1.411334
6833.000000;1.408983
6832.000000;1.407062
6831.000000;1.405863
6830.000000;1.405334
6829.000000;1.404894
6828.000000;1.403831
6827.000000;1.401843
6826.000000;1.399193
6825.000000;1.396509
6824.000000;1.394374
6823.000000;1.392779
6822.000000;1.390991
6821.000000;1.388300
6820.000000;1.384959
6819.000000;1.381999
6818.000000;1.380074
6817.000000;1.378821
6816.000000;1.377479
6815.000000;1.375776
6814.000000;1.373952
6813.000000;1.372193
6812.000000;1.370360
6811.000000;1.368253
6810.000000;1.365958
6809.000000;1.363829
6808.000000;1.362093
6807.000000;1.360518
6806.000000;1.358599
6805.000000;1.356142
6804.000000;1.353449
6803.000000;1.350847
6802.000000;1.348309
6801.000000;1.345738
6800.000000;1.343284
6799.000000;1.341044
6798.000000;1.338732
6797.000000;1.336075
6796.000000;1.333322
6795.000000;1.330918
6794.000000;1.328802
6793.000000;1.326492
6792.000000;1.323759
6791.000000;1.320795
6790.000000;1.317802
6789.000000;1.314870
6788.000000;1.312230
6787.000000;1.310140
6786.000000;1.308461
6785.000000;1.306721
6784.000000;1.304621
6783.000000;1.302187
6782.000000;1.299463
6781.000000;1.296464
6780.000000;1.293402
6779.000000;1.290542
6778.000000;1.287808
6777.000000;1.284899
6776.000000;1.281813
6775.000000;1.278904
6774.000000;1.276379
6773.000000;1.274116
6772.000000;1.272020
6771.000000;1.270199
6770.000000;1.268668
6769.000000;1.267180
6768.000000;1.265382
6767.000000;1.262952
6766.000000;1.259711
6765.000000;1.255909
6764.000000;1.252342
6763.000000;1.249708
6762.000000;1.247802
6761.000000;1.245707
6760.000000;1.242857
6759.000000;1.239561
6758.000000;1.236434
6757.000000;1.233717
6756.000000;1.231269
6755.000000;1.228858
6754.000000;1.226288
6753.000000;1.223505
6752.000000;1.220731
6751.000000;1.218257
6750.000000;1.216046
6749.000000;1.213761
6748.000000;1.211205
6747.000000;1.208433
6746.000000;1.205466
6745.000000;1.202267
6744.000000;1.199081
6743.000000;1.196385
6742.000000;1.194305
6741.000000;1.192386
6740.000000;1.190130
6739.000000;1.187485
6738.000000;1.184688
6737.000000;1.181901
6736.000000;1.179207
6735.000000;1.176704
6734.000000;1.174394
6733.000000;1.172081
6732.000000;1.169555
6731.000000;1.166787
6730.000000;1.163894
6729.000000;1.161035
6728.000000;1.158360
6727.000000;1.155873
6726.000000;1.153332
6725.000000;1.150488
6724.000000;1.147453
6723.000000;1.144600
6722.000000;1.142069
6721.000000;1.139625
6720.000000;1.137018
6719.000000;1.134246
6718.000000;1.131368
6717.000000;1.128401
6716.000000;1.125472
6715.000000;1.122857
6714.000000;1.120621
6713.000000;1.118457
6712.000000;1.116075
6711.000000;1.113540
6710.000000;1.111036
6709.000000;1.108570
6708.000000;1.105953
6707.000000;1.103071
6706.000000;1.100103
6705.000000;1.097322
6704.000000;1.094782
6703.000000;1.092381
6702.000000;1.089951
6701.000000;1.087438
6700.000000;1.084961
6699.000000;1.082631
6698.000000;1.080353
6697.000000;1.077897
6696.000000;1.075141
6695.000000;1.072141
6694.000000;1.069005
6693.000000;1.065872
6692.000000;1.062975
6691.000000;1.060499
6690.000000;1.058346
6689.000000;1.056186
6688.000000;1.053820
6687.000000;1.051337
6686.000000;1.048912
6685.000000;1.046596
6684.000000;1.044359
6683.000000;1.042139
6682.000000;1.039808
6681.000000;1.037222
6680.000000;1.034391
6679.000000;1.031486
6678.000000;1.028641
6677.000000;1.025878
6676.000000;1.023242
6675.000000;1.020839
6674.000000;1.018689
6673.000000;1.016677
6672.000000;1.014688
6671.000000;1.012682
6670.000000;1.010593
6669.000000;1.008312
6668.000000;1.005825
6667.000000;1.003259
6666.000000;1.000725
6665.000000;0.998213
6664.000000;0.995690
6663.000000;0.993171
6662.000000;0.990654
6661.000000;0.988091
6660.000000;0.985488
6659.000000;0.982947
6658.000000;0.980557
6657.000000;0.978306
6656.000000;0.976137
6655.000000;0.973990
6654.000000;0.971778
6653.000000;0.969425
6652.000000;0.966971
6651.000000;0.964563
6650.000000;0.962317
6649.000000;0.960220
6648.000000;0.958150
6647.000000;0.955954
6646.000000;0.953518
6645.000000;0.950887
6644.000000;0.948276
6643.000000;0.945879
6642.000000;0.943664
6641.000000;0.941460
6640.000000;0.939178
6639.000000;0.936853
6638.000000;0.934504
6637.000000;0.932117
6636.000000;0.929756
6635.000000;0.927516
6634.000000;0.925379
6633.000000;0.923239
6632.000000;0.921089
6631.000000;0.918995
6630.000000;0.916885
6629.000000;0.914545
6628.000000;0.911925
6627.000000;0.909289
6626.000000;0.906938
6625.000000;0.904892
6624.000000;0.902939
6623.000000;0.900912
6622.000000;0.898820
6621.000000;0.896746
6620.000000;0.894707
6619.000000;0.892652
6618.000000;0.890541
6617.000000;0.888420
6616.000000;0.886374
6615.000000;0.884409
6614.000000;0.882415
6613.000000;0.880266
6612.000000;0.877940
6611.000000;0.875500
6610.000000;0.873029
6609.000000;0.870628
6608.000000;0.868416
6607.000000;0.866417
6606.000000;0.864522
6605.000000;0.862604
6604.000000;0.860657
6603.000000;0.858718
6602.000000;0.856765
6601.000000;0.854769
6600.000000;0.852798
6599.000000;0.850909
6598.000000;0.849005
6597.000000;0.846926
6596.000000;0.844660
6595.000000;0.842353
6594.000000;0.840157
6593.000000;0.838151
6592.000000;0.836358
6591.000000;0.834681
6590.000000;0.832905
6589.000000;0.830898
6588.000000;0.828779
6587.000000;0.826735
6586.000000;0.824747
6585.000000;0.822657
6584.000000;0.820481
6583.000000;0.818411
6582.000000;0.816523
6581.000000;0.814689
6580.000000;0.812822
6579.000000;0.811005
6578.000000;0.809286
6577.000000;0.807529
6576.000000;0.805558
6575.000000;0.803372
6574.000000;0.801122
6573.000000;0.798963
6572.000000;0.796981
6571.000000;0.795199
6570.000000;0.793577
6569.000000;0.792019
6568.000000;0.790417
6567.000000;0.788656
6566.000000;0.786660
6565.000000;0.784489
6564.000000;0.782357
6563.000000;0.780445
6562.000000;0.778726
6561.000000;0.777052
6560.000000;0.775345
6559.000000;0.773595
6558.000000;0.771734
6557.000000;0.769710
6556.000000;0.767665
6555.000000;0.765844
6554.000000;0.764303
6553.000000;0.762848
6552.000000;0.761295
6551.000000;0.759625
6550.000000;0.757868
6549.000000;0.755995
6548.000000;0.754019
6547.000000;0.752059
6546.000000;0.750229
6545.000000;0.748542
6544.000000;0.746957
6543.000000;0.745418
6542.000000;0.743793
6541.000000;0.741918
6540.000000;0.739791
6539.000000;0.737639
6538.000000;0.735718
6537.000000;0.734115
6536.000000;0.732754
6535.000000;0.731501
6534.000000;0.730203
6533.000000;0.728738
6532.000000;0.727095
6531.000000;0.725374
6530.000000;0.723661
6529.000000;0.721949
6528.000000;0.720205
6527.000000;0.718444
6526.000000;0.716705
6525.000000;0.715012
6524.000000;0.713391
6523.000000;0.711832
6522.000000;0.710257
6521.000000;0.708582
6520.000000;0.706844
6519.000000;0.705185
6518.000000;0.703677
6517.000000;0.702257
6516.000000;0.700814
6515.000000;0.699291
6514.000000;0.697654
6513.000000;0.695889
6512.000000;0.694051
6511.000000;0.692273
6510.000000;0.690658
6509.000000;0.689216
6508.000000;0.687887
6507.000000;0.686566
6506.000000;0.685139
6505.000000;0.683561
6504.000000;0.681931
6503.000000;0.680395
6502.000000;0.678977
6501.000000;0.677593
6500.000000;0.676189
6499.000000;0.674771
6498.000000;0.673317
6497.000000;0.671786
6496.000000;0.670233
6495.000000;0.668789
6494.000000;0.667473
6493.000000;0.666143
6492.000000;0.664671
6491.000000;0.663070
6490.000000;0.661418
6489.000000;0.659752
6488.000000;0.658100
6487.000000;0.656518
6486.000000;0.655041
6485.000000;0.653645
6484.000000;0.652290
6483.000000;0.650952
6482.000000;0.649598
6481.000000;0.648214
6480.000000;0.646865
6479.000000;0.645627
6478.000000;0.644447
6477.000000;0.643172
6476.000000;0.641741
6475.000000;0.640246
6474.000000;0.638779
6473.000000;0.637316
6472.000000;0.635804
6471.000000;0.634263
6470.000000;0.632740
6469.000000;0.631246
6468.000000;0.629797
6467.000000;0.628453
6466.000000;0.627234
6465.000000;0.626052
6464.000000;0.624797
6463.000000;0.623443
6462.000000;0.622051
6461.000000;0.620701
6460.000000;0.619440
6459.000000;0.618259
6458.000000;0.617094
6457.000000;0.615884
6456.000000;0.614630
6455.000000;0.613351
6454.000000;0.612011
6453.000000;0.610570
6452.000000;0.609083
6451.000000;0.607665
6450.000000;0.606351
6449.000000;0.605082
6448.000000;0.603849
6447.000000;0.602701
6446.000000;0.601616
6445.000000;0.600470
6444.000000;0.599206
6443.000000;0.597910
6442.000000;0.596669
6441.000000;0.595455
6440.000000;0.594209
6439.000000;0.592946
6438.000000;0.591685
6437.000000;0.590374
6436.000000;0.588988
6435.000000;0.587617
6434.000000;0.586375
6433.000000;0.585248
6432.000000;0.584119
6431.000000;0.582919
6430.000000;0.581691
6429.000000;0.580519
6428.000000;0.579444
6427.000000;0.578429
6426.000000;0.577375
6425.000000;0.576217
6424.000000;0.575004
6423.000000;0.573849
6422.000000;0.572776
6421.000000;0.571686
6420.000000;0.570503
6419.000000;0.569275
6418.000000;0.568089
6417.000000;0.566956
6416.000000;0.565837
6415.000000;0.564730
6414.000000;0.563661
6413.000000;0.562616
6412.000000;0.561555
6411.000000;0.560456
6410.000000;0.559316
6409.000000;0.558133
6408.000000;0.556928
6407.000000;0.555749
6406.000000;0.554632
6405.000000;0.553574
6404.000000;0.552552
6403.000000;0.551541
6402.000000;0.550489
6401.000000;0.549346
6400.000000;0.548142
6399.000000;0.546975
6398.000000;0.545901
6397.000000;0.544877
6396.000000;0.543834
6395.000000;0.542753
6394.000000;0.541642
6393.000000;0.540501
6392.000000;0.539352
6391.000000;0.538245
6390.000000;0.537189
6389.000000;0.536135
6388.000000;0.535063
6387.000000;0.534039
6386.000000;0.533126
6385.000000;0.532287
6384.000000;0.531423
6383.000000;0.530476
6382.000000;0.529444
6381.000000;0.528354
6380.000000;0.527254
6379.000000;0.526201
6378.000000;0.525204
6377.000000;0.524219
6376.000000;0.523231
6375.000000;0.522287
6374.000000;0.521414
6373.000000;0.520550
6372.000000;0.519610
6371.000000;0.518592
6370.000000;0.517571
6369.000000;0.516602
6368.000000;0.515687
6367.000000;0.514808
6366.000000;0.513942
6365.000000;0.513062
6364.000000;0.512133
6363.000000;0.511141
6362.000000;0.510089
6361.000000;0.509010
6360.000000;0.507970
6359.000000;0.507018
6358.000000;0.506122
6357.000000;0.505185
6356.000000;0.504177
6355.000000;0.503187
6354.000000;0.502314
6353.000000;0.501533
6352.000000;0.500713
6351.000000;0.499771
6350.000000;0.498755
6349.000000;0.497779
6348.000000;0.496918
6347.000000;0.496135
6346.000000;0.495323
6345.000000;0.494413
6344.000000;0.493446
6343.000000;0.492530
6342.000000;0.491716
6341.000000;0.490951
6340.000000;0.490151
6339.000000;0.489285
6338.000000;0.488366
6337.000000;0.487422
6336.000000;0.486494
6335.000000;0.485628
6334.000000;0.484834
6333.000000;0.484055
6332.000000;0.483220
6331.000000;0.482310
6330.000000;0.481363
6329.000000;0.480437
6328.000000;0.479574
6327.000000;0.478768
6326.000000;0.477962
6325.000000;0.477086
6324.000000;0.476141
6323.000000;0.475204
6322.000000;0.474354
6321.000000;0.473597
6320.000000;0.472881
6319.000000;0.472147
6318.000000;0.471370
6317.000000;0.470565
6316.000000;0.469770
6315.000000;0.469004
6314.000000;0.468238
6313.000000;0.467435
6312.000000;0.466618
6311.000000;0.465842
6310.000000;0.465118
6309.000000;0.464398
6308.000000;0.463637
6307.000000;0.462827
6306.000000;0.461967
6305.000000;0.461055
6304.000000;0.460128
6303.000000;0.459263
6302.000000;0.458495
6301.000000;0.457793
6300.000000;0.457104
6299.000000;0.456408
6298.000000;0.455706
6297.000000;0.455001
6296.000000;0.454308
6295.000000;0.453649
6294.000000;0.453013
6293.000000;0.452360
6292.000000;0.451663
6291.000000;0.450923
6290.000000;0.450137
6289.000000;0.449309
6288.000000;0.448489
6287.000000;0.447754
6286.000000;0.447120
6285.000000;0.446525
6284.000000;0.445896
6283.000000;0.445206
6282.000000;0.444457
6281.000000;0.443653
6280.000000;0.442825
6279.000000;0.442028
6278.000000;0.441294
6277.000000;0.440608
6276.000000;0.439941
6275.000000;0.439262
6274.000000;0.438529
6273.000000;0.437729
6272.000000;0.436937
6271.000000;0.436266
6270.000000;0.435731
6269.000000;0.435222
6268.000000;0.434622
6267.000000;0.433921
6266.000000;0.433174
6265.000000;0.432421
6264.000000;0.431684
6263.000000;0.430990
6262.000000;0.430331
6261.000000;0.429649
6260.000000;0.428893
6259.000000;0.428077
6258.000000;0.427258
6257.000000;0.426479
6256.000000;0.425773
6255.000000;0.425162
6254.000000;0.424624
6253.000000;0.424086
6252.000000;0.423481
6251.000000;0.422802
6250.000000;0.422076
6249.000000;0.421341
6248.000000;0.420649
6247.000000;0.420060
6246.000000;0.419573
6245.000000;0.419113
6244.000000;0.418605
6243.000000;0.418036
6242.000000;0.417430
6241.000000;0.416779
6240.000000;0.416067
6239.000000;0.415313
6238.000000;0.414560
6237.000000;0.413848
6236.000000;0.413206
6235.000000;0.412648
6234.000000;0.412146
6233.000000;0.411627
6232.000000;0.411032
6231.000000;0.410365
6230.000000;0.409663
6229.000000;0.408952
6228.000000;0.408256
6227.000000;0.407617
6226.000000;0.407054
6225.000000;0.406518
6224.000000;0.405937
6223.000000;0.405286
6222.000000;0.404611
6221.000000;0.403980
6220.000000;0.403426
6219.000000;0.402934
6218.000000;0.402449
6217.000000;0.401921
6216.000000;0.401345
6215.000000;0.400752
6214.000000;0.400161
6213.000000;0.399570
6212.000000;0.398995
6211.000000;0.398469
6210.000000;0.397990
6209.000000;0.397498
6208.000000;0.396951
6207.000000;0.396366
6206.000000;0.395797
6205.000000;0.395270
6204.000000;0.394776
6203.000000;0.394289
6202.000000;0.393762
6201.000000;0.393146
6200.000000;0.392436
6199.000000;0.391701
6198.000000;0.391031
6197.000000;0.390467
6196.000000;0.389979
6195.000000;0.389494
6194.000000;0.388948
6193.000000;0.388328
6192.000000;0.387688
6191.000000;0.387098
6190.000000;0.386563
6189.000000;0.386030
6188.000000;0.385470
6187.000000;0.384910
6186.000000;0.384370
6185.000000;0.383816
6184.000000;0.383215
6183.000000;0.382599
6182.000000;0.382044
6181.000000;0.381590
6180.000000;0.381208
6179.000000;0.380836
6178.000000;0.380421
6177.000000;0.379942
6176.000000;0.379420
6175.000000;0.378884
6174.000000;0.378345
6173.000000;0.377790
6172.000000;0.377225
6171.000000;0.376675
6170.000000;0.376159
6169.000000;0.375674
6168.000000;0.375204
6167.000000;0.374729
6166.000000;0.374219
6165.000000;0.373650
6164.000000;0.373059
6163.000000;0.372527
6162.000000;0.372098
6161.000000;0.371743
6160.000000;0.371394
6159.000000;0.371011
6158.000000;0.370594
6157.000000;0.370160
6156.000000;0.369727
6155.000000;0.369283
6154.000000;0.368780
6153.000000;0.368186
6152.000000;0.367539
6151.000000;0.366925
6150.000000;0.366379
6149.000000;0.365871
6148.000000;0.365368
6147.000000;0.364887
6146.000000;0.364440
6145.000000;0.363989
6144.000000;0.363486
6143.000000;0.362928
6142.000000;0.362356
6141.000000;0.361805
6140.000000;0.361294
6139.000000;0.360817
6138.000000;0.360350
6137.000000;0.359870
6136.000000;0.359396
6135.000000;0.358968
6134.000000;0.358588
6133.000000;0.358204
6132.000000;0.357776
6131.000000;0.357311
6130.000000;0.356839
6129.000000;0.356375
6128.000000;0.355936
6127.000000;0.355550
6126.000000;0.355209
6125.000000;0.354849
6124.000000;0.354417
6123.000000;0.353929
6122.000000;0.353440
6121.000000;0.352982
6120.000000;0.352540
6119.000000;0.352091
6118.000000;0.351625
6117.000000;0.351147
6116.000000;0.350671
6115.000000;0.350199
6114.000000;0.349712
6113.000000;0.349202
6112.000000;0.348701
6111.000000;0.348266
6110.000000;0.347900
6109.000000;0.347543
6108.000000;0.347137
6107.000000;0.346684
6106.000000;0.346228
6105.000000;0.345817
6104.000000;0.345482
6103.000000;0.345215
6102.000000;0.344958
6101.000000;0.344635
6100.000000;0.344213
6099.000000;0.343714
6098.000000;0.343177
6097.000000;0.342626
6096.000000;0.342094
6095.000000;0.341621
6094.000000;0.341212
6093.000000;0.340833
6092.000000;0.340452
6091.000000;0.340060
6090.000000;0.339648
6089.000000;0.339215
6088.000000;0.338798
6087.000000;0.338445
6086.000000;0.338145
6085.000000;0.337831
6084.000000;0.337479
6083.000000;0.337136
6082.000000;0.336829
6081.000000;0.336509
6080.000000;0.336121
6079.000000;0.335679
6078.000000;0.335232
6077.000000;0.334791
6076.000000;0.334349
6075.000000;0.333927
6074.000000;0.333555
6073.000000;0.333212
6072.000000;0.332855
6071.000000;0.332477
6070.000000;0.332105
6069.000000;0.331751
6068.000000;0.331401
6067.000000;0.331041
6066.000000;0.330667
6065.000000;0.330281
6064.000000;0.329896
6063.000000;0.329534
6062.000000;0.329190
6061.000000;0.328833
6060.000000;0.328445
6059.000000;0.328058
6058.000000;0.327712
6057.000000;0.327405
6056.000000;0.327103
6055.000000;0.326788
6054.000000;0.326464
6053.000000;0.326129
6052.000000;0.325774
6051.000000;0.325398
6050.000000;0.325011
6049.000000;0.324630
6048.000000;0.324283
6047.000000;0.323992
6046.000000;0.323728
6045.000000;0.323426
6044.000000;0.323051
6043.000000;0.322639
6042.000000;0.322244
6041.000000;0.321873
6040.000000;0.321503
6039.000000;0.321140
6038.000000;0.320813
6037.000000;0.320528
6036.000000;0.320258
6035.000000;0.319972
6034.000000;0.319654
6033.000000;0.319310
6032.000000;0.318969
6031.000000;0.318668
6030.000000;0.318406
6029.000000;0.318133
6028.000000;0.317801
6027.000000;0.317418
6026.000000;0.317037
6025.000000;0.316706
6024.000000;0.316431
6023.000000;0.316189
6022.000000;0.315948
6021.000000;0.315686
6020.000000;0.315402
6019.000000;0.315113
6018.000000;0.314829
6017.000000;0.314552
6016.000000;0.314296
6015.000000;0.314073
6014.000000;0.313867
6013.000000;0.313631
6012.000000;0.313338
6011.000000;0.312994
6010.000000;0.312626
6009.000000;0.312267
6008.000000;0.311960
6007.000000;0.311733
6006.000000;0.311547
6005.000000;0.311310
6004.000000;0.310974
6003.000000;0.310583
6002.000000;0.310203
6001.000000;0.309850
6000.000000;0.309512
5999.000000;0.309208
5998.000000;0.308967
5997.000000;0.308780
5996.000000;0.308612
5995.000000;0.308454
5994.000000;0.308309
5993.000000;0.308150
5992.000000;0.307926
5991.000000;0.307627
5990.000000;0.307311
5989.000000;0.307047
5988.000000;0.306839
5987.000000;0.306632
5986.000000;0.306370
5985.000000;0.306057
5984.000000;0.305756
5983.000000;0.305513
5982.000000;0.305308
5981.000000;0.305080
5980.000000;0.304800
5979.000000;0.304490
5978.000000;0.304181
5977.000000;0.303886
5976.000000;0.303624
5975.000000;0.303412
5974.000000;0.303234
5973.000000;0.303037
5972.000000;0.302799
5971.000000;0.302555
5970.000000;0.302335
5969.000000;0.302114
5968.000000;0.301855
5967.000000;0.301584
5966.000000;0.301375
5965.000000;0.301265
5964.000000;0.301206
5963.000000;0.301126
5962.000000;0.300989
5961.000000;0.300812
5960.000000;0.300622
5959.000000;0.300421
5958.000000;0.300189
5957.000000;0.299917
5956.000000;0.299636
5955.000000;0.299395
5954.000000;0.299220
5953.000000;0.299110
5952.000000;0.299055
5951.000000;0.299037
5950.000000;0.299000
5949.000000;0.298876
5948.000000;0.298649
5947.000000;0.298384
5946.000000;0.298157
5945.000000;0.297990
5944.000000;0.297858
5943.000000;0.297724
5942.000000;0.297561
5941.000000;0.297360
5940.000000;0.297144
5939.000000;0.296954
5938.000000;0.296799
5937.000000;0.296655
5936.000000;0.296507
5935.000000;0.296377
5934.000000;0.296281
5933.000000;0.296196
5932.000000;0.296091
5931.000000;0.295959
5930.000000;0.295803
5929.000000;0.295609
5928.000000;0.295385
5927.000000;0.295183
5926.000000;0.295061
5925.000000;0.295016
5924.000000;0.295000
5923.000000;0.294979
5922.000000;0.294948
5921.000000;0.294898
5920.000000;0.294802
5919.000000;0.294656
5918.000000;0.294490
5917.000000;0.294327
5916.000000;0.294159
5915.000000;0.293957
5914.000000;0.293720
5913.000000;0.293483
5912.000000;0.293283
5911.000000;0.293131
5910.000000;0.293006
5909.000000;0.292897
5908.000000;0.292824
5907.000000;0.292805
5906.000000;0.292818
5905.000000;0.292800
5904.000000;0.292709
5903.000000;0.292557
5902.000000;0.292382
5901.000000;0.292205
5900.000000;0.292031
5899.000000;0.291869
5898.000000;0.291742
5897.000000;0.291661
5896.000000;0.291621
5895.000000;0.291597
5894.000000;0.291551
5893.000000;0.291451
5892.000000;0.291297
5891.000000;0.291120
5890.000000;0.290967
5889.000000;0.290870
5888.000000;0.290829
5887.000000;0.290824
5886.000000;0.290822
5885.000000;0.290804
5884.000000;0.290774
5883.000000;0.290736
5882.000000;0.290685
5881.000000;0.290623
5880.000000;0.290563
5879.000000;0.290510
5878.000000;0.290444
5877.000000;0.290341
5876.000000;0.290205
5875.000000;0.290061
5874.000000;0.289921
5873.000000;0.289797
5872.000000;0.289723
5871.000000;0.289737
5870.000000;0.289821
5869.000000;0.289912
5868.000000;0.289966
5867.000000;0.289989
5866.000000;0.290001
5865.000000;0.290000
5864.000000;0.289985
5863.000000;0.289973
5862.000000;0.289981
5861.000000;0.290012
5860.000000;0.290048
5859.000000;0.290063
5858.000000;0.290038
5857.000000;0.289994
5856.000000;0.289993
5855.000000;0.290079
5854.000000;0.290213
5853.000000;0.290310
5852.000000;0.290330
5851.000000;0.290311
5850.000000;0.290299
5849.000000;0.290305
5848.000000;0.290324
5847.000000;0.290368
5846.000000;0.290435
5845.000000;0.290498
5844.000000;0.290541
5843.000000;0.290582
5842.000000;0.290642
5841.000000;0.290701
5840.000000;0.290716
5839.000000;0.290677
5838.000000;0.290621
5837.000000;0.290606
5836.000000;0.290677
5835.000000;0.290830
5834.000000;0.291013
5833.000000;0.291178
5832.000000;0.291326
5831.000000;0.291486
5830.000000;0.291644
5829.000000;0.291739
5828.000000;0.291738
5827.000000;0.291687
5826.000000;0.291666
5825.000000;0.291721
5824.000000;0.291849
5823.000000;0.292026
5822.000000;0.292230
5821.000000;0.292437
5820.000000;0.292639
5819.000000;0.292839
5818.000000;0.293027
5817.000000;0.293181
5816.000000;0.293299
5815.000000;0.293401
5814.000000;0.293499
5813.000000;0.293584
5812.000000;0.293653
5811.000000;0.293738
5810.000000;0.293878
5809.000000;0.294077
5808.000000;0.294299
5807.000000;0.294496
5806.000000;0.294655
5805.000000;0.294808
5804.000000;0.295001
5803.000000;0.295244
5802.000000;0.295487
5801.000000;0.295669
5800.000000;0.295784
5799.000000;0.295880
5798.000000;0.296015
5797.000000;0.296218
5796.000000;0.296482
5795.000000;0.296760
5794.000000;0.296982
5793.000000;0.297122
5792.000000;0.297236
5791.000000;0.297400
5790.000000;0.297629
5789.000000;0.297880
5788.000000;0.298127
5787.000000;0.298376
5786.000000;0.298626
5785.000000;0.298856
5784.000000;0.299071
5783.000000;0.299307
5782.000000;0.299580
5781.000000;0.299868
5780.000000;0.300156
5779.000000;0.300449
5778.000000;0.300737
5777.000000;0.300991
5776.000000;0.301216
5775.000000;0.301457
5774.000000;0.301736
5773.000000;0.302025
5772.000000;0.302315
5771.000000;0.302650
5770.000000;0.303063
5769.000000;0.303510
5768.000000;0.303901
5767.000000;0.304192
5766.000000;0.304408
5765.000000;0.304603
5764.000000;0.304830
5763.000000;0.305118
5762.000000;0.305460
5761.000000;0.305822
5760.000000;0.306172
5759.000000;0.306507
5758.000000;0.306846
5757.000000;0.307201
5756.000000;0.307578
5755.000000;0.307968
5754.000000;0.308358
5753.000000;0.308747
5752.000000;0.309150
5751.000000;0.309567
5750.000000;0.309968
5749.000000;0.310327
5748.000000;0.310672
5747.000000;0.311052
5746.000000;0.311472
5745.000000;0.311885
5744.000000;0.312262
5743.000000;0.312623
5742.000000;0.313005
5741.000000;0.313430
5740.000000;0.313905
5739.000000;0.314418
5738.000000;0.314932
5737.000000;0.315413
5736.000000;0.315865
5735.000000;0.316310
5734.000000;0.316743
5733.000000;0.317145
5732.000000;0.317539
5731.000000;0.317977
5730.000000;0.318464
5729.000000;0.318956
5728.000000;0.319428
5727.000000;0.319900
5726.000000;0.320385
5725.000000;0.320867
5724.000000;0.321359
5723.000000;0.321901
5722.000000;0.322495
5721.000000;0.323086
5720.000000;0.323623
5719.000000;0.324116
5718.000000;0.324593
5717.000000;0.325069
5716.000000;0.325573
5715.000000;0.326144
5714.000000;0.326776
5713.000000;0.327413
5712.000000;0.328020
5711.000000;0.328624
5710.000000;0.329240
5709.000000;0.329820
5708.000000;0.330309
5707.000000;0.330723
5706.000000;0.331140
5705.000000;0.331626
5704.000000;0.332202
5703.000000;0.332846
5702.000000;0.333477
5701.000000;0.334039
5700.000000;0.334542
5699.000000;0.335096
5698.000000;0.335782
5697.000000;0.336531
5696.000000;0.337228
5695.000000;0.337839
5694.000000;0.338438
5693.000000;0.339085
5692.000000;0.339760
5691.000000;0.340389
5690.000000;0.340924
5689.000000;0.341388
5688.000000;0.341863
5687.000000;0.342417
5686.000000;0.343036
5685.000000;0.343645
5684.000000;0.344210
5683.000000;0.344780
5682.000000;0.345417
5681.000000;0.346114
5680.000000;0.346813
5679.000000;0.347482
5678.000000;0.348122
5677.000000;0.348739
5676.000000;0.349336
5675.000000;0.349934
5674.000000;0.350553
5673.000000;0.351184
5672.000000;0.351796
5671.000000;0.352382
5670.000000;0.352963
5669.000000;0.353557
5668.000000;0.354167
5667.000000;0.354797
5666.000000;0.355449
5665.000000;0.356109
5664.000000;0.356736
5663.000000;0.357285
5662.000000;0.357750
5661.000000;0.358186
5660.000000;0.358671
5659.000000;0.359233
5658.000000;0.359829
5657.000000;0.360410
5656.000000;0.360986
5655.000000;0.361591
5654.000000;0.362212
5653.000000;0.362800
5652.000000;0.363343
5651.000000;0.363878
5650.000000;0.364439
5649.000000;0.365023
5648.000000;0.365616
5647.000000;0.366203
5646.000000;0.366751
5645.000000;0.367241
5644.000000;0.367718
5643.000000;0.368258
5642.000000;0.368870
5641.000000;0.369474
5640.000000;0.369994
5639.000000;0.370429
5638.000000;0.370832
5637.000000;0.371251
5636.000000;0.371714
5635.000000;0.372216
5634.000000;0.372715
5633.000000;0.373166
5632.000000;0.373561
5631.000000;0.373927
5630.000000;0.374275
5629.000000;0.374608
5628.000000;0.374952
5627.000000;0.375335
5626.000000;0.375741
5625.000000;0.376133
5624.000000;0.376507
5623.000000;0.376885
5622.000000;0.377264
5621.000000;0.377616
5620.000000;0.377955
5619.000000;0.378312
5618.000000;0.378669
5617.000000;0.378967
5616.000000;0.379200
5615.000000;0.379427
5614.000000;0.379679
5613.000000;0.379934
5612.000000;0.380194
5611.000000;0.380512
5610.000000;0.380898
5609.000000;0.381260
5608.000000;0.381513
5607.000000;0.381686
5606.000000;0.381875
5605.000000;0.382124
5604.000000;0.382412
5603.000000;0.382709
5602.000000;0.383004
5601.000000;0.383285
5600.000000;0.383523
5599.000000;0.383676
5598.000000;0.383726
5597.000000;0.383721
5596.000000;0.383767
5595.000000;0.383927
5594.000000;0.384125
5593.000000;0.384240
5592.000000;0.384260
5591.000000;0.384298
5590.000000;0.384428
5589.000000;0.384602
5588.000000;0.384745
5587.000000;0.384841
5586.000000;0.384905
5585.000000;0.384935
5584.000000;0.384948
5583.000000;0.384977
5582.000000;0.385008
5581.000000;0.384988
5580.000000;0.384927
5579.000000;0.384915
5578.000000;0.384995
5577.000000;0.385094
5576.000000;0.385128
5575.000000;0.385100
5574.000000;0.385052
5573.000000;0.384989
5572.000000;0.384914
5571.000000;0.384865
5570.000000;0.384857
5569.000000;0.384842
5568.000000;0.384771
5567.000000;0.384663
5566.000000;0.384569
5565.000000;0.384503
5564.000000;0.384451
5563.000000;0.384409
5562.000000;0.384367
5561.000000;0.384310
5560.000000;0.384261
5559.000000;0.384274
5558.000000;0.384345
5557.000000;0.384400
5556.000000;0.384388
5555.000000;0.384320
5554.000000;0.384209
5553.000000;0.384047
5552.000000;0.383873
5551.000000;0.383764
5550.000000;0.383726
5549.000000;0.383672
5548.000000;0.383538
5547.000000;0.383354
5546.000000;0.383158
5545.000000;0.382935
5544.000000;0.382692
5543.000000;0.382510
5542.000000;0.382447
5541.000000;0.382471
5540.000000;0.382503
5539.000000;0.382481
5538.000000;0.382359
5537.000000;0.382132
5536.000000;0.381872
5535.000000;0.381678
5534.000000;0.381564
5533.000000;0.381458
5532.000000;0.381313
5531.000000;0.381169
5530.000000;0.381061
5529.000000;0.380969
5528.000000;0.380864
5527.000000;0.380779
5526.000000;0.380760
5525.000000;0.380793
5524.000000;0.380824
5523.000000;0.380813
5522.000000;0.380734
5521.000000;0.380592
5520.000000;0.380424
5519.000000;0.380264
5518.000000;0.380123
5517.000000;0.379993
5516.000000;0.379902
5515.000000;0.379878
5514.000000;0.379875
5513.000000;0.379840
5512.000000;0.379806
5511.000000;0.379829
5510.000000;0.379860
5509.000000;0.379807
5508.000000;0.379670
5507.000000;0.379535
5506.000000;0.379439
5505.000000;0.379333
5504.000000;0.379233
5503.000000;0.379223
5502.000000;0.379296
5501.000000;0.379375
5500.000000;0.379410
5499.000000;0.379427
5498.000000;0.379520
5497.000000;0.379749
5496.000000;0.380065
5495.000000;0.380332
5494.000000;0.380457
5493.000000;0.380498
5492.000000;0.380544
5491.000000;0.380566
5490.000000;0.380448
5489.000000;0.380169
5488.000000;0.379877
5487.000000;0.379718
5486.000000;0.379687
5485.000000;0.379686
5484.000000;0.379719
5483.000000;0.379873
5482.000000;0.380095
5481.000000;0.380309
5480.000000;0.380640
5479.000000;0.381193
5478.000000;0.381791
5477.000000;0.382153
5476.000000;0.382300
5475.000000;0.382459
5474.000000;0.382642
5473.000000;0.382717
5472.000000;0.382742
5471.000000;0.382882
5470.000000;0.383126
5469.000000;0.383387
5468.000000;0.383686
5467.000000;0.384054
5466.000000;0.384446
5465.000000;0.384849
5464.000000;0.385355
5463.000000;0.385968
5462.000000;0.386454
5461.000000;0.386688
5460.000000;0.386907
5459.000000;0.387294
5458.000000;0.387681
5457.000000;0.387933
5456.000000;0.388233
5455.000000;0.388769
5454.000000;0.389480
5453.000000;0.390216
5452.000000;0.390935
5451.000000;0.391646
5450.000000;0.392325
5449.000000;0.393052
5448.000000;0.393860
5447.000000;0.394553
5446.000000;0.395031
5445.000000;0.395523
5444.000000;0.396221
5443.000000;0.396962
5442.000000;0.397474
5441.000000;0.397822
5440.000000;0.398391
5439.000000;0.399371
5438.000000;0.400549
5437.000000;0.401655
5436.000000;0.402675
5435.000000;0.403721
5434.000000;0.404877
5433.000000;0.406168
5432.000000;0.407449
5431.000000;0.408452
5430.000000;0.409203
5429.000000;0.410084
5428.000000;0.411253
5427.000000;0.412462
5426.000000;0.413536
5425.000000;0.414594
5424.000000;0.415810
5423.000000;0.417206
5422.000000;0.418734
5421.000000;0.420329
5420.000000;0.421955
5419.000000;0.423693
5418.000000;0.425606
5417.000000;0.427598
5416.000000;0.429493
5415.000000;0.431287
5414.000000;0.433190
5413.000000;0.435258
5412.000000;0.437311
5411.000000;0.439219
5410.000000;0.441076
5409.000000;0.443047
5408.000000;0.445169
5407.000000;0.447359
5406.000000;0.449541
5405.000000;0.451766
5404.000000;0.454160
5403.000000;0.456703
5402.000000;0.459385
5401.000000;0.462240
5400.000000;0.465151
5399.000000;0.468091
5398.000000;0.471151
5397.000000;0.474313
5396.000000;0.477466
5395.000000;0.480629
5394.000000;0.483999
5393.000000;0.487571
5392.000000;0.491108
5391.000000;0.494609
5390.000000;0.498334
5389.000000;0.502371
5388.000000;0.506521
5387.000000;0.510649
5386.000000;0.514859
5385.000000;0.519314
5384.000000;0.523922
5383.000000;0.528462
5382.000000;0.533061
5381.000000;0.537991
5380.000000;0.543162
5379.000000;0.548302
5378.000000;0.553447
5377.000000;0.558862
5376.000000;0.564573
5375.000000;0.570391
5374.000000;0.576324
5373.000000;0.582475
5372.000000;0.588790
5371.000000;0.595213
5370.000000;0.601842
5369.000000;0.608768
5368.000000;0.615941
5367.000000;0.623289
5366.000000;0.630823
5365.000000;0.638627
5364.000000;0.646718
5363.000000;0.655061
5362.000000;0.663701
5361.000000;0.672573
5360.000000;0.681514
5359.000000;0.690649
5358.000000;0.700332
5357.000000;0.710559
5356.000000;0.720825
5355.000000;0.730905
5354.000000;0.741278
5353.000000;0.752419
5352.000000;0.764028
5351.000000;0.775509
5350.000000;0.786924
5349.000000;0.798812
5348.000000;0.811301
5347.000000;0.824086
5346.000000;0.837080
5345.000000;0.850479
5344.000000;0.864269
5343.000000;0.878261
5342.000000;0.892558
5341.000000;0.907282
5340.000000;0.922270
5339.000000;0.937542
5338.000000;0.953424
5337.000000;0.970027
5336.000000;0.986985
5335.000000;1.003886
5334.000000;1.020748
5333.000000;1.037980
5332.000000;1.055862
5331.000000;1.074262
5330.000000;1.092970
5329.000000;1.111856
5328.000000;1.130805
5327.000000;1.149947
5326.000000;1.169638
5325.000000;1.189932
5324.000000;1.210452
5323.000000;1.230943
5322.000000;1.251615
5321.000000;1.272699
5320.000000;1.294045
5319.000000;1.315514
5318.000000;1.337334
5317.000000;1.359551
5316.000000;1.381580
5315.000000;1.402879
5314.000000;1.423607
5313.000000;1.444185
5312.000000;1.464579
5311.000000;1.484430
5310.000000;1.503575
5309.000000;1.521965
5308.000000;1.539481
5307.000000;1.556303
5306.000000;1.573016
5305.000000;1.589875
5304.000000;1.606466
5303.000000;1.622415
5302.000000;1.637584
5301.000000;1.651239
5300.000000;1.662391
5299.000000;1.671669
5298.000000;1.681219
5297.000000;1.691742
5296.000000;1.701457
5295.000000;1.709083
5294.000000;1.715891
5293.000000;1.723444
5292.000000;1.731037
5291.000000;1.736998
5290.000000;1.741159
5289.000000;1.744452
5288.000000;1.747405
5287.000000;1.750499
5286.000000;1.754643
5285.000000;1.759692
5284.000000;1.763742
5283.000000;1.765691
5282.000000;1.767180
5281.000000;1.770036
5280.000000;1.773306
5279.000000;1.774867
5278.000000;1.774784
5277.000000;1.774795
5276.000000;1.775436
5275.000000;1.775890
5274.000000;1.776005
5273.000000;1.776509
5272.000000;1.777434
5271.000000;1.777838
5270.000000;1.777230
5269.000000;1.776124
5268.000000;1.775272
5267.000000;1.775330
5266.000000;1.776818
5265.000000;1.779465
5264.000000;1.781847
5263.000000;1.782595
5262.000000;1.781679
5261.000000;1.779950
5260.000000;1.778217
5259.000000;1.777273
5258.000000;1.777700
5257.000000;1.778992
5256.000000;1.779781
5255.000000;1.779515
5254.000000;1.779155
5253.000000;1.779640
5252.000000;1.780673
5251.000000;1.781543
5250.000000;1.782319
5249.000000;1.783380
5248.000000;1.784175
5247.000000;1.783769
5246.000000;1.782164
5245.000000;1.779948
5244.000000;1.777414
5243.000000;1.775029
5242.000000;1.773862
5241.000000;1.774524
5240.000000;1.776333
5239.000000;1.778197
5238.000000;1.779632
5237.000000;1.780471
5236.000000;1.780365
5235.000000;1.779290
5234.000000;1.778140
5233.000000;1.777950
5232.000000;1.778784
5231.000000;1.780076
5230.000000;1.781589
5229.000000;1.783109
5228.000000;1.783653
5227.000000;1.782255
5226.000000;1.779529
5225.000000;1.777500
5224.000000;1.777788
5223.000000;1.780319
5222.000000;1.783514
5221.000000;1.785423
5220.000000;1.785205
5219.000000;1.783875
5218.000000;1.783223
5217.000000;1.783963
5216.000000;1.785285
5215.000000;1.786101
5214.000000;1.786099
5213.000000;1.785447
5212.000000;1.784607
5211.000000;1.784713
5210.000000;1.786809
5209.000000;1.790209
5208.000000;1.792667
5207.000000;1.792815
5206.000000;1.791534
5205.000000;1.790354
5204.000000;1.789573
5203.000000;1.788551
5202.000000;1.786871
5201.000000;1.784705
5200.000000;1.782848
5199.000000;1.782572
5198.000000;1.784472
5197.000000;1.787238
5196.000000;1.788574
5195.000000;1.787947
5194.000000;1.787211
5193.000000;1.787820
5192.000000;1.788967
5191.000000;1.789136
5190.000000;1.788130
5189.000000;1.786745
5188.000000;1.785542
5187.000000;1.784863
5186.000000;1.785165
5185.000000;1.786454
5184.000000;1.787965
5183.000000;1.788999
5182.000000;1.789429
5181.000000;1.789131
5180.000000;1.787968
5179.000000;1.786715
5178.000000;1.786701
5177.000000;1.787965
5176.000000;1.788931
5175.000000;1.788552
5174.000000;1.787648
5173.000000;1.787504
5172.000000;1.788287
5171.000000;1.789543
5170.000000;1.791025
5169.000000;1.792221
5168.000000;1.792193
5167.000000;1.790951
5166.000000;1.789958
5165.000000;1.790238
5164.000000;1.790889
5163.000000;1.790509
5162.000000;1.789363
5161.000000;1.788949
5160.000000;1.789989
5159.000000;1.791830
5158.000000;1.793396
5157.000000;1.794010
5156.000000;1.793541
5155.000000;1.792399
5154.000000;1.791070
5153.000000;1.789387
5152.000000;1.787113
5151.000000;1.785248
5150.000000;1.785684
5149.000000;1.788963
5148.000000;1.793152
5147.000000;1.795682
5146.000000;1.795746
5145.000000;1.794330
5144.000000;1.792673
5143.000000;1.791546
5142.000000;1.791262
5141.000000;1.791526
5140.000000;1.791756
5139.000000;1.792114
5138.000000;1.793503
5137.000000;1.795824
5136.000000;1.797108
5135.000000;1.795421
5134.000000;1.791288
5133.000000;1.787270
5132.000000;1.785545
5131.000000;1.786546
5130.000000;1.789197
5129.000000;1.791679
5128.000000;1.792588
5127.000000;1.792092
5126.000000;1.791609
5125.000000;1.792016
5124.000000;1.792663
5123.000000;1.792580
5122.000000;1.792065
5121.000000;1.792187
5120.000000;1.793050
5119.000000;1.793617
5118.000000;1.793231
5117.000000;1.792498
5116.000000;1.792367
5115.000000;1.792870
5114.000000;1.793155
5113.000000;1.792742
5112.000000;1.792400
5111.000000;1.793423
5110.000000;1.796013
5109.000000;1.798763
5108.000000;1.800034
5107.000000;1.799436
5106.000000;1.797636
5105.000000;1.795404
5104.000000;1.793528
5103.000000;1.793054
5102.000000;1.794425
5101.000000;1.796483
5100.000000;1.797422
5099.000000;1.796884
5098.000000;1.796191
5097.000000;1.796375
5096.000000;1.797034
5095.000000;1.797387
5094.000000;1.797423
5093.000000;1.797537
5092.000000;1.797712
5091.000000;1.797535
5090.000000;1.796756
5089.000000;1.795595
5088.000000;1.794604
5087.000000;1.794154
5086.000000;1.793881
5085.000000;1.793059
5084.000000;1.791900
5083.000000;1.791666
5082.000000;1.792811
5081.000000;1.793837
5080.000000;1.793074
5079.000000;1.791043
5078.000000;1.789736
5077.000000;1.789962
5076.000000;1.790897
5075.000000;1.791842
5074.000000;1.792825
5073.000000;1.793453
5072.000000;1.792915
5071.000000;1.791639
5070.000000;1.791442
5069.000000;1.793281
5068.000000;1.795991
5067.000000;1.797887
5066.000000;1.798578
5065.000000;1.798422
5064.000000;1.797315
5063.000000;1.794997
5062.000000;1.791932
5061.000000;1.789053
5060.000000;1.786995
5059.000000;1.786002
5058.000000;1.786116
5057.000000;1.787046
5056.000000;1.788195
5055.000000;1.788999
5054.000000;1.788971
5053.000000;1.787553
5052.000000;1.784607
5051.000000;1.781079
5050.000000;1.778519
5049.000000;1.777782
5048.000000;1.778504
5047.000000;1.779783
5046.000000;1.780739
5045.000000;1.780648
5044.000000;1.779637
5043.000000;1.779079
5042.000000;1.780334
5041.000000;1.783022
5040.000000;1.785309
5039.000000;1.786013
5038.000000;1.785584
5037.000000;1.784838
5036.000000;1.783773
5035.000000;1.782012
5034.000000;1.779719
5033.000000;1.777706
5032.000000;1.776959
5031.000000;1.778036
5030.000000;1.780493
5029.000000;1.782933
5028.000000;1.784084
5027.000000;1.783791
5026.000000;1.782570
5025.000000;1.780675
5024.000000;1.778456
5023.000000;1.776898
5022.000000;1.776547
5021.000000;1.776488
5020.000000;1.775538
5019.000000;1.774026
5018.000000;1.773298
5017.000000;1.773658
5016.000000;1.773980
5015.000000;1.773252
5014.000000;1.771247
5013.000000;1.767920
5012.000000;1.763654
5011.000000;1.760166
5010.000000;1.759655
5009.000000;1.762519
5008.000000;1.766698
5007.000000;1.769556
5006.000000;1.769790
5005.000000;1.767712
5004.000000;1.764765
5003.000000;1.762848
5002.000000;1.762872
5001.000000;1.763586
5000.000000;1.762854
4999.000000;1.760134
4998.000000;1.756658
4997.000000;1.753288
4996.000000;1.749856
4995.000000;1.746635
4994.000000;1.744649
4993.000000;1.743966
4992.000000;1.743074
4991.000000;1.740808
4990.000000;1.737895
4989.000000;1.735850
4988.000000;1.735244
4987.000000;1.735644
4986.000000;1.736425
4985.000000;1.736947
4984.000000;1.736478
4983.000000;1.734571
4982.000000;1.731262
4981.000000;1.727008
4980.000000;1.722854
4979.000000;1.720269
4978.000000;1.720046
4977.000000;1.721363
4976.000000;1.722709
4975.000000;1.723533
4974.000000;1.724094
4973.000000;1.724041
4972.000000;1.722652
4971.000000;1.720411
4970.000000;1.718601
4969.000000;1.717153
4968.000000;1.714458
4967.000000;1.709837
4966.000000;1.704731
4965.000000;1.700806
4964.000000;1.698171
4963.000000;1.696163
4962.000000;1.694551
4961.000000;1.693123
4960.000000;1.691115
4959.000000;1.688134
4958.000000;1.684998
4957.000000;1.682733
4956.000000;1.681246
4955.000000;1.679580
4954.000000;1.677081
4953.000000;1.673831
4952.000000;1.670315
4951.000000;1.667129
4950.000000;1.664656
4949.000000;1.662703
4948.000000;1.660708
4947.000000;1.658414
4946.000000;1.655858
4945.000000;1.652895
4944.000000;1.649469
4943.000000;1.646293
4942.000000;1.644249
4941.000000;1.643092
4940.000000;1.641618
4939.000000;1.639286
4938.000000;1.636657
4937.000000;1.634010
4936.000000;1.630729
4935.000000;1.626595
4934.000000;1.622537
4933.000000;1.619402
4932.000000;1.616812
4931.000000;1.613977
4930.000000;1.610927
4929.000000;1.608243
4928.000000;1.606130
4927.000000;1.604375
4926.000000;1.602660
4925.000000;1.600399
4924.000000;1.596843
4923.000000;1.591969
4922.000000;1.586853
4921.000000;1.582624
4920.000000;1.579421
4919.000000;1.576712
4918.000000;1.574127
4917.000000;1.571529
4916.000000;1.568792
4915.000000;1.566070
4914.000000;1.563842
4913.000000;1.562187
4912.000000;1.560400
4911.000000;1.557798
4910.000000;1.554555
4909.000000;1.551213
4908.000000;1.547760
4907.000000;1.543835
4906.000000;1.539608
4905.000000;1.535784
4904.000000;1.532701
4903.000000;1.529914
4902.000000;1.526713
4901.000000;1.522839
4900.000000;1.518690
4899.000000;1.514995
4898.000000;1.512218
4897.000000;1.510196
4896.000000;1.508371
4895.000000;1.506331
4894.000000;1.503906
4893.000000;1.500787
4892.000000;1.496594
4891.000000;1.491513
4890.000000;1.486455
4889.000000;1.482298
4888.000000;1.479201
4887.000000;1.476778
4886.000000;1.474575
4885.000000;1.472185
4884.000000;1.469249
4883.000000;1.465667
4882.000000;1.461651
4881.000000;1.457449
4880.000000;1.453219
4879.000000;1.449253
4878.000000;1.445899
4877.000000;1.443083
4876.000000;1.440258
4875.000000;1.437085
4874.000000;1.433859
4873.000000;1.430946
4872.000000;1.428146
4871.000000;1.424975
4870.000000;1.421402
4869.000000;1.417853
4868.000000;1.414554
4867.000000;1.411229
4866.000000;1.407538
4865.000000;1.403588
4864.000000;1.399870
4863.000000;1.396709
4862.000000;1.393874
4861.000000;1.390763
4860.000000;1.387033
4859.000000;1.383018
4858.000000;1.379416
4857.000000;1.376604
4856.000000;1.374362
4855.000000;1.372144
4854.000000;1.369495
4853.000000;1.366240
4852.000000;1.362513
4851.000000;1.358629
4850.000000;1.354806
4849.000000;1.351008
4848.000000;1.347114
4847.000000;1.343187
4846.000000;1.339421
4845.000000;1.335938
4844.000000;1.332813
4843.000000;1.330132
4842.000000;1.327776
4841.000000;1.325266
4840.000000;1.322178
4839.000000;1.318705
4838.000000;1.315440
4837.000000;1.312591
4836.000000;1.309695
4835.000000;1.306222
4834.000000;1.302191
4833.000000;1.298073
4832.000000;1.294292
4831.000000;1.290958
4830.000000;1.287958
4829.000000;1.285169
4828.000000;1.282588
4827.000000;1.280221
4826.000000;1.277855
4825.000000;1.275109
4824.000000;1.271848
4823.000000;1.268335
4822.000000;1.264822
4821.000000;1.261216
4820.000000;1.257440
4819.000000;1.253842
4818.000000;1.250826
4817.000000;1.248206
4816.000000;1.245389
4815.000000;1.242175
4814.000000;1.238943
4813.000000;1.235964
4812.000000;1.232946
4811.000000;1.229509
4810.000000;1.225707
4809.000000;1.221975
4808.000000;1.218714
4807.000000;1.216074
4806.000000;1.213896
4805.000000;1.211701
4804.000000;1.209013
4803.000000;1.205800
4802.000000;1.202448
4801.000000;1.199266
4800.000000;1.196214
4799.000000;1.193177
4798.000000;1.190212
4797.000000;1.187396
4796.000000;1.184618
4795.000000;1.181685
4794.000000;1.178503
4793.000000;1.175093
4792.000000;1.171567
4791.000000;1.168170
4790.000000;1.165180
4789.000000;1.162648
4788.000000;1.160306
4787.000000;1.157791
4786.000000;1.154913
4785.000000;1.151728
4784.000000;1.148469
4783.000000;1.145401
4782.000000;1.142589
4781.000000;1.139837
4780.000000;1.136959
4779.000000;1.134072
4778.000000;1.131430
4777.000000;1.129023
4776.000000;1.126555
4775.000000;1.123835
4774.000000;1.120988
4773.000000;1.118218
4772.000000;1.115553
4771.000000;1.112871
4770.000000;1.110066
4769.000000;1.107137
4768.000000;1.104217
4767.000000;1.101463
4766.000000;1.098829
4765.000000;1.096033
4764.000000;1.092942
4763.000000;1.089900
4762.000000;1.087412
4761.000000;1.085493
4760.000000;1.083601
4759.000000;1.081236
4758.000000;1.078407
4757.000000;1.075454
4756.000000;1.072640
4755.000000;1.070036
4754.000000;1.067605
4753.000000;1.065265
4752.000000;1.062969
4751.000000;1.060754
4750.000000;1.058641
4749.000000;1.056503
4748.000000;1.054182
4747.000000;1.051731
4746.000000;1.049351
4745.000000;1.047108
4744.000000;1.044894
4743.000000;1.042666
4742.000000;1.040496
4741.000000;1.038337
4740.000000;1.035975
4739.000000;1.033310
4738.000000;1.030514
4737.000000;1.027810
4736.000000;1.025272
4735.000000;1.022892
4734.000000;1.020677
4733.000000;1.018585
4732.000000;1.016518
4731.000000;1.014464
4730.000000;1.012518
4729.000000;1.010681
4728.000000;1.008786
4727.000000;1.006716
4726.000000;1.004552
4725.000000;1.002423
4724.000000;1.000318
4723.000000;0.998154
4722.000000;0.995945
4721.000000;0.993812
4720.000000;0.991883
4719.000000;0.990211
4718.000000;0.988709
4717.000000;0.987134
4716.000000;0.985250
4715.000000;0.983057
4714.000000;0.980812
4713.000000;0.978762
4712.000000;0.976943
4711.000000;0.975226
4710.000000;0.973481
4709.000000;0.971629
4708.000000;0.969641
4707.000000;0.967552
4706.000000;0.965456
4705.000000;0.963455
4704.000000;0.961634
4703.000000;0.960013
4702.000000;0.958490
4701.000000;0.956856
4700.000000;0.954981
4699.000000;0.952937
4698.000000;0.950893
4697.000000;0.948951
4696.000000;0.947172
4695.000000;0.945654
4694.000000;0.944437
4693.000000;0.943392
4692.000000;0.942364
4691.000000;0.941328
4690.000000;0.940248
4689.000000;0.938887
4688.000000;0.937041
4687.000000;0.934935
4686.000000;0.933092
4685.000000;0.931731
4684.000000;0.930541
4683.000000;0.929129
4682.000000;0.927486
4681.000000;0.925887
4680.000000;0.924528
4679.000000;0.923417
4678.000000;0.922451
4677.000000;0.921460
4676.000000;0.920271
4675.000000;0.918858
4674.000000;0.917399
4673.000000;0.916071
4672.000000;0.914872
4671.000000;0.913690
4670.000000;0.912478
4669.000000;0.911281
4668.000000;0.910153
4667.000000;0.909100
4666.000000;0.908072
4665.000000;0.906966
4664.000000;0.905717
4663.000000;0.904406
4662.000000;0.903190
4661.000000;0.902126
4660.000000;0.901120
4659.000000;0.900075
4658.000000;0.898995
4657.000000;0.897915
4656.000000;0.896845
4655.000000;0.895793
4654.000000;0.894770
4653.000000;0.893740
4652.000000;0.892644
4651.000000;0.891514
4650.000000;0.890463
4649.000000;0.889534
4648.000000;0.888653
4647.000000;0.887761
4646.000000;0.886906
4645.000000;0.886158
4644.000000;0.885504
4643.000000;0.884876
4642.000000;0.884198
4641.000000;0.883393
4640.000000;0.882411
4639.000000;0.881307
4638.000000;0.880242
4637.000000;0.879373
4636.000000;0.878733
4635.000000;0.878195
4634.000000;0.877544
4633.000000;0.876641
4632.000000;0.875595
4631.000000;0.874707
4630.000000;0.874151
4629.000000;0.873767
4628.000000;0.873268
4627.000000;0.872599
4626.000000;0.871955
4625.000000;0.871491
4624.000000;0.871165
4623.000000;0.870852
4622.000000;0.870435
4621.000000;0.869798
4620.000000;0.868903
4619.000000;0.867926
4618.000000;0.867172
4617.000000;0.866791
4616.000000;0.866675
4615.000000;0.866635
4614.000000;0.866565
4613.000000;0.866373
4612.000000;0.865931
4611.000000;0.865206
4610.000000;0.864365
4609.000000;0.863663
4608.000000;0.863245
4607.000000;0.863067
4606.000000;0.862961
4605.000000;0.862757
4604.000000;0.862418
4603.000000;0.862055
4602.000000;0.861788
4601.000000;0.861599
4600.000000;0.861402
4599.000000;0.861172
4598.000000;0.860940
4597.000000;0.860701
4596.000000;0.860461
4595.000000;0.860309
4594.000000;0.860303
4593.000000;0.860328
4592.000000;0.860218
4591.000000;0.860002
4590.000000;0.859863
4589.000000;0.859847
4588.000000;0.859798
4587.000000;0.859604
4586.000000;0.859356
4585.000000;0.859215
4584.000000;0.859257
4583.000000;0.859471
4582.000000;0.859796
4581.000000;0.860112
4580.000000;0.860327
4579.000000;0.860479
4578.000000;0.860648
4577.000000;0.860772
4576.000000;0.860717
4575.000000;0.860546
4574.000000;0.860512
4573.000000;0.860752
4572.000000;0.861137
4571.000000;0.861492
4570.000000;0.861814
4569.000000;0.862183
4568.000000;0.862611
4567.000000;0.863054
4566.000000;0.863486
4565.000000;0.863880
4564.000000;0.864222
4563.000000;0.864593
4562.000000;0.865129
4561.000000;0.865846
4560.000000;0.866614
4559.000000;0.867343
4558.000000;0.868081
4557.000000;0.868879
4556.000000;0.869689
4555.000000;0.870455
4554.000000;0.871189
4553.000000;0.871888
4552.000000;0.872484
4551.000000;0.872967
4550.000000;0.873444
4549.000000;0.874019
4548.000000;0.874681
4547.000000;0.875382
4546.000000;0.876121
4545.000000;0.876900
4544.000000;0.877679
4543.000000;0.878438
4542.000000;0.879229
4541.000000;0.880120
4540.000000;0.881144
4539.000000;0.882303
4538.000000;0.883538
4537.000000;0.884691
4536.000000;0.885619
4535.000000;0.886389
4534.000000;0.887232
4533.000000;0.888271
4532.000000;0.889372
4531.000000;0.890318
4530.000000;0.891041
4529.000000;0.891657
4528.000000;0.892337
4527.000000;0.893180
4526.000000;0.894142
4525.000000;0.895066
4524.000000;0.895854
4523.000000;0.896594
4522.000000;0.897435
4521.000000;0.898367
4520.000000;0.899250
4519.000000;0.900036
4518.000000;0.900821
4517.000000;0.901668
4516.000000;0.902542
4515.000000;0.903431
4514.000000;0.904396
4513.000000;0.905448
4512.000000;0.906472
4511.000000;0.907345
4510.000000;0.908043
4509.000000;0.908642
4508.000000;0.909275
4507.000000;0.910080
4506.000000;0.911074
4505.000000;0.912115
4504.000000;0.913074
4503.000000;0.914030
4502.000000;0.915156
4501.000000;0.916464
4500.000000;0.917833
4499.000000;0.919201
4498.000000;0.920562
4497.000000;0.921777
4496.000000;0.922660
4495.000000;0.923270
4494.000000;0.923915
4493.000000;0.924819
4492.000000;0.925959
4491.000000;0.927243
4490.000000;0.928654
4489.000000;0.930185
4488.000000;0.931816
4487.000000;0.933589
4486.000000;0.935534
4485.000000;0.937454
4484.000000;0.939008
4483.000000;0.940073
4482.000000;0.940861
4481.000000;0.941646
4480.000000;0.942565
4479.000000;0.943700
4478.000000;0.945122
4477.000000;0.946759
4476.000000;0.948412
4475.000000;0.949994
4474.000000;0.951592
4473.000000;0.953249
4472.000000;0.954889
4471.000000;0.956523
4470.000000;0.958298
4469.000000;0.960244
4468.000000;0.962191
4467.000000;0.964037
4466.000000;0.965913
4465.000000;0.967958
4464.000000;0.970133
4463.000000;0.972349
4462.000000;0.974560
4461.000000;0.976638
4460.000000;0.978377
4459.000000;0.979818
4458.000000;0.981322
4457.000000;0.983155
4456.000000;0.985191
4455.000000;0.987213
4454.000000;0.989291
4453.000000;0.991604
4452.000000;0.994044
4451.000000;0.996291
4450.000000;0.998248
4449.000000;1.000178
4448.000000;1.002375
4447.000000;1.004857
4446.000000;1.007391
4445.000000;1.009701
4444.000000;1.011692
4443.000000;1.013525
4442.000000;1.015492
4441.000000;1.017746
4440.000000;1.020205
4439.000000;1.022714
4438.000000;1.025186
4437.000000;1.027549
4436.000000;1.029707
4435.000000;1.031664
4434.000000;1.033625
4433.000000;1.035876
4432.000000;1.038579
4431.000000;1.041655
4430.000000;1.044806
4429.000000;1.047663
4428.000000;1.050069
4427.000000;1.052228
4426.000000;1.054455
4425.000000;1.056839
4424.000000;1.059287
4423.000000;1.061824
4422.000000;1.064570
4421.000000;1.067437
4420.000000;1.070163
4419.000000;1.072735
4418.000000;1.075491
4417.000000;1.078699
4416.000000;1.082227
4415.000000;1.085739
4414.000000;1.089006
4413.000000;1.091932
4412.000000;1.094531
4411.000000;1.097006
4410.000000;1.099649
4409.000000;1.102556
4408.000000;1.105594
4407.000000;1.108702
4406.000000;1.111971
4405.000000;1.115329
4404.000000;1.118459
4403.000000;1.121211
4402.000000;1.123860
4401.000000;1.126773
4400.000000;1.130004
4399.000000;1.133354
4398.000000;1.136608
4397.000000;1.139591
4396.000000;1.142278
4395.000000;1.144997
4394.000000;1.148267
4393.000000;1.152208
4392.000000;1.156326
4391.000000;1.160086
4390.000000;1.163467
4389.000000;1.166750
4388.000000;1.170021
4387.000000;1.173183
4386.000000;1.176284
4385.000000;1.179499
4384.000000;1.182831
4383.000000;1.186092
4382.000000;1.189159
4381.000000;1.192113
4380.000000;1.195193
4379.000000;1.198687
4378.000000;1.202730
4377.000000;1.207117
4376.000000;1.211443
4375.000000;1.215501
4374.000000;1.219360
4373.000000;1.223014
4372.000000;1.226321
4371.000000;1.229427
4370.000000;1.232889
4369.000000;1.237076
4368.000000;1.241648
4367.000000;1.245913
4366.000000;1.249522
4365.000000;1.252593
4364.000000;1.255398
4363.000000;1.258294
4362.000000;1.261772
4361.000000;1.266168
4360.000000;1.271254
4359.000000;1.276340
4358.000000;1.280829
4357.000000;1.284604
4356.000000;1.287953
4355.000000;1.291331
4354.000000;1.295168
4353.000000;1.299691
4352.000000;1.304820
4351.000000;1.310219
4350.000000;1.315426
4349.000000;1.320050
4348.000000;1.324031
4347.000000;1.327757
4346.000000;1.331778
4345.000000;1.336357
4344.000000;1.341331
4343.000000;1.346289
4342.000000;1.350774
4341.000000;1.354513
4340.000000;1.357757
4339.000000;1.361292
4338.000000;1.365745
4337.000000;1.370919
4336.000000;1.376158
4335.000000;1.381226
4334.000000;1.386299
4333.000000;1.391215
4332.000000;1.395453
4331.000000;1.399053
4330.000000;1.402895
4329.000000;1.407774
4328.000000;1.413656
4327.000000;1.420060
4326.000000;1.426603
4325.000000;1.432818
4324.000000;1.438022
4323.000000;1.442004
4322.000000;1.445559
4321.000000;1.449815
4320.000000;1.455136
4319.000000;1.461011
4318.000000;1.466805
4317.000000;1.472250
4316.000000;1.477388
4315.000000;1.482415
4314.000000;1.487533
4313.000000;1.492756
4312.000000;1.497918
4311.000000;1.502866
4310.000000;1.507572
4309.000000;1.512143
4308.000000;1.516903
4307.000000;1.522321
4306.000000;1.528463
4305.000000;1.534670
4304.000000;1.540227
4303.000000;1.545253
4302.000000;1.550401
4301.000000;1.555727
4300.000000;1.560582
4299.000000;1.564787
4298.000000;1.569184
4297.000000;1.574688
4296.000000;1.581208
4295.000000;1.587748
4294.000000;1.593258
4293.000000;1.597430
4292.000000;1.601132
4291.000000;1.605932
4290.000000;1.612563
4289.000000;1.619825
4288.000000;1.625750
4287.000000;1.630007
4286.000000;1.634262
4285.000000;1.639971
4284.000000;1.646913
4283.000000;1.654062
4282.000000;1.660809
4281.000000;1.666946
4280.000000;1.672514
4279.000000;1.678273
4278.000000;1.685412
4277.000000;1.694089
4276.000000;1.702913
4275.000000;1.710393
4274.000000;1.716368
4273.000000;1.721527
4272.000000;1.726337
4271.000000;1.731023
4270.000000;1.735754
4269.000000;1.740147
4268.000000;1.743505
4267.000000;1.746275
4266.000000;1.750322
4265.000000;1.757007
4264.000000;1.765556
4263.000000;1.773828
4262.000000;1.780190
4261.000000;1.784389
4260.000000;1.787595
4259.000000;1.791966
4258.000000;1.799225
4257.000000;1.808873
4256.000000;1.818252
4255.000000;1.825041
4254.000000;1.829387
4253.000000;1.833186
4252.000000;1.838115
4251.000000;1.845056
4250.000000;1.854182
4249.000000;1.864649
4248.000000;1.874914
4247.000000;1.883947
4246.000000;1.891523
4245.000000;1.897205
4244.000000;1.900417
4243.000000;1.902143
4242.000000;1.905060
4241.000000;1.911166
4240.000000;1.920195
4239.000000;1.930573
4238.000000;1.940499
4237.000000;1.947927
4236.000000;1.951542
4235.000000;1.953037
4234.000000;1.956515
4233.000000;1.964069
4232.000000;1.973312
4231.000000;1.980327
4230.000000;1.984000
4229.000000;1.986131
4228.000000;1.988614
4227.000000;1.992485
4226.000000;1.998417
4225.000000;2.006045
4224.000000;2.013404
4223.000000;2.018632
4222.000000;2.021920
4221.000000;2.024831
4220.000000;2.028699
4219.000000;2.034558
4218.000000;2.043134
4217.000000;2.053521
4216.000000;2.062715
4215.000000;2.068499
4214.000000;2.072169
4213.000000;2.076465
4212.000000;2.081820
4211.000000;2.086649
4210.000000;2.090969
4209.000000;2.096944
4208.000000;2.105743
4207.000000;2.115842
4206.000000;2.124735
4205.000000;2.130967
4204.000000;2.134238
4203.000000;2.135454
4202.000000;2.137003
4201.000000;2.141773
4200.000000;2.151012
4199.000000;2.163086
4198.000000;2.174768
4197.000000;2.184129
4196.000000;2.191492
4195.000000;2.197614
4194.000000;2.202288
4193.000000;2.205485
4192.000000;2.209270
4191.000000;2.215906
4190.000000;2.224445
4189.000000;2.231773
4188.000000;2.237112
4187.000000;2.243754
4186.000000;2.254782
4185.000000;2.268092
4184.000000;2.278288
4183.000000;2.282609
4182.000000;2.283223
4181.000000;2.285118
4180.000000;2.292533
4179.000000;2.305075
4178.000000;2.316037
4177.000000;2.317721
4176.000000;2.310953
4175.000000;2.304774
4174.000000;2.304672
4173.000000;2.307199
4172.000000;2.308396
4171.000000;2.312607
4170.000000;2.327437
4169.000000;2.352780
4168.000000;2.380238
4167.000000;2.401862
4166.000000;2.414727
4165.000000;2.418695
4164.000000;2.416508
4163.000000;2.414957
4162.000000;2.418382
4161.000000;2.421548
4160.000000;2.416874
4159.000000;2.408076
4158.000000;2.406366
4157.000000;2.414713
4156.000000;2.424417
4155.000000;2.426910
4154.000000;2.422277
4153.000000;2.414657
4152.000000;2.407943
4151.000000;2.407140
4150.000000;2.416879
4149.000000;2.436472
4148.000000;2.460620
4147.000000;2.485691
4146.000000;2.508394
4145.000000;2.520567
4144.000000;2.518071
4143.000000;2.512240
4142.000000;2.518054
4141.000000;2.534494
4140.000000;2.544412
4139.000000;2.539730
4138.000000;2.532232
4137.000000;2.529153
4136.000000;2.525053
4135.000000;2.518315
4134.000000;2.519378
4133.000000;2.538198
4132.000000;2.572976
4131.000000;2.613409
4130.000000;2.644674
4129.000000;2.648633
4128.000000;2.620906
4127.000000;2.585132
4126.000000;2.571468
4125.000000;2.588178
4124.000000;2.615209
4123.000000;2.625327
4122.000000;2.617636
4121.000000;2.612185
4120.000000;2.619076
4119.000000;2.632557
4118.000000;2.645442
4117.000000;2.656682
4116.000000;2.665762
4115.000000;2.668481
4114.000000;2.661716
4113.000000;2.653730
4112.000000;2.652214
4111.000000;2.654727
4110.000000;2.657795
4109.000000;2.660312
4108.000000;2.663790
4107.000000;2.671273
4106.000000;2.679957
4105.000000;2.679887
4104.000000;2.668002
4103.000000;2.656564
4102.000000;2.659789
4101.000000;2.676226
4100.000000;2.692862
4099.000000;2.706022
4098.000000;2.724380
4097.000000;2.749189
4096.000000;2.762494
4095.000000;2.749593
4094.000000;2.725324
4093.000000;2.713284
4092.000000;2.721950
4091.000000;2.745943
4090.000000;2.770257
4089.000000;2.778310
4088.000000;2.765530
4087.000000;2.744088
4086.000000;2.732882
4085.000000;2.738217
4084.000000;2.749878
4083.000000;2.758812
4082.000000;2.770536
4081.000000;2.789447
4080.000000;2.803150
4079.000000;2.801262
4078.000000;2.793987
4077.000000;2.792982
4076.000000;2.797786
4075.000000;2.805379
4074.000000;2.814070
4073.000000;2.827937
4072.000000;2.852016
4071.000000;2.875711
4070.000000;2.887472
4069.000000;2.891990
4068.000000;2.896947
4067.000000;2.903891
4066.000000;2.908948
4065.000000;2.902778
4064.000000;2.878359
4063.000000;2.845566
4062.000000;2.824142
4061.000000;2.822421
4060.000000;2.833539
4059.000000;2.847380
4058.000000;2.859572
4057.000000;2.869609
4056.000000;2.877005
4055.000000;2.884268
4054.000000;2.895081
4053.000000;2.903116
4052.000000;2.904388
4051.000000;2.910934
4050.000000;2.929854
4049.000000;2.950641
4048.000000;2.952892
4047.000000;2.936223
4046.000000;2.925125
4045.000000;2.933159
4044.000000;2.940760
4043.000000;2.932971
4042.000000;2.938414
4041.000000;2.979398
4040.000000;3.031772
4039.000000;3.047354
4038.000000;3.024323
4037.000000;2.995586
4036.000000;2.973527
4035.000000;2.967675
4034.000000;2.989388
4033.000000;3.027522
4032.000000;3.049011
4031.000000;3.035209
4030.000000;2.998278
4029.000000;2.952079
4028.000000;2.899792
4027.000000;2.860263
4026.000000;2.863765
4025.000000;2.916546
4024.000000;2.985028
4023.000000;3.016178
4022.000000;2.998008
4021.000000;2.964650
4020.000000;2.940066
4019.000000;2.922194
4018.000000;2.900514
4017.000000;2.874466
4016.000000;2.855015
4015.000000;2.857619
4014.000000;2.894634
4013.000000;2.960614
4012.000000;3.020985
4011.000000;3.036319
4010.000000;3.017961
4009.000000;3.005373
4008.000000;3.008195
4007.000000;3.012676
4006.000000;3.014786
4005.000000;3.021607
4004.000000;3.029465
4003.000000;3.031941
4002.000000;3.034505
4001.000000;3.040146
4000.000000;3.043066
3999.000000;3.046684
3998.000000;3.069495
3997.000000;3.120946
3996.000000;3.180489
3995.000000;3.211964
3994.000000;3.202014
3993.000000;3.156793
3992.000000;3.093881
3991.000000;3.045627
3990.000000;3.044482
3989.000000;3.104868
3988.000000;3.199661
3987.000000;3.252465
3986.000000;3.232508
3985.000000;3.195873
3984.000000;3.171415
3983.000000;3.160842
3982.000000;3.163941
3981.000000;3.189646
3980.000000;3.232447
3979.000000;3.266322
3978.000000;3.279067
3977.000000;3.265031
3976.000000;3.225529
3975.000000;3.203474
3974.000000;3.213634
3973.000000;3.211058
3972.000000;3.172191
3971.000000;3.111797
3970.000000;3.067404
3969.000000;3.068436
3968.000000;3.119304
3967.000000;3.205734
3966.000000;3.298509
3965.000000;3.319733
3964.000000;3.236844
3963.000000;3.153391
3962.000000;3.121737
3961.000000;3.138326
3960.000000;3.180242
3959.000000;3.194386
3958.000000;3.162982
3957.000000;3.125065
3956.000000;3.107280
3955.000000;3.123258
3954.000000;3.183324
3953.000000;3.269647
3952.000000;3.295087
3951.000000;3.220226
3950.000000;3.137881
3949.000000;3.101323
3948.000000;3.113860
3947.000000;3.164341
3946.000000;3.240782
3945.000000;3.326800
3944.000000;3.382706
3943.000000;3.375721
3942.000000;3.334082
3941.000000;3.309811
3940.000000;3.328530
3939.000000;3.369176
3938.000000;3.393593
3937.000000;3.392001
3936.000000;3.375913
3935.000000;3.386306
3934.000000;3.486707
3933.000000;3.737879
3932.000000;3.984147
3931.000000;3.985377
3930.000000;3.897109
3929.000000;3.710230
3928.000000;3.565791
3927.000000;3.466011
3926.000000;3.396124
3925.000000;3.351895
3924.000000;3.309846
3923.000000;3.263195
3922.000000;3.236085
3921.000000;3.243917
3920.000000;3.279191
3919.000000;3.322460
3918.000000;3.370979
3917.000000;3.447741
3916.000000;3.541850
3915.000000;3.573109
3914.000000;3.540570
3913.000000;3.619554
3912.000000;3.939267
3911.000000;3.992079
3910.000000;3.601774
3909.000000;3.377247
3908.000000;3.322745
3907.000000;3.410678
3906.000000;3.647518
3905.000000;3.926135
3904.000000;3.783178
3903.000000;3.786698
3902.000000;4.223107
3901.000000;3.736867
3900.000000;3.500263
3899.000000;3.479371
3898.000000;3.564992
3897.000000;3.719919
3896.000000;3.754415
3895.000000;3.524495
3894.000000;3.403809
3893.000000;3.438010
3892.000000;3.533035
3891.000000;3.534523
3890.000000;3.434112
3889.000000;3.335921
3888.000000;3.297250
3887.000000;3.327802
3886.000000;3.416071
3885.000000;3.549117
3884.000000;3.699169
3883.000000;3.741543
3882.000000;3.726054
3881.000000;3.824940
3880.000000;3.800791
3879.000000;3.640763
3878.000000;3.525374
3877.000000;3.457001
3876.000000;3.409861
3875.000000;3.326159
3874.000000;3.262223
3873.000000;3.287596
3872.000000;3.417926
3871.000000;3.671593
3870.000000;4.060182
3869.000000;4.229809
3868.000000;4.193133
3867.000000;3.825260
3866.000000;3.514114
3865.000000;3.433580
3864.000000;3.416350
3863.000000;3.436428
3862.000000;3.531782
3861.000000;3.781946
3860.000000;4.354818
3859.000000;4.243527
3858.000000;4.020300
3857.000000;4.065760
3856.000000;4.252255
3855.000000;4.279617
3854.000000;4.108049
3853.000000;3.967013
3852.000000;3.758690
3851.000000;3.496309
3850.000000;3.291789
3849.000000;3.207074
3848.000000;3.244887
3847.000000;3.375548
3846.000000;3.528582
3845.000000;3.625787
3844.000000;3.671234
3843.000000;3.699394
3842.000000;3.749758
3841.000000;3.818544
3840.000000;3.762768
3839.000000;3.636157
3838.000000;3.566857
3837.000000;3.572797
3836.000000;3.718965
3835.000000;4.076347
3834.000000;3.838289
3833.000000;3.620965
3832.000000;3.658840
3831.000000;3.795966
3830.000000;4.071272
3829.000000;3.905499
3828.000000;4.171651
3827.000000;3.745234
3826.000000;3.340270
3825.000000;3.239439
3824.000000;3.289337
3823.000000;3.438798
3822.000000;3.591332
3821.000000;3.802409
3820.000000;4.046204
3819.000000;3.882914
3818.000000;3.646775
3817.000000;3.553931
3816.000000;3.527980
3815.000000;3.469440
3814.000000;3.375719
3813.000000;3.304006
3812.000000;3.298249
3811.000000;3.380630
3810.000000;3.533120
3809.000000;3.625289
3808.000000;3.626119
3807.000000;3.623978
3806.000000;3.621937
3805.000000;3.686952
3804.000000;3.951019
3803.000000;3.860273
3802.000000;3.595467
3801.000000;3.458079
3800.000000;3.353652
3799.000000;3.305046
3798.000000;3.397588
3797.000000;3.618794
3796.000000;3.558320
3795.000000;3.405759
3794.000000;3.335052
3793.000000;3.347557
3792.000000;3.567529
3791.000000;3.826419
3790.000000;3.453867
3789.000000;3.344007
3788.000000;3.379576
3787.000000;3.482882
3786.000000;3.623471
3785.000000;3.621105
3784.000000;3.423574
3783.000000;3.235004
3782.000000;3.147479
3781.000000;3.194415
3780.000000;3.441683
3779.000000;3.812569
3778.000000;3.994185
3777.000000;4.235053
3776.000000;3.799589
3775.000000;3.562124
3774.000000;3.530272
3773.000000;3.503321
3772.000000;3.430304
3771.000000;3.411057
3770.000000;3.497057
3769.000000;3.653639
3768.000000;3.966918
3767.000000;3.806863
3766.000000;3.477900
3765.000000;3.349741
3764.000000;3.288645
3763.000000;3.246254
3762.000000;3.264903
3761.000000;3.420089
3760.000000;3.624878
3759.000000;3.577941
3758.000000;3.508676
3757.000000;3.591138
3756.000000;3.804873
3755.000000;3.856392
3754.000000;3.647355
3753.000000;3.482934
3752.000000;3.424275
3751.000000;3.469085
3750.000000;3.569116
3749.000000;3.703925
3748.000000;3.954945
3747.000000;4.092094
3746.000000;4.014437
3745.000000;3.958028
3744.000000;3.865849
3743.000000;3.766902
3742.000000;3.706730
3741.000000;3.582691
3740.000000;3.508712
3739.000000;3.533316
3738.000000;3.547510
3737.000000;3.623739
3736.000000;3.892975
3735.000000;4.468908
3734.000000;4.629963
3733.000000;4.394683
3732.000000;4.791666
3731.000000;6.350163
3730.000000;5.077876
3729.000000;4.781563
3728.000000;4.225001
3727.000000;3.856630
3726.000000;3.665770
3725.000000;3.609642
3724.000000;3.629085
3723.000000;3.654449
3722.000000;3.710877
3721.000000;3.875209
3720.000000;3.983437
3719.000000;3.725340
3718.000000;3.481911
3717.000000;3.337054
3716.000000;3.291617
3715.000000;3.390038
3714.000000;3.634248
3713.000000;3.684177
3712.000000;3.463291
3711.000000;3.308423
3710.000000;3.278235
3709.000000;3.378576
3708.000000;3.553621
3707.000000;3.606701
3706.000000;3.569878
3705.000000;3.591565
3704.000000;3.653718
3703.000000;3.700834
3702.000000;3.746940
3701.000000;3.868852
3700.000000;3.929888
3699.000000;3.659502
3698.000000;3.418781
3697.000000;3.311469
3696.000000;3.282051
3695.000000;3.297760
3694.000000;3.407891
3693.000000;3.646374
3692.000000;3.672985
3691.000000;3.692517
3690.000000;3.845640
3689.000000;4.032234
3688.000000;4.122224
3687.000000;3.787314
3686.000000;3.599861
3685.000000;3.627903
3684.000000;3.792675
3683.000000;3.781257
3682.000000;3.717624
3681.000000;3.774113
3680.000000;3.870202
3679.000000;3.779032
3678.000000;3.609260
3677.000000;3.558152
3676.000000;3.578902
3675.000000;3.576222
3674.000000;3.545835
3673.000000;3.559436
3672.000000;3.721427
3671.000000;4.129488
3670.000000;4.164592
3669.000000;3.844885
3668.000000;3.671128
3667.000000;3.584619
3666.000000;3.595156
3665.000000;3.615350
3664.000000;3.721542
3663.000000;3.987295
3662.000000;3.782891
3661.000000;3.569768
3660.000000;3.668722
3659.000000;4.189707
3658.000000;3.912057
3657.000000;3.673480
3656.000000;3.629950
3655.000000;3.668300
3654.000000;3.777285
3653.000000;3.567898
3652.000000;3.432480
3651.000000;3.542896
3650.000000;3.792744
3649.000000;3.949880
3648.000000;3.951968
3647.000000;4.006480
3646.000000;4.168732
3645.000000;4.711458
3644.000000;4.387554
3643.000000;3.872786
3642.000000;3.786889
3641.000000;3.856025
3640.000000;3.887647
3639.000000;3.832586
3638.000000;3.752386
3637.000000;3.633946
3636.000000;3.603934
3635.000000;3.894947
3634.000000;3.959340
3633.000000;3.640029
3632.000000;3.717202
3631.000000;4.224610
3630.000000;4.173617
3629.000000;3.875037
3628.000000;3.738689
3627.000000;3.561059
3626.000000;3.370431
3625.000000;3.243355
3624.000000;3.221835
3623.000000;3.333449
3622.000000;3.619881
3621.000000;3.644224
3620.000000;3.445675
3619.000000;3.427708
3618.000000;3.479660
3617.000000;3.609467
3616.000000;3.706562
3615.000000;3.544583
3614.000000;3.459598
3613.000000;3.531291
3612.000000;3.634739
3611.000000;3.730189
3610.000000;3.802931
3609.000000;3.858875
3608.000000;4.000776
3607.000000;3.780501
3606.000000;3.458701
3605.000000;3.308609
3604.000000;3.304074
3603.000000;3.474283
3602.000000;3.942664
3601.000000;4.063984
3600.000000;3.677354
3599.000000;3.592352
3598.000000;3.697379
3597.000000;3.926946
3596.000000;4.034503
3595.000000;4.165534
3594.000000;4.103752
3593.000000;3.884070
3592.000000;3.806449
3591.000000;3.847803
3590.000000;4.321527
3589.000000;4.601450
3588.000000;4.219853
3587.000000;4.534449
3586.000000;4.726512
3585.000000;4.332716
3584.000000;4.134124
3583.000000;4.006625
3582.000000;4.166555
3581.000000;3.895251
3580.000000;3.547136
3579.000000;3.465495
3578.000000;3.521896
3577.000000;3.633697
3576.000000;3.754715
3575.000000;3.861694
3574.000000;3.922969
3573.000000;3.826426
3572.000000;3.712004
3571.000000;3.814068
3570.000000;3.936636
3569.000000;3.698385
3568.000000;3.507683
3567.000000;3.443447
3566.000000;3.495056
3565.000000;3.539726
3564.000000;3.490361
3563.000000;3.688266
3562.000000;4.082228
3561.000000;3.659560
3560.000000;3.440578
3559.000000;3.402197
3558.000000;3.449192
3557.000000;3.575528
3556.000000;3.597561
3555.000000;3.518019
3554.000000;3.503580
3553.000000;3.520612
3552.000000;3.431270
3551.000000;3.330324
3550.000000;3.320431
3549.000000;3.383866
3548.000000;3.466707
3547.000000;3.575014
3546.000000;3.778520
3545.000000;4.210803
3544.000000;4.313634
3543.000000;4.258606
3542.000000;4.017512
3541.000000;3.570840
3540.000000;3.436325
3539.000000;3.524115
3538.000000;3.918970
3537.000000;3.739894
3536.000000;3.403318
3535.000000;3.379560
3534.000000;3.538702
3533.000000;3.869754
3532.000000;3.841021
3531.000000;3.791087
3530.000000;4.070792
3529.000000;4.258998
3528.000000;4.039818
3527.000000;3.870828
3526.000000;3.649997
3525.000000;3.444364
3524.000000;3.430149
3523.000000;3.701344
3522.000000;4.394507
3521.000000;4.224407
3520.000000;3.610694
3519.000000;3.337804
3518.000000;3.285618
3517.000000;3.341305
3516.000000;3.480131
3515.000000;3.602550
3514.000000;3.495135
3513.000000;3.359619
3512.000000;3.354727
3511.000000;3.790197
3510.000000;3.874610
3509.000000;3.416627
3508.000000;3.357499
3507.000000;3.463610
3506.000000;4.131719
3505.000000;3.903910
3504.000000;3.498959
3503.000000;3.498933
3502.000000;3.584420
3501.000000;3.692320
3500.000000;3.584554
3499.000000;3.485326
3498.000000;3.554394
3497.000000;3.736638
3496.000000;3.643259
3495.000000;3.515487
3494.000000;3.570644
3493.000000;3.543650
3492.000000;3.397844
3491.000000;3.397703
3490.000000;3.514227
3489.000000;3.571486
3488.000000;3.534398
3487.000000;3.474001
3486.000000;3.433876
3485.000000;3.405512
3484.000000;3.469728
3483.000000;3.798710
3482.000000;3.789070
3481.000000;3.575634
3480.000000;3.640539
3479.000000;3.783584
3478.000000;4.178999
3477.000000;4.025032
3476.000000;3.766258
3475.000000;3.824897
3474.000000;3.705062
3473.000000;3.562405
3472.000000;3.516357
3471.000000;3.568154
3470.000000;3.623015
3469.000000;3.511547
3468.000000;3.420246
3467.000000;3.381396
3466.000000;3.369145
3465.000000;3.408489
3464.000000;3.508205
3463.000000;3.606578
3462.000000;3.695887
3461.000000;3.783341
3460.000000;3.659555
3459.000000;3.545503
3458.000000;3.588543
3457.000000;3.731986
3456.000000;3.894962
3455.000000;4.039857
3454.000000;3.896463
3453.000000;3.600916
3452.000000;3.444770
3451.000000;3.455551
3450.000000;3.546430
3449.000000;3.651643
3448.000000;3.794469
3447.000000;3.632835
3446.000000;3.415320
3445.000000;3.381038
3444.000000;3.401044
3443.000000;3.590768
3442.000000;4.079058
3441.000000;3.788018
3440.000000;3.716953
3439.000000;3.748121
3438.000000;3.821893
3437.000000;4.060833
3436.000000;3.653219
3435.000000;3.395317
3434.000000;3.291187
3433.000000;3.264749
3432.000000;3.293256
3431.000000;3.370247
3430.000000;3.501369
3429.000000;3.619699
3428.000000;3.713243
3427.000000;3.908058
3426.000000;4.421528
3425.000000;4.218108
3424.000000;3.919012
3423.000000;3.768548
3422.000000;3.808766
3421.000000;4.296025
3420.000000;4.117767
3419.000000;3.740973
3418.000000;3.695907
3417.000000;3.975391
3416.000000;3.807139
3415.000000;3.462390
3414.000000;3.380788
3413.000000;3.386521
3412.000000;3.401054
3411.000000;3.375785
3410.000000;3.313561
3409.000000;3.249580
3408.000000;3.267839
3407.000000;3.568084
3406.000000;3.673056
3405.000000;3.340477
3404.000000;3.275710
3403.000000;3.228082
3402.000000;3.149589
3401.000000;3.121578
3400.000000;3.181199
3399.000000;3.297702
3398.000000;3.380666
3397.000000;3.426233
3396.000000;3.578647
3395.000000;3.950332
3394.000000;3.724470
3393.000000;3.570969
3392.000000;3.752197
3391.000000;4.127704
3390.000000;4.126131
3389.000000;3.818368
3388.000000;3.601956
3387.000000;3.729256
3386.000000;4.177273
3385.000000;3.858457
3384.000000;4.035075
3383.000000;4.168477
3382.000000;3.724747
3381.000000;3.610864
3380.000000;3.625754
3379.000000;3.698500
3378.000000;3.669906
3377.000000;3.759218
3376.000000;3.784109
3375.000000;3.641681
3374.000000;3.597527
3373.000000;3.442502
3372.000000;3.288252
3371.000000;3.254363
3370.000000;3.339643
3369.000000;3.475274
3368.000000;3.603705
3367.000000;3.807882
3366.000000;3.741949
3365.000000;3.737624
3364.000000;3.993417
3363.000000;3.694364
3362.000000;3.483647
3361.000000;3.477870
3360.000000;3.541068
3359.000000;3.525835
3358.000000;3.323509
3357.000000;3.140804
3356.000000;3.071940
3355.000000;3.119648
3354.000000;3.235642
3353.000000;3.399801
3352.000000;3.779790
3351.000000;4.523395
3350.000000;4.077116
3349.000000;3.623012
3348.000000;3.433955
3347.000000;3.438627
3346.000000;3.478524
3345.000000;3.439835
3344.000000;3.461959
3343.000000;3.630749
3342.000000;3.988307
3341.000000;4.539521
3340.000000;4.197299
3339.000000;3.815741
3338.000000;3.704940
3337.000000;3.709849
3336.000000;3.721284
3335.000000;3.927284
3334.000000;4.005415
3333.000000;3.890160
3332.000000;4.113239
3331.000000;3.908610
3330.000000;3.702125
3329.000000;3.779149
3328.000000;3.828660
3327.000000;3.698768
3326.000000;3.661754
3325.000000;3.648308
3324.000000;3.566837
3323.000000;3.485370
3322.000000;3.542651
3321.000000;3.870515
3320.000000;3.649865
3319.000000;3.413739
3318.000000;3.485939
3317.000000;3.716016
3316.000000;4.306933
3315.000000;4.383027
3314.000000;4.395130
3313.000000;4.146552
3312.000000;3.867849
3311.000000;4.200517
3310.000000;3.734922
3309.000000;3.512530
3308.000000;3.557178
3307.000000;3.762676
3306.000000;4.170232
3305.000000;3.638658
3304.000000;3.371221
3303.000000;3.315092
3302.000000;3.374180
3301.000000;3.543925
3300.000000;3.715551
3299.000000;3.732027
3298.000000;3.610512
3297.000000;3.548506
3296.000000;3.546363
3295.000000;3.535187
3294.000000;3.529667
3293.000000;3.631333
3292.000000;3.843240
3291.000000;3.871741
3290.000000;3.734864
3289.000000;3.623957
3288.000000;3.561886
3287.000000;3.636432
3286.000000;4.023104
3285.000000;4.135054
3284.000000;3.608526
3283.000000;3.370971
3282.000000;3.333736
3281.000000;3.573528
3280.000000;3.842133
3279.000000;3.840045
3278.000000;3.845509
3277.000000;3.600912
3276.000000;3.638102
3275.000000;3.940622
3274.000000;4.246413
3273.000000;4.089371
3272.000000;3.694174
3271.000000;3.459145
3270.000000;3.346696
3269.000000;3.313439
3268.000000;3.278717
3267.000000;3.257023
3266.000000;3.292166
3265.000000;3.440909
3264.000000;3.660411
3263.000000;3.660806
3262.000000;3.582278
3261.000000;3.786438
3260.000000;4.490887
3259.000000;4.012291
3258.000000;3.598278
3257.000000;3.400745
3256.000000;3.321481
3255.000000;3.405139
3254.000000;3.512369
3253.000000;3.504831
3252.000000;3.514493
3251.000000;3.821971
3250.000000;3.900747
3249.000000;3.398217
3248.000000;3.280330
3247.000000;3.324686
3246.000000;3.393034
3245.000000;3.620435
3244.000000;4.011547
3243.000000;3.632972
3242.000000;3.342225
3241.000000;3.254798
3240.000000;3.231622
3239.000000;3.284229
3238.000000;3.367385
3237.000000;3.419757
3236.000000;3.407143
3235.000000;3.392242
3234.000000;3.498715
3233.000000;3.689600
3232.000000;3.622765
3231.000000;3.493552
3230.000000;3.468727
3229.000000;3.594543
3228.000000;3.768653
3227.000000;3.526680
3226.000000;3.301132
3225.000000;3.218777
3224.000000;3.241179
3223.000000;3.351639
3222.000000;3.628765
3221.000000;3.826041
3220.000000;3.551023
3219.000000;3.485338
3218.000000;3.470615
3217.000000;3.451607
3216.000000;3.439155
3215.000000;3.409496
3214.000000;3.341405
3213.000000;3.381402
3212.000000;3.847427
3211.000000;3.952175
3210.000000;3.512029
3209.000000;3.586539
3208.000000;4.221341
3207.000000;3.931129
3206.000000;3.640048
3205.000000;3.606479
3204.000000;3.684959
3203.000000;3.730724
3202.000000;3.402079
3201.000000;3.236291
3200.000000;3.200983
3199.000000;3.214760
3198.000000;3.324778
3197.000000;3.423320
3196.000000;3.295597
3195.000000;3.194584
3194.000000;3.224366
3193.000000;3.298933
3192.000000;3.324818
3191.000000;3.352435
3190.000000;3.481756
3189.000000;3.686336
3188.000000;3.648408
3187.000000;3.496902
3186.000000;3.568405
3185.000000;3.552498
3184.000000;3.390772
3183.000000;3.349506
3182.000000;3.398082
3181.000000;3.540969
3180.000000;3.773722
3179.000000;3.884969
3178.000000;3.758363
3177.000000;3.956994
3176.000000;3.937292
3175.000000;3.511054
3174.000000;3.476348
3173.000000;3.834179
3172.000000;4.090006
3171.000000;3.649547
3170.000000;3.705460
3169.000000;3.909747
3168.000000;3.591687
3167.000000;3.397254
3166.000000;3.348901
3165.000000;3.387518
3164.000000;3.405598
3163.000000;3.343475
3162.000000;3.301453
3161.000000;3.326690
3160.000000;3.413170
3159.000000;3.602697
3158.000000;3.795153
3157.000000;3.647884
3156.000000;3.419438
3155.000000;3.250538
3154.000000;3.176840
3153.000000;3.244256
3152.000000;3.462600
3151.000000;3.726669
3150.000000;3.719948
3149.000000;3.595193
3148.000000;3.579206
3147.000000;3.595635
3146.000000;3.558516
3145.000000;3.522802
3144.000000;3.606993
3143.000000;3.737072
3142.000000;3.606697
3141.000000;3.479789
3140.000000;3.475954
3139.000000;3.546549
3138.000000;3.664786
3137.000000;4.119947
3136.000000;4.425823
3135.000000;3.958771
3134.000000;4.509383
3133.000000;4.174705
3132.000000;3.596285
3131.000000;3.414201
3130.000000;3.376809
3129.000000;3.512344
3128.000000;3.687131
3127.000000;3.717037
3126.000000;3.684078
3125.000000;3.637975
3124.000000;3.534921
3123.000000;3.339551
3122.000000;3.153157
3121.000000;3.085880
3120.000000;3.143087
3119.000000;3.421651
3118.000000;4.056411
3117.000000;3.912998
3116.000000;3.798198
3115.000000;3.791489
3114.000000;3.739952
3113.000000;3.855964
3112.000000;4.000773
3111.000000;4.000008
3110.000000;4.323222
3109.000000;4.045201
3108.000000;3.583620
3107.000000;3.593272
3106.000000;3.771769
3105.000000;3.799936
3104.000000;3.806294
3103.000000;3.707400
3102.000000;3.543640
3101.000000;3.624842
3100.000000;3.665700
3099.000000;3.414805
3098.000000;3.293359
3097.000000;3.306326
3096.000000;3.436928
3095.000000;3.700256
3094.000000;4.141872
3093.000000;4.520069
3092.000000;4.111109
3091.000000;3.918999
3090.000000;3.755604
3089.000000;3.550831
3088.000000;3.433466
3087.000000;3.587766
3086.000000;3.995564
3085.000000;3.671239
3084.000000;3.484995
3083.000000;3.541554
3082.000000;3.722216
3081.000000;3.874081
3080.000000;3.665229
3079.000000;3.410530
3078.000000;3.290778
3077.000000;3.256827
3076.000000;3.340269
3075.000000;3.785574
3074.000000;3.932417
3073.000000;3.639306
3072.000000;3.698766
3071.000000;3.551100
3070.000000;3.307241
3069.000000;3.178179
3068.000000;3.150336
3067.000000;3.197061
3066.000000;3.317360
3065.000000;3.705467
3064.000000;3.919504
3063.000000;3.501708
3062.000000;3.450875
3061.000000;3.443951
3060.000000;3.454815
3059.000000;3.525047
3058.000000;3.595963
3057.000000;3.638998
3056.000000;3.377232
3055.000000;3.169307
3054.000000;3.136248
3053.000000;3.191931
3052.000000;3.229018
3051.000000;3.276175
3050.000000;3.383518
3049.000000;3.412580
3048.000000;3.346088
3047.000000;3.341355
3046.000000;3.429990
3045.000000;3.511877
3044.000000;3.482099
3043.000000;3.470322
3042.000000;3.499771
3041.000000;3.403732
3040.000000;3.237850
3039.000000;3.139063
3038.000000;3.111639
3037.000000;3.124363
3036.000000;3.182046
3035.000000;3.269790
3034.000000;3.282647
3033.000000;3.239010
3032.000000;3.231744
3031.000000;3.238984
3030.000000;3.264541
3029.000000;3.373431
3028.000000;3.621832
3027.000000;4.013144
3026.000000;3.972086
3025.000000;3.596167
3024.000000;3.365190
3023.000000;3.256658
3022.000000;3.211425
3021.000000;3.154944
3020.000000;3.082948
3019.000000;3.048110
3018.000000;3.066834
3017.000000;3.133507
3016.000000;3.217016
3015.000000;3.279502
3014.000000;3.323387
3013.000000;3.461595
3012.000000;3.895567
3011.000000;3.809221
3010.000000;3.466473
3009.000000;3.381199
3008.000000;3.257332
3007.000000;3.137624
3006.000000;3.124568
3005.000000;3.197657
3004.000000;3.422414
3003.000000;3.792548
3002.000000;3.506899
3001.000000;3.261281
3000.000000;3.285631
2999.000000;3.443813
2998.000000;3.575032
2997.000000;3.640905
2996.000000;3.700866
2995.000000;3.743028
2994.000000;3.821162
2993.000000;3.766994
2992.000000;3.733263
2991.000000;3.731257
2990.000000;3.488379
2989.000000;3.308329
2988.000000;3.259833
2987.000000;3.305880
2986.000000;3.425350
2985.000000;3.547647
2984.000000;3.640830
2983.000000;3.786066
2982.000000;3.912749
2981.000000;3.759723
2980.000000;3.582718
2979.000000;3.411599
2978.000000;3.301203
2977.000000;3.265239
2976.000000;3.291587
2975.000000;3.542829
2974.000000;3.552805
2973.000000;3.223412
2972.000000;3.085286
2971.000000;3.042391
2970.000000;3.089937
2969.000000;3.286705
2968.000000;3.710920
2967.000000;3.847819
2966.000000;3.622465
2965.000000;3.670718
2964.000000;3.776198
2963.000000;3.870196
2962.000000;3.915411
2961.000000;3.582547
2960.000000;3.405181
2959.000000;3.446084
2958.000000;3.809889
2957.000000;3.889756
2956.000000;3.502541
2955.000000;3.486703
2954.000000;3.434643
2953.000000;3.338550
2952.000000;3.422811
2951.000000;3.830346
2950.000000;3.741766
2949.000000;3.273092
2948.000000;3.106755
2947.000000;3.061355
2946.000000;3.117995
2945.000000;3.260704
2944.000000;3.464563
2943.000000;3.701092
2942.000000;3.793506
2941.000000;3.783221
2940.000000;3.775084
2939.000000;3.739559
2938.000000;3.634447
2937.000000;3.556051
2936.000000;3.546456
2935.000000;3.535723
2934.000000;3.501744
2933.000000;3.581406
2932.000000;3.631621
2931.000000;3.366852
2930.000000;3.199537
2929.000000;3.216946
2928.000000;3.387912
2927.000000;3.719887
2926.000000;3.990108
2925.000000;3.847318
2924.000000;3.642773
2923.000000;3.474270
2922.000000;3.442056
2921.000000;3.730123
2920.000000;3.974961
2919.000000;3.561087
2918.000000;3.460212
2917.000000;3.539604
2916.000000;3.662974
2915.000000;3.612927
2914.000000;3.627375
2913.000000;3.946415
2912.000000;4.011980
2911.000000;4.083614
2910.000000;3.907745
2909.000000;3.701514
2908.000000;3.669909
2907.000000;3.510212
2906.000000;3.347772
2905.000000;3.257289
2904.000000;3.203168
2903.000000;3.199719
2902.000000;3.256477
2901.000000;3.625860
2900.000000;3.929467
2899.000000;3.352186
2898.000000;3.328692
2897.000000;3.544993
2896.000000;3.845825
2895.000000;4.269390
2894.000000;4.153727
2893.000000;3.771961
2892.000000;3.513847
2891.000000;3.310022
2890.000000;3.192453
2889.000000;3.183323
2888.000000;3.257399
2887.000000;3.384085
2886.000000;3.613443
2885.000000;4.188031
2884.000000;4.408689
2883.000000;4.055311
2882.000000;3.756135
2881.000000;3.614878
2880.000000;3.608137
2879.000000;3.597248
2878.000000;3.571304
2877.000000;3.572105
2876.000000;3.649462
2875.000000;3.731536
2874.000000;3.737405
2873.000000;3.506426
2872.000000;3.260757
2871.000000;3.190473
2870.000000;3.240780
2869.000000;3.307031
2868.000000;3.384207
2867.000000;3.469906
2866.000000;3.431422
2865.000000;3.630907
2864.000000;3.926653
2863.000000;3.565826
2862.000000;3.423959
2861.000000;3.516768
2860.000000;4.082187
2859.000000;3.577144
2858.000000;3.179852
2857.000000;3.086284
2856.000000;3.090179
2855.000000;3.176510
2854.000000;3.316374
2853.000000;3.395882
2852.000000;3.337525
2851.000000;3.332715
2850.000000;3.423805
2849.000000;3.541798
2848.000000;3.654167
2847.000000;3.783296
2846.000000;3.802400
2845.000000;3.730985
2844.000000;4.010653
2843.000000;3.910276
2842.000000;3.457529
2841.000000;3.462705
2840.000000;3.909180
2839.000000;3.597364
2838.000000;3.182408
2837.000000;3.086981
2836.000000;3.143813
2835.000000;3.237380
2834.000000;3.166792
2833.000000;3.106975
2832.000000;3.155746
2831.000000;3.238430
2830.000000;3.354993
2829.000000;3.513758
2828.000000;3.654172
2827.000000;3.630651
2826.000000;3.571371
2825.000000;3.715043
2824.000000;3.940867
2823.000000;3.813216
2822.000000;3.669793
2821.000000;3.615458
2820.000000;3.678593
2819.000000;3.745925
2818.000000;3.619444
2817.000000;3.407902
2816.000000;3.270443
2815.000000;3.252943
2814.000000;3.318465
2813.000000;3.480211
2812.000000;3.663642
2811.000000;3.485065
2810.000000;3.363609
2809.000000;3.515147
2808.000000;3.891745
2807.000000;4.058758
2806.000000;3.812367
2805.000000;3.651682
2804.000000;3.570733
2803.000000;3.546738
2802.000000;3.549880
2801.000000;3.578115
2800.000000;3.744020
2799.000000;3.981599
2798.000000;3.699165
2797.000000;3.482932
2796.000000;3.421452
2795.000000;3.395282
2794.000000;3.391463
2793.000000;3.414110
2792.000000;3.413555
2791.000000;3.363425
2790.000000;3.303413
2789.000000;3.258977
2788.000000;3.243795
2787.000000;3.252569
2786.000000;3.220882
2785.000000;3.149668
2784.000000;3.131870
2783.000000;3.196416
2782.000000;3.237242
2781.000000;3.275704
2780.000000;3.362761
2779.000000;3.547529
2778.000000;4.130272
2777.000000;3.496160
2776.000000;3.155881
2775.000000;3.082561
2774.000000;3.079217
2773.000000;3.097832
2772.000000;3.126205
2771.000000;3.183370
2770.000000;3.254719
2769.000000;3.311443
2768.000000;3.472083
2767.000000;3.866442
2766.000000;3.610474
2765.000000;3.336621
2764.000000;3.329194
2763.000000;3.368723
2762.000000;3.257743
2761.000000;3.158589
2760.000000;3.168910
2759.000000;3.268435
2758.000000;3.463930
2757.000000;3.596068
2756.000000;3.539534
2755.000000;3.495168
2754.000000;3.620725
2753.000000;3.762922
2752.000000;3.587821
2751.000000;3.459205
2750.000000;3.361195
2749.000000;3.301569
2748.000000;3.332460
2747.000000;3.413471
2746.000000;3.559022
2745.000000;3.839471
2744.000000;3.906268
2743.000000;3.672667
2742.000000;3.518308
2741.000000;3.546872
2740.000000;3.616259
2739.000000;3.404187
2738.000000;3.217924
2737.000000;3.173558
2736.000000;3.238424
2735.000000;3.475887
2734.000000;3.733219
2733.000000;3.554702
2732.000000;3.464323
2731.000000;3.525504
2730.000000;3.873079
2729.000000;3.651137
2728.000000;3.322321
2727.000000;3.360388
2726.000000;3.477301
2725.000000;3.519888
2724.000000;3.640599
2723.000000;3.994834
2722.000000;4.256718
2721.000000;3.731072
2720.000000;3.499302
2719.000000;3.443254
2718.000000;3.492406
2717.000000;3.661970
2716.000000;3.795060
2715.000000;3.691647
2714.000000;3.657340
2713.000000;3.707115
2712.000000;3.603583
2711.000000;3.425064
2710.000000;3.733765
2709.000000;3.895407
2708.000000;3.229512
2707.000000;3.151079
2706.000000;3.217589
2705.000000;3.328119
2704.000000;3.507398
2703.000000;3.785576
2702.000000;3.854430
2701.000000;3.578929
2700.000000;3.397493
2699.000000;3.308379
2698.000000;3.310081
2697.000000;3.290284
2696.000000;3.194693
2695.000000;3.150647
2694.000000;3.126794
2693.000000;3.070218
2692.000000;3.043188
2691.000000;3.078426
2690.000000;3.197580
2689.000000;3.523515
2688.000000;3.843634
2687.000000;3.724482
2686.000000;3.822517
2685.000000;3.524725
2684.000000;3.420678
2683.000000;3.470305
2682.000000;3.451019
2681.000000;3.392138
2680.000000;3.437633
2679.000000;3.588326
2678.000000;3.563450
2677.000000;3.458880
2676.000000;3.513322
2675.000000;3.774972
2674.000000;3.686909
2673.000000;3.471873
2672.000000;3.490964
2671.000000;3.704173
2670.000000;4.308583
2669.000000;4.589136
2668.000000;3.746585
2667.000000;3.385188
2666.000000;3.267693
2665.000000;3.262325
2664.000000;3.269044
2663.000000;3.332523
2662.000000;3.491180
2661.000000;3.633217
2660.000000;3.615646
2659.000000;3.513092
2658.000000;3.489451
2657.000000;3.849209
2656.000000;3.953428
2655.000000;3.382689
2654.000000;3.276070
2653.000000;3.346048
2652.000000;3.584398
2651.000000;3.557819
2650.000000;3.347007
2649.000000;3.309446
2648.000000;3.337159
2647.000000;3.383888
2646.000000;3.390776
2645.000000;3.411568
2644.000000;3.545834
2643.000000;3.670313
2642.000000;3.617004
2641.000000;3.538959
2640.000000;3.388665
2639.000000;3.193599
2638.000000;3.086241
2637.000000;3.116694
2636.000000;3.296542
2635.000000;3.508793
2634.000000;3.503551
2633.000000;3.457670
2632.000000;3.551924
2631.000000;3.738719
2630.000000;3.597738
2629.000000;3.408295
2628.000000;3.294425
2627.000000;3.235882
2626.000000;3.283974
2625.000000;3.741641
2624.000000;3.934647
2623.000000;3.467485
2622.000000;3.541666
2621.000000;3.446834
2620.000000;3.290396
2619.000000;3.303504
2618.000000;3.352665
2617.000000;3.333041
2616.000000;3.400811
2615.000000;3.680495
2614.000000;4.168015
2613.000000;3.977037
2612.000000;3.644142
2611.000000;3.464906
2610.000000;3.344993
2609.000000;3.318706
2608.000000;3.418840
2607.000000;3.509436
2606.000000;3.362699
2605.000000;3.181682
2604.000000;3.103861
2603.000000;3.173299
2602.000000;3.442286
2601.000000;4.024576
2600.000000;3.857507
2599.000000;3.424616
2598.000000;3.239474
2597.000000;3.175582
2596.000000;3.228185
2595.000000;3.349737
2594.000000;3.487252
2593.000000;3.506845
2592.000000;3.388355
2591.000000;3.260104
2590.000000;3.167671
2589.000000;3.139782
2588.000000;3.137283
2587.000000;3.108543
2586.000000;3.089255
2585.000000;3.134358
2584.000000;3.271440
2583.000000;3.466955
2582.000000;3.569680
2581.000000;3.576574
2580.000000;3.576255
2579.000000;3.644569
2578.000000;3.835672
2577.000000;4.285174
2576.000000;4.191263
2575.000000;3.512487
2574.000000;3.348682
2573.000000;3.422623
2572.000000;3.634788
2571.000000;3.739616
2570.000000;3.869953
2569.000000;3.986493
2568.000000;3.469080
2567.000000;3.251268
2566.000000;3.288738
2565.000000;3.478830
2564.000000;3.783848
2563.000000;3.884991
2562.000000;3.897766
2561.000000;3.626205
2560.000000;3.373132
2559.000000;3.268928
2558.000000;3.236707
2557.000000;3.306728
2556.000000;3.426008
2555.000000;3.411599
2554.000000;3.353017
2553.000000;3.351107
2552.000000;3.421366
2551.000000;3.534817
2550.000000;3.696045
2549.000000;3.820295
2548.000000;3.787191
2547.000000;3.961535
2546.000000;3.850171
2545.000000;3.549903
2544.000000;3.483235
2543.000000;3.507586
2542.000000;3.659237
2541.000000;3.745331
2540.000000;3.743260
2539.000000;3.707214
2538.000000;3.587243
2537.000000;3.802058
2536.000000;3.773493
2535.000000;3.522377
2534.000000;3.487347
2533.000000;3.547088
2532.000000;3.841741
2531.000000;3.880470
2530.000000;3.482246
2529.000000;3.374580
2528.000000;3.471921
2527.000000;3.736436
2526.000000;3.672444
2525.000000;3.435188
2524.000000;3.310618
2523.000000;3.229525
2522.000000;3.247987
2521.000000;3.403045
2520.000000;3.608801
2519.000000;3.562910
2518.000000;3.543263
2517.000000;3.694699
2516.000000;3.324123
2515.000000;3.061453
2514.000000;3.014692
2513.000000;3.062881
2512.000000;3.174507
2511.000000;3.308127
2510.000000;3.325562
2509.000000;3.234475
2508.000000;3.206329
2507.000000;3.329113
2506.000000;3.917979
2505.000000;3.694657
2504.000000;3.342073
2503.000000;3.194975
2502.000000;3.148233
2501.000000;3.290635
2500.000000;3.756846
2499.000000;3.690024
2498.000000;3.376298
2497.000000;3.297036
2496.000000;3.308203
2495.000000;3.380729
2494.000000;3.486940
2493.000000;3.566743
2492.000000;3.749225
2491.000000;3.958415
2490.000000;3.749651
2489.000000;3.778765
2488.000000;4.311436
2487.000000;4.049518
2486.000000;3.620554
2485.000000;3.537718
2484.000000;3.763911
2483.000000;3.689917
2482.000000;3.412810
2481.000000;3.399959
2480.000000;3.556681
2479.000000;3.647622
2478.000000;3.479020
2477.000000;3.303884
2476.000000;3.244104
2475.000000;3.286201
2474.000000;3.334765
2473.000000;3.298042
2472.000000;3.243531
2471.000000;3.202803
2470.000000;3.176010
2469.000000;3.244713
2468.000000;3.451779
2467.000000;3.821015
2466.000000;3.745221
2465.000000;3.332464
2464.000000;3.180962
2463.000000;3.172460
2462.000000;3.295158
2461.000000;3.480097
2460.000000;3.490753
2459.000000;3.390435
2458.000000;3.298784
2457.000000;3.235380
2456.000000;3.285331
2455.000000;3.513147
2454.000000;3.716874
2453.000000;3.568641
2452.000000;3.428371
2451.000000;3.367541
2450.000000;3.279158
2449.000000;3.198657
2448.000000;3.177360
2447.000000;3.190226
2446.000000;3.212363
2445.000000;3.265303
2444.000000;3.326274
2443.000000;3.305927
2442.000000;3.273225
2441.000000;3.344846
2440.000000;3.519136
2439.000000;3.476436
2438.000000;3.481948
2437.000000;3.623893
2436.000000;3.352602
2435.000000;3.210499
2434.000000;3.288029
2433.000000;3.371144
2432.000000;3.357888
2431.000000;3.407663
2430.000000;3.591802
2429.000000;3.551486
2428.000000;3.342249
2427.000000;3.286266
2426.000000;3.390153
2425.000000;3.662741
2424.000000;3.814338
2423.000000;3.628109
2422.000000;3.641495
2421.000000;3.808503
2420.000000;3.708882
2419.000000;3.542166
2418.000000;3.439261
2417.000000;3.487943
2416.000000;3.666231
2415.000000;3.759845
2414.000000;3.607234
2413.000000;3.494876
2412.000000;3.418398
2411.000000;3.331018
2410.000000;3.322294
2409.000000;3.413073
2408.000000;3.534862
2407.000000;3.478959
2406.000000;3.361526
2405.000000;3.344692
2404.000000;3.406944
2403.000000;3.834259
2402.000000;3.783497
2401.000000;3.396894
2400.000000;3.268938
2399.000000;3.212536
2398.000000;3.206776
2397.000000;3.277235
2396.000000;3.504578
2395.000000;3.559975
2394.000000;3.228239
2393.000000;3.080725
2392.000000;3.055654
2391.000000;3.115220
2390.000000;3.292599
2389.000000;3.756767
2388.000000;4.077257
2387.000000;3.796535
2386.000000;3.884082
2385.000000;3.629633
2384.000000;3.417575
2383.000000;3.194057
2382.000000;3.055465
2381.000000;3.056388
2380.000000;3.204474
2379.000000;3.334642
2378.000000;3.351644
2377.000000;3.482348
2376.000000;3.576373
2375.000000;3.311215
2374.000000;3.172168
2373.000000;3.185624
2372.000000;3.220316
2371.000000;3.193071
2370.000000;3.142036
2369.000000;3.128624
2368.000000;3.093962
2367.000000;3.104797
2366.000000;3.333767
2365.000000;3.655027
2364.000000;3.390978
2363.000000;3.438938
2362.000000;3.655237
2361.000000;3.693108
2360.000000;3.351000
2359.000000;2.972131
2358.000000;3.262375
2357.000000;3.552263
2356.000000;3.630095
2355.000000;3.534457
2354.000000;3.393121
2353.000000;3.231064
2352.000000;3.097445
2351.000000;2.968894
2350.000000;2.762242
2349.000000;2.736345
2348.000000;2.890006
2347.000000;3.004873
2346.000000;3.010284
2345.000000;2.938137
2344.000000;2.921949
2343.000000;3.046690
2342.000000;3.302214
2341.000000;3.032519
2340.000000;2.835645
2339.000000;2.831322
2338.000000;2.958088
2337.000000;3.142890
2336.000000;3.181087
2335.000000;3.078593
2334.000000;3.042044
2333.000000;3.178981
2332.000000;3.574269
2331.000000;3.427457
2330.000000;3.021437
2329.000000;2.982067
2328.000000;3.052354
2327.000000;3.160716
2326.000000;3.265905
2325.000000;3.202688
2324.000000;3.097189
2323.000000;3.070902
2322.000000;3.137868
2321.000000;3.377191
2320.000000;3.712964
2319.000000;3.404836
2318.000000;3.248437
2317.000000;3.259205
2316.000000;3.209842
2315.000000;3.133996
2314.000000;3.053431
2313.000000;2.997557
2312.000000;3.037605
2311.000000;3.312796
2310.000000;3.540606
2309.000000;3.163294
2308.000000;3.089551
2307.000000;3.153034
2306.000000;3.405802
2305.000000;3.912666
2304.000000;3.536699
2303.000000;3.207142
2302.000000;3.147880
2301.000000;3.276385
2300.000000;3.639550
2299.000000;3.840978
2298.000000;3.712696
2297.000000;3.703494
2296.000000;3.735574
2295.000000;3.862182
2294.000000;3.887678
2293.000000;3.775668
2292.000000;3.909379
2291.000000;3.855447
2290.000000;3.566520
2289.000000;3.447270
2288.000000;3.480253
2287.000000;3.411350
2286.000000;3.162116
2285.000000;3.038576
2284.000000;3.011659
2283.000000;3.046750
2282.000000;3.130196
2281.000000;3.260679
2280.000000;3.418652
2279.000000;3.318192
2278.000000;3.131125
2277.000000;3.124537
2276.000000;3.291933
2275.000000;3.596614
2274.000000;3.468410
2273.000000;3.268913
2272.000000;3.282143
2271.000000;3.647261
2270.000000;3.702311
2269.000000;3.500373
2268.000000;3.673845
2267.000000;3.595585
2266.000000;3.439992
2265.000000;3.364755
2264.000000;3.290068
2263.000000;3.190871
2262.000000;3.135198
2261.000000;3.184622
2260.000000;3.366275
2259.000000;3.671980
2258.000000;3.430937
2257.000000;3.206280
2256.000000;3.102510
2255.000000;3.070608
2254.000000;3.099277
2253.000000;3.198430
2252.000000;3.502519
2251.000000;3.620628
2250.000000;3.275261
2249.000000;3.274519
2248.000000;3.394364
2247.000000;3.521332
2246.000000;3.526279
2245.000000;3.426805
2244.000000;3.293030
2243.000000;3.239670
2242.000000;3.319686
2241.000000;3.560528
2240.000000;3.604895
2239.000000;3.477506
2238.000000;3.355511
2237.000000;3.255825
2236.000000;3.277819
2235.000000;3.423181
2234.000000;3.471416
2233.000000;3.567469
2232.000000;3.974575
2231.000000;3.319628
2230.000000;3.108482
2229.000000;3.116381
2228.000000;3.307624
2227.000000;3.563490
2226.000000;3.387371
2225.000000;3.131452
2224.000000;3.051498
2223.000000;3.104931
2222.000000;3.516793
2221.000000;3.810850
2220.000000;3.269057
2219.000000;3.140592
2218.000000;3.079457
2217.000000;3.115187
2216.000000;3.196741
2215.000000;3.301367
2214.000000;3.302507
2213.000000;3.195792
2212.000000;3.122580
2211.000000;3.120613
2210.000000;3.165213
2209.000000;3.209009
2208.000000;3.275909
2207.000000;3.460765
2206.000000;3.998372
2205.000000;3.865497
2204.000000;3.446142
2203.000000;3.304477
2202.000000;3.303048
2201.000000;3.417722
2200.000000;3.515074
2199.000000;3.454243
2198.000000;3.431684
2197.000000;3.456604
2196.000000;3.522695
2195.000000;3.584987
2194.000000;3.539146
2193.000000;3.625611
2192.000000;3.575255
2191.000000;3.312922
2190.000000;3.229178
2189.000000;3.320665
2188.000000;3.585928
2187.000000;3.996559
2186.000000;3.799066
2185.000000;3.581195
2184.000000;3.495185
2183.000000;3.388977
2182.000000;3.252688
2181.000000;3.146873
2180.000000;3.131048
2179.000000;3.232085
2178.000000;3.365944
2177.000000;3.339227
2176.000000;3.305460
2175.000000;3.465816
2174.000000;4.015300
2173.000000;3.416153
2172.000000;3.171307
2171.000000;3.129291
2170.000000;3.159252
2169.000000;3.136119
2168.000000;3.039301
2167.000000;2.941550
2166.000000;2.874065
2165.000000;2.846720
2164.000000;2.884977
2163.000000;3.012374
2162.000000;3.214344
2161.000000;3.386097
2160.000000;3.439229
2159.000000;3.451324
2158.000000;3.437586
2157.000000;3.339200
2156.000000;3.181822
2155.000000;3.041632
2154.000000;2.982471
2153.000000;3.035795
2152.000000;3.175801
2151.000000;3.335250
2150.000000;3.490912
2149.000000;3.586614
2148.000000;3.640696
2147.000000;3.708048
2146.000000;3.735971
2145.000000;3.862745
2144.000000;3.723829
2143.000000;3.394655
2142.000000;3.255675
2141.000000;3.325527
2140.000000;3.481935
2139.000000;3.329159
2138.000000;3.364255
2137.000000;3.797157
2136.000000;3.342118
2135.000000;3.079579
2134.000000;3.076116
2133.000000;3.193012
2132.000000;3.473366
2131.000000;3.405218
2130.000000;3.269852
2129.000000;3.308002
2128.000000;3.294020
2127.000000;3.269388
2126.000000;3.421242
2125.000000;3.652894
2124.000000;3.478859
2123.000000;3.261218
2122.000000;3.153952
2121.000000;3.152428
2120.000000;3.174812
2119.000000;3.179150
2118.000000;3.191758
2117.000000;3.189681
2116.000000;3.244108
2115.000000;3.490600
2114.000000;3.374041
2113.000000;3.071332
2112.000000;3.012150
2111.000000;3.103077
2110.000000;3.298809
2109.000000;3.317300
2108.000000;3.266847
2107.000000;3.302006
2106.000000;3.250973
2105.000000;3.141740
2104.000000;3.108786
2103.000000;3.165008
2102.000000;3.259314
2101.000000;3.316634
2100.000000;3.286493
2099.000000;3.195426
2098.000000;3.125898
2097.000000;3.085586
2096.000000;3.026359
2095.000000;2.948123
2094.000000;2.916762
2093.000000;2.975394
2092.000000;3.064637
2091.000000;3.047298
2090.000000;3.000645
2089.000000;3.021382
2088.000000;3.115886
2087.000000;3.255794
2086.000000;3.392033
2085.000000;3.510780
2084.000000;3.552687
2083.000000;3.439898
2082.000000;3.406571
2081.000000;3.473157
2080.000000;4.200935
2079.000000;3.484098
2078.000000;3.028995
2077.000000;2.848324
2076.000000;2.797536
2075.000000;2.858765
2074.000000;2.986377
2073.000000;3.113439
2072.000000;3.214779
2071.000000;3.382685
2070.000000;3.389617
2069.000000;3.249600
2068.000000;3.275978
2067.000000;3.399162
2066.000000;3.209039
2065.000000;2.990453
2064.000000;2.912542
2063.000000;2.935844
2062.000000;3.034155
2061.000000;3.172252
2060.000000;3.333593
2059.000000;3.549347
2058.000000;3.729727
2057.000000;3.575681
2056.000000;3.477345
2055.000000;3.637352
2054.000000;3.502253
2053.000000;3.177522
2052.000000;3.049673
2051.000000;3.123614
2050.000000;3.435517
2049.000000;3.402651
2048.000000;3.230917
2047.000000;3.159104
2046.000000;3.134663
2045.000000;3.172397
2044.000000;3.306756
2043.000000;3.648726
2042.000000;4.413022
2041.000000;3.916052
2040.000000;3.730590
2039.000000;3.414561
2038.000000;3.234477
2037.000000;3.229772
2036.000000;3.383747
2035.000000;3.571196
2034.000000;3.579383
2033.000000;3.454284
2032.000000;3.359507
2031.000000;3.342863
2030.000000;3.563322
2029.000000;3.581751
2028.000000;3.188901
2027.000000;3.008988
2026.000000;2.993061
2025.000000;3.104467
2024.000000;3.278506
2023.000000;3.347429
2022.000000;3.456885
2021.000000;3.615316
2020.000000;3.427888
2019.000000;3.576152
2018.000000;3.609422
2017.000000;3.326005
2016.000000;3.331638
2015.000000;3.361136
2014.000000;3.342044
2013.000000;3.361524
2012.000000;3.388920
2011.000000;3.311250
2010.000000;3.153864
2009.000000;3.043077
2008.000000;3.021251
2007.000000;3.069138
2006.000000;3.120672
2005.000000;3.137993
2004.000000;3.185991
2003.000000;3.375035
2002.000000;3.564690
2001.000000;3.466062
2000.000000;3.374781
1999.000000;3.346480
1998.000000;3.715924
1997.000000;3.840505
1996.000000;3.556564
1995.000000;3.723472
1994.000000;3.403746
1993.000000;3.222452
1992.000000;3.199272
1991.000000;3.200673
1990.000000;3.185396
1989.000000;3.143617
1988.000000;3.085809
1987.000000;3.034843
1986.000000;3.026958
1985.000000;3.083107
1984.000000;3.190601
1983.000000;3.296859
1982.000000;3.280011
1981.000000;3.147894
1980.000000;3.083199
1979.000000;3.130116
1978.000000;3.420812
1977.000000;3.861372
1976.000000;3.418596
1975.000000;3.204962
1974.000000;3.178930
1973.000000;3.246326
1972.000000;3.272895
1971.000000;3.202717
1970.000000;3.134797
1969.000000;3.138027
1968.000000;3.235568
1967.000000;3.396639
1966.000000;3.614637
1965.000000;3.929535
1964.000000;4.290689
1963.000000;4.082219
1962.000000;3.827403
1961.000000;3.512372
1960.000000;3.363109
1959.000000;3.398269
1958.000000;3.726777
1957.000000;4.178150
1956.000000;3.666930
1955.000000;3.570710
1954.000000;3.564737
1953.000000;3.835746
1952.000000;3.715333
1951.000000;3.311515
1950.000000;3.170820
1949.000000;3.314995
1948.000000;3.508428
1947.000000;3.377995
1946.000000;3.308657
1945.000000;3.089917
1944.000000;2.913942
1943.000000;2.882958
1942.000000;2.971620
1941.000000;3.150886
1940.000000;3.278249
1939.000000;3.171875
1938.000000;3.055513
1937.000000;3.018282
1936.000000;3.003795
1935.000000;2.996147
1934.000000;2.998854
1933.000000;3.002428
1932.000000;3.101112
1931.000000;3.376038
1930.000000;3.368909
1929.000000;3.204950
1928.000000;3.278276
1927.000000;3.431863
1926.000000;3.515356
1925.000000;3.456887
1924.000000;3.356289
1923.000000;3.201717
1922.000000;3.158172
1921.000000;3.225016
1920.000000;3.909139
1919.000000;3.533234
1918.000000;3.096499
1917.000000;2.993545
1916.000000;2.946698
1915.000000;2.956402
1914.000000;2.995244
1913.000000;2.994959
1912.000000;2.924320
1911.000000;2.872815
1910.000000;2.875154
1909.000000;2.922314
1908.000000;3.048946
1907.000000;3.406161
1906.000000;3.841989
1905.000000;3.351035
1904.000000;3.236745
1903.000000;3.071365
1902.000000;2.930385
1901.000000;2.883793
1900.000000;2.959022
1899.000000;3.164926
1898.000000;3.492080
1897.000000;3.852236
1896.000000;4.046879
1895.000000;3.648830
1894.000000;3.380150
1893.000000;3.243521
1892.000000;3.108938
1891.000000;2.998931
1890.000000;2.973308
1889.000000;3.038904
1888.000000;3.152976
1887.000000;3.326538
1886.000000;3.697609
1885.000000;3.468735
1884.000000;3.256229
1883.000000;3.221077
1882.000000;3.284338
1881.000000;3.385108
1880.000000;3.424068
1879.000000;3.384256
1878.000000;3.256720
1877.000000;3.126522
1876.000000;3.078897
1875.000000;3.131680
1874.000000;3.311174
1873.000000;3.582405
1872.000000;3.536008
1871.000000;3.378284
1870.000000;3.446270
1869.000000;3.621005
1868.000000;3.640995
1867.000000;3.928595
1866.000000;3.907967
1865.000000;3.382191
1864.000000;3.122814
1863.000000;3.001166
1862.000000;2.954696
1861.000000;2.929880
1860.000000;2.915187
1859.000000;2.935558
1858.000000;3.021820
1857.000000;3.228345
1856.000000;3.563433
1855.000000;3.350603
1854.000000;3.233082
1853.000000;3.329640
1852.000000;3.491793
1851.000000;3.308571
1850.000000;3.081497
1849.000000;2.995951
1848.000000;3.033994
1847.000000;3.195655
1846.000000;3.529848
1845.000000;3.476930
1844.000000;3.150256
1843.000000;2.985387
1842.000000;2.875056
1841.000000;2.836609
1840.000000;2.879696
1839.000000;2.988577
1838.000000;3.100541
1837.000000;3.199451
1836.000000;3.332509
1835.000000;3.545433
1834.000000;3.741458
1833.000000;3.702895
1832.000000;3.640151
1831.000000;3.323995
1830.000000;3.226510
1829.000000;3.425245
1828.000000;3.377139
1827.000000;3.063240
1826.000000;2.923005
1825.000000;2.871125
1824.000000;2.881195
1823.000000;2.956411
1822.000000;3.086925
1821.000000;3.176854
1820.000000;3.196341
1819.000000;3.230192
1818.000000;3.274755
1817.000000;3.310413
1816.000000;3.330910
1815.000000;3.278201
1814.000000;3.156530
1813.000000;3.075653
1812.000000;3.067374
1811.000000;3.122298
1810.000000;3.199308
1809.000000;3.214179
1808.000000;3.227606
1807.000000;3.350865
1806.000000;3.537934
1805.000000;3.664539
1804.000000;3.640219
1803.000000;3.228853
1802.000000;3.052988
1801.000000;3.128461
1800.000000;3.379769
1799.000000;3.333409
1798.000000;3.209088
1797.000000;3.290678
1796.000000;3.428243
1795.000000;3.346170
1794.000000;3.205383
1793.000000;3.193524
1792.000000;3.485041
1791.000000;3.838849
1790.000000;3.403690
1789.000000;3.190098
1788.000000;3.063107
1787.000000;3.008439
1786.000000;3.053527
1785.000000;3.151748
1784.000000;3.211982
1783.000000;3.290727
1782.000000;3.293040
1781.000000;3.172633
1780.000000;3.117278
1779.000000;3.186537
1778.000000;3.447686
1777.000000;3.410469
1776.000000;3.245789
1775.000000;3.274433
1774.000000;3.359570
1773.000000;3.454640
1772.000000;3.553181
1771.000000;3.787627
1770.000000;4.141685
1769.000000;3.176338
1768.000000;2.967947
1767.000000;2.980302
1766.000000;3.099316
1765.000000;3.118935
1764.000000;3.035701
1763.000000;3.002530
1762.000000;3.010361
1761.000000;3.001998
1760.000000;2.988453
1759.000000;3.035764
1758.000000;3.265052
1757.000000;3.802521
1756.000000;3.752673
1755.000000;3.512784
1754.000000;3.163224
1753.000000;2.931758
1752.000000;2.915177
1751.000000;3.121108
1750.000000;3.409380
1749.000000;3.085123
1748.000000;2.844426
1747.000000;2.748008
1746.000000;2.774796
1745.000000;2.956546
1744.000000;3.328291
1743.000000;3.784486
1742.000000;3.815816
1741.000000;3.518697
1740.000000;3.299530
1739.000000;3.263173
1738.000000;3.371623
1737.000000;3.582130
1736.000000;3.937766
1735.000000;3.852804
1734.000000;3.647960
1733.000000;3.717676
1732.000000;3.794529
1731.000000;4.026910
1730.000000;3.996305
1729.000000;3.435781
1728.000000;3.228061
1727.000000;3.232200
1726.000000;3.370319
1725.000000;3.499431
1724.000000;3.594119
1723.000000;3.729225
1722.000000;3.482283
1721.000000;3.420663
1720.000000;3.484774
1719.000000;3.504808
1718.000000;3.380449
1717.000000;3.236014
1716.000000;3.142332
1715.000000;3.137357
1714.000000;3.324714
1713.000000;3.744947
1712.000000;3.672620
1711.000000;3.637886
1710.000000;3.614449
1709.000000;3.532491
1708.000000;4.000767
1707.000000;3.795465
1706.000000;3.382971
1705.000000;3.347468
1704.000000;3.420813
1703.000000;3.486368
1702.000000;3.443016
1701.000000;3.405611
1700.000000;3.409807
1699.000000;3.373468
1698.000000;3.262001
1697.000000;3.149659
1696.000000;3.108297
1695.000000;3.095084
1694.000000;3.083123
1693.000000;3.085655
1692.000000;3.110837
1691.000000;3.149738
1690.000000;3.158963
1689.000000;3.156751
1688.000000;3.159688
1687.000000;3.248544
1686.000000;3.564663
1685.000000;3.440843
1684.000000;3.186101
1683.000000;3.155390
1682.000000;3.170515
1681.000000;3.132851
1680.000000;3.103510
1679.000000;3.524678
1678.000000;3.527559
1677.000000;3.182148
1676.000000;3.171555
1675.000000;3.217326
1674.000000;3.225330
1673.000000;3.180427
1672.000000;3.174818
1671.000000;3.243077
1670.000000;3.314150
1669.000000;3.320131
1668.000000;3.318666
1667.000000;3.349579
1666.000000;3.378241
1665.000000;3.354198
1664.000000;3.361979
1663.000000;3.428790
1662.000000;3.372629
1661.000000;3.285570
1660.000000;3.253226
1659.000000;3.344310
1658.000000;3.565771
1657.000000;3.379511
1656.000000;3.175002
1655.000000;3.132227
1654.000000;3.212777
1653.000000;3.385607
1652.000000;3.444799
1651.000000;3.419852
1650.000000;3.445279
1649.000000;3.543229
1648.000000;3.588342
1647.000000;3.531313
1646.000000;3.749687
1645.000000;3.564365
1644.000000;3.289931
1643.000000;3.272502
1642.000000;3.395057
1641.000000;3.728445
1640.000000;3.616328
1639.000000;3.478043
1638.000000;3.513239
1637.000000;3.487947
1636.000000;3.363427
1635.000000;3.198800
1634.000000;3.085368
1633.000000;3.107378
1632.000000;3.538392
1631.000000;3.560453
1630.000000;3.093460
1629.000000;3.042928
1628.000000;3.129305
1627.000000;3.355407
1626.000000;3.395463
1625.000000;3.287976
1624.000000;3.408562
1623.000000;3.612092
1622.000000;3.510661
1621.000000;3.610223
1620.000000;3.510525
1619.000000;3.189831
1618.000000;3.039161
1617.000000;2.970185
1616.000000;2.969293
1615.000000;3.013954
1614.000000;2.972553
1613.000000;2.869643
1612.000000;2.860558
1611.000000;2.950090
1610.000000;3.096570
1609.000000;3.256760
1608.000000;3.282932
1607.000000;3.185742
1606.000000;3.088917
1605.000000;3.078977
1604.000000;3.182283
1603.000000;3.286189
1602.000000;3.265777
1601.000000;3.213575
1600.000000;3.148885
1599.000000;3.049491
1598.000000;2.958981
1597.000000;2.909595
1596.000000;2.910785
1595.000000;2.926600
1594.000000;2.952005
1593.000000;3.015884
1592.000000;3.070009
1591.000000;3.033737
1590.000000;2.921859
1589.000000;2.835336
1588.000000;2.837960
1587.000000;2.979853
1586.000000;3.283469
1585.000000;3.321821
1584.000000;3.325635
1583.000000;3.587986
1582.000000;3.450110
1581.000000;3.305161
1580.000000;3.298005
1579.000000;3.268098
1578.000000;3.156259
1577.000000;3.048016
1576.000000;3.024881
1575.000000;3.026170
1574.000000;3.000253
1573.000000;2.980446
1572.000000;3.019682
1571.000000;3.128607
1570.000000;3.274544
1569.000000;3.392571
1568.000000;3.554880
1567.000000;4.089678
1566.000000;3.717841
1565.000000;3.455467
1564.000000;3.423883
1563.000000;3.557257
1562.000000;3.803250
1561.000000;3.558607
1560.000000;3.363220
1559.000000;3.353592
1558.000000;3.362040
1557.000000;3.301560
1556.000000;3.283461
1555.000000;3.425492
1554.000000;3.389901
1553.000000;3.212883
1552.000000;3.200951
1551.000000;3.237918
1550.000000;3.205678
1549.000000;3.267863
1548.000000;3.560559
1547.000000;3.694747
1546.000000;3.528999
1545.000000;3.404179
1544.000000;3.342671
1543.000000;3.368937
1542.000000;3.389673
1541.000000;3.419321
1540.000000;3.446897
1539.000000;3.328297
1538.000000;3.210186
1537.000000;3.200671
1536.000000;3.195516
1535.000000;3.072403
1534.000000;2.942736
1533.000000;2.928189
1532.000000;3.020921
1531.000000;3.296851
1530.000000;3.940244
1529.000000;3.577179
1528.000000;3.383247
1527.000000;3.748129
1526.000000;4.045596
1525.000000;3.495696
1524.000000;3.372281
1523.000000;3.465431
1522.000000;3.654269
1521.000000;3.172152
1520.000000;2.899233
1519.000000;2.800294
1518.000000;2.765376
1517.000000;2.831356
1516.000000;2.973741
1515.000000;3.017317
1514.000000;2.980881
1513.000000;3.013154
1512.000000;3.163403
1511.000000;3.601041
1510.000000;3.298124
1509.000000;2.960668
1508.000000;2.893749
1507.000000;3.003385
1506.000000;3.183075
1505.000000;3.317551
1504.000000;3.207459
1503.000000;2.935987
1502.000000;2.846595
1501.000000;2.974788
1500.000000;3.236962
1499.000000;3.313422
1498.000000;3.266953
1497.000000;3.313599
1496.000000;3.501286
1495.000000;3.812562
1494.000000;3.425564
1493.000000;3.027203
1492.000000;2.828243
1491.000000;2.790933
1490.000000;2.942586
1489.000000;3.158288
1488.000000;3.211733
1487.000000;3.218038
1486.000000;3.310358
1485.000000;3.410621
1484.000000;3.279695
1483.000000;3.105052
1482.000000;3.020430
1481.000000;3.020163
1480.000000;3.042430
1479.000000;2.999355
1478.000000;2.908404
1477.000000;2.860827
1476.000000;2.900853
1475.000000;2.978053
1474.000000;3.015127
1473.000000;3.002475
1472.000000;2.972218
1471.000000;2.961912
1470.000000;2.993745
1469.000000;3.111363
1468.000000;3.290462
1467.000000;3.325098
1466.000000;3.331276
1465.000000;3.476355
1464.000000;3.485613
1463.000000;3.232642
1462.000000;2.996767
1461.000000;2.851328
1460.000000;2.792136
1459.000000;2.787178
1458.000000;2.836153
1457.000000;2.927837
1456.000000;3.030854
1455.000000;3.098579
1454.000000;2.960657
1453.000000;2.830454
1452.000000;2.891205
1451.000000;3.273657
1450.000000;3.472208
1449.000000;3.040239
1448.000000;2.982970
1447.000000;2.991601
1446.000000;2.927117
1445.000000;2.886395
1444.000000;2.915367
1443.000000;3.077508
1442.000000;3.470008
1441.000000;3.414055
1440.000000;3.247854
1439.000000;3.564023
1438.000000;3.270026
1437.000000;2.967149
1436.000000;2.951231
1435.000000;2.963960
1434.000000;2.889150
1433.000000;2.803252
1432.000000;2.816211
1431.000000;2.950063
1430.000000;3.134616
1429.000000;3.215309
1428.000000;3.160220
1427.000000;2.982216
1426.000000;2.787205
1425.000000;2.689042
1424.000000;2.715117
1423.000000;2.837479
1422.000000;3.051641
1421.000000;3.507199
1420.000000;3.325891
1419.000000;2.930886
1418.000000;2.902757
1417.000000;3.058663
1416.000000;3.415335
1415.000000;3.709285
1414.000000;3.441131
1413.000000;3.384526
1412.000000;3.461972
1411.000000;3.325880
1410.000000;3.329438
1409.000000;3.792357
1408.000000;3.281496
1407.000000;2.949031
1406.000000;2.898509
1405.000000;2.900141
1404.000000;2.887970
1403.000000;2.861294
1402.000000;2.884563
1401.000000;2.972203
1400.000000;3.090894
1399.000000;3.174009
1398.000000;3.216792
1397.000000;3.251133
1396.000000;3.496598
1395.000000;3.897843
1394.000000;3.303829
1393.000000;3.064657
1392.000000;3.008742
1391.000000;3.006473
1390.000000;3.002039
1389.000000;2.999850
1388.000000;3.144635
1387.000000;3.601277
1386.000000;4.237954
1385.000000;3.573558
1384.000000;3.244254
1383.000000;3.089253
1382.000000;2.985250
1381.000000;2.975985
1380.000000;3.115257
1379.000000;3.203332
1378.000000;3.103081
1377.000000;3.036817
1376.000000;3.129161
1375.000000;3.280361
1374.000000;3.003118
1373.000000;2.853470
1372.000000;2.867762
1371.000000;3.086712
1370.000000;3.451422
1369.000000;3.072324
1368.000000;2.921256
1367.000000;2.844700
1366.000000;2.743795
1365.000000;2.688644
1364.000000;2.703164
1363.000000;2.829645
1362.000000;3.109576
1361.000000;3.391450
1360.000000;3.176185
1359.000000;2.938950
1358.000000;2.809377
1357.000000;2.794295
1356.000000;2.877485
1355.000000;2.962388
1354.000000;2.930468
1353.000000;2.844880
1352.000000;2.778012
1351.000000;2.836484
1350.000000;3.056614
1349.000000;2.923854
1348.000000;2.716186
1347.000000;2.685705
1346.000000;2.768719
1345.000000;2.922704
1344.000000;3.119582
1343.000000;3.281843
1342.000000;3.115396
1341.000000;2.989298
1340.000000;2.938412
1339.000000;2.842187
1338.000000;2.871647
1337.000000;2.995268
1336.000000;2.900961
1335.000000;2.753625
1334.000000;2.715722
1333.000000;2.767481
1332.000000;2.892116
1331.000000;3.026749
1330.000000;3.098136
1329.000000;3.077600
1328.000000;2.960583
1327.000000;2.850671
1326.000000;2.811012
1325.000000;2.905030
1324.000000;3.119108
1323.000000;3.449631
1322.000000;3.569285
1321.000000;3.057865
1320.000000;2.918907
1319.000000;3.159411
1318.000000;3.412562
1317.000000;3.131206
1316.000000;3.024372
1315.000000;2.980606
1314.000000;2.959709
1313.000000;3.006985
1312.000000;3.035508
1311.000000;3.032185
1310.000000;3.012086
1309.000000;3.003353
1308.000000;2.979423
1307.000000;2.946360
1306.000000;2.961988
1305.000000;3.066250
1304.000000;3.283735
1303.000000;3.408807
1302.000000;3.193024
1301.000000;3.060202
1300.000000;3.069195
1299.000000;3.052476
1298.000000;2.926075
1297.000000;2.775211
1296.000000;2.685031
1295.000000;2.696846
1294.000000;2.833588
1293.000000;3.081459
1292.000000;3.261503
1291.000000;3.371104
1290.000000;3.461120
1289.000000;3.386972
1288.000000;3.395330
1287.000000;3.342903
1286.000000;3.150572
1285.000000;2.979382
1284.000000;2.879844
1283.000000;2.841077
1282.000000;2.895832
1281.000000;3.053280
1280.000000;3.043380
1279.000000;2.969713
1278.000000;3.050824
1277.000000;3.161182
1276.000000;3.200386
1275.000000;3.190708
1274.000000;3.214721
1273.000000;3.312777
1272.000000;3.195525
1271.000000;2.934094
1270.000000;2.796521
1269.000000;2.813945
1268.000000;2.957778
1267.000000;3.126034
1266.000000;3.164129
1265.000000;3.234738
1264.000000;3.525525
1263.000000;3.492476
1262.000000;3.206339
1261.000000;3.090958
1260.000000;3.081870
1259.000000;3.110499
1258.000000;3.097689
1257.000000;3.070693
1256.000000;3.208153
1255.000000;3.520709
1254.000000;3.425551
1253.000000;3.253874
1252.000000;3.249866
1251.000000;3.210289
1250.000000;3.304632
1249.000000;3.681718
1248.000000;3.245053
1247.000000;2.975419
1246.000000;3.018556
1245.000000;3.141453
1244.000000;3.159949
1243.000000;3.125363
1242.000000;3.191439
1241.000000;3.333270
1240.000000;3.425989
1239.000000;3.386137
1238.000000;3.263726
1237.000000;3.164676
1236.000000;3.058898
1235.000000;2.935495
1234.000000;2.866816
1233.000000;2.850678
1232.000000;2.852981
1231.000000;2.833782
1230.000000;2.777651
1229.000000;2.790424
1228.000000;3.030530
1227.000000;3.327458
1226.000000;3.066837
1225.000000;2.934771
1224.000000;2.931061
1223.000000;3.052628
1222.000000;3.287323
1221.000000;3.067342
1220.000000;2.872332
1219.000000;2.908477
1218.000000;3.042555
1217.000000;3.040464
1216.000000;2.973574
1215.000000;2.931337
1214.000000;2.853073
1213.000000;2.825382
1212.000000;2.850408
1211.000000;2.817190
1210.000000;2.754094
1209.000000;2.729805
1208.000000;2.727161
1207.000000;2.736822
1206.000000;2.781512
1205.000000;2.891533
1204.000000;3.027460
1203.000000;3.205881
1202.000000;3.382337
1201.000000;3.244407
1200.000000;3.079872
