Criado como novo conjunto de dados;"e2410_daniel_v2.spp","49684.6 Secs"
cm-1;Abs
10000.000000;0.914340
9999.000000;0.913236
9998.000000;0.912139
9997.000000;0.911039
9996.000000;0.909953
9995.000000;0.908846
9994.000000;0.907822
9993.000000;0.907269
9992.000000;0.907124
9991.000000;0.906985
9990.000000;0.906795
9989.000000;0.906672
9988.000000;0.906375
9987.000000;0.905585
9986.000000;0.904502
9985.000000;0.903581
9984.000000;0.902858
9983.000000;0.902123
9982.000000;0.901471
9981.000000;0.901124
9980.000000;0.900929
9979.000000;0.900586
9978.000000;0.900140
9977.000000;0.899715
9976.000000;0.899078
9975.000000;0.898060
9974.000000;0.897103
9973.000000;0.896749
9972.000000;0.896887
9971.000000;0.897031
9970.000000;0.897032
9969.000000;0.896931
9968.000000;0.896515
9967.000000;0.895666
9966.000000;0.894807
9965.000000;0.894355
9964.000000;0.894058
9963.000000;0.893504
9962.000000;0.892869
9961.000000;0.892477
9960.000000;0.892068
9959.000000;0.891262
9958.000000;0.890374
9957.000000;0.889954
9956.000000;0.889850
9955.000000;0.889501
9954.000000;0.888842
9953.000000;0.888146
9952.000000;0.887298
9951.000000;0.886085
9950.000000;0.884920
9949.000000;0.884408
9948.000000;0.884399
9947.000000;0.884274
9946.000000;0.883944
9945.000000;0.883741
9944.000000;0.883524
9943.000000;0.882804
9942.000000;0.881651
9941.000000;0.880653
9940.000000;0.880030
9939.000000;0.879501
9938.000000;0.878960
9937.000000;0.878568
9936.000000;0.878269
9935.000000;0.877852
9934.000000;0.877434
9933.000000;0.877277
9932.000000;0.877243
9931.000000;0.877014
9930.000000;0.876641
9929.000000;0.876294
9928.000000;0.875759
9927.000000;0.874838
9926.000000;0.873950
9925.000000;0.873616
9924.000000;0.873598
9923.000000;0.873295
9922.000000;0.872707
9921.000000;0.872244
9920.000000;0.871836
9919.000000;0.871099
9918.000000;0.870193
9917.000000;0.869641
9916.000000;0.869385
9915.000000;0.868876
9914.000000;0.868061
9913.000000;0.867495
9912.000000;0.867451
9911.000000;0.867636
9910.000000;0.867763
9909.000000;0.867730
9908.000000;0.867301
9907.000000;0.866302
9906.000000;0.865147
9905.000000;0.864493
9904.000000;0.864351
9903.000000;0.864129
9902.000000;0.863536
9901.000000;0.862847
9900.000000;0.862302
9899.000000;0.861830
9898.000000;0.861355
9897.000000;0.860828
9896.000000;0.860036
9895.000000;0.858872
9894.000000;0.857714
9893.000000;0.857025
9892.000000;0.856715
9891.000000;0.856364
9890.000000;0.855919
9889.000000;0.855634
9888.000000;0.855503
9887.000000;0.855284
9886.000000;0.854953
9885.000000;0.854613
9884.000000;0.854122
9883.000000;0.853339
9882.000000;0.852535
9881.000000;0.852027
9880.000000;0.851626
9879.000000;0.850974
9878.000000;0.850205
9877.000000;0.849726
9876.000000;0.849567
9875.000000;0.849473
9874.000000;0.849373
9873.000000;0.849217
9872.000000;0.848643
9871.000000;0.847452
9870.000000;0.846182
9869.000000;0.845526
9868.000000;0.845433
9867.000000;0.845376
9866.000000;0.845228
9865.000000;0.845196
9864.000000;0.845136
9863.000000;0.844684
9862.000000;0.843945
9861.000000;0.843335
9860.000000;0.842821
9859.000000;0.841994
9858.000000;0.840817
9857.000000;0.839701
9856.000000;0.838887
9855.000000;0.838301
9854.000000;0.837955
9853.000000;0.837940
9852.000000;0.838090
9851.000000;0.838105
9850.000000;0.837912
9849.000000;0.837556
9848.000000;0.836947
9847.000000;0.836116
9846.000000;0.835406
9845.000000;0.834978
9844.000000;0.834462
9843.000000;0.833589
9842.000000;0.832780
9841.000000;0.832531
9840.000000;0.832609
9839.000000;0.832488
9838.000000;0.832197
9837.000000;0.832051
9836.000000;0.831898
9835.000000;0.831371
9834.000000;0.830639
9833.000000;0.830145
9832.000000;0.829819
9831.000000;0.829282
9830.000000;0.828615
9829.000000;0.828225
9828.000000;0.828083
9827.000000;0.827748
9826.000000;0.827045
9825.000000;0.826136
9824.000000;0.825100
9823.000000;0.824026
9822.000000;0.823281
9821.000000;0.823074
9820.000000;0.822985
9819.000000;0.822517
9818.000000;0.821875
9817.000000;0.821559
9816.000000;0.821471
9815.000000;0.821133
9814.000000;0.820547
9813.000000;0.820076
9812.000000;0.819675
9811.000000;0.819005
9810.000000;0.818167
9809.000000;0.817596
9808.000000;0.817291
9807.000000;0.816833
9806.000000;0.816096
9805.000000;0.815348
9804.000000;0.814709
9803.000000;0.814096
9802.000000;0.813583
9801.000000;0.813305
9800.000000;0.813124
9799.000000;0.812896
9798.000000;0.812823
9797.000000;0.812995
9796.000000;0.812884
9795.000000;0.811946
9794.000000;0.810520
9793.000000;0.809425
9792.000000;0.808871
9791.000000;0.808438
9790.000000;0.807930
9789.000000;0.807549
9788.000000;0.807351
9787.000000;0.807202
9786.000000;0.807158
9785.000000;0.807297
9784.000000;0.807287
9783.000000;0.806739
9782.000000;0.805859
9781.000000;0.805157
9780.000000;0.804694
9779.000000;0.804186
9778.000000;0.803646
9777.000000;0.803273
9776.000000;0.802885
9775.000000;0.802131
9774.000000;0.801155
9773.000000;0.800427
9772.000000;0.800057
9771.000000;0.799855
9770.000000;0.799862
9769.000000;0.800170
9768.000000;0.800409
9767.000000;0.800079
9766.000000;0.799291
9765.000000;0.798555
9764.000000;0.797997
9763.000000;0.797374
9762.000000;0.796674
9761.000000;0.796048
9760.000000;0.795320
9759.000000;0.794254
9758.000000;0.793143
9757.000000;0.792485
9756.000000;0.792212
9755.000000;0.791893
9754.000000;0.791521
9753.000000;0.791402
9752.000000;0.791412
9751.000000;0.791108
9750.000000;0.790502
9749.000000;0.790045
9748.000000;0.789855
9747.000000;0.789626
9746.000000;0.789247
9745.000000;0.788862
9744.000000;0.788383
9743.000000;0.787605
9742.000000;0.786770
9741.000000;0.786384
9740.000000;0.786435
9739.000000;0.786401
9738.000000;0.786039
9737.000000;0.785593
9736.000000;0.785226
9735.000000;0.784797
9734.000000;0.784228
9733.000000;0.783587
9732.000000;0.782820
9731.000000;0.781888
9730.000000;0.781070
9729.000000;0.780669
9728.000000;0.780494
9727.000000;0.780140
9726.000000;0.779615
9725.000000;0.779208
9724.000000;0.778891
9723.000000;0.778444
9722.000000;0.778012
9721.000000;0.777901
9720.000000;0.777895
9719.000000;0.777430
9718.000000;0.776422
9717.000000;0.775349
9716.000000;0.774526
9715.000000;0.773869
9714.000000;0.773366
9713.000000;0.773193
9712.000000;0.773286
9711.000000;0.773296
9710.000000;0.773026
9709.000000;0.772542
9708.000000;0.771879
9707.000000;0.771019
9706.000000;0.770106
9705.000000;0.769314
9704.000000;0.768595
9703.000000;0.767927
9702.000000;0.767597
9701.000000;0.767816
9700.000000;0.768201
9699.000000;0.768128
9698.000000;0.767485
9697.000000;0.766650
9696.000000;0.765901
9695.000000;0.765297
9694.000000;0.764936
9693.000000;0.764844
9692.000000;0.764732
9691.000000;0.764325
9690.000000;0.763763
9689.000000;0.763264
9688.000000;0.762666
9687.000000;0.761771
9686.000000;0.760896
9685.000000;0.760489
9684.000000;0.760411
9683.000000;0.760152
9682.000000;0.759611
9681.000000;0.759106
9680.000000;0.758754
9679.000000;0.758406
9678.000000;0.758057
9677.000000;0.757787
9676.000000;0.757443
9675.000000;0.756881
9674.000000;0.756390
9673.000000;0.756354
9672.000000;0.756623
9671.000000;0.756712
9670.000000;0.756454
9669.000000;0.755970
9668.000000;0.755219
9667.000000;0.754145
9666.000000;0.753086
9665.000000;0.752450
9664.000000;0.752104
9663.000000;0.751622
9662.000000;0.751001
9661.000000;0.750584
9660.000000;0.750400
9659.000000;0.750158
9658.000000;0.749790
9657.000000;0.749426
9656.000000;0.748951
9655.000000;0.748163
9654.000000;0.747295
9653.000000;0.746824
9652.000000;0.746776
9651.000000;0.746749
9650.000000;0.746537
9649.000000;0.746242
9648.000000;0.745836
9647.000000;0.745144
9646.000000;0.744283
9645.000000;0.743618
9644.000000;0.743250
9643.000000;0.742957
9642.000000;0.742593
9641.000000;0.742214
9640.000000;0.741846
9639.000000;0.741485
9638.000000;0.741204
9637.000000;0.740970
9636.000000;0.740539
9635.000000;0.739865
9634.000000;0.739347
9633.000000;0.739264
9632.000000;0.739252
9631.000000;0.738800
9630.000000;0.738018
9629.000000;0.737387
9628.000000;0.737015
9627.000000;0.736652
9626.000000;0.736253
9625.000000;0.735943
9624.000000;0.735583
9623.000000;0.734940
9622.000000;0.734194
9621.000000;0.733760
9620.000000;0.733689
9619.000000;0.733657
9618.000000;0.733452
9617.000000;0.733036
9616.000000;0.732334
9615.000000;0.731417
9614.000000;0.730713
9613.000000;0.730541
9612.000000;0.730602
9611.000000;0.730389
9610.000000;0.729877
9609.000000;0.729364
9608.000000;0.728869
9607.000000;0.728260
9606.000000;0.727730
9605.000000;0.727533
9604.000000;0.727413
9603.000000;0.726903
9602.000000;0.726096
9601.000000;0.725518
9600.000000;0.725308
9599.000000;0.725077
9598.000000;0.724567
9597.000000;0.723915
9596.000000;0.723275
9595.000000;0.722663
9594.000000;0.722172
9593.000000;0.721917
9592.000000;0.721761
9591.000000;0.721483
9590.000000;0.721149
9589.000000;0.720956
9588.000000;0.720807
9587.000000;0.720417
9586.000000;0.719750
9585.000000;0.718983
9584.000000;0.718187
9583.000000;0.717397
9582.000000;0.716821
9581.000000;0.716624
9580.000000;0.716625
9579.000000;0.716559
9578.000000;0.716444
9577.000000;0.716338
9576.000000;0.716041
9575.000000;0.715420
9574.000000;0.714775
9573.000000;0.714418
9572.000000;0.714173
9571.000000;0.713738
9570.000000;0.713245
9569.000000;0.712944
9568.000000;0.712614
9567.000000;0.711884
9566.000000;0.710922
9565.000000;0.710222
9564.000000;0.709875
9563.000000;0.709614
9562.000000;0.709421
9561.000000;0.709512
9560.000000;0.709787
9559.000000;0.709843
9558.000000;0.709515
9557.000000;0.708952
9556.000000;0.708255
9555.000000;0.707474
9554.000000;0.706852
9553.000000;0.706584
9552.000000;0.706438
9551.000000;0.706029
9550.000000;0.705378
9549.000000;0.704788
9548.000000;0.704322
9547.000000;0.703828
9546.000000;0.703330
9545.000000;0.702945
9544.000000;0.702558
9543.000000;0.702005
9542.000000;0.701437
9541.000000;0.701064
9540.000000;0.700729
9539.000000;0.700188
9538.000000;0.699634
9537.000000;0.699447
9536.000000;0.699582
9535.000000;0.699648
9534.000000;0.699494
9533.000000;0.699249
9532.000000;0.698915
9531.000000;0.698390
9530.000000;0.697798
9529.000000;0.697368
9528.000000;0.697068
9527.000000;0.696721
9526.000000;0.696362
9525.000000;0.696113
9524.000000;0.695876
9523.000000;0.695500
9522.000000;0.695051
9521.000000;0.694586
9520.000000;0.693909
9519.000000;0.692941
9518.000000;0.692051
9517.000000;0.691574
9516.000000;0.691282
9515.000000;0.690816
9514.000000;0.690340
9513.000000;0.690241
9512.000000;0.690425
9511.000000;0.690467
9510.000000;0.690244
9509.000000;0.689886
9508.000000;0.689324
9507.000000;0.688476
9506.000000;0.687717
9505.000000;0.687518
9504.000000;0.687718
9503.000000;0.687697
9502.000000;0.687205
9501.000000;0.686509
9500.000000;0.685823
9499.000000;0.685138
9498.000000;0.684568
9497.000000;0.684305
9496.000000;0.684222
9495.000000;0.683980
9494.000000;0.683524
9493.000000;0.683062
9492.000000;0.682637
9491.000000;0.682137
9490.000000;0.681667
9489.000000;0.681449
9488.000000;0.681407
9487.000000;0.681235
9486.000000;0.680856
9485.000000;0.680442
9484.000000;0.680074
9483.000000;0.679740
9482.000000;0.679545
9481.000000;0.679538
9480.000000;0.679447
9479.000000;0.678965
9478.000000;0.678212
9477.000000;0.677555
9476.000000;0.677104
9475.000000;0.676710
9474.000000;0.676296
9473.000000;0.675838
9472.000000;0.675226
9471.000000;0.674513
9470.000000;0.674101
9469.000000;0.674231
9468.000000;0.674493
9467.000000;0.674289
9466.000000;0.673642
9465.000000;0.673100
9464.000000;0.672935
9463.000000;0.672886
9462.000000;0.672587
9461.000000;0.671864
9460.000000;0.670727
9459.000000;0.669448
9458.000000;0.668537
9457.000000;0.668288
9456.000000;0.668419
9455.000000;0.668447
9454.000000;0.668228
9453.000000;0.667895
9452.000000;0.667501
9451.000000;0.667103
9450.000000;0.666929
9449.000000;0.667052
9448.000000;0.667132
9447.000000;0.666852
9446.000000;0.666363
9445.000000;0.665937
9444.000000;0.665486
9443.000000;0.664863
9442.000000;0.664327
9441.000000;0.664173
9440.000000;0.664154
9439.000000;0.663824
9438.000000;0.663272
9437.000000;0.662950
9436.000000;0.662906
9435.000000;0.662740
9434.000000;0.662244
9433.000000;0.661592
9432.000000;0.660948
9431.000000;0.660346
9430.000000;0.659906
9429.000000;0.659761
9428.000000;0.659814
9427.000000;0.659869
9426.000000;0.659907
9425.000000;0.659911
9424.000000;0.659643
9423.000000;0.658954
9422.000000;0.658118
9421.000000;0.657472
9420.000000;0.656954
9419.000000;0.656354
9418.000000;0.655790
9417.000000;0.655476
9416.000000;0.655258
9415.000000;0.654850
9414.000000;0.654343
9413.000000;0.654041
9412.000000;0.653946
9411.000000;0.653853
9410.000000;0.653772
9409.000000;0.653800
9408.000000;0.653755
9407.000000;0.653377
9406.000000;0.652745
9405.000000;0.652099
9404.000000;0.651459
9403.000000;0.650829
9402.000000;0.650516
9401.000000;0.650716
9400.000000;0.651012
9399.000000;0.650813
9398.000000;0.650176
9397.000000;0.649652
9396.000000;0.649465
9395.000000;0.649358
9394.000000;0.649121
9393.000000;0.648762
9392.000000;0.648238
9391.000000;0.647513
9390.000000;0.646836
9389.000000;0.646473
9388.000000;0.646259
9387.000000;0.645851
9386.000000;0.645316
9385.000000;0.645000
9384.000000;0.644887
9383.000000;0.644591
9382.000000;0.643983
9381.000000;0.643365
9380.000000;0.642998
9379.000000;0.642844
9378.000000;0.642773
9377.000000;0.642696
9376.000000;0.642520
9375.000000;0.642259
9374.000000;0.642132
9373.000000;0.642258
9372.000000;0.642380
9371.000000;0.642166
9370.000000;0.641656
9369.000000;0.641108
9368.000000;0.640597
9367.000000;0.640102
9366.000000;0.639773
9365.000000;0.639715
9364.000000;0.639679
9363.000000;0.639340
9362.000000;0.638754
9361.000000;0.638171
9360.000000;0.637602
9359.000000;0.636949
9358.000000;0.636364
9357.000000;0.636031
9356.000000;0.635774
9355.000000;0.635308
9354.000000;0.634748
9353.000000;0.634435
9352.000000;0.634387
9351.000000;0.634330
9350.000000;0.634152
9349.000000;0.633929
9348.000000;0.633621
9347.000000;0.633153
9346.000000;0.632692
9345.000000;0.632472
9344.000000;0.632412
9343.000000;0.632243
9342.000000;0.631893
9341.000000;0.631444
9340.000000;0.630896
9339.000000;0.630288
9338.000000;0.629871
9337.000000;0.629776
9336.000000;0.629719
9335.000000;0.629392
9334.000000;0.628955
9333.000000;0.628731
9332.000000;0.628648
9331.000000;0.628420
9330.000000;0.628079
9329.000000;0.627849
9328.000000;0.627657
9327.000000;0.627258
9326.000000;0.626736
9325.000000;0.626399
9324.000000;0.626259
9323.000000;0.626051
9322.000000;0.625715
9321.000000;0.625420
9320.000000;0.625177
9319.000000;0.624843
9318.000000;0.624441
9317.000000;0.624099
9316.000000;0.623731
9315.000000;0.623163
9314.000000;0.622529
9313.000000;0.622190
9312.000000;0.622276
9311.000000;0.622579
9310.000000;0.622824
9309.000000;0.622792
9308.000000;0.622325
9307.000000;0.621509
9306.000000;0.620737
9305.000000;0.620316
9304.000000;0.620128
9303.000000;0.619927
9302.000000;0.619729
9301.000000;0.619630
9300.000000;0.619496
9299.000000;0.619180
9298.000000;0.618827
9297.000000;0.618600
9296.000000;0.618317
9295.000000;0.617767
9294.000000;0.617160
9293.000000;0.616846
9292.000000;0.616787
9291.000000;0.616703
9290.000000;0.616557
9289.000000;0.616460
9288.000000;0.616291
9287.000000;0.615850
9286.000000;0.615266
9285.000000;0.614811
9284.000000;0.614473
9283.000000;0.614080
9282.000000;0.613709
9281.000000;0.613524
9280.000000;0.613372
9279.000000;0.612991
9278.000000;0.612493
9277.000000;0.612217
9276.000000;0.612194
9275.000000;0.612192
9274.000000;0.612160
9273.000000;0.612201
9272.000000;0.612195
9271.000000;0.611909
9270.000000;0.611418
9269.000000;0.611004
9268.000000;0.610674
9267.000000;0.610182
9266.000000;0.609511
9265.000000;0.608941
9264.000000;0.608642
9263.000000;0.608517
9262.000000;0.608450
9261.000000;0.608407
9260.000000;0.608316
9259.000000;0.608120
9258.000000;0.607912
9257.000000;0.607781
9256.000000;0.607613
9255.000000;0.607251
9254.000000;0.606760
9253.000000;0.606294
9252.000000;0.605867
9251.000000;0.605472
9250.000000;0.605233
9249.000000;0.605166
9248.000000;0.605001
9247.000000;0.604514
9246.000000;0.603854
9245.000000;0.603284
9244.000000;0.602822
9243.000000;0.602407
9242.000000;0.602166
9241.000000;0.602167
9240.000000;0.602153
9239.000000;0.601888
9238.000000;0.601553
9237.000000;0.601440
9236.000000;0.601447
9235.000000;0.601268
9234.000000;0.600884
9233.000000;0.600495
9232.000000;0.600150
9231.000000;0.599807
9230.000000;0.599562
9229.000000;0.599465
9228.000000;0.599283
9227.000000;0.598833
9226.000000;0.598353
9225.000000;0.598162
9224.000000;0.598151
9223.000000;0.598000
9222.000000;0.597708
9221.000000;0.597480
9220.000000;0.597264
9219.000000;0.596860
9218.000000;0.596356
9217.000000;0.596016
9216.000000;0.595817
9215.000000;0.595525
9214.000000;0.595157
9213.000000;0.594947
9212.000000;0.594917
9211.000000;0.594832
9210.000000;0.594573
9209.000000;0.594235
9208.000000;0.593911
9207.000000;0.593644
9206.000000;0.593515
9205.000000;0.593522
9204.000000;0.593478
9203.000000;0.593278
9202.000000;0.593079
9201.000000;0.592976
9200.000000;0.592725
9199.000000;0.592097
9198.000000;0.591314
9197.000000;0.590796
9196.000000;0.590638
9195.000000;0.590641
9194.000000;0.590651
9193.000000;0.590554
9192.000000;0.590160
9191.000000;0.589457
9190.000000;0.588793
9189.000000;0.588461
9188.000000;0.588305
9187.000000;0.588077
9186.000000;0.587919
9185.000000;0.588057
9184.000000;0.588270
9183.000000;0.588138
9182.000000;0.587683
9181.000000;0.587285
9180.000000;0.587073
9179.000000;0.586871
9178.000000;0.586631
9177.000000;0.586461
9176.000000;0.586259
9175.000000;0.585776
9174.000000;0.585060
9173.000000;0.584463
9172.000000;0.584200
9171.000000;0.584197
9170.000000;0.584348
9169.000000;0.584594
9168.000000;0.584784
9167.000000;0.584744
9166.000000;0.584473
9165.000000;0.584078
9164.000000;0.583609
9163.000000;0.583141
9162.000000;0.582854
9161.000000;0.582786
9160.000000;0.582678
9159.000000;0.582326
9158.000000;0.581912
9157.000000;0.581709
9156.000000;0.581658
9155.000000;0.581561
9154.000000;0.581465
9153.000000;0.581494
9152.000000;0.581493
9151.000000;0.581220
9150.000000;0.580763
9149.000000;0.580415
9148.000000;0.580234
9147.000000;0.580080
9146.000000;0.579920
9145.000000;0.579766
9144.000000;0.579441
9143.000000;0.578799
9142.000000;0.578075
9141.000000;0.577664
9140.000000;0.577609
9139.000000;0.577622
9138.000000;0.577514
9137.000000;0.577301
9136.000000;0.576997
9135.000000;0.576616
9134.000000;0.576288
9133.000000;0.576096
9132.000000;0.575900
9131.000000;0.575593
9130.000000;0.575378
9129.000000;0.575504
9128.000000;0.575830
9127.000000;0.575963
9126.000000;0.575723
9125.000000;0.575201
9124.000000;0.574522
9123.000000;0.573833
9122.000000;0.573388
9121.000000;0.573306
9120.000000;0.573343
9119.000000;0.573185
9118.000000;0.572868
9117.000000;0.572658
9116.000000;0.572629
9115.000000;0.572634
9114.000000;0.572567
9113.000000;0.572390
9112.000000;0.572042
9111.000000;0.571571
9110.000000;0.571221
9109.000000;0.571135
9108.000000;0.571112
9107.000000;0.570899
9106.000000;0.570560
9105.000000;0.570302
9104.000000;0.570122
9103.000000;0.569899
9102.000000;0.569652
9101.000000;0.569463
9100.000000;0.569295
9099.000000;0.569148
9098.000000;0.569171
9097.000000;0.569357
9096.000000;0.569358
9095.000000;0.568911
9094.000000;0.568271
9093.000000;0.567881
9092.000000;0.567819
9091.000000;0.567849
9090.000000;0.567845
9089.000000;0.567835
9088.000000;0.567774
9087.000000;0.567598
9086.000000;0.567373
9085.000000;0.567152
9084.000000;0.566817
9083.000000;0.566320
9082.000000;0.565858
9081.000000;0.565559
9080.000000;0.565209
9079.000000;0.564593
9078.000000;0.563894
9077.000000;0.563449
9076.000000;0.563299
9075.000000;0.563287
9074.000000;0.563370
9073.000000;0.563523
9072.000000;0.563528
9071.000000;0.563200
9070.000000;0.562693
9069.000000;0.562278
9068.000000;0.561986
9067.000000;0.561732
9066.000000;0.561583
9065.000000;0.561606
9064.000000;0.561646
9063.000000;0.561558
9062.000000;0.561461
9061.000000;0.561468
9060.000000;0.561387
9059.000000;0.561009
9058.000000;0.560497
9057.000000;0.560166
9056.000000;0.560050
9055.000000;0.559990
9054.000000;0.559942
9053.000000;0.559881
9052.000000;0.559642
9051.000000;0.559179
9050.000000;0.558796
9049.000000;0.558768
9048.000000;0.558918
9047.000000;0.558892
9046.000000;0.558665
9045.000000;0.558439
9044.000000;0.558259
9043.000000;0.558059
9042.000000;0.557911
9041.000000;0.557868
9040.000000;0.557741
9039.000000;0.557358
9038.000000;0.556895
9037.000000;0.556624
9036.000000;0.556517
9035.000000;0.556389
9034.000000;0.556238
9033.000000;0.556133
9032.000000;0.555969
9031.000000;0.555667
9030.000000;0.555414
9029.000000;0.555360
9028.000000;0.555310
9027.000000;0.555052
9026.000000;0.554761
9025.000000;0.554692
9024.000000;0.554698
9023.000000;0.554459
9022.000000;0.554015
9021.000000;0.553654
9020.000000;0.553417
9019.000000;0.553135
9018.000000;0.552821
9017.000000;0.552653
9016.000000;0.552634
9015.000000;0.552611
9014.000000;0.552531
9013.000000;0.552385
9012.000000;0.552057
9011.000000;0.551550
9010.000000;0.551187
9009.000000;0.551238
9008.000000;0.551495
9007.000000;0.551550
9006.000000;0.551355
9005.000000;0.551149
9004.000000;0.551005
9003.000000;0.550815
9002.000000;0.550601
9001.000000;0.550476
9000.000000;0.550392
8999.000000;0.550241
8998.000000;0.550112
8997.000000;0.550128
8996.000000;0.550161
8995.000000;0.550000
8994.000000;0.549669
8993.000000;0.549288
8992.000000;0.548791
8991.000000;0.548121
8990.000000;0.547526
8989.000000;0.547302
8988.000000;0.547380
8987.000000;0.547478
8986.000000;0.547532
8985.000000;0.547601
8984.000000;0.547540
8983.000000;0.547141
8982.000000;0.546545
8981.000000;0.546108
8980.000000;0.545942
8979.000000;0.545891
8978.000000;0.545868
8977.000000;0.545899
8976.000000;0.545906
8975.000000;0.545763
8974.000000;0.545538
8973.000000;0.545395
8972.000000;0.545340
8971.000000;0.545290
8970.000000;0.545263
8969.000000;0.545272
8968.000000;0.545182
8967.000000;0.544929
8966.000000;0.544715
8965.000000;0.544704
8964.000000;0.544683
8963.000000;0.544350
8962.000000;0.543771
8961.000000;0.543254
8960.000000;0.542901
8959.000000;0.542604
8958.000000;0.542347
8957.000000;0.542199
8956.000000;0.542114
8955.000000;0.542022
8954.000000;0.542007
8953.000000;0.542122
8952.000000;0.542181
8951.000000;0.542001
8950.000000;0.541712
8949.000000;0.541531
8948.000000;0.541388
8947.000000;0.541075
8946.000000;0.540639
8945.000000;0.540305
8944.000000;0.540149
8943.000000;0.540103
8942.000000;0.540154
8941.000000;0.540258
8940.000000;0.540214
8939.000000;0.539933
8938.000000;0.539669
8937.000000;0.539689
8936.000000;0.539859
8935.000000;0.539856
8934.000000;0.539643
8933.000000;0.539428
8932.000000;0.539283
8931.000000;0.539122
8930.000000;0.538950
8929.000000;0.538822
8928.000000;0.538669
8927.000000;0.538434
8926.000000;0.538253
8925.000000;0.538234
8924.000000;0.538198
8923.000000;0.537942
8922.000000;0.537608
8921.000000;0.537507
8920.000000;0.537672
8919.000000;0.537870
8918.000000;0.537940
8917.000000;0.537854
8916.000000;0.537584
8915.000000;0.537169
8914.000000;0.536805
8913.000000;0.536614
8912.000000;0.536444
8911.000000;0.536142
8910.000000;0.535837
8909.000000;0.535709
8908.000000;0.535659
8907.000000;0.535493
8906.000000;0.535261
8905.000000;0.535136
8904.000000;0.535106
8903.000000;0.535072
8902.000000;0.535087
8901.000000;0.535216
8900.000000;0.535297
8899.000000;0.535134
8898.000000;0.534784
8897.000000;0.534411
8896.000000;0.534020
8895.000000;0.533589
8894.000000;0.533273
8893.000000;0.533175
8892.000000;0.533105
8891.000000;0.532873
8890.000000;0.532655
8889.000000;0.532763
8888.000000;0.533184
8887.000000;0.533624
8886.000000;0.533875
8885.000000;0.533854
8884.000000;0.533470
8883.000000;0.532777
8882.000000;0.532113
8881.000000;0.531777
8880.000000;0.531674
8879.000000;0.531565
8878.000000;0.531481
8877.000000;0.531595
8876.000000;0.531833
8875.000000;0.531954
8874.000000;0.531905
8873.000000;0.531801
8872.000000;0.531661
8871.000000;0.531453
8870.000000;0.531281
8869.000000;0.531255
8868.000000;0.531265
8867.000000;0.531159
8866.000000;0.531012
8865.000000;0.530970
8864.000000;0.530948
8863.000000;0.530774
8862.000000;0.530481
8861.000000;0.530225
8860.000000;0.530031
8859.000000;0.529886
8858.000000;0.529891
8857.000000;0.530077
8856.000000;0.530216
8855.000000;0.530111
8854.000000;0.529906
8853.000000;0.529837
8852.000000;0.529831
8851.000000;0.529647
8850.000000;0.529283
8849.000000;0.528953
8848.000000;0.528764
8847.000000;0.528704
8846.000000;0.528788
8845.000000;0.528987
8844.000000;0.529119
8843.000000;0.529077
8842.000000;0.529011
8841.000000;0.529050
8840.000000;0.529030
8839.000000;0.528785
8838.000000;0.528508
8837.000000;0.528524
8836.000000;0.528814
8835.000000;0.529071
8834.000000;0.529105
8833.000000;0.528941
8832.000000;0.528651
8831.000000;0.528370
8830.000000;0.528325
8829.000000;0.528587
8828.000000;0.528889
8827.000000;0.528929
8826.000000;0.528734
8825.000000;0.528520
8824.000000;0.528363
8823.000000;0.528255
8822.000000;0.528282
8821.000000;0.528455
8820.000000;0.528536
8819.000000;0.528321
8818.000000;0.527972
8817.000000;0.527823
8816.000000;0.528000
8815.000000;0.528433
8814.000000;0.529045
8813.000000;0.529656
8812.000000;0.529917
8811.000000;0.529652
8810.000000;0.529135
8809.000000;0.528752
8808.000000;0.528559
8807.000000;0.528408
8806.000000;0.528298
8805.000000;0.528306
8804.000000;0.528354
8803.000000;0.528348
8802.000000;0.528367
8801.000000;0.528470
8800.000000;0.528469
8799.000000;0.528228
8798.000000;0.527975
8797.000000;0.528008
8796.000000;0.528258
8795.000000;0.528451
8794.000000;0.528576
8793.000000;0.528837
8792.000000;0.529251
8791.000000;0.529610
8790.000000;0.529763
8789.000000;0.529698
8788.000000;0.529450
8787.000000;0.529148
8786.000000;0.529046
8785.000000;0.529241
8784.000000;0.529498
8783.000000;0.529541
8782.000000;0.529382
8781.000000;0.529189
8780.000000;0.529036
8779.000000;0.529000
8778.000000;0.529255
8777.000000;0.529784
8776.000000;0.530229
8775.000000;0.530316
8774.000000;0.530213
8773.000000;0.530206
8772.000000;0.530250
8771.000000;0.530168
8770.000000;0.530071
8769.000000;0.530178
8768.000000;0.530415
8767.000000;0.530542
8766.000000;0.530550
8765.000000;0.530586
8764.000000;0.530620
8763.000000;0.530546
8762.000000;0.530486
8761.000000;0.530663
8760.000000;0.531042
8759.000000;0.531400
8758.000000;0.531658
8757.000000;0.531862
8756.000000;0.531967
8755.000000;0.531926
8754.000000;0.531870
8753.000000;0.531930
8752.000000;0.532009
8751.000000;0.532004
8750.000000;0.532099
8749.000000;0.532524
8748.000000;0.533129
8747.000000;0.533515
8746.000000;0.533525
8745.000000;0.533330
8744.000000;0.533137
8743.000000;0.533078
8742.000000;0.533274
8741.000000;0.533718
8740.000000;0.534152
8739.000000;0.534311
8738.000000;0.534229
8737.000000;0.534099
8736.000000;0.533964
8735.000000;0.533770
8734.000000;0.533608
8733.000000;0.533638
8732.000000;0.533862
8731.000000;0.534163
8730.000000;0.534467
8729.000000;0.534714
8728.000000;0.534817
8727.000000;0.534805
8726.000000;0.534858
8725.000000;0.535036
8724.000000;0.535186
8723.000000;0.535263
8722.000000;0.535484
8721.000000;0.535930
8720.000000;0.536287
8719.000000;0.536247
8718.000000;0.535948
8717.000000;0.535734
8716.000000;0.535704
8715.000000;0.535762
8714.000000;0.535896
8713.000000;0.536102
8712.000000;0.536246
8711.000000;0.536270
8710.000000;0.536350
8709.000000;0.536597
8708.000000;0.536805
8707.000000;0.536774
8706.000000;0.536656
8705.000000;0.536694
8704.000000;0.536832
8703.000000;0.536893
8702.000000;0.536915
8701.000000;0.537021
8700.000000;0.537145
8699.000000;0.537204
8698.000000;0.537340
8697.000000;0.537659
8696.000000;0.537947
8695.000000;0.537941
8694.000000;0.537718
8693.000000;0.537484
8692.000000;0.537222
8691.000000;0.536859
8690.000000;0.536593
8689.000000;0.536647
8688.000000;0.536882
8687.000000;0.536993
8686.000000;0.536985
8685.000000;0.537101
8684.000000;0.537400
8683.000000;0.537729
8682.000000;0.537986
8681.000000;0.538130
8680.000000;0.538050
8679.000000;0.537756
8678.000000;0.537541
8677.000000;0.537652
8676.000000;0.537914
8675.000000;0.537970
8674.000000;0.537754
8673.000000;0.537456
8672.000000;0.537178
8671.000000;0.536935
8670.000000;0.536858
8669.000000;0.537029
8668.000000;0.537232
8667.000000;0.537180
8666.000000;0.536911
8665.000000;0.536703
8664.000000;0.536673
8663.000000;0.536722
8662.000000;0.536775
8661.000000;0.536821
8660.000000;0.536791
8659.000000;0.536635
8658.000000;0.536454
8657.000000;0.536343
8656.000000;0.536230
8655.000000;0.536059
8654.000000;0.535943
8653.000000;0.535950
8652.000000;0.535921
8651.000000;0.535732
8650.000000;0.535553
8649.000000;0.535589
8648.000000;0.535762
8647.000000;0.535875
8646.000000;0.535936
8645.000000;0.536043
8644.000000;0.536133
8643.000000;0.536104
8642.000000;0.536024
8641.000000;0.535980
8640.000000;0.535870
8639.000000;0.535596
8638.000000;0.535300
8637.000000;0.535162
8636.000000;0.535140
8635.000000;0.535120
8634.000000;0.535123
8633.000000;0.535124
8632.000000;0.534917
8631.000000;0.534427
8630.000000;0.533949
8629.000000;0.533779
8628.000000;0.533815
8627.000000;0.533780
8626.000000;0.533647
8625.000000;0.533557
8624.000000;0.533498
8623.000000;0.533386
8622.000000;0.533297
8621.000000;0.533327
8620.000000;0.533371
8619.000000;0.533295
8618.000000;0.533192
8617.000000;0.533198
8616.000000;0.533221
8615.000000;0.533116
8614.000000;0.532945
8613.000000;0.532822
8612.000000;0.532682
8611.000000;0.532445
8610.000000;0.532205
8609.000000;0.531998
8608.000000;0.531635
8607.000000;0.531041
8606.000000;0.530522
8605.000000;0.530391
8604.000000;0.530533
8603.000000;0.530637
8602.000000;0.530654
8601.000000;0.530691
8600.000000;0.530680
8599.000000;0.530505
8598.000000;0.530296
8597.000000;0.530224
8596.000000;0.530158
8595.000000;0.529884
8594.000000;0.529531
8593.000000;0.529398
8592.000000;0.529483
8591.000000;0.529503
8590.000000;0.529325
8589.000000;0.529049
8588.000000;0.528735
8587.000000;0.528356
8586.000000;0.527984
8585.000000;0.527752
8584.000000;0.527666
8583.000000;0.527636
8582.000000;0.527630
8581.000000;0.527615
8580.000000;0.527494
8579.000000;0.527280
8578.000000;0.527169
8577.000000;0.527236
8576.000000;0.527257
8575.000000;0.527044
8574.000000;0.526753
8573.000000;0.526604
8572.000000;0.526532
8571.000000;0.526376
8570.000000;0.526226
8569.000000;0.526243
8568.000000;0.526307
8567.000000;0.526169
8566.000000;0.525845
8565.000000;0.525536
8564.000000;0.525297
8563.000000;0.525070
8562.000000;0.524935
8561.000000;0.525007
8560.000000;0.525158
8559.000000;0.525111
8558.000000;0.524785
8557.000000;0.524322
8556.000000;0.523870
8555.000000;0.523518
8554.000000;0.523366
8553.000000;0.523428
8552.000000;0.523536
8551.000000;0.523508
8550.000000;0.523324
8549.000000;0.523026
8548.000000;0.522621
8547.000000;0.522226
8546.000000;0.522089
8545.000000;0.522281
8544.000000;0.522528
8543.000000;0.522555
8542.000000;0.522403
8541.000000;0.522244
8540.000000;0.522090
8539.000000;0.521879
8538.000000;0.521643
8537.000000;0.521399
8536.000000;0.521055
8535.000000;0.520627
8534.000000;0.520319
8533.000000;0.520211
8532.000000;0.520099
8531.000000;0.519844
8530.000000;0.519613
8529.000000;0.519561
8528.000000;0.519530
8527.000000;0.519331
8526.000000;0.519076
8525.000000;0.518954
8524.000000;0.518914
8523.000000;0.518834
8522.000000;0.518772
8521.000000;0.518775
8520.000000;0.518679
8519.000000;0.518366
8518.000000;0.518011
8517.000000;0.517788
8516.000000;0.517587
8515.000000;0.517278
8514.000000;0.517020
8513.000000;0.516982
8512.000000;0.517000
8511.000000;0.516822
8510.000000;0.516518
8509.000000;0.516306
8508.000000;0.516186
8507.000000;0.516035
8506.000000;0.515903
8505.000000;0.515881
8504.000000;0.515852
8503.000000;0.515690
8502.000000;0.515523
8501.000000;0.515513
8500.000000;0.515538
8499.000000;0.515399
8498.000000;0.515178
8497.000000;0.515059
8496.000000;0.514973
8495.000000;0.514739
8494.000000;0.514403
8493.000000;0.514145
8492.000000;0.513968
8491.000000;0.513780
8490.000000;0.513633
8489.000000;0.513603
8488.000000;0.513553
8487.000000;0.513310
8486.000000;0.512950
8485.000000;0.512653
8484.000000;0.512425
8483.000000;0.512201
8482.000000;0.512057
8481.000000;0.512070
8480.000000;0.512097
8479.000000;0.511967
8478.000000;0.511739
8477.000000;0.511536
8476.000000;0.511317
8475.000000;0.511045
8474.000000;0.510881
8473.000000;0.510920
8472.000000;0.510952
8471.000000;0.510779
8470.000000;0.510570
8469.000000;0.510578
8468.000000;0.510720
8467.000000;0.510744
8466.000000;0.510649
8465.000000;0.510584
8464.000000;0.510491
8463.000000;0.510221
8462.000000;0.509886
8461.000000;0.509720
8460.000000;0.509681
8459.000000;0.509520
8458.000000;0.509196
8457.000000;0.508909
8456.000000;0.508765
8455.000000;0.508697
8454.000000;0.508660
8453.000000;0.508659
8452.000000;0.508628
8451.000000;0.508502
8450.000000;0.508351
8449.000000;0.508248
8448.000000;0.508112
8447.000000;0.507877
8446.000000;0.507670
8445.000000;0.507597
8444.000000;0.507524
8443.000000;0.507295
8442.000000;0.507028
8441.000000;0.506919
8440.000000;0.506916
8439.000000;0.506832
8438.000000;0.506663
8437.000000;0.506522
8436.000000;0.506400
8435.000000;0.506240
8434.000000;0.506120
8433.000000;0.506084
8432.000000;0.505948
8431.000000;0.505545
8430.000000;0.505059
8429.000000;0.504826
8428.000000;0.504877
8427.000000;0.504951
8426.000000;0.504870
8425.000000;0.504666
8424.000000;0.504401
8423.000000;0.504114
8422.000000;0.503883
8421.000000;0.503750
8420.000000;0.503631
8419.000000;0.503465
8418.000000;0.503338
8417.000000;0.503305
8416.000000;0.503241
8415.000000;0.503053
8414.000000;0.502898
8413.000000;0.502956
8412.000000;0.503142
8411.000000;0.503214
8410.000000;0.503073
8409.000000;0.502763
8408.000000;0.502335
8407.000000;0.501896
8406.000000;0.501629
8405.000000;0.501556
8404.000000;0.501453
8403.000000;0.501174
8402.000000;0.500884
8401.000000;0.500756
8400.000000;0.500668
8399.000000;0.500441
8398.000000;0.500191
8397.000000;0.500151
8396.000000;0.500288
8395.000000;0.500354
8394.000000;0.500209
8393.000000;0.499893
8392.000000;0.499480
8391.000000;0.499098
8390.000000;0.498929
8389.000000;0.498991
8388.000000;0.499038
8387.000000;0.498880
8386.000000;0.498644
8385.000000;0.498533
8384.000000;0.498514
8383.000000;0.498454
8382.000000;0.498374
8381.000000;0.498332
8380.000000;0.498233
8379.000000;0.498001
8378.000000;0.497772
8377.000000;0.497685
8376.000000;0.497621
8375.000000;0.497403
8374.000000;0.497075
8373.000000;0.496773
8372.000000;0.496490
8371.000000;0.496215
8370.000000;0.496114
8369.000000;0.496283
8368.000000;0.496486
8367.000000;0.496430
8366.000000;0.496156
8365.000000;0.495901
8364.000000;0.495723
8363.000000;0.495527
8362.000000;0.495335
8361.000000;0.495215
8360.000000;0.495061
8359.000000;0.494724
8358.000000;0.494279
8357.000000;0.493942
8356.000000;0.493771
8355.000000;0.493683
8354.000000;0.493640
8353.000000;0.493621
8352.000000;0.493525
8351.000000;0.493307
8350.000000;0.493094
8349.000000;0.492984
8348.000000;0.492872
8347.000000;0.492652
8346.000000;0.492420
8345.000000;0.492275
8344.000000;0.492086
8343.000000;0.491718
8342.000000;0.491315
8341.000000;0.491109
8340.000000;0.491084
8339.000000;0.491072
8338.000000;0.491048
8337.000000;0.491078
8336.000000;0.491100
8335.000000;0.490999
8334.000000;0.490806
8333.000000;0.490594
8332.000000;0.490320
8331.000000;0.489975
8330.000000;0.489745
8329.000000;0.489769
8328.000000;0.489853
8327.000000;0.489703
8326.000000;0.489315
8325.000000;0.488910
8324.000000;0.488596
8323.000000;0.488341
8322.000000;0.488180
8321.000000;0.488178
8320.000000;0.488240
8319.000000;0.488193
8318.000000;0.488019
8317.000000;0.487828
8316.000000;0.487668
8315.000000;0.487529
8314.000000;0.487432
8313.000000;0.487356
8312.000000;0.487176
8311.000000;0.486845
8310.000000;0.486530
8309.000000;0.486390
8308.000000;0.486339
8307.000000;0.486204
8306.000000;0.485971
8305.000000;0.485716
8304.000000;0.485428
8303.000000;0.485111
8302.000000;0.484905
8301.000000;0.484898
8300.000000;0.484930
8299.000000;0.484792
8298.000000;0.484505
8297.000000;0.484230
8296.000000;0.484024
8295.000000;0.483842
8294.000000;0.483677
8293.000000;0.483512
8292.000000;0.483277
8291.000000;0.482985
8290.000000;0.482802
8289.000000;0.482812
8288.000000;0.482866
8287.000000;0.482807
8286.000000;0.482663
8285.000000;0.482494
8284.000000;0.482228
8283.000000;0.481855
8282.000000;0.481560
8281.000000;0.481475
8280.000000;0.481472
8279.000000;0.481388
8278.000000;0.481264
8277.000000;0.481163
8276.000000;0.480952
8275.000000;0.480518
8274.000000;0.480025
8273.000000;0.479717
8272.000000;0.479596
8271.000000;0.479513
8270.000000;0.479425
8269.000000;0.479351
8268.000000;0.479209
8267.000000;0.478941
8266.000000;0.478680
8265.000000;0.478573
8264.000000;0.478534
8263.000000;0.478364
8262.000000;0.478026
8261.000000;0.477624
8260.000000;0.477228
8259.000000;0.476894
8258.000000;0.476706
8257.000000;0.476639
8256.000000;0.476508
8255.000000;0.476234
8254.000000;0.475994
8253.000000;0.475937
8252.000000;0.475947
8251.000000;0.475856
8250.000000;0.475723
8249.000000;0.475667
8248.000000;0.475608
8247.000000;0.475395
8246.000000;0.475063
8245.000000;0.474748
8244.000000;0.474478
8243.000000;0.474247
8242.000000;0.474137
8241.000000;0.474171
8240.000000;0.474165
8239.000000;0.473943
8238.000000;0.473578
8237.000000;0.473239
8236.000000;0.472946
8235.000000;0.472668
8234.000000;0.472484
8233.000000;0.472454
8232.000000;0.472449
8231.000000;0.472316
8230.000000;0.472087
8229.000000;0.471858
8228.000000;0.471614
8227.000000;0.471341
8226.000000;0.471142
8225.000000;0.471060
8224.000000;0.470953
8223.000000;0.470723
8222.000000;0.470502
8221.000000;0.470432
8220.000000;0.470411
8219.000000;0.470285
8218.000000;0.470081
8217.000000;0.469864
8216.000000;0.469542
8215.000000;0.469054
8214.000000;0.468592
8213.000000;0.468383
8212.000000;0.468372
8211.000000;0.468342
8210.000000;0.468236
8209.000000;0.468123
8208.000000;0.467983
8207.000000;0.467753
8206.000000;0.467507
8205.000000;0.467363
8204.000000;0.467289
8203.000000;0.467167
8202.000000;0.466965
8201.000000;0.466713
8200.000000;0.466407
8199.000000;0.466092
8198.000000;0.465902
8197.000000;0.465859
8196.000000;0.465779
8195.000000;0.465521
8194.000000;0.465178
8193.000000;0.464884
8192.000000;0.464610
8191.000000;0.464312
8190.000000;0.464093
8189.000000;0.464019
8188.000000;0.463950
8187.000000;0.463741
8186.000000;0.463459
8185.000000;0.463234
8184.000000;0.463051
8183.000000;0.462885
8182.000000;0.462841
8181.000000;0.462972
8180.000000;0.463099
8179.000000;0.463023
8178.000000;0.462776
8177.000000;0.462497
8176.000000;0.462216
8175.000000;0.461935
8174.000000;0.461750
8173.000000;0.461683
8172.000000;0.461572
8171.000000;0.461303
8170.000000;0.461003
8169.000000;0.460813
8168.000000;0.460662
8167.000000;0.460450
8166.000000;0.460266
8165.000000;0.460195
8164.000000;0.460097
8163.000000;0.459818
8162.000000;0.459467
8161.000000;0.459261
8160.000000;0.459207
8159.000000;0.459164
8158.000000;0.459074
8157.000000;0.458939
8156.000000;0.458700
8155.000000;0.458340
8154.000000;0.457999
8153.000000;0.457776
8152.000000;0.457580
8151.000000;0.457316
8150.000000;0.457069
8149.000000;0.456919
8148.000000;0.456760
8147.000000;0.456508
8146.000000;0.456303
8145.000000;0.456271
8144.000000;0.456263
8143.000000;0.456072
8142.000000;0.455755
8141.000000;0.455511
8140.000000;0.455354
8139.000000;0.455160
8138.000000;0.454912
8137.000000;0.454674
8136.000000;0.454444
8135.000000;0.454205
8134.000000;0.454039
8133.000000;0.453989
8132.000000;0.453936
8131.000000;0.453789
8130.000000;0.453650
8129.000000;0.453615
8128.000000;0.453558
8127.000000;0.453327
8126.000000;0.452986
8125.000000;0.452675
8124.000000;0.452373
8123.000000;0.452032
8122.000000;0.451767
8121.000000;0.451701
8120.000000;0.451731
8119.000000;0.451676
8118.000000;0.451531
8117.000000;0.451372
8116.000000;0.451153
8115.000000;0.450821
8114.000000;0.450502
8113.000000;0.450332
8112.000000;0.450219
8111.000000;0.449982
8110.000000;0.449629
8109.000000;0.449291
8108.000000;0.448983
8107.000000;0.448651
8106.000000;0.448362
8105.000000;0.448214
8104.000000;0.448142
8103.000000;0.448006
8102.000000;0.447795
8101.000000;0.447588
8100.000000;0.447397
8099.000000;0.447221
8098.000000;0.447137
8097.000000;0.447186
8096.000000;0.447251
8095.000000;0.447206
8094.000000;0.447083
8093.000000;0.446943
8092.000000;0.446727
8091.000000;0.446379
8090.000000;0.445999
8089.000000;0.445706
8088.000000;0.445477
8087.000000;0.445279
8086.000000;0.445178
8085.000000;0.445178
8084.000000;0.445115
8083.000000;0.444881
8082.000000;0.444604
8081.000000;0.444407
8080.000000;0.444183
8079.000000;0.443792
8078.000000;0.443339
8077.000000;0.443018
8076.000000;0.442827
8075.000000;0.442642
8074.000000;0.442451
8073.000000;0.442294
8072.000000;0.442110
8071.000000;0.441848
8070.000000;0.441614
8069.000000;0.441497
8068.000000;0.441388
8067.000000;0.441158
8066.000000;0.440892
8065.000000;0.440732
8064.000000;0.440621
8063.000000;0.440422
8062.000000;0.440169
8061.000000;0.439987
8060.000000;0.439842
8059.000000;0.439627
8058.000000;0.439389
8057.000000;0.439257
8056.000000;0.439223
8055.000000;0.439170
8054.000000;0.439061
8053.000000;0.438915
8052.000000;0.438682
8051.000000;0.438341
8050.000000;0.438023
8049.000000;0.437862
8048.000000;0.437803
8047.000000;0.437708
8046.000000;0.437574
8045.000000;0.437458
8044.000000;0.437297
8043.000000;0.436995
8042.000000;0.436605
8041.000000;0.436261
8040.000000;0.436005
8039.000000;0.435810
8038.000000;0.435695
8037.000000;0.435643
8036.000000;0.435524
8035.000000;0.435258
8034.000000;0.434964
8033.000000;0.434793
8032.000000;0.434714
8031.000000;0.434608
8030.000000;0.434462
8029.000000;0.434321
8028.000000;0.434144
8027.000000;0.433887
8026.000000;0.433621
8025.000000;0.433424
8024.000000;0.433226
8023.000000;0.432941
8022.000000;0.432625
8021.000000;0.432383
8020.000000;0.432195
8019.000000;0.431998
8018.000000;0.431821
8017.000000;0.431690
8016.000000;0.431506
8015.000000;0.431192
8014.000000;0.430852
8013.000000;0.430632
8012.000000;0.430507
8011.000000;0.430353
8010.000000;0.430143
8009.000000;0.429929
8008.000000;0.429723
8007.000000;0.429546
8006.000000;0.429480
8005.000000;0.429535
8004.000000;0.429556
8003.000000;0.429378
8002.000000;0.429025
8001.000000;0.428635
8000.000000;0.428295
7999.000000;0.428049
7998.000000;0.427942
7997.000000;0.427919
7996.000000;0.427803
7995.000000;0.427507
7994.000000;0.427154
7993.000000;0.426909
7992.000000;0.426782
7991.000000;0.426697
7990.000000;0.426617
7989.000000;0.426492
7988.000000;0.426256
7987.000000;0.425966
7986.000000;0.425787
7985.000000;0.425736
7984.000000;0.425598
7983.000000;0.425236
7982.000000;0.424787
7981.000000;0.424416
7980.000000;0.424079
7979.000000;0.423697
7978.000000;0.423380
7977.000000;0.423262
7976.000000;0.423276
7975.000000;0.423273
7974.000000;0.423246
7973.000000;0.423228
7972.000000;0.423140
7971.000000;0.422916
7970.000000;0.422661
7969.000000;0.422486
7968.000000;0.422294
7967.000000;0.421935
7966.000000;0.421469
7965.000000;0.421095
7964.000000;0.420895
7963.000000;0.420825
7962.000000;0.420839
7961.000000;0.420871
7960.000000;0.420776
7959.000000;0.420479
7958.000000;0.420103
7957.000000;0.419806
7956.000000;0.419590
7955.000000;0.419384
7954.000000;0.419195
7953.000000;0.419040
7952.000000;0.418839
7951.000000;0.418534
7950.000000;0.418222
7949.000000;0.418006
7948.000000;0.417839
7947.000000;0.417624
7946.000000;0.417382
7945.000000;0.417176
7944.000000;0.416985
7943.000000;0.416797
7942.000000;0.416690
7941.000000;0.416693
7940.000000;0.416666
7939.000000;0.416475
7938.000000;0.416178
7937.000000;0.415915
7936.000000;0.415715
7935.000000;0.415545
7934.000000;0.415423
7933.000000;0.415333
7932.000000;0.415149
7931.000000;0.414804
7930.000000;0.414427
7929.000000;0.414185
7928.000000;0.414075
7927.000000;0.413985
7926.000000;0.413862
7925.000000;0.413687
7924.000000;0.413412
7923.000000;0.413051
7922.000000;0.412732
7921.000000;0.412539
7920.000000;0.412397
7919.000000;0.412215
7918.000000;0.412022
7917.000000;0.411857
7916.000000;0.411671
7915.000000;0.411457
7914.000000;0.411311
7913.000000;0.411270
7912.000000;0.411209
7911.000000;0.411036
7910.000000;0.410839
7909.000000;0.410711
7908.000000;0.410581
7907.000000;0.410363
7906.000000;0.410118
7905.000000;0.409912
7904.000000;0.409678
7903.000000;0.409351
7902.000000;0.409023
7901.000000;0.408805
7900.000000;0.408655
7899.000000;0.408481
7898.000000;0.408308
7897.000000;0.408191
7896.000000;0.408081
7895.000000;0.407913
7894.000000;0.407705
7893.000000;0.407480
7892.000000;0.407208
7891.000000;0.406933
7890.000000;0.406789
7889.000000;0.406785
7888.000000;0.406731
7887.000000;0.406508
7886.000000;0.406247
7885.000000;0.406099
7884.000000;0.406007
7883.000000;0.405850
7882.000000;0.405655
7881.000000;0.405492
7880.000000;0.405314
7879.000000;0.405064
7878.000000;0.404825
7877.000000;0.404682
7876.000000;0.404576
7875.000000;0.404423
7874.000000;0.404266
7873.000000;0.404155
7872.000000;0.404015
7871.000000;0.403777
7870.000000;0.403522
7869.000000;0.403341
7868.000000;0.403179
7867.000000;0.402963
7866.000000;0.402755
7865.000000;0.402625
7864.000000;0.402502
7863.000000;0.402304
7862.000000;0.402090
7861.000000;0.401938
7860.000000;0.401798
7859.000000;0.401598
7858.000000;0.401381
7857.000000;0.401201
7856.000000;0.400998
7855.000000;0.400715
7854.000000;0.400424
7853.000000;0.400194
7852.000000;0.399983
7851.000000;0.399775
7850.000000;0.399671
7849.000000;0.399696
7848.000000;0.399694
7847.000000;0.399541
7846.000000;0.399332
7845.000000;0.399187
7844.000000;0.399044
7843.000000;0.398815
7842.000000;0.398582
7841.000000;0.398457
7840.000000;0.398370
7839.000000;0.398202
7838.000000;0.398001
7837.000000;0.397885
7836.000000;0.397825
7835.000000;0.397708
7834.000000;0.397525
7833.000000;0.397338
7832.000000;0.397149
7831.000000;0.396955
7830.000000;0.396838
7829.000000;0.396832
7828.000000;0.396809
7827.000000;0.396639
7826.000000;0.396389
7825.000000;0.396206
7824.000000;0.396089
7823.000000;0.395926
7822.000000;0.395671
7821.000000;0.395368
7820.000000;0.395051
7819.000000;0.394764
7818.000000;0.394588
7817.000000;0.394537
7816.000000;0.394517
7815.000000;0.394457
7814.000000;0.394406
7813.000000;0.394401
7812.000000;0.394369
7811.000000;0.394251
7810.000000;0.394091
7809.000000;0.393923
7808.000000;0.393692
7807.000000;0.393389
7806.000000;0.393130
7805.000000;0.392984
7804.000000;0.392870
7803.000000;0.392715
7802.000000;0.392571
7801.000000;0.392471
7800.000000;0.392340
7799.000000;0.392150
7798.000000;0.392005
7797.000000;0.391943
7796.000000;0.391829
7795.000000;0.391584
7794.000000;0.391339
7793.000000;0.391216
7792.000000;0.391122
7791.000000;0.390932
7790.000000;0.390703
7789.000000;0.390557
7788.000000;0.390471
7787.000000;0.390374
7786.000000;0.390296
7785.000000;0.390258
7784.000000;0.390146
7783.000000;0.389865
7782.000000;0.389519
7781.000000;0.389273
7780.000000;0.389138
7779.000000;0.389045
7778.000000;0.388996
7777.000000;0.388994
7776.000000;0.388944
7775.000000;0.388778
7774.000000;0.388584
7773.000000;0.388450
7772.000000;0.388314
7771.000000;0.388100
7770.000000;0.387889
7769.000000;0.387796
7768.000000;0.387777
7767.000000;0.387715
7766.000000;0.387589
7765.000000;0.387419
7764.000000;0.387166
7763.000000;0.386845
7762.000000;0.386610
7761.000000;0.386568
7760.000000;0.386616
7759.000000;0.386600
7758.000000;0.386522
7757.000000;0.386449
7756.000000;0.386353
7755.000000;0.386184
7754.000000;0.386007
7753.000000;0.385900
7752.000000;0.385810
7751.000000;0.385674
7750.000000;0.385556
7749.000000;0.385538
7748.000000;0.385561
7747.000000;0.385522
7746.000000;0.385435
7745.000000;0.385371
7744.000000;0.385312
7743.000000;0.385217
7742.000000;0.385107
7741.000000;0.384979
7740.000000;0.384745
7739.000000;0.384386
7738.000000;0.384060
7737.000000;0.383910
7736.000000;0.383883
7735.000000;0.383866
7734.000000;0.383874
7733.000000;0.383950
7732.000000;0.384000
7731.000000;0.383896
7730.000000;0.383680
7729.000000;0.383493
7728.000000;0.383386
7727.000000;0.383327
7726.000000;0.383311
7725.000000;0.383338
7724.000000;0.383336
7723.000000;0.383247
7722.000000;0.383134
7721.000000;0.383076
7720.000000;0.383044
7719.000000;0.382964
7718.000000;0.382834
7717.000000;0.382689
7716.000000;0.382519
7715.000000;0.382320
7714.000000;0.382139
7713.000000;0.381995
7712.000000;0.381833
7711.000000;0.381645
7710.000000;0.381521
7709.000000;0.381514
7708.000000;0.381554
7707.000000;0.381578
7706.000000;0.381612
7705.000000;0.381662
7704.000000;0.381644
7703.000000;0.381517
7702.000000;0.381371
7701.000000;0.381278
7700.000000;0.381185
7699.000000;0.381052
7698.000000;0.380958
7697.000000;0.380954
7696.000000;0.380959
7695.000000;0.380889
7694.000000;0.380790
7693.000000;0.380734
7692.000000;0.380706
7691.000000;0.380669
7690.000000;0.380638
7689.000000;0.380593
7688.000000;0.380463
7687.000000;0.380267
7686.000000;0.380150
7685.000000;0.380181
7684.000000;0.380268
7683.000000;0.380327
7682.000000;0.380391
7681.000000;0.380472
7680.000000;0.380468
7679.000000;0.380333
7678.000000;0.380167
7677.000000;0.380024
7676.000000;0.379828
7675.000000;0.379558
7674.000000;0.379374
7673.000000;0.379389
7672.000000;0.379493
7671.000000;0.379531
7670.000000;0.379515
7669.000000;0.379519
7668.000000;0.379506
7667.000000;0.379413
7666.000000;0.379293
7665.000000;0.379212
7664.000000;0.379138
7663.000000;0.379037
7662.000000;0.378970
7661.000000;0.378987
7660.000000;0.379032
7659.000000;0.379054
7658.000000;0.379088
7657.000000;0.379128
7656.000000;0.379067
7655.000000;0.378883
7654.000000;0.378723
7653.000000;0.378704
7652.000000;0.378760
7651.000000;0.378794
7650.000000;0.378825
7649.000000;0.378869
7648.000000;0.378850
7647.000000;0.378745
7646.000000;0.378677
7645.000000;0.378737
7644.000000;0.378838
7643.000000;0.378889
7642.000000;0.378941
7641.000000;0.379054
7640.000000;0.379153
7639.000000;0.379156
7638.000000;0.379103
7637.000000;0.379049
7636.000000;0.378963
7635.000000;0.378846
7634.000000;0.378789
7633.000000;0.378806
7632.000000;0.378770
7631.000000;0.378632
7630.000000;0.378550
7629.000000;0.378650
7628.000000;0.378839
7627.000000;0.378980
7626.000000;0.379086
7625.000000;0.379201
7624.000000;0.379261
7623.000000;0.379219
7622.000000;0.379180
7621.000000;0.379238
7620.000000;0.379328
7619.000000;0.379369
7618.000000;0.379408
7617.000000;0.379485
7616.000000;0.379508
7615.000000;0.379422
7614.000000;0.379356
7613.000000;0.379428
7612.000000;0.379547
7611.000000;0.379557
7610.000000;0.379474
7609.000000;0.379409
7608.000000;0.379399
7607.000000;0.379436
7606.000000;0.379551
7605.000000;0.379731
7604.000000;0.379869
7603.000000;0.379923
7602.000000;0.379982
7601.000000;0.380076
7600.000000;0.380074
7599.000000;0.379922
7598.000000;0.379807
7597.000000;0.379916
7596.000000;0.380166
7595.000000;0.380355
7594.000000;0.380445
7593.000000;0.380530
7592.000000;0.380638
7591.000000;0.380744
7590.000000;0.380867
7589.000000;0.381015
7588.000000;0.381110
7587.000000;0.381124
7586.000000;0.381162
7585.000000;0.381299
7584.000000;0.381447
7583.000000;0.381505
7582.000000;0.381523
7581.000000;0.381584
7580.000000;0.381653
7579.000000;0.381680
7578.000000;0.381729
7577.000000;0.381871
7576.000000;0.382069
7575.000000;0.382269
7574.000000;0.382485
7573.000000;0.382692
7572.000000;0.382770
7571.000000;0.382705
7570.000000;0.382685
7569.000000;0.382847
7568.000000;0.383084
7567.000000;0.383223
7566.000000;0.383271
7565.000000;0.383321
7564.000000;0.383354
7563.000000;0.383327
7562.000000;0.383322
7561.000000;0.383452
7560.000000;0.383691
7559.000000;0.383941
7558.000000;0.384170
7557.000000;0.384364
7556.000000;0.384460
7555.000000;0.384449
7554.000000;0.384458
7553.000000;0.384590
7552.000000;0.384793
7551.000000;0.384988
7550.000000;0.385207
7549.000000;0.385469
7548.000000;0.385675
7547.000000;0.385747
7546.000000;0.385769
7545.000000;0.385860
7544.000000;0.386009
7543.000000;0.386163
7542.000000;0.386337
7541.000000;0.386532
7540.000000;0.386663
7539.000000;0.386701
7538.000000;0.386751
7537.000000;0.386893
7536.000000;0.387063
7535.000000;0.387203
7534.000000;0.387394
7533.000000;0.387700
7532.000000;0.388030
7531.000000;0.388282
7530.000000;0.388491
7529.000000;0.388718
7528.000000;0.388908
7527.000000;0.389011
7526.000000;0.389101
7525.000000;0.389262
7524.000000;0.389458
7523.000000;0.389634
7522.000000;0.389829
7521.000000;0.390069
7520.000000;0.390290
7519.000000;0.390466
7518.000000;0.390677
7517.000000;0.390947
7516.000000;0.391171
7515.000000;0.391300
7514.000000;0.391461
7513.000000;0.391740
7512.000000;0.392029
7511.000000;0.392210
7510.000000;0.392348
7509.000000;0.392550
7508.000000;0.392771
7507.000000;0.392930
7506.000000;0.393073
7505.000000;0.393267
7504.000000;0.393463
7503.000000;0.393584
7502.000000;0.393676
7501.000000;0.393827
7500.000000;0.394042
7499.000000;0.394302
7498.000000;0.394616
7497.000000;0.394952
7496.000000;0.395202
7495.000000;0.395393
7494.000000;0.395611
7493.000000;0.395906
7492.000000;0.396131
7491.000000;0.396128
7490.000000;0.396066
7489.000000;0.396134
7488.000000;0.396358
7487.000000;0.396647
7486.000000;0.396965
7485.000000;0.397287
7484.000000;0.397561
7483.000000;0.397802
7482.000000;0.398099
7481.000000;0.398427
7480.000000;0.398635
7479.000000;0.398694
7478.000000;0.398790
7477.000000;0.399049
7476.000000;0.399375
7475.000000;0.399655
7474.000000;0.399921
7473.000000;0.400201
7472.000000;0.400416
7471.000000;0.400561
7470.000000;0.400787
7469.000000;0.401149
7468.000000;0.401477
7467.000000;0.401647
7466.000000;0.401770
7465.000000;0.401964
7464.000000;0.402150
7463.000000;0.402250
7462.000000;0.402387
7461.000000;0.402700
7460.000000;0.403120
7459.000000;0.403514
7458.000000;0.403872
7457.000000;0.404189
7456.000000;0.404364
7455.000000;0.404389
7454.000000;0.404469
7453.000000;0.404748
7452.000000;0.405088
7451.000000;0.405304
7450.000000;0.405436
7449.000000;0.405618
7448.000000;0.405850
7447.000000;0.406074
7446.000000;0.406335
7445.000000;0.406649
7444.000000;0.406883
7443.000000;0.406940
7442.000000;0.406933
7441.000000;0.407026
7440.000000;0.407217
7439.000000;0.407462
7438.000000;0.407821
7437.000000;0.408316
7436.000000;0.408779
7435.000000;0.409052
7434.000000;0.409198
7433.000000;0.409361
7432.000000;0.409539
7431.000000;0.409686
7430.000000;0.409862
7429.000000;0.410121
7428.000000;0.410395
7427.000000;0.410622
7426.000000;0.410858
7425.000000;0.411126
7424.000000;0.411343
7423.000000;0.411497
7422.000000;0.411734
7421.000000;0.412116
7420.000000;0.412481
7419.000000;0.412676
7418.000000;0.412778
7417.000000;0.412922
7416.000000;0.413094
7415.000000;0.413249
7414.000000;0.413464
7413.000000;0.413789
7412.000000;0.414105
7411.000000;0.414320
7410.000000;0.414542
7409.000000;0.414861
7408.000000;0.415134
7407.000000;0.415198
7406.000000;0.415151
7405.000000;0.415210
7404.000000;0.415433
7403.000000;0.415730
7402.000000;0.416051
7401.000000;0.416368
7400.000000;0.416571
7399.000000;0.416635
7398.000000;0.416759
7397.000000;0.417072
7396.000000;0.417387
7395.000000;0.417508
7394.000000;0.417495
7393.000000;0.417422
7392.000000;0.417182
7391.000000;0.416771
7390.000000;0.416517
7389.000000;0.416740
7388.000000;0.417346
7387.000000;0.418013
7386.000000;0.418592
7385.000000;0.419057
7384.000000;0.419361
7383.000000;0.419524
7382.000000;0.419683
7381.000000;0.419927
7380.000000;0.420198
7379.000000;0.420439
7378.000000;0.420659
7377.000000;0.420800
7376.000000;0.420820
7375.000000;0.420922
7374.000000;0.421411
7373.000000;0.422230
7372.000000;0.422908
7371.000000;0.423094
7370.000000;0.422928
7369.000000;0.422766
7368.000000;0.422769
7367.000000;0.422993
7366.000000;0.423507
7365.000000;0.424100
7364.000000;0.424309
7363.000000;0.424058
7362.000000;0.423801
7361.000000;0.423977
7360.000000;0.424614
7359.000000;0.425458
7358.000000;0.426189
7357.000000;0.426486
7356.000000;0.426263
7355.000000;0.425895
7354.000000;0.426010
7353.000000;0.426771
7352.000000;0.427621
7351.000000;0.427928
7350.000000;0.427685
7349.000000;0.427414
7348.000000;0.427564
7347.000000;0.428139
7346.000000;0.428749
7345.000000;0.428966
7344.000000;0.428769
7343.000000;0.428723
7342.000000;0.429406
7341.000000;0.430620
7340.000000;0.431564
7339.000000;0.431832
7338.000000;0.431874
7337.000000;0.432178
7336.000000;0.432636
7335.000000;0.432976
7334.000000;0.433214
7333.000000;0.433543
7332.000000;0.434070
7331.000000;0.434698
7330.000000;0.435194
7329.000000;0.435430
7328.000000;0.435562
7327.000000;0.435896
7326.000000;0.436505
7325.000000;0.437085
7324.000000;0.437224
7323.000000;0.436967
7322.000000;0.436918
7321.000000;0.437580
7320.000000;0.438759
7319.000000;0.439878
7318.000000;0.440730
7317.000000;0.441525
7316.000000;0.442360
7315.000000;0.443075
7314.000000;0.443533
7313.000000;0.443855
7312.000000;0.444390
7311.000000;0.445349
7310.000000;0.446478
7309.000000;0.447215
7308.000000;0.447222
7307.000000;0.446814
7306.000000;0.446736
7305.000000;0.447516
7304.000000;0.448968
7303.000000;0.450282
7302.000000;0.450812
7301.000000;0.450653
7300.000000;0.450477
7299.000000;0.451004
7298.000000;0.452413
7297.000000;0.454137
7296.000000;0.455312
7295.000000;0.455673
7294.000000;0.455861
7293.000000;0.456670
7292.000000;0.458272
7291.000000;0.460179
7290.000000;0.461800
7289.000000;0.462975
7288.000000;0.463955
7287.000000;0.465012
7286.000000;0.466139
7285.000000;0.467171
7284.000000;0.468101
7283.000000;0.469039
7282.000000;0.470038
7281.000000;0.471046
7280.000000;0.471983
7279.000000;0.472934
7278.000000;0.474048
7277.000000;0.475328
7276.000000;0.476677
7275.000000;0.478064
7274.000000;0.479496
7273.000000;0.480932
7272.000000;0.482323
7271.000000;0.483705
7270.000000;0.485157
7269.000000;0.486682
7268.000000;0.488203
7267.000000;0.489682
7266.000000;0.491161
7265.000000;0.492673
7264.000000;0.494212
7263.000000;0.495792
7262.000000;0.497428
7261.000000;0.499066
7260.000000;0.500620
7259.000000;0.502090
7258.000000;0.503596
7257.000000;0.505245
7256.000000;0.507046
7255.000000;0.508991
7254.000000;0.511109
7253.000000;0.513329
7252.000000;0.515399
7251.000000;0.517211
7250.000000;0.518971
7249.000000;0.520836
7248.000000;0.522813
7247.000000;0.524944
7246.000000;0.527227
7245.000000;0.529481
7244.000000;0.531527
7243.000000;0.533498
7242.000000;0.535746
7241.000000;0.538412
7240.000000;0.541222
7239.000000;0.543754
7238.000000;0.545886
7237.000000;0.547893
7236.000000;0.550134
7235.000000;0.552755
7234.000000;0.555664
7233.000000;0.558614
7232.000000;0.561316
7231.000000;0.563835
7230.000000;0.566546
7229.000000;0.569459
7228.000000;0.572258
7227.000000;0.574923
7226.000000;0.577740
7225.000000;0.580863
7224.000000;0.584162
7223.000000;0.587429
7222.000000;0.590526
7221.000000;0.593441
7220.000000;0.596345
7219.000000;0.599481
7218.000000;0.602919
7217.000000;0.606464
7216.000000;0.609836
7215.000000;0.612944
7214.000000;0.615986
7213.000000;0.619259
7212.000000;0.622882
7211.000000;0.626778
7210.000000;0.630815
7209.000000;0.634882
7208.000000;0.638988
7207.000000;0.643247
7206.000000;0.647648
7205.000000;0.651981
7204.000000;0.656074
7203.000000;0.660020
7202.000000;0.664016
7201.000000;0.668089
7200.000000;0.672153
7199.000000;0.676206
7198.000000;0.680359
7197.000000;0.684667
7196.000000;0.689083
7195.000000;0.693573
7194.000000;0.698150
7193.000000;0.702807
7192.000000;0.707528
7191.000000;0.712388
7190.000000;0.717470
7189.000000;0.722671
7188.000000;0.727755
7187.000000;0.732603
7186.000000;0.737319
7185.000000;0.741954
7184.000000;0.746372
7183.000000;0.750591
7182.000000;0.755017
7181.000000;0.760114
7180.000000;0.765941
7179.000000;0.772111
7178.000000;0.778075
7177.000000;0.783513
7176.000000;0.788577
7175.000000;0.793698
7174.000000;0.799171
7173.000000;0.804954
7172.000000;0.810783
7171.000000;0.816523
7170.000000;0.822239
7169.000000;0.827957
7168.000000;0.833497
7167.000000;0.838692
7166.000000;0.843754
7165.000000;0.849011
7164.000000;0.854409
7163.000000;0.859650
7162.000000;0.864721
7161.000000;0.869968
7160.000000;0.875720
7159.000000;0.882023
7158.000000;0.888595
7157.000000;0.894954
7156.000000;0.900811
7155.000000;0.906338
7154.000000;0.911963
7153.000000;0.917917
7152.000000;0.924014
7151.000000;0.930025
7150.000000;0.936041
7149.000000;0.942145
7148.000000;0.948099
7147.000000;0.953772
7146.000000;0.959467
7145.000000;0.965440
7144.000000;0.971531
7143.000000;0.977505
7142.000000;0.983364
7141.000000;0.989095
7140.000000;0.994583
7139.000000;0.999926
7138.000000;1.005426
7137.000000;1.011064
7136.000000;1.016488
7135.000000;1.021748
7134.000000;1.027414
7133.000000;1.033684
7132.000000;1.039931
7131.000000;1.045543
7130.000000;1.050745
7129.000000;1.056054
7128.000000;1.061510
7127.000000;1.066933
7126.000000;1.072366
7125.000000;1.077838
7124.000000;1.083157
7123.000000;1.088366
7122.000000;1.093864
7121.000000;1.099643
7120.000000;1.105016
7119.000000;1.109546
7118.000000;1.113724
7117.000000;1.118286
7116.000000;1.123394
7115.000000;1.128839
7114.000000;1.134483
7113.000000;1.140132
7112.000000;1.145467
7111.000000;1.150465
7110.000000;1.155486
7109.000000;1.160613
7108.000000;1.165450
7107.000000;1.169859
7106.000000;1.174282
7105.000000;1.178938
7104.000000;1.183343
7103.000000;1.187291
7102.000000;1.191464
7101.000000;1.196330
7100.000000;1.201350
7099.000000;1.205858
7098.000000;1.209914
7097.000000;1.213768
7096.000000;1.217313
7095.000000;1.220607
7094.000000;1.224179
7093.000000;1.228215
7092.000000;1.232210
7091.000000;1.235951
7090.000000;1.239933
7089.000000;1.244317
7088.000000;1.248455
7087.000000;1.252036
7086.000000;1.255706
7085.000000;1.259867
7084.000000;1.263871
7083.000000;1.267138
7082.000000;1.270072
7081.000000;1.273099
7080.000000;1.275883
7079.000000;1.278269
7078.000000;1.280858
7077.000000;1.283937
7076.000000;1.286899
7075.000000;1.289400
7074.000000;1.292053
7073.000000;1.295222
7072.000000;1.298153
7071.000000;1.300233
7070.000000;1.302197
7069.000000;1.305072
7068.000000;1.308760
7067.000000;1.312489
7066.000000;1.315842
7065.000000;1.318558
7064.000000;1.320229
7063.000000;1.321083
7062.000000;1.322246
7061.000000;1.324378
7060.000000;1.326917
7059.000000;1.329335
7058.000000;1.332080
7057.000000;1.335523
7056.000000;1.339011
7055.000000;1.341763
7054.000000;1.343792
7053.000000;1.345265
7052.000000;1.345954
7051.000000;1.346164
7050.000000;1.347202
7049.000000;1.349904
7048.000000;1.353502
7047.000000;1.356697
7046.000000;1.359019
7045.000000;1.360501
7044.000000;1.361066
7043.000000;1.361165
7042.000000;1.362040
7041.000000;1.364291
7040.000000;1.366953
7039.000000;1.368867
7038.000000;1.370139
7037.000000;1.371463
7036.000000;1.372929
7035.000000;1.374340
7034.000000;1.375825
7033.000000;1.377341
7032.000000;1.378385
7031.000000;1.378942
7030.000000;1.379858
7029.000000;1.381520
7028.000000;1.383070
7027.000000;1.383674
7026.000000;1.383752
7025.000000;1.384162
7024.000000;1.385029
7023.000000;1.386079
7022.000000;1.387326
7021.000000;1.388746
7020.000000;1.389996
7019.000000;1.391056
7018.000000;1.392399
7017.000000;1.394092
7016.000000;1.395573
7015.000000;1.396654
7014.000000;1.397702
7013.000000;1.398607
7012.000000;1.398749
7011.000000;1.398334
7010.000000;1.398392
7009.000000;1.399054
7008.000000;1.399327
7007.000000;1.399082
7006.000000;1.399618
7005.000000;1.401527
7004.000000;1.403509
7003.000000;1.404256
7002.000000;1.404134
7001.000000;1.404018
7000.000000;1.403804
6999.000000;1.403199
6998.000000;1.402762
6997.000000;1.403063
6996.000000;1.403779
6995.000000;1.404428
6994.000000;1.405066
6993.000000;1.405618
6992.000000;1.405607
6991.000000;1.405246
6990.000000;1.405598
6989.000000;1.406880
6988.000000;1.407788
6987.000000;1.407365
6986.000000;1.406420
6985.000000;1.406202
6984.000000;1.406758
6983.000000;1.407458
6982.000000;1.408043
6981.000000;1.408357
6980.000000;1.408033
6979.000000;1.407257
6978.000000;1.406882
6977.000000;1.407148
6976.000000;1.407322
6975.000000;1.407127
6974.000000;1.407341
6973.000000;1.408381
6972.000000;1.409480
6971.000000;1.409877
6970.000000;1.409720
6969.000000;1.409248
6968.000000;1.408286
6967.000000;1.407109
6966.000000;1.406495
6965.000000;1.406373
6964.000000;1.405788
6963.000000;1.404714
6962.000000;1.404357
6961.000000;1.404981
6960.000000;1.405194
6959.000000;1.404206
6958.000000;1.403136
6957.000000;1.403036
6956.000000;1.403228
6955.000000;1.402799
6954.000000;1.402287
6953.000000;1.402516
6952.000000;1.403040
6951.000000;1.403088
6950.000000;1.402951
6949.000000;1.403107
6948.000000;1.402914
6947.000000;1.401527
6946.000000;1.399418
6945.000000;1.397714
6944.000000;1.396687
6943.000000;1.395994
6942.000000;1.395684
6941.000000;1.395881
6940.000000;1.395981
6939.000000;1.395228
6938.000000;1.393778
6937.000000;1.392460
6936.000000;1.391783
6935.000000;1.391667
6934.000000;1.391712
6933.000000;1.391407
6932.000000;1.390616
6931.000000;1.390024
6930.000000;1.390339
6929.000000;1.390995
6928.000000;1.390623
6927.000000;1.389006
6926.000000;1.387449
6925.000000;1.386901
6924.000000;1.386884
6923.000000;1.386642
6922.000000;1.386180
6921.000000;1.385655
6920.000000;1.384889
6919.000000;1.384069
6918.000000;1.383803
6917.000000;1.383946
6916.000000;1.383484
6915.000000;1.382104
6914.000000;1.380736
6913.000000;1.380009
6912.000000;1.379381
6911.000000;1.378377
6910.000000;1.377470
6909.000000;1.377014
6908.000000;1.376446
6907.000000;1.375334
6906.000000;1.374271
6905.000000;1.373919
6904.000000;1.373997
6903.000000;1.373899
6902.000000;1.373486
6901.000000;1.372677
6900.000000;1.371134
6899.000000;1.369027
6898.000000;1.367307
6897.000000;1.366593
6896.000000;1.366493
6895.000000;1.366405
6894.000000;1.366210
6893.000000;1.365818
6892.000000;1.364930
6891.000000;1.363692
6890.000000;1.362704
6889.000000;1.362005
6888.000000;1.360938
6887.000000;1.359294
6886.000000;1.357680
6885.000000;1.356499
6884.000000;1.355548
6883.000000;1.354814
6882.000000;1.354559
6881.000000;1.354384
6880.000000;1.353387
6879.000000;1.351621
6878.000000;1.350208
6877.000000;1.349657
6876.000000;1.349276
6875.000000;1.348572
6874.000000;1.347964
6873.000000;1.347629
6872.000000;1.346971
6871.000000;1.345795
6870.000000;1.344853
6869.000000;1.344573
6868.000000;1.344358
6867.000000;1.343704
6866.000000;1.342924
6865.000000;1.342237
6864.000000;1.341217
6863.000000;1.339741
6862.000000;1.338407
6861.000000;1.337442
6860.000000;1.336242
6859.000000;1.334539
6858.000000;1.332966
6857.000000;1.331930
6856.000000;1.330940
6855.000000;1.329582
6854.000000;1.328210
6853.000000;1.327100
6852.000000;1.325897
6851.000000;1.324409
6850.000000;1.323074
6849.000000;1.322094
6848.000000;1.320994
6847.000000;1.319454
6846.000000;1.317741
6845.000000;1.315974
6844.000000;1.313887
6843.000000;1.311692
6842.000000;1.310157
6841.000000;1.309424
6840.000000;1.308663
6839.000000;1.307273
6838.000000;1.305530
6837.000000;1.303728
6836.000000;1.301719
6835.000000;1.299683
6834.000000;1.298266
6833.000000;1.297486
6832.000000;1.296414
6831.000000;1.294400
6830.000000;1.291792
6829.000000;1.289114
6828.000000;1.286497
6827.000000;1.284219
6826.000000;1.282779
6825.000000;1.282005
6824.000000;1.281014
6823.000000;1.279458
6822.000000;1.277890
6821.000000;1.276509
6820.000000;1.274590
6819.000000;1.271664
6818.000000;1.268339
6817.000000;1.265400
6816.000000;1.262932
6815.000000;1.260742
6814.000000;1.258853
6813.000000;1.257166
6812.000000;1.255351
6811.000000;1.253409
6810.000000;1.251673
6809.000000;1.250030
6808.000000;1.247920
6807.000000;1.245320
6806.000000;1.242862
6805.000000;1.240734
6804.000000;1.238387
6803.000000;1.235574
6802.000000;1.232791
6801.000000;1.230372
6800.000000;1.228004
6799.000000;1.225455
6798.000000;1.222960
6797.000000;1.220631
6796.000000;1.218244
6795.000000;1.215851
6794.000000;1.213760
6793.000000;1.211757
6792.000000;1.209229
6791.000000;1.206245
6790.000000;1.203558
6789.000000;1.201309
6788.000000;1.198710
6787.000000;1.195349
6786.000000;1.191850
6785.000000;1.188852
6784.000000;1.186250
6783.000000;1.183821
6782.000000;1.181714
6781.000000;1.179830
6780.000000;1.177544
6779.000000;1.174550
6778.000000;1.171302
6777.000000;1.168246
6776.000000;1.165296
6775.000000;1.162405
6774.000000;1.159878
6773.000000;1.157714
6772.000000;1.155356
6771.000000;1.152543
6770.000000;1.149760
6769.000000;1.147420
6768.000000;1.145184
6767.000000;1.142477
6766.000000;1.139222
6765.000000;1.135734
6764.000000;1.132382
6763.000000;1.129556
6762.000000;1.127438
6761.000000;1.125611
6760.000000;1.123403
6759.000000;1.120752
6758.000000;1.118174
6757.000000;1.115833
6756.000000;1.113324
6755.000000;1.110493
6754.000000;1.107704
6753.000000;1.105090
6752.000000;1.102282
6751.000000;1.099130
6750.000000;1.096043
6749.000000;1.093325
6748.000000;1.090792
6747.000000;1.088238
6746.000000;1.085718
6745.000000;1.083162
6744.000000;1.080339
6743.000000;1.077377
6742.000000;1.074713
6741.000000;1.072359
6740.000000;1.069825
6739.000000;1.066931
6738.000000;1.064063
6737.000000;1.061441
6736.000000;1.058788
6735.000000;1.055929
6734.000000;1.053092
6733.000000;1.050377
6732.000000;1.047556
6731.000000;1.044634
6730.000000;1.042027
6729.000000;1.039904
6728.000000;1.037896
6727.000000;1.035644
6726.000000;1.033128
6725.000000;1.030315
6724.000000;1.027077
6723.000000;1.023675
6722.000000;1.020722
6721.000000;1.018418
6720.000000;1.016294
6719.000000;1.013919
6718.000000;1.011365
6717.000000;1.008791
6716.000000;1.006110
6715.000000;1.003277
6714.000000;1.000436
6713.000000;0.997591
6712.000000;0.994571
6711.000000;0.991473
6710.000000;0.988591
6709.000000;0.985943
6708.000000;0.983236
6707.000000;0.980436
6706.000000;0.977970
6705.000000;0.975960
6704.000000;0.973944
6703.000000;0.971558
6702.000000;0.968973
6701.000000;0.966411
6700.000000;0.963900
6699.000000;0.961299
6698.000000;0.958768
6697.000000;0.956316
6696.000000;0.953727
6695.000000;0.950973
6694.000000;0.948249
6693.000000;0.945588
6692.000000;0.942821
6691.000000;0.940002
6690.000000;0.937389
6689.000000;0.934929
6688.000000;0.932277
6687.000000;0.929423
6686.000000;0.926802
6685.000000;0.924620
6684.000000;0.922568
6683.000000;0.920330
6682.000000;0.917915
6681.000000;0.915352
6680.000000;0.912534
6679.000000;0.909544
6678.000000;0.906716
6677.000000;0.904192
6676.000000;0.901811
6675.000000;0.899495
6674.000000;0.897319
6673.000000;0.895128
6672.000000;0.892571
6671.000000;0.889654
6670.000000;0.886799
6669.000000;0.884238
6668.000000;0.881802
6667.000000;0.879387
6666.000000;0.877144
6665.000000;0.875064
6664.000000;0.872875
6663.000000;0.870504
6662.000000;0.868184
6661.000000;0.865960
6660.000000;0.863548
6659.000000;0.860856
6658.000000;0.858176
6657.000000;0.855702
6656.000000;0.853279
6655.000000;0.850815
6654.000000;0.848479
6653.000000;0.846298
6652.000000;0.844003
6651.000000;0.841485
6650.000000;0.839002
6649.000000;0.836722
6648.000000;0.834442
6647.000000;0.831990
6646.000000;0.829530
6645.000000;0.827229
6644.000000;0.824983
6643.000000;0.822671
6642.000000;0.820395
6641.000000;0.818247
6640.000000;0.816127
6639.000000;0.813969
6638.000000;0.811850
6637.000000;0.809749
6636.000000;0.807490
6635.000000;0.805059
6634.000000;0.802691
6633.000000;0.800496
6632.000000;0.798304
6631.000000;0.795985
6630.000000;0.793636
6629.000000;0.791325
6628.000000;0.788971
6627.000000;0.786586
6626.000000;0.784336
6625.000000;0.782249
6624.000000;0.780159
6623.000000;0.778024
6622.000000;0.775999
6621.000000;0.774068
6620.000000;0.771961
6619.000000;0.769549
6618.000000;0.767052
6617.000000;0.764708
6616.000000;0.762527
6615.000000;0.760464
6614.000000;0.758521
6613.000000;0.756590
6612.000000;0.754481
6611.000000;0.752222
6610.000000;0.750062
6609.000000;0.748079
6608.000000;0.746093
6607.000000;0.744016
6606.000000;0.741977
6605.000000;0.740014
6604.000000;0.737985
6603.000000;0.735876
6602.000000;0.733868
6601.000000;0.731963
6600.000000;0.729889
6599.000000;0.727534
6598.000000;0.725152
6597.000000;0.722985
6596.000000;0.720970
6595.000000;0.718968
6594.000000;0.717009
6593.000000;0.715139
6592.000000;0.713268
6591.000000;0.711330
6590.000000;0.709376
6589.000000;0.707384
6588.000000;0.705235
6587.000000;0.702964
6586.000000;0.700823
6585.000000;0.698951
6584.000000;0.697206
6583.000000;0.695415
6582.000000;0.693551
6581.000000;0.691598
6580.000000;0.689489
6579.000000;0.687303
6578.000000;0.685262
6577.000000;0.683433
6576.000000;0.681648
6575.000000;0.679790
6574.000000;0.677942
6573.000000;0.676161
6572.000000;0.674355
6571.000000;0.672480
6570.000000;0.670633
6569.000000;0.668835
6568.000000;0.666973
6567.000000;0.665034
6566.000000;0.663178
6565.000000;0.661462
6564.000000;0.659727
6563.000000;0.657852
6562.000000;0.655923
6561.000000;0.654025
6560.000000;0.652121
6559.000000;0.650212
6558.000000;0.648428
6557.000000;0.646811
6556.000000;0.645204
6555.000000;0.643460
6554.000000;0.641609
6553.000000;0.639741
6552.000000;0.637878
6551.000000;0.636034
6550.000000;0.634243
6549.000000;0.632480
6548.000000;0.630697
6547.000000;0.628974
6546.000000;0.627437
6545.000000;0.626013
6544.000000;0.624468
6543.000000;0.622709
6542.000000;0.620865
6541.000000;0.619036
6540.000000;0.617191
6539.000000;0.615343
6538.000000;0.613602
6537.000000;0.611988
6536.000000;0.610399
6535.000000;0.608799
6534.000000;0.607252
6533.000000;0.605729
6532.000000;0.604097
6531.000000;0.602340
6530.000000;0.600588
6529.000000;0.598895
6528.000000;0.597188
6527.000000;0.595465
6526.000000;0.593829
6525.000000;0.592298
6524.000000;0.590772
6523.000000;0.589233
6522.000000;0.587745
6521.000000;0.586249
6520.000000;0.584584
6519.000000;0.582759
6518.000000;0.580978
6517.000000;0.579357
6516.000000;0.577815
6515.000000;0.576297
6514.000000;0.574842
6513.000000;0.573412
6512.000000;0.571880
6511.000000;0.570265
6510.000000;0.568733
6509.000000;0.567297
6508.000000;0.565752
6507.000000;0.563998
6506.000000;0.562201
6505.000000;0.560543
6504.000000;0.559014
6503.000000;0.557541
6502.000000;0.556122
6501.000000;0.554727
6500.000000;0.553259
6499.000000;0.551704
6498.000000;0.550177
6497.000000;0.548728
6496.000000;0.547273
6495.000000;0.545762
6494.000000;0.544270
6493.000000;0.542846
6492.000000;0.541435
6491.000000;0.540006
6490.000000;0.538605
6489.000000;0.537220
6488.000000;0.535768
6487.000000;0.534247
6486.000000;0.532752
6485.000000;0.531316
6484.000000;0.529879
6483.000000;0.528447
6482.000000;0.527095
6481.000000;0.525797
6480.000000;0.524430
6479.000000;0.522984
6478.000000;0.521585
6477.000000;0.520262
6476.000000;0.518897
6475.000000;0.517446
6474.000000;0.516028
6473.000000;0.514729
6472.000000;0.513477
6471.000000;0.512184
6470.000000;0.510846
6469.000000;0.509462
6468.000000;0.508006
6467.000000;0.506530
6466.000000;0.505143
6465.000000;0.503861
6464.000000;0.502613
6463.000000;0.501396
6462.000000;0.500261
6461.000000;0.499137
6460.000000;0.497865
6459.000000;0.496440
6458.000000;0.495042
6457.000000;0.493784
6456.000000;0.492608
6455.000000;0.491446
6454.000000;0.490297
6453.000000;0.489120
6452.000000;0.487822
6451.000000;0.486417
6450.000000;0.485027
6449.000000;0.483700
6448.000000;0.482366
6447.000000;0.481012
6446.000000;0.479717
6445.000000;0.478495
6444.000000;0.477279
6443.000000;0.476071
6442.000000;0.474943
6441.000000;0.473850
6440.000000;0.472658
6439.000000;0.471370
6438.000000;0.470150
6437.000000;0.469059
6436.000000;0.467965
6435.000000;0.466767
6434.000000;0.465535
6433.000000;0.464351
6432.000000;0.463186
6431.000000;0.462000
6430.000000;0.460811
6429.000000;0.459604
6428.000000;0.458321
6427.000000;0.456997
6426.000000;0.455759
6425.000000;0.454647
6424.000000;0.453581
6423.000000;0.452517
6422.000000;0.451487
6421.000000;0.450451
6420.000000;0.449298
6419.000000;0.448034
6418.000000;0.446805
6417.000000;0.445692
6416.000000;0.444628
6415.000000;0.443555
6414.000000;0.442493
6413.000000;0.441423
6412.000000;0.440273
6411.000000;0.439064
6410.000000;0.437925
6409.000000;0.436893
6408.000000;0.435857
6407.000000;0.434749
6406.000000;0.433631
6405.000000;0.432552
6404.000000;0.431468
6403.000000;0.430368
6402.000000;0.429316
6401.000000;0.428311
6400.000000;0.427251
6399.000000;0.426111
6398.000000;0.425009
6397.000000;0.424028
6396.000000;0.423098
6395.000000;0.422117
6394.000000;0.421083
6393.000000;0.420043
6392.000000;0.419015
6391.000000;0.418018
6390.000000;0.417059
6389.000000;0.416072
6388.000000;0.414973
6387.000000;0.413802
6386.000000;0.412699
6385.000000;0.411709
6384.000000;0.410750
6383.000000;0.409767
6382.000000;0.408797
6381.000000;0.407855
6380.000000;0.406877
6379.000000;0.405838
6378.000000;0.404799
6377.000000;0.403808
6376.000000;0.402852
6375.000000;0.401925
6374.000000;0.401032
6373.000000;0.400115
6372.000000;0.399098
6371.000000;0.398030
6370.000000;0.397044
6369.000000;0.396182
6368.000000;0.395355
6367.000000;0.394497
6366.000000;0.393626
6365.000000;0.392751
6364.000000;0.391842
6363.000000;0.390916
6362.000000;0.390031
6361.000000;0.389185
6360.000000;0.388325
6359.000000;0.387460
6358.000000;0.386634
6357.000000;0.385802
6356.000000;0.384866
6355.000000;0.383828
6354.000000;0.382791
6353.000000;0.381805
6352.000000;0.380855
6351.000000;0.379961
6350.000000;0.379169
6349.000000;0.378421
6348.000000;0.377600
6347.000000;0.376682
6346.000000;0.375729
6345.000000;0.374763
6344.000000;0.373782
6343.000000;0.372867
6342.000000;0.372111
6341.000000;0.371441
6340.000000;0.370692
6339.000000;0.369837
6338.000000;0.368985
6337.000000;0.368157
6336.000000;0.367279
6335.000000;0.366382
6334.000000;0.365592
6333.000000;0.364904
6332.000000;0.364152
6331.000000;0.363255
6330.000000;0.362311
6329.000000;0.361417
6328.000000;0.360564
6327.000000;0.359758
6326.000000;0.359040
6325.000000;0.358348
6324.000000;0.357532
6323.000000;0.356584
6322.000000;0.355678
6321.000000;0.354910
6320.000000;0.354169
6319.000000;0.353334
6318.000000;0.352449
6317.000000;0.351607
6316.000000;0.350801
6315.000000;0.349989
6314.000000;0.349190
6313.000000;0.348435
6312.000000;0.347716
6311.000000;0.347036
6310.000000;0.346412
6309.000000;0.345776
6308.000000;0.345009
6307.000000;0.344099
6306.000000;0.343178
6305.000000;0.342360
6304.000000;0.341626
6303.000000;0.340925
6302.000000;0.340247
6301.000000;0.339561
6300.000000;0.338813
6299.000000;0.338018
6298.000000;0.337275
6297.000000;0.336638
6296.000000;0.336048
6295.000000;0.335437
6294.000000;0.334787
6293.000000;0.334088
6292.000000;0.333330
6291.000000;0.332559
6290.000000;0.331835
6289.000000;0.331124
6288.000000;0.330342
6287.000000;0.329506
6286.000000;0.328727
6285.000000;0.328038
6284.000000;0.327359
6283.000000;0.326652
6282.000000;0.325974
6281.000000;0.325349
6280.000000;0.324703
6279.000000;0.323990
6278.000000;0.323253
6277.000000;0.322536
6276.000000;0.321828
6275.000000;0.321126
6274.000000;0.320449
6273.000000;0.319773
6272.000000;0.319053
6271.000000;0.318329
6270.000000;0.317693
6269.000000;0.317150
6268.000000;0.316610
6267.000000;0.316026
6266.000000;0.315428
6265.000000;0.314812
6264.000000;0.314117
6263.000000;0.313356
6262.000000;0.312640
6261.000000;0.312022
6260.000000;0.311431
6259.000000;0.310789
6258.000000;0.310099
6257.000000;0.309387
6256.000000;0.308668
6255.000000;0.307982
6254.000000;0.307388
6253.000000;0.306879
6252.000000;0.306374
6251.000000;0.305821
6250.000000;0.305215
6249.000000;0.304533
6248.000000;0.303765
6247.000000;0.302995
6246.000000;0.302341
6245.000000;0.301806
6244.000000;0.301291
6243.000000;0.300750
6242.000000;0.300223
6241.000000;0.299709
6240.000000;0.299147
6239.000000;0.298516
6238.000000;0.297866
6237.000000;0.297219
6236.000000;0.296551
6235.000000;0.295882
6234.000000;0.295270
6233.000000;0.294699
6232.000000;0.294099
6231.000000;0.293463
6230.000000;0.292847
6229.000000;0.292256
6228.000000;0.291643
6227.000000;0.291025
6226.000000;0.290469
6225.000000;0.289968
6224.000000;0.289440
6223.000000;0.288857
6222.000000;0.288264
6221.000000;0.287661
6220.000000;0.287013
6219.000000;0.286354
6218.000000;0.285777
6217.000000;0.285288
6216.000000;0.284811
6215.000000;0.284319
6214.000000;0.283843
6213.000000;0.283359
6212.000000;0.282792
6211.000000;0.282167
6210.000000;0.281614
6209.000000;0.281183
6208.000000;0.280787
6207.000000;0.280339
6206.000000;0.279833
6205.000000;0.279275
6204.000000;0.278662
6203.000000;0.278048
6202.000000;0.277505
6201.000000;0.277007
6200.000000;0.276463
6199.000000;0.275859
6198.000000;0.275270
6197.000000;0.274701
6196.000000;0.274079
6195.000000;0.273402
6194.000000;0.272774
6193.000000;0.272244
6192.000000;0.271756
6191.000000;0.271272
6190.000000;0.270819
6189.000000;0.270385
6188.000000;0.269891
6187.000000;0.269322
6186.000000;0.268749
6185.000000;0.268207
6184.000000;0.267659
6183.000000;0.267115
6182.000000;0.266659
6181.000000;0.266304
6180.000000;0.265943
6179.000000;0.265487
6178.000000;0.264962
6177.000000;0.264411
6176.000000;0.263836
6175.000000;0.263259
6174.000000;0.262736
6173.000000;0.262267
6172.000000;0.261777
6171.000000;0.261238
6170.000000;0.260709
6169.000000;0.260230
6168.000000;0.259766
6167.000000;0.259299
6166.000000;0.258865
6165.000000;0.258468
6164.000000;0.258045
6163.000000;0.257566
6162.000000;0.257082
6161.000000;0.256628
6160.000000;0.256175
6159.000000;0.255703
6158.000000;0.255245
6157.000000;0.254806
6156.000000;0.254334
6155.000000;0.253806
6154.000000;0.253273
6153.000000;0.252784
6152.000000;0.252321
6151.000000;0.251851
6150.000000;0.251374
6149.000000;0.250903
6148.000000;0.250432
6147.000000;0.249969
6146.000000;0.249530
6145.000000;0.249100
6144.000000;0.248655
6143.000000;0.248212
6142.000000;0.247799
6141.000000;0.247381
6140.000000;0.246908
6139.000000;0.246403
6138.000000;0.245937
6137.000000;0.245522
6136.000000;0.245106
6135.000000;0.244674
6134.000000;0.244257
6133.000000;0.243856
6132.000000;0.243438
6131.000000;0.243010
6130.000000;0.242606
6129.000000;0.242217
6128.000000;0.241805
6127.000000;0.241389
6126.000000;0.241023
6125.000000;0.240698
6124.000000;0.240346
6123.000000;0.239940
6122.000000;0.239507
6121.000000;0.239060
6120.000000;0.238600
6119.000000;0.238168
6118.000000;0.237798
6117.000000;0.237435
6116.000000;0.236994
6115.000000;0.236486
6114.000000;0.235990
6113.000000;0.235530
6112.000000;0.235081
6111.000000;0.234661
6110.000000;0.234305
6109.000000;0.233962
6108.000000;0.233539
6107.000000;0.233039
6106.000000;0.232561
6105.000000;0.232155
6104.000000;0.231804
6103.000000;0.231511
6102.000000;0.231290
6101.000000;0.231071
6100.000000;0.230739
6099.000000;0.230284
6098.000000;0.229790
6097.000000;0.229302
6096.000000;0.228803
6095.000000;0.228319
6094.000000;0.227929
6093.000000;0.227635
6092.000000;0.227353
6091.000000;0.227033
6090.000000;0.226703
6089.000000;0.226371
6088.000000;0.226010
6087.000000;0.225632
6086.000000;0.225275
6085.000000;0.224913
6084.000000;0.224480
6083.000000;0.224002
6082.000000;0.223579
6081.000000;0.223239
6080.000000;0.222907
6079.000000;0.222540
6078.000000;0.222171
6077.000000;0.221815
6076.000000;0.221437
6075.000000;0.221040
6074.000000;0.220687
6073.000000;0.220389
6072.000000;0.220080
6071.000000;0.219720
6070.000000;0.219338
6069.000000;0.218957
6068.000000;0.218569
6067.000000;0.218195
6066.000000;0.217876
6065.000000;0.217590
6064.000000;0.217271
6063.000000;0.216915
6062.000000;0.216589
6061.000000;0.216318
6060.000000;0.216052
6059.000000;0.215755
6058.000000;0.215435
6057.000000;0.215103
6056.000000;0.214760
6055.000000;0.214440
6054.000000;0.214169
6053.000000;0.213894
6052.000000;0.213539
6051.000000;0.213131
6050.000000;0.212772
6049.000000;0.212495
6048.000000;0.212246
6047.000000;0.212001
6046.000000;0.211782
6045.000000;0.211570
6044.000000;0.211297
6043.000000;0.210949
6042.000000;0.210579
6041.000000;0.210210
6040.000000;0.209817
6039.000000;0.209408
6038.000000;0.209023
6037.000000;0.208655
6036.000000;0.208268
6035.000000;0.207892
6034.000000;0.207598
6033.000000;0.207377
6032.000000;0.207147
6031.000000;0.206885
6030.000000;0.206643
6029.000000;0.206439
6028.000000;0.206215
6027.000000;0.205925
6026.000000;0.205588
6025.000000;0.205228
6024.000000;0.204862
6023.000000;0.204542
6022.000000;0.204323
6021.000000;0.204181
6020.000000;0.204039
6019.000000;0.203868
6018.000000;0.203689
6017.000000;0.203484
6016.000000;0.203213
6015.000000;0.202893
6014.000000;0.202585
6013.000000;0.202292
6012.000000;0.201978
6011.000000;0.201677
6010.000000;0.201463
6009.000000;0.201320
6008.000000;0.201149
6007.000000;0.200903
6006.000000;0.200622
6005.000000;0.200327
6004.000000;0.199999
6003.000000;0.199655
6002.000000;0.199359
6001.000000;0.199122
6000.000000;0.198888
5999.000000;0.198634
5998.000000;0.198393
5997.000000;0.198184
5996.000000;0.197990
5995.000000;0.197815
5994.000000;0.197677
5993.000000;0.197535
5992.000000;0.197323
5991.000000;0.197051
5990.000000;0.196791
5989.000000;0.196566
5988.000000;0.196336
5987.000000;0.196086
5986.000000;0.195849
5985.000000;0.195637
5984.000000;0.195436
5983.000000;0.195253
5982.000000;0.195095
5981.000000;0.194912
5980.000000;0.194647
5979.000000;0.194333
5978.000000;0.194051
5977.000000;0.193817
5976.000000;0.193600
5975.000000;0.193414
5974.000000;0.193297
5973.000000;0.193198
5972.000000;0.193021
5971.000000;0.192756
5970.000000;0.192484
5969.000000;0.192253
5968.000000;0.192040
5967.000000;0.191842
5966.000000;0.191693
5965.000000;0.191581
5964.000000;0.191460
5963.000000;0.191333
5962.000000;0.191231
5961.000000;0.191131
5960.000000;0.190971
5959.000000;0.190762
5958.000000;0.190576
5957.000000;0.190431
5956.000000;0.190287
5955.000000;0.190147
5954.000000;0.190058
5953.000000;0.190008
5952.000000;0.189933
5951.000000;0.189810
5950.000000;0.189660
5949.000000;0.189473
5948.000000;0.189229
5947.000000;0.188983
5946.000000;0.188809
5945.000000;0.188685
5944.000000;0.188515
5943.000000;0.188294
5942.000000;0.188115
5941.000000;0.188021
5940.000000;0.187957
5939.000000;0.187878
5938.000000;0.187800
5937.000000;0.187724
5936.000000;0.187624
5935.000000;0.187509
5934.000000;0.187415
5933.000000;0.187322
5932.000000;0.187182
5931.000000;0.187019
5930.000000;0.186913
5929.000000;0.186865
5928.000000;0.186793
5927.000000;0.186659
5926.000000;0.186517
5925.000000;0.186412
5924.000000;0.186337
5923.000000;0.186290
5922.000000;0.186279
5921.000000;0.186262
5920.000000;0.186171
5919.000000;0.186010
5918.000000;0.185853
5917.000000;0.185734
5916.000000;0.185629
5915.000000;0.185535
5914.000000;0.185465
5913.000000;0.185381
5912.000000;0.185231
5911.000000;0.185049
5910.000000;0.184925
5909.000000;0.184881
5908.000000;0.184859
5907.000000;0.184824
5906.000000;0.184789
5905.000000;0.184731
5904.000000;0.184610
5903.000000;0.184448
5902.000000;0.184318
5901.000000;0.184237
5900.000000;0.184168
5899.000000;0.184114
5898.000000;0.184108
5897.000000;0.184125
5896.000000;0.184095
5895.000000;0.184013
5894.000000;0.183931
5893.000000;0.183845
5892.000000;0.183704
5891.000000;0.183531
5890.000000;0.183418
5889.000000;0.183395
5888.000000;0.183396
5887.000000;0.183371
5886.000000;0.183338
5885.000000;0.183304
5884.000000;0.183252
5883.000000;0.183189
5882.000000;0.183146
5881.000000;0.183114
5880.000000;0.183065
5879.000000;0.183025
5878.000000;0.183041
5877.000000;0.183089
5876.000000;0.183102
5875.000000;0.183084
5874.000000;0.183094
5873.000000;0.183138
5872.000000;0.183169
5871.000000;0.183196
5870.000000;0.183267
5869.000000;0.183368
5868.000000;0.183423
5867.000000;0.183418
5866.000000;0.183413
5865.000000;0.183416
5864.000000;0.183381
5863.000000;0.183321
5862.000000;0.183312
5861.000000;0.183373
5860.000000;0.183432
5859.000000;0.183447
5858.000000;0.183460
5857.000000;0.183505
5856.000000;0.183560
5855.000000;0.183601
5854.000000;0.183642
5853.000000;0.183683
5852.000000;0.183712
5851.000000;0.183745
5850.000000;0.183811
5849.000000;0.183890
5848.000000;0.183938
5847.000000;0.183974
5846.000000;0.184055
5845.000000;0.184181
5844.000000;0.184292
5843.000000;0.184368
5842.000000;0.184441
5841.000000;0.184523
5840.000000;0.184604
5839.000000;0.184699
5838.000000;0.184826
5837.000000;0.184945
5836.000000;0.185010
5835.000000;0.185054
5834.000000;0.185137
5833.000000;0.185248
5832.000000;0.185337
5831.000000;0.185430
5830.000000;0.185596
5829.000000;0.185809
5828.000000;0.185963
5827.000000;0.186027
5826.000000;0.186079
5825.000000;0.186179
5824.000000;0.186313
5823.000000;0.186467
5822.000000;0.186663
5821.000000;0.186895
5820.000000;0.187129
5819.000000;0.187360
5818.000000;0.187609
5817.000000;0.187852
5816.000000;0.188039
5815.000000;0.188182
5814.000000;0.188335
5813.000000;0.188509
5812.000000;0.188670
5811.000000;0.188824
5810.000000;0.189000
5809.000000;0.189186
5808.000000;0.189353
5807.000000;0.189533
5806.000000;0.189771
5805.000000;0.190029
5804.000000;0.190225
5803.000000;0.190366
5802.000000;0.190524
5801.000000;0.190711
5800.000000;0.190876
5799.000000;0.191027
5798.000000;0.191232
5797.000000;0.191508
5796.000000;0.191798
5795.000000;0.192068
5794.000000;0.192324
5793.000000;0.192556
5792.000000;0.192754
5791.000000;0.192978
5790.000000;0.193300
5789.000000;0.193678
5788.000000;0.193997
5787.000000;0.194232
5786.000000;0.194469
5785.000000;0.194768
5784.000000;0.195096
5783.000000;0.195410
5782.000000;0.195711
5781.000000;0.196001
5780.000000;0.196280
5779.000000;0.196575
5778.000000;0.196902
5777.000000;0.197217
5776.000000;0.197472
5775.000000;0.197715
5774.000000;0.198032
5773.000000;0.198414
5772.000000;0.198775
5771.000000;0.199094
5770.000000;0.199425
5769.000000;0.199788
5768.000000;0.200138
5767.000000;0.200451
5766.000000;0.200743
5765.000000;0.201011
5764.000000;0.201251
5763.000000;0.201525
5762.000000;0.201910
5761.000000;0.202380
5760.000000;0.202832
5759.000000;0.203218
5758.000000;0.203573
5757.000000;0.203925
5756.000000;0.204275
5755.000000;0.204646
5754.000000;0.205070
5753.000000;0.205512
5752.000000;0.205920
5751.000000;0.206318
5750.000000;0.206763
5749.000000;0.207238
5748.000000;0.207665
5747.000000;0.208027
5746.000000;0.208372
5745.000000;0.208728
5744.000000;0.209099
5743.000000;0.209527
5742.000000;0.210048
5741.000000;0.210617
5740.000000;0.211154
5739.000000;0.211651
5738.000000;0.212138
5737.000000;0.212595
5736.000000;0.212991
5735.000000;0.213396
5734.000000;0.213910
5733.000000;0.214511
5732.000000;0.215086
5731.000000;0.215595
5730.000000;0.216097
5729.000000;0.216621
5728.000000;0.217147
5727.000000;0.217682
5726.000000;0.218261
5725.000000;0.218849
5724.000000;0.219370
5723.000000;0.219829
5722.000000;0.220307
5721.000000;0.220834
5720.000000;0.221368
5719.000000;0.221898
5718.000000;0.222458
5717.000000;0.223048
5716.000000;0.223625
5715.000000;0.224184
5714.000000;0.224759
5713.000000;0.225349
5712.000000;0.225927
5711.000000;0.226517
5710.000000;0.227151
5709.000000;0.227784
5708.000000;0.228335
5707.000000;0.228810
5706.000000;0.229290
5705.000000;0.229819
5704.000000;0.230384
5703.000000;0.230988
5702.000000;0.231639
5701.000000;0.232289
5700.000000;0.232888
5699.000000;0.233482
5698.000000;0.234140
5697.000000;0.234857
5696.000000;0.235529
5695.000000;0.236158
5694.000000;0.236838
5693.000000;0.237517
5692.000000;0.238160
5691.000000;0.238755
5690.000000;0.239331
5689.000000;0.239879
5688.000000;0.240396
5687.000000;0.240952
5686.000000;0.241615
5685.000000;0.242333
5684.000000;0.243016
5683.000000;0.243679
5682.000000;0.244393
5681.000000;0.245122
5680.000000;0.245771
5679.000000;0.246348
5678.000000;0.246955
5677.000000;0.247619
5676.000000;0.248271
5675.000000;0.248885
5674.000000;0.249504
5673.000000;0.250137
5672.000000;0.250733
5671.000000;0.251292
5670.000000;0.251874
5669.000000;0.252499
5668.000000;0.253142
5667.000000;0.253802
5666.000000;0.254491
5665.000000;0.255164
5664.000000;0.255766
5663.000000;0.256328
5662.000000;0.256913
5661.000000;0.257501
5660.000000;0.258022
5659.000000;0.258506
5658.000000;0.259049
5657.000000;0.259674
5656.000000;0.260311
5655.000000;0.260921
5654.000000;0.261519
5653.000000;0.262097
5652.000000;0.262637
5651.000000;0.263190
5650.000000;0.263823
5649.000000;0.264515
5648.000000;0.265181
5647.000000;0.265794
5646.000000;0.266379
5645.000000;0.266922
5644.000000;0.267393
5643.000000;0.267830
5642.000000;0.268298
5641.000000;0.268793
5640.000000;0.269267
5639.000000;0.269728
5638.000000;0.270210
5637.000000;0.270694
5636.000000;0.271145
5635.000000;0.271606
5634.000000;0.272130
5633.000000;0.272674
5632.000000;0.273154
5631.000000;0.273569
5630.000000;0.273978
5629.000000;0.274384
5628.000000;0.274766
5627.000000;0.275167
5626.000000;0.275643
5625.000000;0.276153
5624.000000;0.276622
5623.000000;0.277053
5622.000000;0.277487
5621.000000;0.277892
5620.000000;0.278210
5619.000000;0.278471
5618.000000;0.278746
5617.000000;0.279030
5616.000000;0.279293
5615.000000;0.279597
5614.000000;0.280023
5613.000000;0.280517
5612.000000;0.280944
5611.000000;0.281267
5610.000000;0.281555
5609.000000;0.281842
5608.000000;0.282121
5607.000000;0.282430
5606.000000;0.282812
5605.000000;0.283211
5604.000000;0.283526
5603.000000;0.283754
5602.000000;0.283968
5601.000000;0.284187
5600.000000;0.284369
5599.000000;0.284519
5598.000000;0.284672
5597.000000;0.284822
5596.000000;0.284948
5595.000000;0.285087
5594.000000;0.285269
5593.000000;0.285453
5592.000000;0.285598
5591.000000;0.285751
5590.000000;0.285949
5589.000000;0.286120
5588.000000;0.286198
5587.000000;0.286248
5586.000000;0.286356
5585.000000;0.286479
5584.000000;0.286526
5583.000000;0.286524
5582.000000;0.286559
5581.000000;0.286626
5580.000000;0.286670
5579.000000;0.286703
5578.000000;0.286762
5577.000000;0.286805
5576.000000;0.286792
5575.000000;0.286790
5574.000000;0.286866
5573.000000;0.286955
5572.000000;0.286972
5571.000000;0.286953
5570.000000;0.286982
5569.000000;0.287031
5568.000000;0.287032
5567.000000;0.287018
5566.000000;0.287049
5565.000000;0.287077
5564.000000;0.287033
5563.000000;0.286974
5562.000000;0.286992
5561.000000;0.287054
5560.000000;0.287081
5559.000000;0.287096
5558.000000;0.287128
5557.000000;0.287097
5556.000000;0.286928
5555.000000;0.286714
5554.000000;0.286588
5553.000000;0.286531
5552.000000;0.286464
5551.000000;0.286410
5550.000000;0.286422
5549.000000;0.286434
5548.000000;0.286362
5547.000000;0.286263
5546.000000;0.286236
5545.000000;0.286240
5544.000000;0.286184
5543.000000;0.286098
5542.000000;0.286048
5541.000000;0.285994
5540.000000;0.285876
5539.000000;0.285750
5538.000000;0.285687
5537.000000;0.285640
5536.000000;0.285529
5535.000000;0.285399
5534.000000;0.285335
5533.000000;0.285315
5532.000000;0.285282
5531.000000;0.285268
5530.000000;0.285303
5529.000000;0.285301
5528.000000;0.285183
5527.000000;0.285037
5526.000000;0.285004
5525.000000;0.285052
5524.000000;0.285067
5523.000000;0.285035
5522.000000;0.285004
5521.000000;0.284963
5520.000000;0.284877
5519.000000;0.284792
5518.000000;0.284770
5517.000000;0.284753
5516.000000;0.284670
5515.000000;0.284577
5514.000000;0.284538
5513.000000;0.284505
5512.000000;0.284434
5511.000000;0.284403
5510.000000;0.284485
5509.000000;0.284603
5508.000000;0.284643
5507.000000;0.284632
5506.000000;0.284652
5505.000000;0.284660
5504.000000;0.284613
5503.000000;0.284591
5502.000000;0.284648
5501.000000;0.284720
5500.000000;0.284735
5499.000000;0.284739
5498.000000;0.284872
5497.000000;0.285132
5496.000000;0.285360
5495.000000;0.285438
5494.000000;0.285382
5493.000000;0.285298
5492.000000;0.285276
5491.000000;0.285334
5490.000000;0.285390
5489.000000;0.285361
5488.000000;0.285330
5487.000000;0.285479
5486.000000;0.285821
5485.000000;0.286146
5484.000000;0.286341
5483.000000;0.286578
5482.000000;0.286940
5481.000000;0.287305
5480.000000;0.287622
5479.000000;0.287978
5478.000000;0.288405
5477.000000;0.288776
5476.000000;0.289025
5475.000000;0.289288
5474.000000;0.289632
5473.000000;0.289881
5472.000000;0.289880
5471.000000;0.289771
5470.000000;0.289811
5469.000000;0.290109
5468.000000;0.290599
5467.000000;0.291128
5466.000000;0.291564
5465.000000;0.291893
5464.000000;0.292277
5463.000000;0.292876
5462.000000;0.293543
5461.000000;0.294060
5460.000000;0.294513
5459.000000;0.295030
5458.000000;0.295464
5457.000000;0.295699
5456.000000;0.295975
5455.000000;0.296562
5454.000000;0.297402
5453.000000;0.298245
5452.000000;0.298982
5451.000000;0.299651
5450.000000;0.300252
5449.000000;0.300843
5448.000000;0.301482
5447.000000;0.302045
5446.000000;0.302489
5445.000000;0.303039
5444.000000;0.303848
5443.000000;0.304748
5442.000000;0.305478
5441.000000;0.306126
5440.000000;0.307096
5439.000000;0.308481
5438.000000;0.309844
5437.000000;0.310852
5436.000000;0.311677
5435.000000;0.312608
5434.000000;0.313728
5433.000000;0.314967
5432.000000;0.316118
5431.000000;0.317010
5430.000000;0.317843
5429.000000;0.318988
5428.000000;0.320461
5427.000000;0.321958
5426.000000;0.323273
5425.000000;0.324463
5424.000000;0.325753
5423.000000;0.327321
5422.000000;0.329180
5421.000000;0.331115
5420.000000;0.332889
5419.000000;0.334564
5418.000000;0.336341
5417.000000;0.338234
5416.000000;0.340083
5415.000000;0.341819
5414.000000;0.343562
5413.000000;0.345386
5412.000000;0.347224
5411.000000;0.349000
5410.000000;0.350811
5409.000000;0.352914
5408.000000;0.355420
5407.000000;0.358120
5406.000000;0.360699
5405.000000;0.363105
5404.000000;0.365577
5403.000000;0.368230
5402.000000;0.371078
5401.000000;0.374081
5400.000000;0.377044
5399.000000;0.379976
5398.000000;0.383064
5397.000000;0.386311
5396.000000;0.389530
5395.000000;0.392632
5394.000000;0.395783
5393.000000;0.399126
5392.000000;0.402646
5391.000000;0.406355
5390.000000;0.410259
5389.000000;0.414261
5388.000000;0.418315
5387.000000;0.422553
5386.000000;0.427046
5385.000000;0.431716
5384.000000;0.436401
5383.000000;0.440995
5382.000000;0.445674
5381.000000;0.450640
5380.000000;0.455747
5379.000000;0.460824
5378.000000;0.465974
5377.000000;0.471285
5376.000000;0.476698
5375.000000;0.482298
5374.000000;0.488323
5373.000000;0.494690
5372.000000;0.501055
5371.000000;0.507422
5370.000000;0.514141
5369.000000;0.521316
5368.000000;0.528681
5367.000000;0.536088
5366.000000;0.543657
5365.000000;0.551487
5364.000000;0.559468
5363.000000;0.567551
5362.000000;0.575952
5361.000000;0.584682
5360.000000;0.593471
5359.000000;0.602395
5358.000000;0.611909
5357.000000;0.622084
5356.000000;0.632466
5355.000000;0.642837
5354.000000;0.653466
5353.000000;0.664494
5352.000000;0.675621
5351.000000;0.686617
5350.000000;0.697802
5349.000000;0.709622
5348.000000;0.722010
5347.000000;0.734752
5346.000000;0.747975
5345.000000;0.761661
5344.000000;0.775438
5343.000000;0.789275
5342.000000;0.803579
5341.000000;0.818261
5340.000000;0.832936
5339.000000;0.847915
5338.000000;0.863907
5337.000000;0.880849
5336.000000;0.897800
5335.000000;0.914276
5334.000000;0.930914
5333.000000;0.948503
5332.000000;0.966863
5331.000000;0.985303
5330.000000;1.003775
5329.000000;1.022595
5328.000000;1.041728
5327.000000;1.061307
5326.000000;1.081792
5325.000000;1.102781
5324.000000;1.123008
5323.000000;1.142220
5322.000000;1.161770
5321.000000;1.182674
5320.000000;1.204376
5319.000000;1.226081
5318.000000;1.247859
5317.000000;1.269552
5316.000000;1.290194
5315.000000;1.309641
5314.000000;1.329045
5313.000000;1.348930
5312.000000;1.368532
5311.000000;1.387624
5310.000000;1.407085
5309.000000;1.426746
5308.000000;1.444797
5307.000000;1.460602
5306.000000;1.475863
5305.000000;1.491611
5304.000000;1.506685
5303.000000;1.520475
5302.000000;1.534285
5301.000000;1.548577
5300.000000;1.561690
5299.000000;1.572771
5298.000000;1.583038
5297.000000;1.592831
5296.000000;1.600923
5295.000000;1.607807
5294.000000;1.615749
5293.000000;1.624796
5292.000000;1.632500
5291.000000;1.638442
5290.000000;1.644903
5289.000000;1.651844
5288.000000;1.656155
5287.000000;1.657327
5286.000000;1.658796
5285.000000;1.662353
5284.000000;1.665880
5283.000000;1.667878
5282.000000;1.669729
5281.000000;1.671919
5280.000000;1.672869
5279.000000;1.673056
5278.000000;1.675413
5277.000000;1.679928
5276.000000;1.682662
5275.000000;1.682096
5274.000000;1.681499
5273.000000;1.683039
5272.000000;1.684689
5271.000000;1.684694
5270.000000;1.684761
5269.000000;1.686540
5268.000000;1.688792
5267.000000;1.690142
5266.000000;1.691093
5265.000000;1.691837
5264.000000;1.691572
5263.000000;1.691388
5262.000000;1.693793
5261.000000;1.698117
5260.000000;1.700758
5259.000000;1.700810
5258.000000;1.701050
5257.000000;1.702778
5256.000000;1.704200
5255.000000;1.704599
5254.000000;1.705893
5253.000000;1.708698
5252.000000;1.711097
5251.000000;1.712478
5250.000000;1.714616
5249.000000;1.717889
5248.000000;1.720030
5247.000000;1.720074
5246.000000;1.719661
5245.000000;1.719365
5244.000000;1.718026
5243.000000;1.716437
5242.000000;1.717155
5241.000000;1.720053
5240.000000;1.722376
5239.000000;1.723281
5238.000000;1.724247
5237.000000;1.725199
5236.000000;1.724624
5235.000000;1.723425
5234.000000;1.724227
5233.000000;1.726809
5232.000000;1.728461
5231.000000;1.728992
5230.000000;1.730787
5229.000000;1.733665
5228.000000;1.734781
5227.000000;1.734155
5226.000000;1.735116
5225.000000;1.738430
5224.000000;1.740908
5223.000000;1.741058
5222.000000;1.741167
5221.000000;1.742574
5220.000000;1.743765
5219.000000;1.744015
5218.000000;1.744619
5217.000000;1.745681
5216.000000;1.745657
5215.000000;1.744927
5214.000000;1.745932
5213.000000;1.748948
5212.000000;1.751580
5211.000000;1.753055
5210.000000;1.754977
5209.000000;1.757292
5208.000000;1.757943
5207.000000;1.757064
5206.000000;1.757017
5205.000000;1.757781
5204.000000;1.756889
5203.000000;1.754273
5202.000000;1.752876
5201.000000;1.754255
5200.000000;1.757211
5199.000000;1.760495
5198.000000;1.763437
5197.000000;1.764327
5196.000000;1.762135
5195.000000;1.759512
5194.000000;1.759797
5193.000000;1.761978
5192.000000;1.762937
5191.000000;1.763287
5190.000000;1.766055
5189.000000;1.770615
5188.000000;1.773240
5187.000000;1.773333
5186.000000;1.773631
5185.000000;1.774510
5184.000000;1.773617
5183.000000;1.771084
5182.000000;1.769660
5181.000000;1.769670
5180.000000;1.769118
5179.000000;1.768338
5178.000000;1.769517
5177.000000;1.771998
5176.000000;1.773111
5175.000000;1.773304
5174.000000;1.775103
5173.000000;1.777580
5172.000000;1.777523
5171.000000;1.775674
5170.000000;1.775737
5169.000000;1.777680
5168.000000;1.778099
5167.000000;1.776704
5166.000000;1.776516
5165.000000;1.777940
5164.000000;1.778392
5163.000000;1.777777
5162.000000;1.778528
5161.000000;1.779974
5160.000000;1.778984
5159.000000;1.776323
5158.000000;1.775922
5157.000000;1.778015
5156.000000;1.779145
5155.000000;1.778910
5154.000000;1.780440
5153.000000;1.783753
5152.000000;1.785197
5151.000000;1.784246
5150.000000;1.784536
5149.000000;1.787139
5148.000000;1.788804
5147.000000;1.788038
5146.000000;1.787183
5145.000000;1.787378
5144.000000;1.787079
5143.000000;1.786331
5142.000000;1.787142
5141.000000;1.788727
5140.000000;1.787784
5139.000000;1.784563
5138.000000;1.783210
5137.000000;1.785205
5136.000000;1.787683
5135.000000;1.788794
5134.000000;1.789769
5133.000000;1.790891
5132.000000;1.790556
5131.000000;1.789129
5130.000000;1.788929
5129.000000;1.789867
5128.000000;1.789736
5127.000000;1.788866
5126.000000;1.789480
5125.000000;1.790519
5124.000000;1.788460
5123.000000;1.783725
5122.000000;1.780889
5121.000000;1.781983
5120.000000;1.784654
5119.000000;1.786861
5118.000000;1.788588
5117.000000;1.788987
5116.000000;1.786932
5115.000000;1.784601
5114.000000;1.785544
5113.000000;1.789238
5112.000000;1.791872
5111.000000;1.792047
5110.000000;1.791211
5109.000000;1.789161
5108.000000;1.784673
5107.000000;1.780191
5106.000000;1.779824
5105.000000;1.783061
5104.000000;1.785607
5103.000000;1.786057
5102.000000;1.786678
5101.000000;1.787925
5100.000000;1.787941
5099.000000;1.787239
5098.000000;1.788088
5097.000000;1.789388
5096.000000;1.787888
5095.000000;1.784576
5094.000000;1.783903
5093.000000;1.786560
5092.000000;1.788844
5091.000000;1.789261
5090.000000;1.789877
5089.000000;1.790883
5088.000000;1.789966
5087.000000;1.787745
5086.000000;1.787939
5085.000000;1.791113
5084.000000;1.793385
5083.000000;1.792423
5082.000000;1.790132
5081.000000;1.788311
5080.000000;1.786695
5079.000000;1.785983
5078.000000;1.787779
5077.000000;1.790831
5076.000000;1.791935
5075.000000;1.790997
5074.000000;1.790664
5073.000000;1.791108
5072.000000;1.789900
5071.000000;1.786940
5070.000000;1.784695
5069.000000;1.783455
5068.000000;1.781266
5067.000000;1.778637
5066.000000;1.778511
5065.000000;1.781331
5064.000000;1.784319
5063.000000;1.785844
5062.000000;1.786477
5061.000000;1.785530
5060.000000;1.781515
5059.000000;1.776439
5058.000000;1.774486
5057.000000;1.776258
5056.000000;1.778448
5055.000000;1.779054
5054.000000;1.779056
5053.000000;1.779014
5052.000000;1.778449
5051.000000;1.778361
5050.000000;1.780085
5049.000000;1.781936
5048.000000;1.781149
5047.000000;1.778719
5046.000000;1.777933
5045.000000;1.779065
5044.000000;1.779923
5043.000000;1.780476
5042.000000;1.782184
5041.000000;1.783623
5040.000000;1.781959
5039.000000;1.778249
5038.000000;1.776033
5037.000000;1.775486
5036.000000;1.773836
5035.000000;1.770919
5034.000000;1.769365
5033.000000;1.769488
5032.000000;1.769059
5031.000000;1.767847
5030.000000;1.767521
5029.000000;1.767549
5028.000000;1.765892
5027.000000;1.763359
5026.000000;1.762627
5025.000000;1.763335
5024.000000;1.762727
5023.000000;1.760764
5022.000000;1.759890
5021.000000;1.760101
5020.000000;1.758964
5019.000000;1.756296
5018.000000;1.754484
5017.000000;1.754304
5016.000000;1.754362
5015.000000;1.754260
5014.000000;1.754210
5013.000000;1.752528
5012.000000;1.748038
5011.000000;1.743644
5010.000000;1.743017
5009.000000;1.745138
5008.000000;1.746267
5007.000000;1.746113
5006.000000;1.747219
5005.000000;1.749143
5004.000000;1.748600
5003.000000;1.745140
5002.000000;1.741439
5001.000000;1.738420
5000.000000;1.735204
4999.000000;1.732922
4998.000000;1.733747
4997.000000;1.736287
4996.000000;1.736503
4995.000000;1.733475
4994.000000;1.730028
4993.000000;1.727890
4992.000000;1.726563
4991.000000;1.726243
4990.000000;1.727463
4989.000000;1.728298
4988.000000;1.726099
4987.000000;1.721782
4986.000000;1.718418
4985.000000;1.716346
4984.000000;1.713533
4983.000000;1.709735
4982.000000;1.706323
4981.000000;1.703166
4980.000000;1.699677
4979.000000;1.697635
4978.000000;1.698783
4977.000000;1.700812
4976.000000;1.699961
4975.000000;1.696673
4974.000000;1.694254
4973.000000;1.693076
4972.000000;1.690822
4971.000000;1.687325
4970.000000;1.684499
4969.000000;1.682149
4968.000000;1.678423
4967.000000;1.673987
4966.000000;1.671221
4965.000000;1.669812
4964.000000;1.667403
4963.000000;1.664002
4962.000000;1.661578
4961.000000;1.659852
4960.000000;1.656653
4959.000000;1.652214
4958.000000;1.649059
4957.000000;1.647805
4956.000000;1.646858
4955.000000;1.645743
4954.000000;1.645154
4953.000000;1.644133
4952.000000;1.641018
4951.000000;1.636937
4950.000000;1.634370
4949.000000;1.632959
4948.000000;1.630277
4947.000000;1.626002
4946.000000;1.621851
4945.000000;1.618025
4944.000000;1.613443
4943.000000;1.608890
4942.000000;1.606231
4941.000000;1.605079
4940.000000;1.603552
4939.000000;1.601681
4938.000000;1.600671
4937.000000;1.599539
4936.000000;1.596144
4935.000000;1.591051
4934.000000;1.586773
4933.000000;1.583610
4932.000000;1.579725
4931.000000;1.574989
4930.000000;1.571194
4929.000000;1.568778
4928.000000;1.566520
4927.000000;1.564055
4926.000000;1.561862
4925.000000;1.559183
4924.000000;1.554928
4923.000000;1.550202
4922.000000;1.546908
4921.000000;1.544521
4920.000000;1.541201
4919.000000;1.537350
4918.000000;1.534858
4917.000000;1.533443
4916.000000;1.530987
4915.000000;1.527104
4914.000000;1.523277
4913.000000;1.519738
4912.000000;1.515318
4911.000000;1.510228
4910.000000;1.505974
4909.000000;1.502708
4908.000000;1.499302
4907.000000;1.495718
4906.000000;1.492826
4905.000000;1.490211
4904.000000;1.486726
4903.000000;1.482813
4902.000000;1.479728
4901.000000;1.476974
4900.000000;1.473089
4899.000000;1.468580
4898.000000;1.465219
4897.000000;1.462794
4896.000000;1.459433
4895.000000;1.454923
4894.000000;1.450987
4893.000000;1.448297
4892.000000;1.445719
4891.000000;1.442594
4890.000000;1.439457
4889.000000;1.436361
4888.000000;1.432701
4887.000000;1.428721
4886.000000;1.425163
4885.000000;1.421529
4884.000000;1.416697
4883.000000;1.411093
4882.000000;1.406339
4881.000000;1.402904
4880.000000;1.399933
4879.000000;1.397023
4878.000000;1.394319
4877.000000;1.391264
4876.000000;1.387229
4875.000000;1.383094
4874.000000;1.380255
4873.000000;1.378277
4872.000000;1.375347
4871.000000;1.370942
4870.000000;1.366251
4869.000000;1.362123
4868.000000;1.358375
4867.000000;1.354906
4866.000000;1.351828
4865.000000;1.348663
4864.000000;1.344908
4863.000000;1.341146
4862.000000;1.338244
4861.000000;1.335816
4860.000000;1.332849
4859.000000;1.329337
4858.000000;1.325881
4857.000000;1.322279
4856.000000;1.318043
4855.000000;1.313732
4854.000000;1.310265
4853.000000;1.307410
4852.000000;1.304398
4851.000000;1.301382
4850.000000;1.298799
4849.000000;1.295946
4848.000000;1.291829
4847.000000;1.286906
4846.000000;1.282376
4845.000000;1.278376
4844.000000;1.274407
4843.000000;1.270859
4842.000000;1.268390
4841.000000;1.266326
4840.000000;1.263366
4839.000000;1.259515
4838.000000;1.255758
4837.000000;1.252263
4836.000000;1.248539
4835.000000;1.244880
4834.000000;1.241985
4833.000000;1.239478
4832.000000;1.236338
4831.000000;1.232531
4830.000000;1.228798
4829.000000;1.225169
4828.000000;1.221139
4827.000000;1.216980
4826.000000;1.213402
4825.000000;1.210223
4824.000000;1.206747
4823.000000;1.203159
4822.000000;1.200150
4821.000000;1.197460
4820.000000;1.194194
4819.000000;1.190368
4818.000000;1.186826
4817.000000;1.183816
4816.000000;1.180900
4815.000000;1.178004
4814.000000;1.175375
4813.000000;1.172749
4812.000000;1.169680
4811.000000;1.166427
4810.000000;1.163426
4809.000000;1.160286
4808.000000;1.156460
4807.000000;1.152482
4806.000000;1.149284
4805.000000;1.146667
4804.000000;1.143652
4803.000000;1.140040
4802.000000;1.136443
4801.000000;1.133078
4800.000000;1.129697
4799.000000;1.126427
4798.000000;1.123566
4797.000000;1.120808
4796.000000;1.117725
4795.000000;1.114693
4794.000000;1.112274
4793.000000;1.110082
4792.000000;1.107337
4791.000000;1.104184
4790.000000;1.101329
4789.000000;1.098732
4788.000000;1.095809
4787.000000;1.092610
4786.000000;1.089650
4785.000000;1.086838
4784.000000;1.083692
4783.000000;1.080331
4782.000000;1.077204
4781.000000;1.074111
4780.000000;1.070608
4779.000000;1.067095
4778.000000;1.064361
4777.000000;1.062276
4776.000000;1.059986
4775.000000;1.057223
4774.000000;1.054381
4773.000000;1.051521
4772.000000;1.048387
4771.000000;1.045269
4770.000000;1.042779
4769.000000;1.040803
4768.000000;1.038580
4767.000000;1.035767
4766.000000;1.032625
4765.000000;1.029339
4764.000000;1.026021
4763.000000;1.023157
4762.000000;1.021131
4761.000000;1.019441
4760.000000;1.017245
4759.000000;1.014532
4758.000000;1.011934
4757.000000;1.009610
4756.000000;1.007181
4755.000000;1.004602
4754.000000;1.002187
4753.000000;0.999892
4752.000000;0.997374
4751.000000;0.994671
4750.000000;0.992079
4749.000000;0.989522
4748.000000;0.986763
4747.000000;0.984019
4746.000000;0.981635
4745.000000;0.979376
4744.000000;0.976786
4743.000000;0.974029
4742.000000;0.971612
4741.000000;0.969503
4740.000000;0.967266
4739.000000;0.964859
4738.000000;0.962560
4737.000000;0.960332
4736.000000;0.957963
4735.000000;0.955606
4734.000000;0.953466
4733.000000;0.951233
4732.000000;0.948554
4731.000000;0.945812
4730.000000;0.943644
4729.000000;0.941949
4728.000000;0.940122
4727.000000;0.938037
4726.000000;0.936020
4725.000000;0.934054
4724.000000;0.931839
4723.000000;0.929498
4722.000000;0.927440
4721.000000;0.925618
4720.000000;0.923623
4719.000000;0.921432
4718.000000;0.919394
4717.000000;0.917577
4716.000000;0.915776
4715.000000;0.914016
4714.000000;0.912431
4713.000000;0.910783
4712.000000;0.908715
4711.000000;0.906368
4710.000000;0.904193
4709.000000;0.902296
4708.000000;0.900469
4707.000000;0.898657
4706.000000;0.896883
4705.000000;0.894973
4704.000000;0.892917
4703.000000;0.891206
4702.000000;0.890220
4701.000000;0.889537
4700.000000;0.888419
4699.000000;0.886718
4698.000000;0.884761
4697.000000;0.882676
4696.000000;0.880480
4695.000000;0.878521
4694.000000;0.877114
4693.000000;0.875944
4692.000000;0.874440
4691.000000;0.872556
4690.000000;0.870639
4689.000000;0.868813
4688.000000;0.867074
4687.000000;0.865662
4686.000000;0.864700
4685.000000;0.863721
4684.000000;0.862217
4683.000000;0.860396
4682.000000;0.858787
4681.000000;0.857392
4680.000000;0.855890
4679.000000;0.854368
4678.000000;0.853126
4677.000000;0.852008
4676.000000;0.850635
4675.000000;0.849135
4674.000000;0.847947
4673.000000;0.847063
4672.000000;0.846122
4671.000000;0.845072
4670.000000;0.844089
4669.000000;0.843009
4668.000000;0.841514
4667.000000;0.839790
4666.000000;0.838355
4665.000000;0.837336
4664.000000;0.836427
4663.000000;0.835454
4662.000000;0.834442
4661.000000;0.833307
4660.000000;0.832013
4659.000000;0.830865
4658.000000;0.830129
4657.000000;0.829540
4656.000000;0.828675
4655.000000;0.827583
4654.000000;0.826540
4653.000000;0.825462
4652.000000;0.824161
4651.000000;0.822899
4650.000000;0.822078
4649.000000;0.821578
4648.000000;0.820969
4647.000000;0.820192
4646.000000;0.819453
4645.000000;0.818674
4644.000000;0.817650
4643.000000;0.816557
4642.000000;0.815749
4641.000000;0.815190
4640.000000;0.814611
4639.000000;0.813998
4638.000000;0.813426
4637.000000;0.812655
4636.000000;0.811464
4635.000000;0.810162
4634.000000;0.809215
4633.000000;0.808595
4632.000000;0.807995
4631.000000;0.807418
4630.000000;0.806991
4629.000000;0.806513
4628.000000;0.805772
4627.000000;0.805053
4626.000000;0.804704
4625.000000;0.804465
4624.000000;0.803839
4623.000000;0.802901
4622.000000;0.802111
4621.000000;0.801554
4620.000000;0.800989
4619.000000;0.800431
4618.000000;0.800046
4617.000000;0.799661
4616.000000;0.798998
4615.000000;0.798248
4614.000000;0.797819
4613.000000;0.797668
4612.000000;0.797446
4611.000000;0.797088
4610.000000;0.796727
4609.000000;0.796261
4608.000000;0.795585
4607.000000;0.795033
4606.000000;0.794972
4605.000000;0.795148
4604.000000;0.795025
4603.000000;0.794567
4602.000000;0.794121
4601.000000;0.793751
4600.000000;0.793298
4599.000000;0.792890
4598.000000;0.792763
4597.000000;0.792780
4596.000000;0.792701
4595.000000;0.792732
4594.000000;0.793166
4593.000000;0.793700
4592.000000;0.793781
4591.000000;0.793459
4590.000000;0.793255
4589.000000;0.793320
4588.000000;0.793368
4587.000000;0.793305
4586.000000;0.793287
4585.000000;0.793249
4584.000000;0.792998
4583.000000;0.792687
4582.000000;0.792629
4581.000000;0.792758
4580.000000;0.792789
4579.000000;0.792779
4578.000000;0.792981
4577.000000;0.793293
4576.000000;0.793430
4575.000000;0.793484
4574.000000;0.793767
4573.000000;0.794244
4572.000000;0.794649
4571.000000;0.795009
4570.000000;0.795505
4569.000000;0.795999
4568.000000;0.796260
4567.000000;0.796461
4566.000000;0.796896
4565.000000;0.797400
4564.000000;0.797616
4563.000000;0.797665
4562.000000;0.797960
4561.000000;0.798505
4560.000000;0.799001
4559.000000;0.799462
4558.000000;0.800176
4557.000000;0.801141
4556.000000;0.802109
4555.000000;0.803020
4554.000000;0.803907
4553.000000;0.804552
4552.000000;0.804811
4551.000000;0.805076
4550.000000;0.805858
4549.000000;0.807062
4548.000000;0.808209
4547.000000;0.809174
4546.000000;0.810144
4545.000000;0.811090
4544.000000;0.811872
4543.000000;0.812673
4542.000000;0.813725
4541.000000;0.814792
4540.000000;0.815501
4539.000000;0.815999
4538.000000;0.816689
4537.000000;0.817542
4536.000000;0.818274
4535.000000;0.818973
4534.000000;0.819950
4533.000000;0.821124
4532.000000;0.822169
4531.000000;0.823081
4530.000000;0.824033
4529.000000;0.824888
4528.000000;0.825465
4527.000000;0.826052
4526.000000;0.827021
4525.000000;0.828180
4524.000000;0.829084
4523.000000;0.829798
4522.000000;0.830697
4521.000000;0.831765
4520.000000;0.832721
4519.000000;0.833627
4518.000000;0.834710
4517.000000;0.835786
4516.000000;0.836504
4515.000000;0.836980
4514.000000;0.837577
4513.000000;0.838279
4512.000000;0.838913
4511.000000;0.839726
4510.000000;0.841059
4509.000000;0.842676
4508.000000;0.844066
4507.000000;0.845203
4506.000000;0.846349
4505.000000;0.847355
4504.000000;0.847898
4503.000000;0.848208
4502.000000;0.848838
4501.000000;0.849847
4500.000000;0.850893
4499.000000;0.851950
4498.000000;0.853287
4497.000000;0.854871
4496.000000;0.856433
4495.000000;0.857984
4494.000000;0.859660
4493.000000;0.861246
4492.000000;0.862468
4491.000000;0.863539
4490.000000;0.864817
4489.000000;0.866177
4488.000000;0.867334
4487.000000;0.868494
4486.000000;0.869996
4485.000000;0.871594
4484.000000;0.872816
4483.000000;0.873807
4482.000000;0.875090
4481.000000;0.876705
4480.000000;0.878296
4479.000000;0.879832
4478.000000;0.881517
4477.000000;0.883209
4476.000000;0.884638
4475.000000;0.885991
4474.000000;0.887619
4473.000000;0.889375
4472.000000;0.890922
4471.000000;0.892438
4470.000000;0.894297
4469.000000;0.896323
4468.000000;0.898093
4467.000000;0.899742
4466.000000;0.901704
4465.000000;0.903885
4464.000000;0.905841
4463.000000;0.907547
4462.000000;0.909270
4461.000000;0.910934
4460.000000;0.912361
4459.000000;0.913925
4458.000000;0.916155
4457.000000;0.918906
4456.000000;0.921597
4455.000000;0.924037
4454.000000;0.926339
4453.000000;0.928348
4452.000000;0.929924
4451.000000;0.931488
4450.000000;0.933497
4449.000000;0.935688
4448.000000;0.937602
4447.000000;0.939499
4446.000000;0.941917
4445.000000;0.944643
4444.000000;0.947034
4443.000000;0.949073
4442.000000;0.951243
4441.000000;0.953610
4440.000000;0.955895
4439.000000;0.958199
4438.000000;0.960761
4437.000000;0.963279
4436.000000;0.965352
4435.000000;0.967349
4434.000000;0.969928
4433.000000;0.972941
4432.000000;0.975741
4431.000000;0.978302
4430.000000;0.981112
4429.000000;0.984140
4428.000000;0.986880
4427.000000;0.989301
4426.000000;0.991826
4425.000000;0.994523
4424.000000;0.997148
4423.000000;0.999813
4422.000000;1.002763
4421.000000;1.005699
4420.000000;1.008146
4419.000000;1.010318
4418.000000;1.012821
4417.000000;1.015746
4416.000000;1.018788
4415.000000;1.021944
4414.000000;1.025300
4413.000000;1.028473
4412.000000;1.031121
4411.000000;1.033656
4410.000000;1.036599
4409.000000;1.039651
4408.000000;1.042293
4407.000000;1.044896
4406.000000;1.048233
4405.000000;1.052221
4404.000000;1.056070
4403.000000;1.059413
4402.000000;1.062424
4401.000000;1.065173
4400.000000;1.067745
4399.000000;1.070582
4398.000000;1.073885
4397.000000;1.077096
4396.000000;1.079791
4395.000000;1.082498
4394.000000;1.085777
4393.000000;1.089176
4392.000000;1.092100
4391.000000;1.094999
4390.000000;1.098574
4389.000000;1.102486
4388.000000;1.106046
4387.000000;1.109537
4386.000000;1.113556
4385.000000;1.117671
4384.000000;1.121047
4383.000000;1.123910
4382.000000;1.127110
4381.000000;1.130695
4380.000000;1.134170
4379.000000;1.137642
4378.000000;1.141455
4377.000000;1.145219
4376.000000;1.148493
4375.000000;1.151852
4374.000000;1.155979
4373.000000;1.160278
4372.000000;1.163745
4371.000000;1.166656
4370.000000;1.170007
4369.000000;1.173858
4368.000000;1.177592
4367.000000;1.181240
4366.000000;1.185181
4365.000000;1.189146
4364.000000;1.192863
4363.000000;1.197007
4362.000000;1.202075
4361.000000;1.207058
4360.000000;1.210779
4359.000000;1.213877
4358.000000;1.217816
4357.000000;1.222613
4356.000000;1.227201
4355.000000;1.231389
4354.000000;1.235750
4353.000000;1.240175
4352.000000;1.244241
4351.000000;1.248442
4350.000000;1.253424
4349.000000;1.258571
4348.000000;1.262927
4347.000000;1.266916
4346.000000;1.271523
4345.000000;1.276455
4344.000000;1.280812
4343.000000;1.284833
4342.000000;1.289294
4341.000000;1.293915
4340.000000;1.298041
4339.000000;1.302166
4338.000000;1.307081
4337.000000;1.312315
4336.000000;1.317095
4335.000000;1.321906
4334.000000;1.327431
4333.000000;1.332983
4332.000000;1.337765
4331.000000;1.342509
4330.000000;1.347948
4329.000000;1.353061
4328.000000;1.356909
4327.000000;1.360766
4326.000000;1.366014
4325.000000;1.371408
4324.000000;1.375083
4323.000000;1.377994
4322.000000;1.382467
4321.000000;1.388510
4320.000000;1.394364
4319.000000;1.399750
4318.000000;1.405721
4317.000000;1.412008
4316.000000;1.417421
4315.000000;1.422344
4314.000000;1.428039
4313.000000;1.434069
4312.000000;1.438988
4311.000000;1.442943
4310.000000;1.447178
4309.000000;1.451753
4308.000000;1.456176
4307.000000;1.461238
4306.000000;1.467660
4305.000000;1.474039
4304.000000;1.478710
4303.000000;1.482588
4302.000000;1.487543
4301.000000;1.493347
4300.000000;1.498877
4299.000000;1.504706
4298.000000;1.511580
4297.000000;1.517968
4296.000000;1.522354
4295.000000;1.526493
4294.000000;1.532912
4293.000000;1.540730
4292.000000;1.547245
4291.000000;1.552266
4290.000000;1.557290
4289.000000;1.562066
4288.000000;1.565756
4287.000000;1.569860
4286.000000;1.576281
4285.000000;1.583923
4284.000000;1.590672
4283.000000;1.597249
4282.000000;1.605308
4281.000000;1.613534
4280.000000;1.619662
4279.000000;1.624631
4278.000000;1.630605
4277.000000;1.636612
4276.000000;1.640602
4275.000000;1.644110
4274.000000;1.649962
4273.000000;1.657443
4272.000000;1.664089
4271.000000;1.670054
4270.000000;1.676441
4269.000000;1.681693
4268.000000;1.684407
4267.000000;1.687569
4266.000000;1.694826
4265.000000;1.704618
4264.000000;1.712810
4263.000000;1.719174
4262.000000;1.726081
4261.000000;1.733138
4260.000000;1.738673
4259.000000;1.744367
4258.000000;1.752421
4257.000000;1.760337
4256.000000;1.764696
4255.000000;1.767747
4254.000000;1.773764
4253.000000;1.781655
4252.000000;1.787382
4251.000000;1.791254
4250.000000;1.796309
4249.000000;1.801984
4248.000000;1.806039
4247.000000;1.810661
4246.000000;1.819347
4245.000000;1.829832
4244.000000;1.836648
4243.000000;1.839508
4242.000000;1.842149
4241.000000;1.845244
4240.000000;1.847680
4239.000000;1.852079
4238.000000;1.861872
4237.000000;1.874812
4236.000000;1.885504
4235.000000;1.893324
4234.000000;1.900908
4233.000000;1.907642
4232.000000;1.911940
4231.000000;1.916608
4230.000000;1.924854
4229.000000;1.933985
4228.000000;1.940300
4227.000000;1.946678
4226.000000;1.957355
4225.000000;1.969611
4224.000000;1.978059
4223.000000;1.983693
4222.000000;1.989926
4221.000000;1.994603
4220.000000;1.994955
4219.000000;1.995157
4218.000000;1.999307
4217.000000;2.003188
4216.000000;2.002787
4215.000000;2.004347
4214.000000;2.014942
4213.000000;2.029760
4212.000000;2.038879
4211.000000;2.042878
4210.000000;2.048960
4209.000000;2.056919
4208.000000;2.062515
4207.000000;2.069009
4206.000000;2.081921
4205.000000;2.097445
4204.000000;2.107583
4203.000000;2.113383
4202.000000;2.120450
4201.000000;2.126358
4200.000000;2.127117
4199.000000;2.129090
4198.000000;2.139606
4197.000000;2.153140
4196.000000;2.159301
4195.000000;2.161434
4194.000000;2.168587
4193.000000;2.176759
4192.000000;2.176177
4191.000000;2.172309
4190.000000;2.177893
4189.000000;2.192191
4188.000000;2.204157
4187.000000;2.211336
4186.000000;2.220711
4185.000000;2.231592
4184.000000;2.236775
4183.000000;2.238382
4182.000000;2.244553
4181.000000;2.254544
4180.000000;2.261044
4179.000000;2.264174
4178.000000;2.269008
4177.000000;2.273566
4176.000000;2.273561
4175.000000;2.274714
4174.000000;2.283987
4173.000000;2.296927
4172.000000;2.306123
4171.000000;2.314573
4170.000000;2.324922
4169.000000;2.328720
4168.000000;2.322939
4167.000000;2.322874
4166.000000;2.338703
4165.000000;2.356710
4164.000000;2.358671
4163.000000;2.352606
4162.000000;2.354497
4161.000000;2.359100
4160.000000;2.354695
4159.000000;2.348611
4158.000000;2.355316
4157.000000;2.370477
4156.000000;2.379298
4155.000000;2.383132
4154.000000;2.392661
4153.000000;2.403815
4152.000000;2.404721
4151.000000;2.400205
4150.000000;2.402214
4149.000000;2.407675
4148.000000;2.409438
4147.000000;2.415225
4146.000000;2.431657
4145.000000;2.446630
4144.000000;2.448343
4143.000000;2.449175
4142.000000;2.464584
4141.000000;2.484754
4140.000000;2.491147
4139.000000;2.493035
4138.000000;2.507225
4137.000000;2.525041
4136.000000;2.529184
4135.000000;2.531255
4134.000000;2.548454
4133.000000;2.567217
4132.000000;2.564213
4131.000000;2.548767
4130.000000;2.542706
4129.000000;2.540363
4128.000000;2.532827
4127.000000;2.535579
4126.000000;2.557722
4125.000000;2.576247
4124.000000;2.569139
4123.000000;2.558413
4122.000000;2.572915
4121.000000;2.601861
4120.000000;2.610017
4119.000000;2.599997
4118.000000;2.602523
4117.000000;2.617847
4116.000000;2.625518
4115.000000;2.631352
4114.000000;2.651441
4113.000000;2.673885
4112.000000;2.676907
4111.000000;2.675660
4110.000000;2.696595
4109.000000;2.725740
4108.000000;2.731485
4107.000000;2.729986
4106.000000;2.750063
4105.000000;2.769070
4104.000000;2.753980
4103.000000;2.720475
4102.000000;2.695785
4101.000000;2.678761
4100.000000;2.651384
4099.000000;2.632995
4098.000000;2.650239
4097.000000;2.684916
4096.000000;2.699681
4095.000000;2.702589
4094.000000;2.730718
4093.000000;2.773841
4092.000000;2.781120
4091.000000;2.758902
4090.000000;2.751068
4089.000000;2.763070
4088.000000;2.759730
4087.000000;2.734106
4086.000000;2.714540
4085.000000;2.712813
4084.000000;2.722405
4083.000000;2.746108
4082.000000;2.783480
4081.000000;2.798571
4080.000000;2.764797
4079.000000;2.728980
4078.000000;2.731864
4077.000000;2.758624
4076.000000;2.772988
4075.000000;2.776494
4074.000000;2.796027
4073.000000;2.816337
4072.000000;2.806308
4071.000000;2.792736
4070.000000;2.799964
4069.000000;2.805025
4068.000000;2.783424
4067.000000;2.764901
4066.000000;2.777533
4065.000000;2.794517
4064.000000;2.781085
4063.000000;2.752256
4062.000000;2.745294
4061.000000;2.758170
4060.000000;2.758621
4059.000000;2.765957
4058.000000;2.815757
4057.000000;2.891840
4056.000000;2.927136
4055.000000;2.910810
4054.000000;2.898332
4053.000000;2.893254
4052.000000;2.874266
4051.000000;2.871811
4050.000000;2.911659
4049.000000;2.953188
4048.000000;2.936513
4047.000000;2.885526
4046.000000;2.853948
4045.000000;2.837101
4044.000000;2.820823
4043.000000;2.835440
4042.000000;2.900541
4041.000000;2.969585
4040.000000;2.969454
4039.000000;2.925787
4038.000000;2.916485
4037.000000;2.944217
4036.000000;2.962100
4035.000000;2.982995
4034.000000;3.031126
4033.000000;3.063662
4032.000000;3.033221
4031.000000;2.990325
4030.000000;2.996054
4029.000000;3.022883
4028.000000;2.993257
4027.000000;2.961953
4026.000000;2.985002
4025.000000;3.032134
4024.000000;3.065917
4023.000000;3.104455
4022.000000;3.169079
4021.000000;3.183566
4020.000000;3.105560
4019.000000;3.031468
4018.000000;3.009290
4017.000000;3.010709
4016.000000;2.995282
4015.000000;3.003172
4014.000000;3.076049
4013.000000;3.154163
4012.000000;3.142717
4011.000000;3.103527
4010.000000;3.107609
4009.000000;3.115884
4008.000000;3.081381
4007.000000;3.063216
4006.000000;3.099502
4005.000000;3.125304
4004.000000;3.060012
4003.000000;2.992968
4002.000000;2.991019
4001.000000;3.018266
4000.000000;3.002937
3999.000000;2.978541
3998.000000;3.008639
3997.000000;3.074974
3996.000000;3.110208
3995.000000;3.116656
3994.000000;3.132682
3993.000000;3.135430
3992.000000;3.095491
3991.000000;3.059365
3990.000000;3.073065
3989.000000;3.074017
3988.000000;2.995802
3987.000000;2.942545
3986.000000;2.982762
3985.000000;3.082525
3984.000000;3.142496
3983.000000;3.168741
3982.000000;3.213830
3981.000000;3.223183
3980.000000;3.185714
3979.000000;3.179920
3978.000000;3.258315
3977.000000;3.406196
3976.000000;3.472897
3975.000000;3.374827
3974.000000;3.231107
3973.000000;3.139314
3972.000000;3.053823
3971.000000;2.995805
3970.000000;3.006800
3969.000000;3.055687
3968.000000;3.059745
3967.000000;3.057615
3966.000000;3.109275
3965.000000;3.147764
3964.000000;3.123896
3963.000000;3.118696
3962.000000;3.185939
3961.000000;3.255851
3960.000000;3.238528
3959.000000;3.205505
3958.000000;3.224630
3957.000000;3.278111
3956.000000;3.248634
3955.000000;3.129287
3954.000000;3.059771
3953.000000;3.042307
3952.000000;3.021380
3951.000000;3.020705
3950.000000;3.092954
3949.000000;3.187491
3948.000000;3.181442
3947.000000;3.152959
3946.000000;3.234564
3945.000000;3.405960
3944.000000;3.477078
3943.000000;3.433726
3942.000000;3.337234
3941.000000;3.166527
3940.000000;3.014531
3939.000000;2.970836
3938.000000;3.046379
3937.000000;3.201946
3936.000000;3.344331
3935.000000;3.389118
3934.000000;3.410769
3933.000000;3.514474
3932.000000;3.599599
3931.000000;3.456200
3930.000000;3.336684
3929.000000;3.319123
3928.000000;3.243760
3927.000000;3.225657
3926.000000;3.332350
3925.000000;3.400255
3924.000000;3.330052
3923.000000;3.246206
3922.000000;3.269739
3921.000000;3.358831
3920.000000;3.287281
3919.000000;3.214095
3918.000000;3.277270
3917.000000;3.378858
3916.000000;3.387084
3915.000000;3.406127
3914.000000;3.496002
3913.000000;3.563850
3912.000000;3.498072
3911.000000;3.428267
3910.000000;3.488613
3909.000000;3.540235
3908.000000;3.568485
3907.000000;3.848658
3906.000000;4.456630
3905.000000;4.481229
3904.000000;3.979586
3903.000000;3.575850
3902.000000;3.454741
3901.000000;3.591685
3900.000000;3.835071
3899.000000;3.936251
3898.000000;4.180574
3897.000000;3.893526
3896.000000;3.812881
3895.000000;3.900067
3894.000000;3.599947
3893.000000;3.597806
3892.000000;3.756253
3891.000000;3.526026
3890.000000;3.439453
3889.000000;3.682589
3888.000000;3.773206
3887.000000;3.757027
3886.000000;3.829752
3885.000000;3.846653
3884.000000;3.877409
3883.000000;3.889551
3882.000000;4.101001
3881.000000;4.207841
3880.000000;3.683994
3879.000000;3.409298
3878.000000;3.528016
3877.000000;3.651397
3876.000000;3.599140
3875.000000;3.689940
3874.000000;3.461940
3873.000000;3.404147
3872.000000;3.747604
3871.000000;3.595818
3870.000000;3.626121
3869.000000;3.652120
3868.000000;3.594798
3867.000000;3.823420
3866.000000;4.404500
3865.000000;4.108294
3864.000000;3.848043
3863.000000;3.508326
3862.000000;3.295080
3861.000000;3.333062
3860.000000;3.451550
3859.000000;3.455734
3858.000000;3.641958
3857.000000;4.027663
3856.000000;4.016646
3855.000000;4.837788
3854.000000;4.787963
3853.000000;5.560117
3852.000000;5.164058
3851.000000;4.919289
3850.000000;4.843597
3849.000000;4.530241
3848.000000;4.332888
3847.000000;4.057067
3846.000000;3.787461
3845.000000;3.770432
3844.000000;3.615542
3843.000000;3.459647
3842.000000;3.502628
3841.000000;3.754773
3840.000000;4.084355
3839.000000;4.112341
3838.000000;4.306891
3837.000000;4.111346
3836.000000;3.801634
3835.000000;3.806165
3834.000000;3.882591
3833.000000;3.748857
3832.000000;3.560079
3831.000000;3.689261
3830.000000;3.634174
3829.000000;3.480815
3828.000000;3.849436
3827.000000;3.835352
3826.000000;3.492251
3825.000000;3.383123
3824.000000;3.421622
3823.000000;3.565382
3822.000000;3.676712
3821.000000;3.542873
3820.000000;3.437528
3819.000000;3.742636
3818.000000;4.143958
3817.000000;4.376789
3816.000000;4.100479
3815.000000;3.931326
3814.000000;4.087257
3813.000000;4.204202
3812.000000;4.481785
3811.000000;4.489927
3810.000000;3.698331
3809.000000;3.579270
3808.000000;3.598370
3807.000000;3.502238
3806.000000;3.461123
3805.000000;3.596401
3804.000000;3.872088
3803.000000;3.983140
3802.000000;4.034098
3801.000000;4.387496
3800.000000;4.357642
3799.000000;4.076721
3798.000000;3.889586
3797.000000;3.734647
3796.000000;3.519464
3795.000000;3.332387
3794.000000;3.468244
3793.000000;3.768558
3792.000000;3.850967
3791.000000;3.862531
3790.000000;3.752211
3789.000000;3.828784
3788.000000;3.377859
3787.000000;3.289033
3786.000000;3.376298
3785.000000;3.359357
3784.000000;3.433545
3783.000000;3.817014
3782.000000;3.956185
3781.000000;3.734602
3780.000000;3.594291
3779.000000;3.691600
3778.000000;3.488345
3777.000000;3.250020
3776.000000;3.402546
3775.000000;3.681960
3774.000000;3.762696
3773.000000;3.658915
3772.000000;3.781796
3771.000000;4.178685
3770.000000;4.239682
3769.000000;3.574119
3768.000000;3.264171
3767.000000;3.354782
3766.000000;3.820311
3765.000000;3.999533
3764.000000;3.611487
3763.000000;3.385902
3762.000000;3.313581
3761.000000;3.337459
3760.000000;3.444772
3759.000000;3.685824
3758.000000;4.013801
3757.000000;3.795749
3756.000000;3.461096
3755.000000;3.456538
3754.000000;3.694577
3753.000000;3.941495
3752.000000;4.007654
3751.000000;3.964356
3750.000000;3.953549
3749.000000;4.022560
3748.000000;4.147464
3747.000000;4.270155
3746.000000;4.437814
3745.000000;4.503228
3744.000000;4.425890
3743.000000;4.425994
3742.000000;4.391777
3741.000000;4.597888
3740.000000;4.185605
3739.000000;4.082235
3738.000000;4.261471
3737.000000;3.683615
3736.000000;3.668450
3735.000000;3.774463
3734.000000;3.711204
3733.000000;3.641071
3732.000000;3.982245
3731.000000;4.381816
3730.000000;3.958249
3729.000000;4.322088
3728.000000;4.090402
3727.000000;3.981568
3726.000000;3.970818
3725.000000;3.905767
3724.000000;3.825310
3723.000000;3.750444
3722.000000;3.743365
3721.000000;3.785931
3720.000000;3.565734
3719.000000;3.383075
3718.000000;3.468669
3717.000000;3.944675
3716.000000;3.863393
3715.000000;3.589367
3714.000000;3.662861
3713.000000;3.796420
3712.000000;3.934333
3711.000000;3.904523
3710.000000;3.577391
3709.000000;3.455905
3708.000000;3.362708
3707.000000;3.289527
3706.000000;3.286958
3705.000000;3.332904
3704.000000;3.562685
3703.000000;3.885001
3702.000000;3.725258
3701.000000;3.987774
3700.000000;4.076184
3699.000000;3.796549
3698.000000;4.195457
3697.000000;3.962177
3696.000000;3.808549
3695.000000;3.748881
3694.000000;3.678725
3693.000000;3.525201
3692.000000;3.431598
3691.000000;3.454043
3690.000000;3.503731
3689.000000;3.531680
3688.000000;3.579621
3687.000000;3.819836
3686.000000;4.314164
3685.000000;4.890146
3684.000000;4.450414
3683.000000;4.206790
3682.000000;3.879638
3681.000000;3.622307
3680.000000;3.625687
3679.000000;3.610017
3678.000000;3.458515
3677.000000;3.493206
3676.000000;3.755612
3675.000000;3.951086
3674.000000;4.020102
3673.000000;3.793992
3672.000000;3.718104
3671.000000;3.915571
3670.000000;4.137382
3669.000000;3.984765
3668.000000;3.877799
3667.000000;4.499027
3666.000000;4.127170
3665.000000;3.940311
3664.000000;3.847713
3663.000000;3.636131
3662.000000;3.807445
3661.000000;3.718830
3660.000000;3.526188
3659.000000;3.687278
3658.000000;3.799001
3657.000000;3.688355
3656.000000;3.870120
3655.000000;4.173477
3654.000000;3.870959
3653.000000;3.680528
3652.000000;3.497590
3651.000000;3.488667
3650.000000;3.656359
3649.000000;3.458866
3648.000000;3.387372
3647.000000;3.601735
3646.000000;3.619577
3645.000000;3.582811
3644.000000;3.525892
3643.000000;3.467715
3642.000000;3.352023
3641.000000;3.291818
3640.000000;3.343130
3639.000000;3.362370
3638.000000;3.452393
3637.000000;3.524850
3636.000000;3.564737
3635.000000;4.067909
3634.000000;3.895926
3633.000000;3.628716
3632.000000;3.502372
3631.000000;3.467922
3630.000000;3.671866
3629.000000;3.832510
3628.000000;3.724003
3627.000000;3.642345
3626.000000;3.754363
3625.000000;4.110579
3624.000000;4.443431
3623.000000;4.297266
3622.000000;4.033687
3621.000000;3.627028
3620.000000;3.430922
3619.000000;3.450292
3618.000000;3.441155
3617.000000;3.294243
3616.000000;3.310455
3615.000000;3.529913
3614.000000;3.510891
3613.000000;3.486666
3612.000000;3.775409
3611.000000;3.677116
3610.000000;3.631983
3609.000000;3.782850
3608.000000;3.809179
3607.000000;3.686441
3606.000000;3.623981
3605.000000;3.855613
3604.000000;4.103962
3603.000000;4.139277
3602.000000;4.020661
3601.000000;3.882135
3600.000000;3.962891
3599.000000;4.297651
3598.000000;4.300449
3597.000000;3.635297
3596.000000;3.461715
3595.000000;3.481709
3594.000000;3.524701
3593.000000;3.493895
3592.000000;3.600434
3591.000000;4.014518
3590.000000;4.392444
3589.000000;3.982413
3588.000000;3.749247
3587.000000;3.801241
3586.000000;3.859973
3585.000000;3.831368
3584.000000;3.645127
3583.000000;3.562817
3582.000000;3.852410
3581.000000;3.856283
3580.000000;3.728868
3579.000000;3.893170
3578.000000;3.800470
3577.000000;3.759401
3576.000000;3.959006
3575.000000;4.223432
3574.000000;4.225779
3573.000000;3.898575
3572.000000;3.840758
3571.000000;3.961648
3570.000000;3.649573
3569.000000;3.495641
3568.000000;3.418591
3567.000000;3.326296
3566.000000;3.198532
3565.000000;3.077639
3564.000000;3.060053
3563.000000;3.153277
3562.000000;3.318231
3561.000000;3.444276
3560.000000;3.455548
3559.000000;3.546232
3558.000000;3.776575
3557.000000;3.745159
3556.000000;3.707010
3555.000000;3.624984
3554.000000;3.356882
3553.000000;3.253803
3552.000000;3.393224
3551.000000;3.858884
3550.000000;3.834457
3549.000000;3.503666
3548.000000;3.328303
3547.000000;3.222065
3546.000000;3.274571
3545.000000;3.526396
3544.000000;3.852122
3543.000000;3.735574
3542.000000;3.509786
3541.000000;3.519757
3540.000000;3.666307
3539.000000;3.697037
3538.000000;3.844145
3537.000000;3.606422
3536.000000;3.301618
3535.000000;3.245148
3534.000000;3.285315
3533.000000;3.266692
3532.000000;3.222609
3531.000000;3.302243
3530.000000;3.497528
3529.000000;3.571678
3528.000000;3.456702
3527.000000;3.401535
3526.000000;3.508649
3525.000000;3.751464
3524.000000;3.811645
3523.000000;3.725928
3522.000000;3.884942
3521.000000;3.720764
3520.000000;3.348839
3519.000000;3.296027
3518.000000;3.419395
3517.000000;3.440119
3516.000000;3.466080
3515.000000;3.743810
3514.000000;3.887261
3513.000000;3.830635
3512.000000;4.222582
3511.000000;3.896827
3510.000000;3.681822
3509.000000;3.958455
3508.000000;4.745918
3507.000000;4.444244
3506.000000;4.010199
3505.000000;3.902601
3504.000000;3.756522
3503.000000;3.979039
3502.000000;3.881006
3501.000000;3.462552
3500.000000;3.410746
3499.000000;3.552250
3498.000000;3.631279
3497.000000;3.670353
3496.000000;3.964345
3495.000000;3.820765
3494.000000;3.731948
3493.000000;4.119711
3492.000000;3.897947
3491.000000;3.631280
3490.000000;3.718665
3489.000000;3.848258
3488.000000;3.750295
3487.000000;3.637657
3486.000000;3.664254
3485.000000;3.776378
3484.000000;3.725507
3483.000000;3.941790
3482.000000;4.196021
3481.000000;3.814235
3480.000000;3.803912
3479.000000;4.285111
3478.000000;4.055295
3477.000000;3.921483
3476.000000;4.477220
3475.000000;3.725524
3474.000000;3.451521
3473.000000;3.559602
3472.000000;3.805263
3471.000000;3.696272
3470.000000;3.426748
3469.000000;3.383178
3468.000000;3.500445
3467.000000;3.579471
3466.000000;3.605115
3465.000000;3.425691
3464.000000;3.256813
3463.000000;3.236951
3462.000000;3.239191
3461.000000;3.281339
3460.000000;3.363184
3459.000000;3.488802
3458.000000;3.966676
3457.000000;3.961611
3456.000000;3.488529
3455.000000;3.360649
3454.000000;3.460584
3453.000000;3.547287
3452.000000;3.443533
3451.000000;3.625646
3450.000000;3.611234
3449.000000;3.343570
3448.000000;3.352376
3447.000000;3.519363
3446.000000;3.673948
3445.000000;3.679037
3444.000000;3.718193
3443.000000;3.725966
3442.000000;3.766236
3441.000000;3.928740
3440.000000;3.702342
3439.000000;3.617016
3438.000000;3.773212
3437.000000;3.871042
3436.000000;3.688759
3435.000000;3.486435
3434.000000;3.463346
3433.000000;3.517234
3432.000000;3.405930
3431.000000;3.297687
3430.000000;3.397775
3429.000000;3.603191
3428.000000;3.490882
3427.000000;3.330691
3426.000000;3.355581
3425.000000;3.506906
3424.000000;3.667098
3423.000000;3.831916
3422.000000;4.138689
3421.000000;3.948928
3420.000000;3.685849
3419.000000;3.728809
3418.000000;3.873112
3417.000000;3.829235
3416.000000;3.536898
3415.000000;3.382744
3414.000000;3.410145
3413.000000;3.432738
3412.000000;3.508393
3411.000000;3.606649
3410.000000;3.538358
3409.000000;3.838795
3408.000000;4.203476
3407.000000;3.897008
3406.000000;3.919532
3405.000000;3.587240
3404.000000;3.481318
3403.000000;3.583829
3402.000000;3.823383
3401.000000;3.972924
3400.000000;3.840811
3399.000000;3.696097
3398.000000;3.690855
3397.000000;4.208921
3396.000000;3.882477
3395.000000;3.568678
3394.000000;3.624551
3393.000000;3.605445
3392.000000;3.466662
3391.000000;3.486354
3390.000000;3.738292
3389.000000;3.925159
3388.000000;3.789727
3387.000000;3.582282
3386.000000;3.634648
3385.000000;3.685122
3384.000000;3.518636
3383.000000;3.673049
3382.000000;4.308702
3381.000000;4.102176
3380.000000;3.564765
3379.000000;3.510348
3378.000000;3.760601
3377.000000;4.080621
3376.000000;4.112035
3375.000000;3.572593
3374.000000;3.390003
3373.000000;3.552693
3372.000000;3.829037
3371.000000;4.019548
3370.000000;3.775952
3369.000000;3.446226
3368.000000;3.372471
3367.000000;3.484043
3366.000000;3.472529
3365.000000;3.523933
3364.000000;3.804044
3363.000000;3.549561
3362.000000;3.630080
3361.000000;3.841071
3360.000000;3.448152
3359.000000;3.439439
3358.000000;3.433937
3357.000000;3.347046
3356.000000;3.419512
3355.000000;3.505608
3354.000000;3.475669
3353.000000;3.440658
3352.000000;3.620222
3351.000000;3.806431
3350.000000;3.543985
3349.000000;3.561195
3348.000000;3.875907
3347.000000;3.921348
3346.000000;3.791018
3345.000000;3.736955
3344.000000;3.604060
3343.000000;3.560951
3342.000000;3.795038
3341.000000;3.540298
3340.000000;3.302058
3339.000000;3.336514
3338.000000;3.415131
3337.000000;3.431327
3336.000000;3.486858
3335.000000;3.668921
3334.000000;3.838973
3333.000000;4.147588
3332.000000;4.316734
3331.000000;3.711342
3330.000000;3.847097
3329.000000;4.332400
3328.000000;3.721741
3327.000000;3.585515
3326.000000;3.548407
3325.000000;3.436004
3324.000000;3.314542
3323.000000;3.272366
3322.000000;3.367943
3321.000000;3.410751
3320.000000;3.389624
3319.000000;3.452048
3318.000000;3.672191
3317.000000;4.409411
3316.000000;4.102110
3315.000000;3.800144
3314.000000;3.470189
3313.000000;3.263009
3312.000000;3.308575
3311.000000;3.476450
3310.000000;3.586190
3309.000000;3.619415
3308.000000;3.675156
3307.000000;3.817290
3306.000000;4.126008
3305.000000;3.741289
3304.000000;3.569801
3303.000000;3.870115
3302.000000;3.941483
3301.000000;3.597535
3300.000000;3.683246
3299.000000;3.679295
3298.000000;3.431218
3297.000000;3.489103
3296.000000;3.576983
3295.000000;3.565621
3294.000000;3.946110
3293.000000;3.750681
3292.000000;3.435697
3291.000000;3.490094
3290.000000;3.524978
3289.000000;3.394745
3288.000000;3.346605
3287.000000;3.447468
3286.000000;3.478915
3285.000000;3.501192
3284.000000;3.554008
3283.000000;3.502356
3282.000000;3.597096
3281.000000;3.684971
3280.000000;3.508226
3279.000000;3.455151
3278.000000;3.498174
3277.000000;3.412759
3276.000000;3.451556
3275.000000;3.726883
3274.000000;3.733458
3273.000000;3.641086
3272.000000;3.697525
3271.000000;3.745225
3270.000000;3.957327
3269.000000;3.827646
3268.000000;3.502577
3267.000000;3.554207
3266.000000;3.899932
3265.000000;3.946373
3264.000000;3.652094
3263.000000;3.504594
3262.000000;3.582148
3261.000000;3.833256
3260.000000;4.172266
3259.000000;4.054727
3258.000000;3.638313
3257.000000;3.532333
3256.000000;3.590799
3255.000000;3.530886
3254.000000;3.624154
3253.000000;4.086556
3252.000000;3.800989
3251.000000;3.494893
3250.000000;3.481246
3249.000000;3.611196
3248.000000;3.602009
3247.000000;3.788757
3246.000000;3.726923
3245.000000;3.371731
3244.000000;3.585334
3243.000000;3.763665
3242.000000;3.421547
3241.000000;3.251095
3240.000000;3.121115
3239.000000;3.111856
3238.000000;3.270507
3237.000000;3.577686
3236.000000;3.661840
3235.000000;3.516997
3234.000000;3.406269
3233.000000;3.364210
3232.000000;3.313056
3231.000000;3.323590
3230.000000;3.458429
3229.000000;3.678448
3228.000000;4.166977
3227.000000;3.968282
3226.000000;3.814319
3225.000000;3.709874
3224.000000;3.493492
3223.000000;3.454535
3222.000000;3.437164
3221.000000;3.632523
3220.000000;4.000373
3219.000000;3.891851
3218.000000;3.918151
3217.000000;3.935410
3216.000000;3.837145
3215.000000;3.630646
3214.000000;3.890890
3213.000000;3.937153
3212.000000;3.498804
3211.000000;3.535775
3210.000000;3.516623
3209.000000;3.514371
3208.000000;3.724349
3207.000000;3.734966
3206.000000;3.917276
3205.000000;4.234992
3204.000000;3.760598
3203.000000;3.574035
3202.000000;3.493961
3201.000000;3.484553
3200.000000;3.557425
3199.000000;3.720335
3198.000000;3.668961
3197.000000;3.419250
3196.000000;3.361986
3195.000000;3.474377
3194.000000;3.477684
3193.000000;3.386963
3192.000000;3.443669
3191.000000;3.350848
3190.000000;3.277933
3189.000000;3.428297
3188.000000;3.549515
3187.000000;3.439633
3186.000000;3.462690
3185.000000;3.630424
3184.000000;3.517652
3183.000000;3.489619
3182.000000;3.608989
3181.000000;3.489835
3180.000000;3.454390
3179.000000;3.697795
3178.000000;3.688189
3177.000000;3.421608
3176.000000;3.505920
3175.000000;3.953748
3174.000000;3.793125
3173.000000;3.511185
3172.000000;3.315374
3171.000000;3.424253
3170.000000;3.898604
3169.000000;3.460020
3168.000000;3.308064
3167.000000;3.375200
3166.000000;3.352900
3165.000000;3.281482
3164.000000;3.367658
3163.000000;3.784970
3162.000000;3.969941
3161.000000;4.115052
3160.000000;4.196520
3159.000000;3.927704
3158.000000;3.633191
3157.000000;3.544968
3156.000000;3.959000
3155.000000;4.024862
3154.000000;4.036691
3153.000000;4.812521
3152.000000;4.210925
3151.000000;3.779219
3150.000000;3.475429
3149.000000;3.307489
3148.000000;3.392452
3147.000000;3.561119
3146.000000;3.743636
3145.000000;4.267651
3144.000000;3.648319
3143.000000;3.804317
3142.000000;4.217508
3141.000000;3.609700
3140.000000;3.669186
3139.000000;3.675723
3138.000000;3.666671
3137.000000;3.570041
3136.000000;3.399945
3135.000000;3.421625
3134.000000;3.392447
3133.000000;3.293354
3132.000000;3.308527
3131.000000;3.505928
3130.000000;3.770723
3129.000000;3.667995
3128.000000;3.468657
3127.000000;3.424578
3126.000000;3.531663
3125.000000;3.521917
3124.000000;3.345069
3123.000000;3.313863
3122.000000;3.448148
3121.000000;3.459053
3120.000000;3.351783
3119.000000;3.341266
3118.000000;3.398326
3117.000000;3.339504
3116.000000;3.600845
3115.000000;3.972391
3114.000000;3.323223
3113.000000;3.381013
3112.000000;3.578858
3111.000000;3.574366
3110.000000;3.794453
3109.000000;3.622760
3108.000000;3.713141
3107.000000;3.721651
3106.000000;3.531797
3105.000000;3.678638
3104.000000;3.553108
3103.000000;3.381578
3102.000000;3.480398
3101.000000;3.505286
3100.000000;3.673750
3099.000000;4.098129
3098.000000;3.614953
3097.000000;3.510414
3096.000000;3.448088
3095.000000;3.283693
3094.000000;3.343820
3093.000000;3.583887
3092.000000;3.727472
3091.000000;3.572672
3090.000000;3.373645
3089.000000;3.320336
3088.000000;3.561678
3087.000000;3.945453
3086.000000;3.662778
3085.000000;3.558554
3084.000000;3.453520
3083.000000;3.295970
3082.000000;3.235273
3081.000000;3.298065
3080.000000;3.374667
3079.000000;3.472736
3078.000000;3.999526
3077.000000;3.700383
3076.000000;3.431771
3075.000000;3.733112
3074.000000;3.952920
3073.000000;3.702403
3072.000000;3.533220
3071.000000;3.440159
3070.000000;3.394472
3069.000000;3.312519
3068.000000;3.275955
3067.000000;3.350277
3066.000000;3.466737
3065.000000;3.444225
3064.000000;3.317640
3063.000000;3.349784
3062.000000;3.645123
3061.000000;3.561761
3060.000000;3.388630
3059.000000;3.590847
3058.000000;3.951234
3057.000000;3.757350
3056.000000;3.438823
3055.000000;3.356290
3054.000000;3.432860
3053.000000;3.426605
3052.000000;3.316634
3051.000000;3.306740
3050.000000;3.466549
3049.000000;3.547766
3048.000000;3.533603
3047.000000;3.434253
3046.000000;3.529727
3045.000000;4.185584
3044.000000;3.649151
3043.000000;3.479575
3042.000000;3.713724
3041.000000;3.866484
3040.000000;3.697202
3039.000000;3.484396
3038.000000;3.593736
3037.000000;4.046033
3036.000000;4.515324
3035.000000;4.596454
3034.000000;4.064686
3033.000000;4.050060
3032.000000;4.380287
3031.000000;4.150054
3030.000000;3.693449
3029.000000;3.617867
3028.000000;3.878558
3027.000000;4.308020
3026.000000;4.087586
3025.000000;3.717336
3024.000000;3.479692
3023.000000;3.469037
3022.000000;3.968171
3021.000000;3.670595
3020.000000;3.253306
3019.000000;3.204952
3018.000000;3.300864
3017.000000;3.375948
3016.000000;3.600167
3015.000000;3.841730
3014.000000;3.446250
3013.000000;3.454469
3012.000000;3.519970
3011.000000;3.420547
3010.000000;3.722856
3009.000000;4.097076
3008.000000;3.863766
3007.000000;4.353434
3006.000000;4.489085
3005.000000;3.731655
3004.000000;3.482752
3003.000000;3.488527
3002.000000;3.373329
3001.000000;3.185954
3000.000000;3.236300
2999.000000;3.370240
2998.000000;3.306397
2997.000000;3.365764
2996.000000;3.667009
2995.000000;3.953840
2994.000000;4.231323
2993.000000;3.693891
2992.000000;3.481930
2991.000000;3.637941
2990.000000;3.870815
2989.000000;3.704567
2988.000000;3.418814
2987.000000;3.328072
2986.000000;3.445091
2985.000000;3.720413
2984.000000;3.844121
2983.000000;3.667850
2982.000000;3.468971
2981.000000;3.339120
2980.000000;3.456295
2979.000000;3.691580
2978.000000;3.523012
2977.000000;3.569935
2976.000000;3.627673
2975.000000;3.557187
2974.000000;3.494153
2973.000000;3.455684
2972.000000;3.889298
2971.000000;4.036380
2970.000000;3.603232
2969.000000;3.684902
2968.000000;3.704111
2967.000000;3.402806
2966.000000;3.310850
2965.000000;3.406986
2964.000000;3.408962
2963.000000;3.334174
2962.000000;3.376207
2961.000000;3.637819
2960.000000;3.923585
2959.000000;4.066744
2958.000000;3.902293
2957.000000;3.497175
2956.000000;3.565186
2955.000000;4.072473
2954.000000;3.957508
2953.000000;3.696791
2952.000000;3.553501
2951.000000;3.507468
2950.000000;3.524530
2949.000000;3.508913
2948.000000;3.479711
2947.000000;3.542910
2946.000000;4.047644
2945.000000;3.934391
2944.000000;3.658345
2943.000000;3.791647
2942.000000;3.604114
2941.000000;3.477460
2940.000000;3.588412
2939.000000;3.930443
2938.000000;3.941124
2937.000000;3.937442
2936.000000;4.399316
2935.000000;4.004362
2934.000000;3.814374
2933.000000;3.928449
2932.000000;4.253455
2931.000000;4.344756
2930.000000;3.544197
2929.000000;3.338367
2928.000000;3.430652
2927.000000;3.526574
2926.000000;3.673307
2925.000000;4.051366
2924.000000;4.372981
2923.000000;3.870987
2922.000000;3.519038
2921.000000;3.732762
2920.000000;4.233526
2919.000000;3.865950
2918.000000;3.782728
2917.000000;4.031586
2916.000000;3.924944
2915.000000;3.598889
2914.000000;3.617304
2913.000000;3.712983
2912.000000;3.522407
2911.000000;3.461245
2910.000000;3.719177
2909.000000;3.676230
2908.000000;3.418194
2907.000000;3.361284
2906.000000;3.504392
2905.000000;3.606673
2904.000000;3.668119
2903.000000;4.118479
2902.000000;3.879719
2901.000000;3.719180
2900.000000;3.934833
2899.000000;4.124791
2898.000000;3.785044
2897.000000;3.614593
2896.000000;3.719709
2895.000000;3.996302
2894.000000;3.786366
2893.000000;3.485969
2892.000000;3.511283
2891.000000;3.612259
2890.000000;3.469517
2889.000000;3.349651
2888.000000;3.376426
2887.000000;3.406583
2886.000000;3.380265
2885.000000;3.534227
2884.000000;3.676773
2883.000000;3.481338
2882.000000;3.523866
2881.000000;3.688651
2880.000000;3.916115
2879.000000;3.827836
2878.000000;3.379771
2877.000000;3.293175
2876.000000;3.353679
2875.000000;3.329742
2874.000000;3.265042
2873.000000;3.343328
2872.000000;3.709356
2871.000000;4.103965
2870.000000;4.107599
2869.000000;4.009229
2868.000000;3.528171
2867.000000;3.527432
2866.000000;3.916326
2865.000000;3.729573
2864.000000;3.551967
2863.000000;3.389108
2862.000000;3.220128
2861.000000;3.269257
2860.000000;3.588632
2859.000000;3.983801
2858.000000;3.737442
2857.000000;3.482711
2856.000000;3.480151
2855.000000;3.678143
2854.000000;3.668805
2853.000000;3.452865
2852.000000;3.544531
2851.000000;3.898663
2850.000000;3.735582
2849.000000;3.703608
2848.000000;3.641233
2847.000000;3.671248
2846.000000;3.951406
2845.000000;3.848901
2844.000000;3.594605
2843.000000;3.618606
2842.000000;3.996760
2841.000000;3.740841
2840.000000;3.393990
2839.000000;3.450750
2838.000000;3.678171
2837.000000;3.667741
2836.000000;3.857682
2835.000000;4.263316
2834.000000;4.053754
2833.000000;3.984213
2832.000000;4.090015
2831.000000;4.401175
2830.000000;3.880565
2829.000000;3.766926
2828.000000;3.811677
2827.000000;3.606345
2826.000000;3.615812
2825.000000;3.594545
2824.000000;3.486589
2823.000000;3.417199
2822.000000;3.334213
2821.000000;3.460483
2820.000000;3.906201
2819.000000;3.710796
2818.000000;3.900379
2817.000000;4.389820
2816.000000;3.607274
2815.000000;3.664123
2814.000000;3.715737
2813.000000;3.457218
2812.000000;3.258764
2811.000000;3.233795
2810.000000;3.387982
2809.000000;3.496302
2808.000000;3.407882
2807.000000;3.371991
2806.000000;3.591501
2805.000000;3.831176
2804.000000;3.858646
2803.000000;3.616469
2802.000000;3.551291
2801.000000;4.028832
2800.000000;3.540211
2799.000000;3.350481
2798.000000;3.644608
2797.000000;4.075104
2796.000000;3.615537
2795.000000;3.517555
2794.000000;3.452661
2793.000000;3.276613
2792.000000;3.170156
2791.000000;3.166520
2790.000000;3.296868
2789.000000;3.399271
2788.000000;3.682038
2787.000000;4.016744
2786.000000;3.554876
2785.000000;3.553691
2784.000000;3.798826
2783.000000;3.722847
2782.000000;3.568707
2781.000000;3.899844
2780.000000;3.948357
2779.000000;3.570616
2778.000000;3.659430
2777.000000;4.010822
2776.000000;3.806803
2775.000000;3.643842
2774.000000;3.923406
2773.000000;3.974445
2772.000000;3.628236
2771.000000;3.755727
2770.000000;3.645707
2769.000000;3.478187
2768.000000;3.645501
2767.000000;3.871276
2766.000000;3.734556
2765.000000;3.563491
2764.000000;3.523427
2763.000000;3.555400
2762.000000;3.662765
2761.000000;3.661425
2760.000000;3.400526
2759.000000;3.284085
2758.000000;3.387628
2757.000000;3.647166
2756.000000;4.189238
2755.000000;3.967213
2754.000000;3.538457
2753.000000;3.488872
2752.000000;3.788194
2751.000000;4.158178
2750.000000;3.857586
2749.000000;3.966824
2748.000000;3.637036
2747.000000;3.378142
2746.000000;3.331991
2745.000000;3.363985
2744.000000;3.441759
2743.000000;3.425941
2742.000000;3.321419
2741.000000;3.305625
2740.000000;3.501782
2739.000000;3.576113
2738.000000;3.453409
2737.000000;3.578731
2736.000000;3.723313
2735.000000;3.737850
2734.000000;3.658017
2733.000000;3.760922
2732.000000;3.539033
2731.000000;3.292462
2730.000000;3.459800
2729.000000;3.651049
2728.000000;3.642533
2727.000000;4.247819
2726.000000;4.032973
2725.000000;3.692529
2724.000000;3.731266
2723.000000;3.717415
2722.000000;3.530815
2721.000000;3.409518
2720.000000;3.418048
2719.000000;3.539307
2718.000000;3.599278
2717.000000;3.562398
2716.000000;3.717932
2715.000000;3.936375
2714.000000;3.809225
2713.000000;3.727200
2712.000000;3.809187
2711.000000;3.777116
2710.000000;3.524392
2709.000000;3.325289
2708.000000;3.251243
2707.000000;3.302148
2706.000000;3.442714
2705.000000;3.457813
2704.000000;3.365520
2703.000000;3.505913
2702.000000;4.038669
2701.000000;3.932032
2700.000000;3.833687
2699.000000;4.113086
2698.000000;3.771121
2697.000000;3.603650
2696.000000;4.051677
2695.000000;3.790475
2694.000000;3.476696
2693.000000;3.561646
2692.000000;3.565422
2691.000000;3.360557
2690.000000;3.229105
2689.000000;3.242005
2688.000000;3.365448
2687.000000;3.480690
2686.000000;3.767485
2685.000000;3.768304
2684.000000;3.443778
2683.000000;3.576658
2682.000000;4.050723
2681.000000;3.805051
2680.000000;3.575535
2679.000000;3.538859
2678.000000;3.382764
2677.000000;3.366842
2676.000000;3.488811
2675.000000;3.382814
2674.000000;3.329350
2673.000000;3.497617
2672.000000;3.728900
2671.000000;3.610060
2670.000000;3.329572
2669.000000;3.242746
2668.000000;3.376502
2667.000000;3.470959
2666.000000;3.431834
2665.000000;3.621541
2664.000000;4.044934
2663.000000;3.920514
2662.000000;3.495362
2661.000000;3.359556
2660.000000;3.526485
2659.000000;3.782880
2658.000000;3.592699
2657.000000;3.504304
2656.000000;3.713150
2655.000000;3.903142
2654.000000;3.774687
2653.000000;4.097436
2652.000000;3.946256
2651.000000;3.871331
2650.000000;3.655881
2649.000000;3.300739
2648.000000;3.200525
2647.000000;3.261112
2646.000000;3.448490
2645.000000;3.568469
2644.000000;3.602960
2643.000000;3.883214
2642.000000;3.802741
2641.000000;3.579107
2640.000000;3.810041
2639.000000;3.811237
2638.000000;3.537194
2637.000000;3.708994
2636.000000;3.783334
2635.000000;3.561772
2634.000000;3.510794
2633.000000;3.729716
2632.000000;4.335741
2631.000000;3.729906
2630.000000;3.488293
2629.000000;3.261610
2628.000000;3.230758
2627.000000;3.446711
2626.000000;3.782614
2625.000000;3.774195
2624.000000;3.545949
2623.000000;3.589658
2622.000000;4.102005
2621.000000;4.198219
2620.000000;4.088439
2619.000000;3.683409
2618.000000;3.586559
2617.000000;3.639893
2616.000000;3.393993
2615.000000;3.355927
2614.000000;3.540762
2613.000000;3.626462
2612.000000;3.533111
2611.000000;3.611817
2610.000000;3.804146
2609.000000;3.543191
2608.000000;3.453179
2607.000000;3.734674
2606.000000;3.754230
2605.000000;3.689756
2604.000000;4.128532
2603.000000;3.498067
2602.000000;3.377960
2601.000000;3.464130
2600.000000;3.446241
2599.000000;3.612542
2598.000000;3.963923
2597.000000;3.569465
2596.000000;3.402357
2595.000000;3.412968
2594.000000;3.436475
2593.000000;3.388120
2592.000000;3.323413
2591.000000;3.362266
2590.000000;3.488843
2589.000000;3.436544
2588.000000;3.361518
2587.000000;3.466378
2586.000000;3.681965
2585.000000;3.577338
2584.000000;3.392995
2583.000000;3.400876
2582.000000;3.380979
2581.000000;3.247489
2580.000000;3.317445
2579.000000;3.723471
2578.000000;3.770020
2577.000000;3.772387
2576.000000;3.773820
2575.000000;3.629282
2574.000000;3.877992
2573.000000;3.917785
2572.000000;3.793119
2571.000000;3.538216
2570.000000;3.348330
2569.000000;3.300567
2568.000000;3.276588
2567.000000;3.388577
2566.000000;3.482351
2565.000000;3.448682
2564.000000;3.455990
2563.000000;3.402716
2562.000000;3.339081
2561.000000;3.311869
2560.000000;3.344240
2559.000000;3.431010
2558.000000;3.414962
2557.000000;3.286577
2556.000000;3.265907
2555.000000;3.380733
2554.000000;3.582315
2553.000000;3.658991
2552.000000;3.816643
2551.000000;4.303323
2550.000000;3.470558
2549.000000;3.335497
2548.000000;3.522256
2547.000000;3.918506
2546.000000;3.827159
2545.000000;3.742738
2544.000000;4.037290
2543.000000;4.001118
2542.000000;3.689215
2541.000000;3.946318
2540.000000;3.717854
2539.000000;3.478744
2538.000000;3.822061
2537.000000;3.659778
2536.000000;3.515522
2535.000000;3.709790
2534.000000;3.450661
2533.000000;3.403605
2532.000000;3.755424
2531.000000;4.335924
2530.000000;4.051595
2529.000000;3.660095
2528.000000;3.466595
2527.000000;3.401102
2526.000000;3.341473
2525.000000;3.358781
2524.000000;3.460581
2523.000000;3.586393
2522.000000;3.766118
2521.000000;4.147590
2520.000000;4.247252
2519.000000;4.075190
2518.000000;3.864003
2517.000000;3.690701
2516.000000;3.691169
2515.000000;3.928413
2514.000000;3.894588
2513.000000;3.513222
2512.000000;3.444814
2511.000000;3.660022
2510.000000;3.897050
2509.000000;3.859054
2508.000000;4.378323
2507.000000;4.117844
2506.000000;3.733512
2505.000000;3.503610
2504.000000;3.426390
2503.000000;3.590928
2502.000000;3.926917
2501.000000;3.800086
2500.000000;3.438220
2499.000000;3.433016
2498.000000;3.596363
2497.000000;3.450832
2496.000000;3.395837
2495.000000;3.562173
2494.000000;3.984229
2493.000000;4.058335
2492.000000;3.754736
2491.000000;3.814120
2490.000000;3.888262
2489.000000;3.440906
2488.000000;3.234457
2487.000000;3.271562
2486.000000;3.389428
2485.000000;3.411294
2484.000000;3.459423
2483.000000;3.615738
2482.000000;3.749184
2481.000000;3.757958
2480.000000;3.577965
2479.000000;3.438606
2478.000000;3.392159
2477.000000;3.513658
2476.000000;3.764139
2475.000000;3.852612
2474.000000;3.717940
2473.000000;3.615663
2472.000000;3.874062
2471.000000;3.943628
2470.000000;3.930991
2469.000000;3.763077
2468.000000;3.485668
2467.000000;3.683155
2466.000000;3.825295
2465.000000;3.677977
2464.000000;3.754025
2463.000000;4.103928
2462.000000;3.830149
2461.000000;3.328431
2460.000000;3.278399
2459.000000;3.480808
2458.000000;3.690579
2457.000000;3.868419
2456.000000;4.187571
2455.000000;4.032812
2454.000000;3.777485
2453.000000;4.334194
2452.000000;3.737818
2451.000000;3.401942
2450.000000;3.416568
2449.000000;3.532325
2448.000000;3.456166
2447.000000;3.426058
2446.000000;3.599760
2445.000000;4.041749
2444.000000;3.918611
2443.000000;3.707076
2442.000000;3.665068
2441.000000;3.493212
2440.000000;3.332730
2439.000000;3.485060
2438.000000;3.909730
2437.000000;3.625115
2436.000000;3.418769
2435.000000;3.389984
2434.000000;3.404574
2433.000000;3.340818
2432.000000;3.298961
2431.000000;3.375236
2430.000000;3.402311
2429.000000;3.307524
2428.000000;3.235741
2427.000000;3.193582
2426.000000;3.199153
2425.000000;3.301685
2424.000000;3.396515
2423.000000;3.522863
2422.000000;3.870849
2421.000000;3.969212
2420.000000;3.801204
2419.000000;3.740386
2418.000000;3.880349
2417.000000;3.913924
2416.000000;3.749381
2415.000000;3.922127
2414.000000;3.608115
2413.000000;3.592816
2412.000000;4.021675
2411.000000;3.960999
2410.000000;3.663769
2409.000000;3.826120
2408.000000;4.350328
2407.000000;4.354842
2406.000000;4.204489
2405.000000;3.767524
2404.000000;3.438598
2403.000000;3.354532
2402.000000;3.525375
2401.000000;4.117663
2400.000000;3.749726
2399.000000;3.770218
2398.000000;3.680833
2397.000000;3.663671
2396.000000;3.899637
2395.000000;3.472495
2394.000000;3.446891
2393.000000;3.703451
2392.000000;3.375240
2391.000000;3.335455
2390.000000;3.524821
2389.000000;3.720785
2388.000000;3.693660
2387.000000;3.651105
2386.000000;3.750805
2385.000000;3.980629
2384.000000;4.117062
2383.000000;3.866186
2382.000000;3.700919
2381.000000;3.822994
2380.000000;3.966302
2379.000000;3.906377
2378.000000;3.919942
2377.000000;4.118665
2376.000000;4.302164
2375.000000;4.108483
2374.000000;4.085109
2373.000000;4.391506
2372.000000;4.052757
2371.000000;3.900552
2370.000000;4.036216
2369.000000;4.104117
2368.000000;4.053256
2367.000000;4.257757
2366.000000;4.747337
2365.000000;4.455526
2364.000000;3.966340
2363.000000;3.882658
2362.000000;3.989555
2361.000000;4.058840
2360.000000;4.094684
2359.000000;4.488255
2358.000000;4.940362
2357.000000;4.299808
2356.000000;4.184987
2355.000000;4.166609
2354.000000;4.115875
2353.000000;4.106165
2352.000000;4.312280
2351.000000;4.436341
2350.000000;4.521980
2349.000000;4.677327
2348.000000;4.177165
2347.000000;4.086048
2346.000000;4.139387
2345.000000;4.071177
2344.000000;4.018467
2343.000000;4.068225
2342.000000;4.329447
2341.000000;4.237785
2340.000000;4.118236
2339.000000;4.154388
2338.000000;4.324533
2337.000000;4.449266
2336.000000;4.458849
2335.000000;4.249601
2334.000000;3.835402
2333.000000;3.875394
2332.000000;3.938136
2331.000000;3.905960
2330.000000;4.046730
2329.000000;4.004052
2328.000000;3.847968
2327.000000;3.960016
2326.000000;4.155479
2325.000000;4.227633
2324.000000;4.023579
2323.000000;3.888634
2322.000000;4.002318
2321.000000;3.937293
2320.000000;3.767531
2319.000000;3.773806
2318.000000;3.839845
2317.000000;3.752885
2316.000000;3.726582
2315.000000;3.872763
2314.000000;3.954990
2313.000000;3.799606
2312.000000;3.725047
2311.000000;3.790513
2310.000000;3.950032
2309.000000;4.033747
2308.000000;3.940555
2307.000000;4.122622
2306.000000;4.590197
2305.000000;3.874282
2304.000000;3.843848
2303.000000;4.141983
2302.000000;4.317761
2301.000000;4.128188
2300.000000;4.365453
2299.000000;3.914235
2298.000000;3.631428
2297.000000;3.598959
2296.000000;3.860904
2295.000000;3.794349
2294.000000;3.603406
2293.000000;3.737332
2292.000000;4.018186
2291.000000;3.756302
2290.000000;3.529594
2289.000000;3.524551
2288.000000;3.741572
2287.000000;4.230132
2286.000000;4.029936
2285.000000;3.542564
2284.000000;3.431584
2283.000000;3.708935
2282.000000;3.466772
2281.000000;3.226628
2280.000000;3.244151
2279.000000;3.282283
2278.000000;3.281912
2277.000000;3.601319
2276.000000;3.900174
2275.000000;3.398364
2274.000000;3.351420
2273.000000;3.299459
2272.000000;3.246478
2271.000000;3.223734
2270.000000;3.270275
2269.000000;3.491490
2268.000000;3.553725
2267.000000;3.529781
2266.000000;3.557786
2265.000000;3.449766
2264.000000;3.497626
2263.000000;3.715055
2262.000000;3.746551
2261.000000;3.932631
2260.000000;3.670090
2259.000000;3.531253
2258.000000;3.669121
2257.000000;4.233058
2256.000000;3.557418
2255.000000;3.459013
2254.000000;3.623311
2253.000000;3.688797
2252.000000;3.481113
2251.000000;3.429307
2250.000000;3.573046
2249.000000;3.638580
2248.000000;3.558475
2247.000000;3.967247
2246.000000;4.275887
2245.000000;3.793054
2244.000000;3.955075
2243.000000;4.009028
2242.000000;3.763362
2241.000000;4.094609
2240.000000;4.189857
2239.000000;3.824407
2238.000000;3.937055
2237.000000;4.207768
2236.000000;3.848414
2235.000000;3.855720
2234.000000;3.485889
2233.000000;3.294993
2232.000000;3.265124
2231.000000;3.400847
2230.000000;3.729975
2229.000000;3.788187
2228.000000;3.436976
2227.000000;3.322102
2226.000000;3.628991
2225.000000;4.310100
2224.000000;3.596334
2223.000000;3.752484
2222.000000;3.591344
2221.000000;3.538204
2220.000000;3.561676
2219.000000;3.640415
2218.000000;3.739860
2217.000000;3.550876
2216.000000;3.482317
2215.000000;3.583353
2214.000000;4.415647
2213.000000;4.258832
2212.000000;4.542523
2211.000000;4.021142
2210.000000;3.724955
2209.000000;4.021644
2208.000000;3.900631
2207.000000;3.547803
2206.000000;3.568518
2205.000000;3.571550
2204.000000;3.474095
2203.000000;3.705774
2202.000000;3.910032
2201.000000;3.508900
2200.000000;3.667144
2199.000000;3.539252
2198.000000;3.532804
2197.000000;3.935329
2196.000000;3.757526
2195.000000;3.625380
2194.000000;3.456875
2193.000000;3.315253
2192.000000;3.291961
2191.000000;3.391552
2190.000000;3.674760
2189.000000;3.794390
2188.000000;3.442727
2187.000000;3.273701
2186.000000;3.344800
2185.000000;3.643706
2184.000000;3.866212
2183.000000;3.920421
2182.000000;3.809454
2181.000000;3.627748
2180.000000;3.660214
2179.000000;4.002406
2178.000000;4.181008
2177.000000;4.486118
2176.000000;3.997295
2175.000000;3.858623
2174.000000;3.780212
2173.000000;3.568718
2172.000000;3.741572
2171.000000;3.991474
2170.000000;3.764238
2169.000000;3.464688
2168.000000;3.248925
2167.000000;3.338646
2166.000000;3.587521
2165.000000;3.514842
2164.000000;3.503289
2163.000000;3.800342
2162.000000;4.243974
2161.000000;3.890113
2160.000000;3.547831
2159.000000;3.531238
2158.000000;3.671261
2157.000000;3.563917
2156.000000;3.349284
2155.000000;3.276227
2154.000000;3.498181
2153.000000;3.736876
2152.000000;3.410519
2151.000000;3.529148
2150.000000;3.625193
2149.000000;3.596681
2148.000000;3.989214
2147.000000;3.813157
2146.000000;3.928656
2145.000000;4.268025
2144.000000;4.082478
2143.000000;3.879818
2142.000000;3.376286
2141.000000;3.255218
2140.000000;3.181191
2139.000000;3.201811
2138.000000;3.241452
2137.000000;3.266018
2136.000000;3.371489
2135.000000;3.544705
2134.000000;3.719284
2133.000000;3.775797
2132.000000;3.797922
2131.000000;3.622132
2130.000000;3.298485
2129.000000;3.200246
2128.000000;3.289566
2127.000000;3.428065
2126.000000;3.401175
2125.000000;3.310004
2124.000000;3.349669
2123.000000;3.641663
2122.000000;4.160651
2121.000000;3.633153
2120.000000;3.753278
2119.000000;3.655675
2118.000000;3.292680
2117.000000;3.251450
2116.000000;3.452275
2115.000000;3.851646
2114.000000;3.795944
2113.000000;3.515031
2112.000000;3.454936
2111.000000;3.657999
2110.000000;4.402248
2109.000000;4.652749
2108.000000;3.738447
2107.000000;3.461742
2106.000000;3.506764
2105.000000;3.881796
2104.000000;4.326500
2103.000000;3.998423
2102.000000;3.539758
2101.000000;3.438196
2100.000000;3.498369
2099.000000;3.479305
2098.000000;3.421386
2097.000000;3.362595
2096.000000;3.248990
2095.000000;3.255361
2094.000000;3.399677
2093.000000;3.527993
2092.000000;3.550098
2091.000000;3.548735
2090.000000;3.849275
2089.000000;4.346019
2088.000000;3.782808
2087.000000;3.998118
2086.000000;3.668367
2085.000000;3.482962
2084.000000;3.460563
2083.000000;3.479943
2082.000000;3.484767
2081.000000;3.441776
2080.000000;3.493855
2079.000000;4.240615
2078.000000;3.627969
2077.000000;3.429827
2076.000000;3.733890
2075.000000;3.998104
2074.000000;3.746171
2073.000000;3.391777
2072.000000;3.337088
2071.000000;3.516547
2070.000000;3.375460
2069.000000;3.266543
2068.000000;3.394572
2067.000000;3.862735
2066.000000;4.722471
2065.000000;3.930169
2064.000000;3.509370
2063.000000;3.227326
2062.000000;3.145155
2061.000000;3.263547
2060.000000;3.549711
2059.000000;3.549649
2058.000000;3.729398
2057.000000;3.602467
2056.000000;3.301784
2055.000000;3.364677
2054.000000;3.427251
2053.000000;3.382359
2052.000000;3.476009
2051.000000;3.873831
2050.000000;3.838280
2049.000000;3.594807
2048.000000;3.569492
2047.000000;3.445030
2046.000000;3.325164
2045.000000;3.381676
2044.000000;3.652855
2043.000000;3.996529
2042.000000;3.942617
2041.000000;3.462307
2040.000000;3.325166
2039.000000;3.512849
2038.000000;3.853594
2037.000000;3.627840
2036.000000;3.546887
2035.000000;3.431042
2034.000000;3.361841
2033.000000;3.355070
2032.000000;3.422779
2031.000000;3.669953
2030.000000;3.594876
2029.000000;3.412871
2028.000000;3.763716
2027.000000;3.988422
2026.000000;3.669153
2025.000000;3.651922
2024.000000;3.597788
2023.000000;3.550468
2022.000000;4.187948
2021.000000;3.503012
2020.000000;3.288313
2019.000000;3.414793
2018.000000;3.661253
2017.000000;3.745323
2016.000000;3.502460
2015.000000;3.425084
2014.000000;3.614590
2013.000000;4.009433
2012.000000;4.045899
2011.000000;3.713937
2010.000000;3.545194
2009.000000;3.604578
2008.000000;4.047351
2007.000000;3.855061
2006.000000;3.501562
2005.000000;3.524923
2004.000000;3.526939
2003.000000;3.370476
2002.000000;3.191437
2001.000000;3.165302
2000.000000;3.332141
1999.000000;3.550184
1998.000000;3.651003
1997.000000;3.595647
1996.000000;3.735611
1995.000000;3.864155
1994.000000;3.532843
1993.000000;3.498312
1992.000000;3.650926
1991.000000;3.588137
1990.000000;3.449270
1989.000000;3.375778
1988.000000;3.440143
1987.000000;3.722883
1986.000000;3.740502
1985.000000;3.351213
1984.000000;3.162419
1983.000000;3.222293
1982.000000;3.675335
1981.000000;3.914632
1980.000000;3.717130
1979.000000;3.953872
1978.000000;3.968990
1977.000000;4.028883
1976.000000;4.033759
1975.000000;3.727144
1974.000000;3.448828
1973.000000;3.494438
1972.000000;4.309058
1971.000000;3.945084
1970.000000;3.668435
1969.000000;3.503313
1968.000000;3.519279
1967.000000;3.806969
1966.000000;3.540942
1965.000000;3.563504
1964.000000;3.611705
1963.000000;3.448109
1962.000000;3.574546
1961.000000;4.296480
1960.000000;3.850714
1959.000000;3.885900
1958.000000;3.661604
1957.000000;3.347774
1956.000000;3.260309
1955.000000;3.317588
1954.000000;3.802080
1953.000000;4.184335
1952.000000;3.425222
1951.000000;3.262492
1950.000000;3.162544
1949.000000;3.258222
1948.000000;3.399275
1947.000000;3.516965
1946.000000;3.672551
1945.000000;3.544206
1944.000000;3.676077
1943.000000;3.703530
1942.000000;3.465032
1941.000000;3.535344
1940.000000;3.656202
1939.000000;3.648008
1938.000000;3.927509
1937.000000;3.426718
1936.000000;3.259545
1935.000000;3.339769
1934.000000;3.463567
1933.000000;3.408211
1932.000000;3.612805
1931.000000;3.982359
1930.000000;3.383611
1929.000000;3.354479
1928.000000;3.529610
1927.000000;3.680971
1926.000000;3.447010
1925.000000;3.258226
1924.000000;3.244776
1923.000000;3.550977
1922.000000;3.733569
1921.000000;3.457682
1920.000000;3.445849
1919.000000;3.689764
1918.000000;3.831714
1917.000000;3.577712
1916.000000;3.502002
1915.000000;3.546525
1914.000000;3.549800
1913.000000;3.410484
1912.000000;3.246122
1911.000000;3.220173
1910.000000;3.421328
1909.000000;3.943432
1908.000000;3.716146
1907.000000;3.707801
1906.000000;3.809627
1905.000000;4.002092
1904.000000;3.408542
1903.000000;3.360213
1902.000000;3.499561
1901.000000;3.456905
1900.000000;3.426489
1899.000000;3.440821
1898.000000;3.393221
1897.000000;3.319645
1896.000000;3.197524
1895.000000;3.199068
1894.000000;3.432085
1893.000000;3.607671
1892.000000;3.523844
1891.000000;3.530701
1890.000000;3.552785
1889.000000;3.747859
1888.000000;3.782276
1887.000000;3.380849
1886.000000;3.236655
1885.000000;3.353569
1884.000000;3.907130
1883.000000;3.569479
1882.000000;3.496685
1881.000000;3.795370
1880.000000;3.833357
1879.000000;3.744550
1878.000000;3.926699
1877.000000;3.649067
1876.000000;3.420213
1875.000000;3.335485
1874.000000;3.341172
1873.000000;3.283462
1872.000000;3.302703
1871.000000;3.442020
1870.000000;3.491021
1869.000000;3.624466
1868.000000;3.589542
1867.000000;3.433030
1866.000000;3.333598
1865.000000;3.474096
1864.000000;3.979680
1863.000000;3.603173
1862.000000;3.894160
1861.000000;3.629623
1860.000000;3.351655
1859.000000;3.489908
1858.000000;3.761576
1857.000000;3.449822
1856.000000;3.397646
1855.000000;3.547631
1854.000000;3.625417
1853.000000;3.473869
1852.000000;3.371561
1851.000000;3.589814
1850.000000;3.853116
1849.000000;3.617990
1848.000000;3.831518
1847.000000;3.648147
1846.000000;3.558154
1845.000000;3.603597
1844.000000;3.476759
1843.000000;3.369067
1842.000000;3.372591
1841.000000;3.672585
1840.000000;3.953356
1839.000000;3.698243
1838.000000;3.663858
1837.000000;3.568433
1836.000000;3.571667
1835.000000;3.628284
1834.000000;3.555343
1833.000000;3.529313
1832.000000;3.507672
1831.000000;3.572401
1830.000000;3.626951
1829.000000;3.440601
1828.000000;3.289660
1827.000000;3.293127
1826.000000;3.387194
1825.000000;3.324571
1824.000000;3.283074
1823.000000;3.426215
1822.000000;3.769086
1821.000000;3.729846
1820.000000;3.694542
1819.000000;4.093252
1818.000000;4.036311
1817.000000;3.516188
1816.000000;3.299888
1815.000000;3.374013
1814.000000;3.755293
1813.000000;3.856838
1812.000000;4.097880
1811.000000;3.670901
1810.000000;3.426453
1809.000000;3.307848
1808.000000;3.205901
1807.000000;3.315196
1806.000000;3.788542
1805.000000;4.316003
1804.000000;4.019529
1803.000000;3.690305
1802.000000;3.693585
1801.000000;3.930823
1800.000000;3.708626
1799.000000;3.672761
1798.000000;3.796329
1797.000000;3.709650
1796.000000;3.571326
1795.000000;3.657111
1794.000000;3.782070
1793.000000;3.933564
1792.000000;3.988150
1791.000000;3.612379
1790.000000;3.430301
1789.000000;3.562248
1788.000000;3.958429
1787.000000;3.724089
1786.000000;3.710790
1785.000000;4.034941
1784.000000;3.837460
1783.000000;3.748199
1782.000000;3.852345
1781.000000;4.027650
1780.000000;4.339403
1779.000000;3.685320
1778.000000;3.492827
1777.000000;3.614250
1776.000000;4.113667
1775.000000;4.097807
1774.000000;3.945836
1773.000000;4.184431
1772.000000;3.753645
1771.000000;3.431702
1770.000000;3.351881
1769.000000;3.448808
1768.000000;3.443677
1767.000000;3.412336
1766.000000;3.578768
1765.000000;3.942058
1764.000000;3.953542
1763.000000;3.847482
1762.000000;3.911387
1761.000000;3.685943
1760.000000;3.552778
1759.000000;3.537865
1758.000000;3.540452
1757.000000;3.496028
1756.000000;3.315413
1755.000000;3.125786
1754.000000;3.045794
1753.000000;3.137755
1752.000000;3.436966
1751.000000;3.640970
1750.000000;3.560132
1749.000000;3.635358
1748.000000;3.709356
1747.000000;3.463540
1746.000000;3.421268
1745.000000;3.693440
1744.000000;3.664613
1743.000000;3.394700
1742.000000;3.257183
1741.000000;3.104907
1740.000000;2.942904
1739.000000;2.895579
1738.000000;2.986571
1737.000000;3.251860
1736.000000;3.661032
1735.000000;3.594888
1734.000000;3.493012
1733.000000;3.508294
1732.000000;3.452317
1731.000000;3.441397
1730.000000;3.400120
1729.000000;3.260382
1728.000000;3.266622
1727.000000;3.342878
1726.000000;3.263687
1725.000000;3.273160
1724.000000;3.404004
1723.000000;3.451251
1722.000000;3.373082
1721.000000;3.273448
1720.000000;3.257742
1719.000000;3.393363
1718.000000;3.475420
1717.000000;3.568584
1716.000000;3.887843
1715.000000;3.494474
1714.000000;3.325909
1713.000000;3.357261
1712.000000;3.301500
1711.000000;3.205581
1710.000000;3.340803
1709.000000;3.552642
1708.000000;3.307933
1707.000000;3.231329
1706.000000;3.285240
1705.000000;3.329998
1704.000000;3.538291
1703.000000;3.546922
1702.000000;3.451915
1701.000000;3.723940
1700.000000;4.082308
1699.000000;3.752512
1698.000000;3.418922
1697.000000;3.425085
1696.000000;4.074363
1695.000000;3.757441
1694.000000;3.436467
1693.000000;3.272614
1692.000000;3.323974
1691.000000;3.556701
1690.000000;3.513220
1689.000000;3.330741
1688.000000;3.315762
1687.000000;3.642415
1686.000000;3.390891
1685.000000;3.107118
1684.000000;3.206929
1683.000000;3.360985
1682.000000;3.447652
1681.000000;3.511131
1680.000000;3.621303
1679.000000;3.869380
1678.000000;3.620524
1677.000000;3.463610
1676.000000;3.519419
1675.000000;3.345292
1674.000000;3.261694
1673.000000;3.311806
1672.000000;3.384888
1671.000000;3.353111
1670.000000;3.416378
1669.000000;3.897633
1668.000000;3.904883
1667.000000;3.659455
1666.000000;3.201724
1665.000000;2.980438
1664.000000;3.006496
1663.000000;3.219528
1662.000000;3.421779
1661.000000;3.406686
1660.000000;3.343271
1659.000000;3.686699
1658.000000;3.899320
1657.000000;3.392583
1656.000000;3.722306
1655.000000;3.829661
1654.000000;3.614288
1653.000000;3.750543
1652.000000;3.831972
1651.000000;3.620874
1650.000000;3.220873
1649.000000;3.157823
1648.000000;3.485751
1647.000000;3.953762
1646.000000;3.707173
1645.000000;3.450508
1644.000000;3.400087
1643.000000;3.580900
1642.000000;3.447094
1641.000000;3.381398
1640.000000;3.565892
1639.000000;3.868507
1638.000000;3.921760
1637.000000;3.709185
1636.000000;3.617059
1635.000000;3.473071
1634.000000;3.555628
1633.000000;3.902345
1632.000000;3.450623
1631.000000;3.314546
1630.000000;3.551911
1629.000000;3.751083
1628.000000;3.603224
1627.000000;3.443505
1626.000000;3.315127
1625.000000;3.259597
1624.000000;3.264065
1623.000000;3.384991
1622.000000;3.366889
1621.000000;3.346007
1620.000000;3.533791
1619.000000;3.276977
1618.000000;3.160150
1617.000000;3.364176
1616.000000;3.580748
1615.000000;3.469896
1614.000000;3.265849
1613.000000;3.218321
1612.000000;3.410863
1611.000000;3.962386
1610.000000;4.219843
1609.000000;3.390960
1608.000000;3.210257
1607.000000;3.385819
1606.000000;3.853591
1605.000000;3.803395
1604.000000;3.625438
1603.000000;3.507893
1602.000000;3.506349
1601.000000;3.457688
1600.000000;3.678604
1599.000000;3.749977
1598.000000;3.261595
1597.000000;3.192685
1596.000000;3.405842
1595.000000;3.697597
1594.000000;3.750797
1593.000000;3.841767
1592.000000;3.881890
1591.000000;3.613095
1590.000000;3.412609
1589.000000;3.276375
1588.000000;3.182827
1587.000000;3.189723
1586.000000;3.242871
1585.000000;3.227306
1584.000000;3.276402
1583.000000;3.575329
1582.000000;3.496837
1581.000000;3.181976
1580.000000;3.192541
1579.000000;3.407293
1578.000000;3.719612
1577.000000;4.022618
1576.000000;3.829445
1575.000000;3.620839
1574.000000;3.704056
1573.000000;3.466266
1572.000000;3.251415
1571.000000;3.300895
1570.000000;3.331389
1569.000000;3.209786
1568.000000;3.153498
1567.000000;3.262581
1566.000000;3.353893
1565.000000;3.188379
1564.000000;3.178160
1563.000000;3.333420
1562.000000;3.451925
1561.000000;3.439347
1560.000000;3.199712
1559.000000;3.230467
1558.000000;3.510730
1557.000000;3.924949
1556.000000;3.811472
1555.000000;3.283562
1554.000000;3.200077
1553.000000;3.271422
1552.000000;3.329989
1551.000000;3.389245
1550.000000;3.510486
1549.000000;3.446290
1548.000000;3.208928
1547.000000;3.080733
1546.000000;3.241907
1545.000000;3.600679
1544.000000;3.464756
1543.000000;3.576139
1542.000000;3.896915
1541.000000;3.742056
1540.000000;3.339522
1539.000000;3.214718
1538.000000;3.509444
1537.000000;3.628341
1536.000000;3.470418
1535.000000;3.414456
1534.000000;3.291302
1533.000000;3.466955
1532.000000;3.891944
1531.000000;3.653996
1530.000000;3.352703
1529.000000;3.178059
1528.000000;3.207386
1527.000000;3.459362
1526.000000;3.691080
1525.000000;3.538835
1524.000000;3.359245
1523.000000;3.354422
1522.000000;3.379017
1521.000000;3.276755
1520.000000;3.244552
1519.000000;3.288986
1518.000000;3.435551
1517.000000;3.505304
1516.000000;3.316019
1515.000000;3.230017
1514.000000;3.210755
1513.000000;3.190447
1512.000000;3.395672
1511.000000;3.974550
1510.000000;3.498268
1509.000000;3.171756
1508.000000;3.051157
1507.000000;3.082441
1506.000000;3.151794
1505.000000;3.127302
1504.000000;3.194017
1503.000000;3.488148
1502.000000;3.736509
1501.000000;3.502899
1500.000000;3.362476
1499.000000;3.517158
1498.000000;3.659392
1497.000000;3.452236
1496.000000;3.628257
1495.000000;3.963511
1494.000000;3.744366
1493.000000;3.770079
1492.000000;3.660513
1491.000000;3.476642
1490.000000;3.542423
1489.000000;3.707617
1488.000000;3.622898
1487.000000;3.700944
1486.000000;3.721796
1485.000000;3.288662
1484.000000;3.274387
1483.000000;3.816449
1482.000000;3.743073
1481.000000;3.886314
1480.000000;3.733245
1479.000000;3.442458
1478.000000;3.353348
1477.000000;3.273957
1476.000000;3.285765
1475.000000;3.268862
1474.000000;3.303421
1473.000000;3.314472
1472.000000;3.292561
1471.000000;3.394148
1470.000000;3.736154
1469.000000;3.892074
1468.000000;3.585993
1467.000000;3.483063
1466.000000;3.217076
1465.000000;3.041373
1464.000000;2.997298
1463.000000;3.005718
1462.000000;3.054311
1461.000000;3.128635
1460.000000;3.282857
1459.000000;3.254623
1458.000000;3.091410
1457.000000;3.105184
1456.000000;3.302298
1455.000000;3.622032
1454.000000;3.418562
1453.000000;3.192866
1452.000000;3.080261
1451.000000;3.182516
1450.000000;3.701299
1449.000000;3.475452
1448.000000;3.393155
1447.000000;3.640905
1446.000000;3.659970
1445.000000;3.534426
1444.000000;3.257922
1443.000000;3.367262
1442.000000;3.833664
1441.000000;3.578849
1440.000000;3.354241
1439.000000;3.198085
1438.000000;3.205844
1437.000000;3.456393
1436.000000;3.658425
1435.000000;3.457416
1434.000000;3.156707
1433.000000;3.047608
1432.000000;3.180936
1431.000000;3.475875
1430.000000;3.699323
1429.000000;3.679280
1428.000000;3.697960
1427.000000;3.825850
1426.000000;3.713166
1425.000000;3.773179
1424.000000;3.505498
1423.000000;3.392305
1422.000000;3.662953
1421.000000;3.572851
1420.000000;3.416063
1419.000000;3.487498
1418.000000;3.371543
1417.000000;3.356029
1416.000000;3.470145
1415.000000;3.458120
1414.000000;3.261157
1413.000000;3.081434
1412.000000;2.985724
1411.000000;2.970436
1410.000000;3.024269
1409.000000;3.072547
1408.000000;3.085511
1407.000000;3.130163
1406.000000;3.368736
1405.000000;3.688480
1404.000000;3.414877
1403.000000;3.321222
1402.000000;3.322512
1401.000000;3.288672
1400.000000;3.307403
1399.000000;3.238420
1398.000000;3.128520
1397.000000;3.303068
1396.000000;3.934280
1395.000000;3.669043
1394.000000;3.643846
1393.000000;3.689900
1392.000000;3.571343
1391.000000;3.473653
1390.000000;3.799822
1389.000000;3.810005
1388.000000;3.347853
1387.000000;3.503988
1386.000000;3.617383
1385.000000;3.524447
1384.000000;3.480747
1383.000000;3.312326
1382.000000;3.321807
1381.000000;3.605754
1380.000000;3.622168
1379.000000;3.286733
1378.000000;3.292785
1377.000000;3.544612
1376.000000;3.204103
1375.000000;3.081006
1374.000000;3.318428
1373.000000;3.365981
1372.000000;3.150470
1371.000000;3.063116
1370.000000;3.046465
1369.000000;3.114042
1368.000000;3.147013
1367.000000;3.104329
1366.000000;3.370519
1365.000000;3.946042
1364.000000;3.582584
1363.000000;3.338999
1362.000000;3.137409
1361.000000;3.121747
1360.000000;3.309278
1359.000000;3.527792
1358.000000;3.469137
1357.000000;3.583088
1356.000000;3.457701
1355.000000;3.127885
1354.000000;2.982614
1353.000000;3.085970
1352.000000;3.732077
1351.000000;3.336312
1350.000000;3.055650
1349.000000;3.098912
1348.000000;3.132954
1347.000000;3.243352
1346.000000;3.541106
1345.000000;3.474287
1344.000000;3.344861
1343.000000;3.436206
1342.000000;3.325015
1341.000000;3.286796
1340.000000;3.324764
1339.000000;3.495820
1338.000000;3.535706
1337.000000;3.296597
1336.000000;3.321265
1335.000000;3.611248
1334.000000;4.055286
1333.000000;3.695237
1332.000000;3.333037
1331.000000;3.205039
1330.000000;3.261159
1329.000000;3.421950
1328.000000;3.458776
1327.000000;3.323782
1326.000000;3.302919
1325.000000;3.441782
1324.000000;3.303901
1323.000000;3.172575
1322.000000;3.206084
1321.000000;3.234912
1320.000000;3.186709
1319.000000;3.122210
1318.000000;3.204155
1317.000000;3.468009
1316.000000;3.556489
1315.000000;3.674454
1314.000000;3.820932
1313.000000;3.556203
1312.000000;3.742143
1311.000000;4.020202
1310.000000;3.574480
1309.000000;3.346006
1308.000000;3.083960
1307.000000;2.917767
1306.000000;2.868334
1305.000000;2.914356
1304.000000;3.013623
1303.000000;3.203972
1302.000000;3.493171
1301.000000;3.375403
1300.000000;3.341697
1299.000000;3.273990
1298.000000;3.131063
1297.000000;3.194557
1296.000000;3.338821
1295.000000;3.584000
1294.000000;3.800998
1293.000000;3.461467
1292.000000;3.438588
1291.000000;3.597399
1290.000000;3.761675
1289.000000;4.178492
1288.000000;3.908719
1287.000000;3.745974
1286.000000;3.480536
1285.000000;3.301645
1284.000000;3.222071
1283.000000;3.060601
1282.000000;3.052177
1281.000000;3.451543
1280.000000;3.503571
1279.000000;3.143378
1278.000000;3.126788
1277.000000;3.113913
1276.000000;3.063029
1275.000000;3.147468
1274.000000;3.430017
1273.000000;3.304630
1272.000000;3.079509
1271.000000;3.219140
1270.000000;3.616522
1269.000000;3.520824
1268.000000;3.579804
1267.000000;3.444377
1266.000000;3.123749
1265.000000;3.128893
1264.000000;3.343993
1263.000000;3.355208
1262.000000;3.293483
1261.000000;3.502628
1260.000000;3.781270
1259.000000;3.466317
1258.000000;3.113028
1257.000000;2.963550
1256.000000;3.018263
1255.000000;3.123567
1254.000000;3.082042
1253.000000;3.032580
1252.000000;3.029015
1251.000000;3.115944
1250.000000;3.288030
1249.000000;3.375087
1248.000000;3.195898
1247.000000;2.967942
1246.000000;2.908454
1245.000000;2.986139
1244.000000;3.249258
1243.000000;3.486487
1242.000000;3.140552
1241.000000;3.029754
1240.000000;3.299030
1239.000000;3.832922
1238.000000;3.827159
1237.000000;4.177207
1236.000000;3.860156
1235.000000;3.368576
1234.000000;3.131940
1233.000000;3.141645
1232.000000;3.250360
1231.000000;3.189738
1230.000000;3.134532
1229.000000;3.153165
1228.000000;3.581928
1227.000000;3.642652
1226.000000;3.049245
1225.000000;2.864827
1224.000000;2.770032
1223.000000;2.771834
1222.000000;2.953734
1221.000000;3.183368
1220.000000;3.075969
1219.000000;3.092423
1218.000000;3.283882
1217.000000;3.386454
1216.000000;3.607268
1215.000000;3.540431
1214.000000;3.395249
1213.000000;3.287473
1212.000000;3.126150
1211.000000;3.000180
1210.000000;2.991221
1209.000000;3.151181
1208.000000;3.482745
1207.000000;3.587978
1206.000000;3.314526
1205.000000;3.262145
1204.000000;3.373674
1203.000000;3.571546
1202.000000;3.596927
1201.000000;3.355009
1200.000000;3.223205
