Criado como novo conjunto de dados;"e2410_daniel_v2.spp","60845.0 Secs"
cm-1;Abs
10000.000000;1.133793
9999.000000;1.133354
9998.000000;1.131872
9997.000000;1.129627
9996.000000;1.127913
9995.000000;1.127330
9994.000000;1.127451
9993.000000;1.127484
9992.000000;1.127211
9991.000000;1.126717
9990.000000;1.125961
9989.000000;1.124799
9988.000000;1.123331
9987.000000;1.121964
9986.000000;1.121159
9985.000000;1.121118
9984.000000;1.121581
9983.000000;1.121961
9982.000000;1.121831
9981.000000;1.121245
9980.000000;1.120488
9979.000000;1.119706
9978.000000;1.119008
9977.000000;1.118663
9976.000000;1.118776
9975.000000;1.118885
9974.000000;1.118367
9973.000000;1.117261
9972.000000;1.116262
9971.000000;1.115830
9970.000000;1.115692
9969.000000;1.115372
9968.000000;1.114830
9967.000000;1.114336
9966.000000;1.114009
9965.000000;1.113711
9964.000000;1.113243
9963.000000;1.112502
9962.000000;1.111565
9961.000000;1.110731
9960.000000;1.110320
9959.000000;1.110306
9958.000000;1.110305
9957.000000;1.109993
9956.000000;1.109406
9955.000000;1.108786
9954.000000;1.108315
9953.000000;1.108068
9952.000000;1.108006
9951.000000;1.107890
9950.000000;1.107377
9949.000000;1.106358
9948.000000;1.105096
9947.000000;1.103939
9946.000000;1.103044
9945.000000;1.102460
9944.000000;1.102268
9943.000000;1.102428
9942.000000;1.102590
9941.000000;1.102330
9940.000000;1.101581
9939.000000;1.100647
9938.000000;1.099743
9937.000000;1.098711
9936.000000;1.097352
9935.000000;1.095909
9934.000000;1.094958
9933.000000;1.094761
9932.000000;1.094953
9931.000000;1.095056
9930.000000;1.095083
9929.000000;1.095309
9928.000000;1.095536
9927.000000;1.095117
9926.000000;1.093883
9925.000000;1.092591
9924.000000;1.092107
9923.000000;1.092378
9922.000000;1.092573
9921.000000;1.092081
9920.000000;1.091031
9919.000000;1.089942
9918.000000;1.089229
9917.000000;1.089044
9916.000000;1.089185
9915.000000;1.089104
9914.000000;1.088315
9913.000000;1.086939
9912.000000;1.085687
9911.000000;1.085209
9910.000000;1.085548
9909.000000;1.086170
9908.000000;1.086363
9907.000000;1.085699
9906.000000;1.084339
9905.000000;1.082949
9904.000000;1.082124
9903.000000;1.081851
9902.000000;1.081614
9901.000000;1.080971
9900.000000;1.079889
9899.000000;1.078591
9898.000000;1.077339
9897.000000;1.076351
9896.000000;1.075719
9895.000000;1.075350
9894.000000;1.075121
9893.000000;1.075099
9892.000000;1.075415
9891.000000;1.075921
9890.000000;1.076173
9889.000000;1.075830
9888.000000;1.074954
9887.000000;1.073873
9886.000000;1.072849
9885.000000;1.071920
9884.000000;1.071011
9883.000000;1.070145
9882.000000;1.069527
9881.000000;1.069303
9880.000000;1.069256
9879.000000;1.068943
9878.000000;1.068245
9877.000000;1.067599
9876.000000;1.067495
9875.000000;1.067904
9874.000000;1.068361
9873.000000;1.068456
9872.000000;1.068029
9871.000000;1.067093
9870.000000;1.065915
9869.000000;1.065038
9868.000000;1.064835
9867.000000;1.065006
9866.000000;1.064818
9865.000000;1.063887
9864.000000;1.062531
9863.000000;1.061330
9862.000000;1.060615
9861.000000;1.060374
9860.000000;1.060373
9859.000000;1.060258
9858.000000;1.059739
9857.000000;1.058785
9856.000000;1.057611
9855.000000;1.056538
9854.000000;1.055922
9853.000000;1.056013
9852.000000;1.056656
9851.000000;1.057254
9850.000000;1.057309
9849.000000;1.056924
9848.000000;1.056532
9847.000000;1.056259
9846.000000;1.055897
9845.000000;1.055391
9844.000000;1.054926
9843.000000;1.054509
9842.000000;1.053901
9841.000000;1.053052
9840.000000;1.052231
9839.000000;1.051588
9838.000000;1.050905
9837.000000;1.049994
9836.000000;1.049055
9835.000000;1.048451
9834.000000;1.048295
9833.000000;1.048429
9832.000000;1.048635
9831.000000;1.048714
9830.000000;1.048478
9829.000000;1.047826
9828.000000;1.046805
9827.000000;1.045589
9826.000000;1.044470
9825.000000;1.043766
9824.000000;1.043508
9823.000000;1.043233
9822.000000;1.042388
9821.000000;1.041041
9820.000000;1.039915
9819.000000;1.039582
9818.000000;1.039867
9817.000000;1.040136
9816.000000;1.039962
9815.000000;1.039369
9814.000000;1.038613
9813.000000;1.037930
9812.000000;1.037378
9811.000000;1.036792
9810.000000;1.036018
9809.000000;1.035268
9808.000000;1.035022
9807.000000;1.035406
9806.000000;1.035867
9805.000000;1.035683
9804.000000;1.034692
9803.000000;1.033340
9802.000000;1.032167
9801.000000;1.031466
9800.000000;1.031317
9799.000000;1.031575
9798.000000;1.031809
9797.000000;1.031541
9796.000000;1.030696
9795.000000;1.029665
9794.000000;1.028811
9793.000000;1.028095
9792.000000;1.027327
9791.000000;1.026620
9790.000000;1.026334
9789.000000;1.026542
9788.000000;1.026804
9787.000000;1.026607
9786.000000;1.025935
9785.000000;1.025231
9784.000000;1.024854
9783.000000;1.024739
9782.000000;1.024556
9781.000000;1.024052
9780.000000;1.023195
9779.000000;1.022148
9778.000000;1.021209
9777.000000;1.020668
9776.000000;1.020591
9775.000000;1.020780
9774.000000;1.020958
9773.000000;1.020942
9772.000000;1.020619
9771.000000;1.019910
9770.000000;1.018834
9769.000000;1.017547
9768.000000;1.016257
9767.000000;1.015188
9766.000000;1.014570
9765.000000;1.014477
9764.000000;1.014595
9763.000000;1.014415
9762.000000;1.013802
9761.000000;1.013182
9760.000000;1.012953
9759.000000;1.012910
9758.000000;1.012492
9757.000000;1.011482
9756.000000;1.010194
9755.000000;1.009075
9754.000000;1.008381
9753.000000;1.008198
9752.000000;1.008423
9751.000000;1.008699
9750.000000;1.008648
9749.000000;1.008268
9748.000000;1.007923
9747.000000;1.007871
9746.000000;1.007984
9745.000000;1.007978
9744.000000;1.007699
9743.000000;1.007111
9742.000000;1.006165
9741.000000;1.004874
9740.000000;1.003428
9739.000000;1.002130
9738.000000;1.001228
9737.000000;1.000840
9736.000000;1.000929
9735.000000;1.001254
9734.000000;1.001407
9733.000000;1.001057
9732.000000;1.000224
9731.000000;0.999283
9730.000000;0.998610
9729.000000;0.998204
9728.000000;0.997764
9727.000000;0.997154
9726.000000;0.996675
9725.000000;0.996712
9724.000000;0.997204
9723.000000;0.997704
9722.000000;0.997923
9721.000000;0.997953
9720.000000;0.997857
9719.000000;0.997378
9718.000000;0.996278
9717.000000;0.994737
9716.000000;0.993176
9715.000000;0.991845
9714.000000;0.990831
9713.000000;0.990299
9712.000000;0.990371
9711.000000;0.990805
9710.000000;0.991072
9709.000000;0.990824
9708.000000;0.990158
9707.000000;0.989419
9706.000000;0.988889
9705.000000;0.988630
9704.000000;0.988474
9703.000000;0.988180
9702.000000;0.987703
9701.000000;0.987243
9700.000000;0.986899
9699.000000;0.986417
9698.000000;0.985484
9697.000000;0.984232
9696.000000;0.983204
9695.000000;0.982783
9694.000000;0.982827
9693.000000;0.982859
9692.000000;0.982549
9691.000000;0.981988
9690.000000;0.981575
9689.000000;0.981556
9688.000000;0.981640
9687.000000;0.981166
9686.000000;0.979797
9685.000000;0.977918
9684.000000;0.976248
9683.000000;0.975218
9682.000000;0.974856
9681.000000;0.975037
9680.000000;0.975527
9679.000000;0.975907
9678.000000;0.975777
9677.000000;0.975089
9676.000000;0.974100
9675.000000;0.973061
9674.000000;0.972154
9673.000000;0.971595
9672.000000;0.971501
9671.000000;0.971640
9670.000000;0.971593
9669.000000;0.971225
9668.000000;0.970789
9667.000000;0.970525
9666.000000;0.970364
9665.000000;0.970068
9664.000000;0.969510
9663.000000;0.968738
9662.000000;0.967923
9661.000000;0.967251
9660.000000;0.966768
9659.000000;0.966329
9658.000000;0.965811
9657.000000;0.965310
9656.000000;0.964971
9655.000000;0.964734
9654.000000;0.964458
9653.000000;0.964240
9652.000000;0.964326
9651.000000;0.964668
9650.000000;0.964827
9649.000000;0.964413
9648.000000;0.963443
9647.000000;0.962239
9646.000000;0.961117
9645.000000;0.960254
9644.000000;0.959698
9643.000000;0.959392
9642.000000;0.959223
9641.000000;0.959062
9640.000000;0.958739
9639.000000;0.958128
9638.000000;0.957380
9637.000000;0.956891
9636.000000;0.956859
9635.000000;0.956971
9634.000000;0.956799
9633.000000;0.956408
9632.000000;0.956237
9631.000000;0.956374
9630.000000;0.956328
9629.000000;0.955611
9628.000000;0.954313
9627.000000;0.952984
9626.000000;0.952117
9625.000000;0.951854
9624.000000;0.951983
9623.000000;0.952093
9622.000000;0.951860
9621.000000;0.951279
9620.000000;0.950564
9619.000000;0.949866
9618.000000;0.949228
9617.000000;0.948720
9616.000000;0.948334
9615.000000;0.947777
9614.000000;0.946731
9613.000000;0.945442
9612.000000;0.944732
9611.000000;0.945143
9610.000000;0.946251
9609.000000;0.947027
9608.000000;0.946805
9607.000000;0.945751
9606.000000;0.944477
9605.000000;0.943445
9604.000000;0.942772
9603.000000;0.942371
9602.000000;0.942123
9601.000000;0.941925
9600.000000;0.941679
9599.000000;0.941330
9598.000000;0.940935
9597.000000;0.940606
9596.000000;0.940332
9595.000000;0.939935
9594.000000;0.939326
9593.000000;0.938703
9592.000000;0.938330
9591.000000;0.938159
9590.000000;0.937880
9589.000000;0.937353
9588.000000;0.936776
9587.000000;0.936369
9586.000000;0.936073
9585.000000;0.935683
9584.000000;0.935125
9583.000000;0.934504
9582.000000;0.933955
9581.000000;0.933569
9580.000000;0.933394
9579.000000;0.933382
9578.000000;0.933356
9577.000000;0.933094
9576.000000;0.932489
9575.000000;0.931647
9574.000000;0.930827
9573.000000;0.930260
9572.000000;0.929931
9571.000000;0.929570
9570.000000;0.928916
9569.000000;0.927990
9568.000000;0.927069
9567.000000;0.926428
9566.000000;0.926176
9565.000000;0.926276
9564.000000;0.926601
9563.000000;0.926943
9562.000000;0.927103
9561.000000;0.927018
9560.000000;0.926746
9559.000000;0.926345
9558.000000;0.925812
9557.000000;0.925133
9556.000000;0.924336
9555.000000;0.923507
9554.000000;0.922789
9553.000000;0.922313
9552.000000;0.922026
9551.000000;0.921657
9550.000000;0.920981
9549.000000;0.920103
9548.000000;0.919383
9547.000000;0.919097
9546.000000;0.919233
9545.000000;0.919573
9544.000000;0.919843
9543.000000;0.919824
9542.000000;0.919466
9541.000000;0.918934
9540.000000;0.918436
9539.000000;0.917992
9538.000000;0.917473
9537.000000;0.916855
9536.000000;0.916307
9535.000000;0.915971
9534.000000;0.915763
9533.000000;0.915455
9532.000000;0.914884
9531.000000;0.914056
9530.000000;0.913115
9529.000000;0.912280
9528.000000;0.911768
9527.000000;0.911676
9526.000000;0.911863
9525.000000;0.911974
9524.000000;0.911662
9523.000000;0.910884
9522.000000;0.909978
9521.000000;0.909367
9520.000000;0.909185
9519.000000;0.909226
9518.000000;0.909241
9517.000000;0.909144
9516.000000;0.908931
9515.000000;0.908565
9514.000000;0.908028
9513.000000;0.907394
9512.000000;0.906766
9511.000000;0.906217
9510.000000;0.905844
9509.000000;0.905740
9508.000000;0.905830
9507.000000;0.905847
9506.000000;0.905573
9505.000000;0.905029
9504.000000;0.904386
9503.000000;0.903808
9502.000000;0.903418
9501.000000;0.903224
9500.000000;0.902983
9499.000000;0.902362
9498.000000;0.901377
9497.000000;0.900493
9496.000000;0.900095
9495.000000;0.900036
9494.000000;0.899906
9493.000000;0.899582
9492.000000;0.899241
9491.000000;0.898938
9490.000000;0.898510
9489.000000;0.897918
9488.000000;0.897395
9487.000000;0.897169
9486.000000;0.897181
9485.000000;0.897159
9484.000000;0.896868
9483.000000;0.896266
9482.000000;0.895506
9481.000000;0.894801
9480.000000;0.894247
9479.000000;0.893816
9478.000000;0.893530
9477.000000;0.893474
9476.000000;0.893538
9475.000000;0.893349
9474.000000;0.892642
9473.000000;0.891596
9472.000000;0.890623
9471.000000;0.889958
9470.000000;0.889626
9469.000000;0.889618
9468.000000;0.889793
9467.000000;0.889742
9466.000000;0.889108
9465.000000;0.888068
9464.000000;0.887193
9463.000000;0.886810
9462.000000;0.886766
9461.000000;0.886804
9460.000000;0.886858
9459.000000;0.886914
9458.000000;0.886849
9457.000000;0.886581
9456.000000;0.886192
9455.000000;0.885760
9454.000000;0.885248
9453.000000;0.884661
9452.000000;0.884167
9451.000000;0.883900
9450.000000;0.883733
9449.000000;0.883395
9448.000000;0.882791
9447.000000;0.882125
9446.000000;0.881703
9445.000000;0.881611
9444.000000;0.881584
9443.000000;0.881221
9442.000000;0.880410
9441.000000;0.879515
9440.000000;0.879046
9439.000000;0.879137
9438.000000;0.879421
9437.000000;0.879416
9436.000000;0.878973
9435.000000;0.878331
9434.000000;0.877795
9433.000000;0.877384
9432.000000;0.876797
9431.000000;0.875801
9430.000000;0.874594
9429.000000;0.873646
9428.000000;0.873154
9427.000000;0.872869
9426.000000;0.872553
9425.000000;0.872366
9424.000000;0.872571
9423.000000;0.873022
9422.000000;0.873242
9421.000000;0.872979
9420.000000;0.872411
9419.000000;0.871847
9418.000000;0.871433
9417.000000;0.871168
9416.000000;0.870982
9415.000000;0.870748
9414.000000;0.870393
9413.000000;0.869995
9412.000000;0.869657
9411.000000;0.869295
9410.000000;0.868734
9409.000000;0.867988
9408.000000;0.867248
9407.000000;0.866613
9406.000000;0.866036
9405.000000;0.865532
9404.000000;0.865228
9403.000000;0.865168
9402.000000;0.865245
9401.000000;0.865370
9400.000000;0.865494
9399.000000;0.865440
9398.000000;0.864942
9397.000000;0.863975
9396.000000;0.862889
9395.000000;0.862120
9394.000000;0.861862
9393.000000;0.862047
9392.000000;0.862446
9391.000000;0.862697
9390.000000;0.862437
9389.000000;0.861604
9388.000000;0.860536
9387.000000;0.859674
9386.000000;0.859168
9385.000000;0.858853
9384.000000;0.858515
9383.000000;0.858108
9382.000000;0.857745
9381.000000;0.857543
9380.000000;0.857494
9379.000000;0.857459
9378.000000;0.857294
9377.000000;0.856940
9376.000000;0.856420
9375.000000;0.855809
9374.000000;0.855278
9373.000000;0.855058
9372.000000;0.855240
9371.000000;0.855650
9370.000000;0.855993
9369.000000;0.856075
9368.000000;0.855812
9367.000000;0.855168
9366.000000;0.854269
9365.000000;0.853474
9364.000000;0.853090
9363.000000;0.853016
9362.000000;0.852878
9361.000000;0.852509
9360.000000;0.852091
9359.000000;0.851773
9358.000000;0.851440
9357.000000;0.850948
9356.000000;0.850418
9355.000000;0.850097
9354.000000;0.850055
9353.000000;0.850134
9352.000000;0.850135
9351.000000;0.849920
9350.000000;0.849432
9349.000000;0.848732
9348.000000;0.848011
9347.000000;0.847457
9346.000000;0.847115
9345.000000;0.846883
9344.000000;0.846641
9343.000000;0.846348
9342.000000;0.846029
9341.000000;0.845679
9340.000000;0.845199
9339.000000;0.844469
9338.000000;0.843510
9337.000000;0.842535
9336.000000;0.841784
9335.000000;0.841372
9334.000000;0.841332
9333.000000;0.841696
9332.000000;0.842365
9331.000000;0.842966
9330.000000;0.843042
9329.000000;0.842477
9328.000000;0.841620
9327.000000;0.840924
9326.000000;0.840561
9325.000000;0.840385
9324.000000;0.840203
9323.000000;0.839982
9322.000000;0.839814
9321.000000;0.839733
9320.000000;0.839592
9319.000000;0.839182
9318.000000;0.838490
9317.000000;0.837745
9316.000000;0.837161
9315.000000;0.836716
9314.000000;0.836300
9313.000000;0.835966
9312.000000;0.835873
9311.000000;0.835984
9310.000000;0.836016
9309.000000;0.835778
9308.000000;0.835411
9307.000000;0.835216
9306.000000;0.835279
9305.000000;0.835348
9304.000000;0.835081
9303.000000;0.834379
9302.000000;0.833508
9301.000000;0.832886
9300.000000;0.832731
9299.000000;0.832894
9298.000000;0.833002
9297.000000;0.832738
9296.000000;0.832020
9295.000000;0.831018
9294.000000;0.830060
9293.000000;0.829449
9292.000000;0.829267
9291.000000;0.829320
9290.000000;0.829326
9289.000000;0.829141
9288.000000;0.828822
9287.000000;0.828534
9286.000000;0.828404
9285.000000;0.828382
9284.000000;0.828253
9283.000000;0.827861
9282.000000;0.827323
9281.000000;0.826900
9280.000000;0.826668
9279.000000;0.826474
9278.000000;0.826208
9277.000000;0.825927
9276.000000;0.825641
9275.000000;0.825251
9274.000000;0.824802
9273.000000;0.824555
9272.000000;0.824588
9271.000000;0.824562
9270.000000;0.824132
9269.000000;0.823432
9268.000000;0.822881
9267.000000;0.822626
9266.000000;0.822480
9265.000000;0.822306
9264.000000;0.822169
9263.000000;0.822096
9262.000000;0.821964
9261.000000;0.821672
9260.000000;0.821245
9259.000000;0.820772
9258.000000;0.820410
9257.000000;0.820367
9256.000000;0.820669
9255.000000;0.820963
9254.000000;0.820824
9253.000000;0.820252
9252.000000;0.819637
9251.000000;0.819203
9250.000000;0.818775
9249.000000;0.818154
9248.000000;0.817457
9247.000000;0.816934
9246.000000;0.816640
9245.000000;0.816436
9244.000000;0.816188
9243.000000;0.815853
9242.000000;0.815444
9241.000000;0.815014
9240.000000;0.814610
9239.000000;0.814242
9238.000000;0.813928
9237.000000;0.813762
9236.000000;0.813775
9235.000000;0.813798
9234.000000;0.813614
9233.000000;0.813268
9232.000000;0.813025
9231.000000;0.812988
9230.000000;0.812940
9229.000000;0.812651
9228.000000;0.812173
9227.000000;0.811723
9226.000000;0.811413
9225.000000;0.811225
9224.000000;0.811129
9223.000000;0.811089
9222.000000;0.811026
9221.000000;0.810889
9220.000000;0.810729
9219.000000;0.810616
9218.000000;0.810531
9217.000000;0.810401
9216.000000;0.810185
9215.000000;0.809884
9214.000000;0.809491
9213.000000;0.809010
9212.000000;0.808503
9211.000000;0.808077
9210.000000;0.807815
9209.000000;0.807702
9208.000000;0.807626
9207.000000;0.807449
9206.000000;0.807121
9205.000000;0.806694
9204.000000;0.806222
9203.000000;0.805714
9202.000000;0.805242
9201.000000;0.804983
9200.000000;0.805031
9199.000000;0.805189
9198.000000;0.805107
9197.000000;0.804656
9196.000000;0.804072
9195.000000;0.803692
9194.000000;0.803609
9193.000000;0.803612
9192.000000;0.803394
9191.000000;0.802842
9190.000000;0.802162
9189.000000;0.801686
9188.000000;0.801506
9187.000000;0.801344
9186.000000;0.800881
9185.000000;0.800161
9184.000000;0.799555
9183.000000;0.799341
9182.000000;0.799462
9181.000000;0.799679
9180.000000;0.799836
9179.000000;0.799913
9178.000000;0.799939
9177.000000;0.799915
9176.000000;0.799798
9175.000000;0.799545
9174.000000;0.799205
9173.000000;0.798919
9172.000000;0.798778
9171.000000;0.798700
9170.000000;0.798533
9169.000000;0.798237
9168.000000;0.797877
9167.000000;0.797491
9166.000000;0.797072
9165.000000;0.796664
9164.000000;0.796359
9163.000000;0.796178
9162.000000;0.796039
9161.000000;0.795842
9160.000000;0.795535
9159.000000;0.795109
9158.000000;0.794638
9157.000000;0.794285
9156.000000;0.794168
9155.000000;0.794203
9154.000000;0.794158
9153.000000;0.793896
9152.000000;0.793495
9151.000000;0.793123
9150.000000;0.792879
9149.000000;0.792743
9148.000000;0.792629
9147.000000;0.792455
9146.000000;0.792198
9145.000000;0.791863
9144.000000;0.791433
9143.000000;0.790905
9142.000000;0.790390
9141.000000;0.790049
9140.000000;0.789887
9139.000000;0.789729
9138.000000;0.789493
9137.000000;0.789343
9136.000000;0.789447
9135.000000;0.789670
9134.000000;0.789680
9133.000000;0.789313
9132.000000;0.788697
9131.000000;0.788061
9130.000000;0.787574
9129.000000;0.787335
9128.000000;0.787357
9127.000000;0.787540
9126.000000;0.787740
9125.000000;0.787852
9124.000000;0.787780
9123.000000;0.787423
9122.000000;0.786795
9121.000000;0.786090
9120.000000;0.785490
9119.000000;0.784965
9118.000000;0.784390
9117.000000;0.783812
9116.000000;0.783441
9115.000000;0.783398
9114.000000;0.783613
9113.000000;0.783904
9112.000000;0.784053
9111.000000;0.783868
9110.000000;0.783372
9109.000000;0.782879
9108.000000;0.782712
9107.000000;0.782827
9106.000000;0.782891
9105.000000;0.782690
9104.000000;0.782316
9103.000000;0.781958
9102.000000;0.781700
9101.000000;0.781528
9100.000000;0.781369
9099.000000;0.781118
9098.000000;0.780738
9097.000000;0.780354
9096.000000;0.780076
9095.000000;0.779780
9094.000000;0.779266
9093.000000;0.778618
9092.000000;0.778199
9091.000000;0.778214
9090.000000;0.778456
9089.000000;0.778578
9088.000000;0.778469
9087.000000;0.778265
9086.000000;0.778122
9085.000000;0.778105
9084.000000;0.778212
9083.000000;0.778389
9082.000000;0.778524
9081.000000;0.778481
9080.000000;0.778168
9079.000000;0.777612
9078.000000;0.777013
9077.000000;0.776651
9076.000000;0.776610
9075.000000;0.776632
9074.000000;0.776357
9073.000000;0.775704
9072.000000;0.774943
9071.000000;0.774395
9070.000000;0.774173
9069.000000;0.774171
9068.000000;0.774189
9067.000000;0.774069
9066.000000;0.773827
9065.000000;0.773643
9064.000000;0.773632
9063.000000;0.773684
9062.000000;0.773635
9061.000000;0.773521
9060.000000;0.773473
9059.000000;0.773409
9058.000000;0.773042
9057.000000;0.772229
9056.000000;0.771156
9055.000000;0.770142
9054.000000;0.769430
9053.000000;0.769163
9052.000000;0.769361
9051.000000;0.769830
9050.000000;0.770226
9049.000000;0.770316
9048.000000;0.770119
9047.000000;0.769790
9046.000000;0.769447
9045.000000;0.769148
9044.000000;0.768903
9043.000000;0.768686
9042.000000;0.768515
9041.000000;0.768507
9040.000000;0.768745
9039.000000;0.769104
9038.000000;0.769328
9037.000000;0.769275
9036.000000;0.768970
9035.000000;0.768498
9034.000000;0.767990
9033.000000;0.767655
9032.000000;0.767596
9031.000000;0.767595
9030.000000;0.767325
9029.000000;0.766790
9028.000000;0.766338
9027.000000;0.766179
9026.000000;0.766156
9025.000000;0.766057
9024.000000;0.765925
9023.000000;0.765895
9022.000000;0.765930
9021.000000;0.765887
9020.000000;0.765695
9019.000000;0.765350
9018.000000;0.764864
9017.000000;0.764359
9016.000000;0.764054
9015.000000;0.763988
9014.000000;0.763902
9013.000000;0.763585
9012.000000;0.763222
9011.000000;0.763161
9010.000000;0.763408
9009.000000;0.763572
9008.000000;0.763345
9007.000000;0.762819
9006.000000;0.762281
9005.000000;0.761870
9004.000000;0.761557
9003.000000;0.761327
9002.000000;0.761217
9001.000000;0.761193
9000.000000;0.761121
8999.000000;0.760910
8998.000000;0.760619
8997.000000;0.760387
8996.000000;0.760291
8995.000000;0.760338
8994.000000;0.760523
8993.000000;0.760795
8992.000000;0.760955
8991.000000;0.760735
8990.000000;0.760068
8989.000000;0.759220
8988.000000;0.758556
8987.000000;0.758242
8986.000000;0.758194
8985.000000;0.758244
8984.000000;0.758241
8983.000000;0.758107
8982.000000;0.757892
8981.000000;0.757742
8980.000000;0.757693
8979.000000;0.757558
8978.000000;0.757165
8977.000000;0.756631
8976.000000;0.756237
8975.000000;0.756079
8974.000000;0.756000
8973.000000;0.755876
8972.000000;0.755755
8971.000000;0.755689
8970.000000;0.755603
8969.000000;0.755391
8968.000000;0.755036
8967.000000;0.754595
8966.000000;0.754170
8965.000000;0.753872
8964.000000;0.753716
8963.000000;0.753544
8962.000000;0.753222
8961.000000;0.752874
8960.000000;0.752744
8959.000000;0.752830
8958.000000;0.752886
8957.000000;0.752814
8956.000000;0.752781
8955.000000;0.752897
8954.000000;0.752994
8953.000000;0.752902
8952.000000;0.752712
8951.000000;0.752583
8950.000000;0.752478
8949.000000;0.752287
8948.000000;0.752073
8947.000000;0.751978
8946.000000;0.751964
8945.000000;0.751881
8944.000000;0.751741
8943.000000;0.751706
8942.000000;0.751793
8941.000000;0.751795
8940.000000;0.751562
8939.000000;0.751211
8938.000000;0.750973
8937.000000;0.750891
8936.000000;0.750770
8935.000000;0.750403
8934.000000;0.749825
8933.000000;0.749295
8932.000000;0.749025
8931.000000;0.748948
8930.000000;0.748823
8929.000000;0.748548
8928.000000;0.748266
8927.000000;0.748141
8926.000000;0.748147
8925.000000;0.748155
8924.000000;0.748106
8923.000000;0.748002
8922.000000;0.747838
8921.000000;0.747658
8920.000000;0.747615
8919.000000;0.747780
8918.000000;0.747933
8917.000000;0.747710
8916.000000;0.747003
8915.000000;0.746127
8914.000000;0.745543
8913.000000;0.745472
8912.000000;0.745768
8911.000000;0.746087
8910.000000;0.746144
8909.000000;0.745924
8908.000000;0.745669
8907.000000;0.745626
8906.000000;0.745790
8905.000000;0.745909
8904.000000;0.745758
8903.000000;0.745336
8902.000000;0.744818
8901.000000;0.744385
8900.000000;0.744135
8899.000000;0.744064
8898.000000;0.744060
8897.000000;0.743947
8896.000000;0.743637
8895.000000;0.743219
8894.000000;0.742857
8893.000000;0.742617
8892.000000;0.742467
8891.000000;0.742421
8890.000000;0.742570
8889.000000;0.742931
8888.000000;0.743352
8887.000000;0.743621
8886.000000;0.743652
8885.000000;0.743502
8884.000000;0.743243
8883.000000;0.742921
8882.000000;0.742617
8881.000000;0.742447
8880.000000;0.742430
8879.000000;0.742411
8878.000000;0.742182
8877.000000;0.741668
8876.000000;0.740993
8875.000000;0.740406
8874.000000;0.740143
8873.000000;0.740270
8872.000000;0.740601
8871.000000;0.740789
8870.000000;0.740613
8869.000000;0.740187
8868.000000;0.739840
8867.000000;0.739773
8866.000000;0.739868
8865.000000;0.739844
8864.000000;0.739588
8863.000000;0.739294
8862.000000;0.739256
8861.000000;0.739521
8860.000000;0.739806
8859.000000;0.739786
8858.000000;0.739417
8857.000000;0.738927
8856.000000;0.738553
8855.000000;0.738411
8854.000000;0.738547
8853.000000;0.738940
8852.000000;0.739370
8851.000000;0.739479
8850.000000;0.739120
8849.000000;0.738562
8848.000000;0.738241
8847.000000;0.738324
8846.000000;0.738623
8845.000000;0.738851
8844.000000;0.738860
8843.000000;0.738670
8842.000000;0.738394
8841.000000;0.738148
8840.000000;0.737953
8839.000000;0.737724
8838.000000;0.737397
8837.000000;0.737058
8836.000000;0.736864
8835.000000;0.736891
8834.000000;0.737104
8833.000000;0.737408
8832.000000;0.737659
8831.000000;0.737670
8830.000000;0.737369
8829.000000;0.736919
8828.000000;0.736592
8827.000000;0.736512
8826.000000;0.736614
8825.000000;0.736807
8824.000000;0.737045
8823.000000;0.737249
8822.000000;0.737339
8821.000000;0.737374
8820.000000;0.737528
8819.000000;0.737830
8818.000000;0.738067
8817.000000;0.738043
8816.000000;0.737864
8815.000000;0.737840
8814.000000;0.738104
8813.000000;0.738458
8812.000000;0.738606
8811.000000;0.738474
8810.000000;0.738233
8809.000000;0.738044
8808.000000;0.737858
8807.000000;0.737532
8806.000000;0.737094
8805.000000;0.736813
8804.000000;0.736965
8803.000000;0.737540
8802.000000;0.738202
8801.000000;0.738513
8800.000000;0.738243
8799.000000;0.737542
8798.000000;0.736853
8797.000000;0.736574
8796.000000;0.736739
8795.000000;0.737049
8794.000000;0.737220
8793.000000;0.737248
8792.000000;0.737304
8791.000000;0.737463
8790.000000;0.737652
8789.000000;0.737777
8788.000000;0.737815
8787.000000;0.737811
8786.000000;0.737867
8785.000000;0.738100
8784.000000;0.738518
8783.000000;0.738957
8782.000000;0.739219
8781.000000;0.739249
8780.000000;0.739134
8779.000000;0.738982
8778.000000;0.738882
8777.000000;0.738910
8776.000000;0.739056
8775.000000;0.739179
8774.000000;0.739155
8773.000000;0.739051
8772.000000;0.739012
8771.000000;0.739021
8770.000000;0.738905
8769.000000;0.738636
8768.000000;0.738449
8767.000000;0.738589
8766.000000;0.739021
8765.000000;0.739460
8764.000000;0.739624
8763.000000;0.739435
8762.000000;0.739028
8761.000000;0.738642
8760.000000;0.738489
8759.000000;0.738647
8758.000000;0.739054
8757.000000;0.739541
8756.000000;0.739903
8755.000000;0.739999
8754.000000;0.739875
8753.000000;0.739750
8752.000000;0.739811
8751.000000;0.740070
8750.000000;0.740433
8749.000000;0.740850
8748.000000;0.741274
8747.000000;0.741567
8746.000000;0.741613
8745.000000;0.741496
8744.000000;0.741436
8743.000000;0.741525
8742.000000;0.741668
8741.000000;0.741794
8740.000000;0.741978
8739.000000;0.742282
8738.000000;0.742628
8737.000000;0.742873
8736.000000;0.742942
8735.000000;0.742824
8734.000000;0.742534
8733.000000;0.742184
8732.000000;0.741981
8731.000000;0.742066
8730.000000;0.742377
8729.000000;0.742730
8728.000000;0.742992
8727.000000;0.743114
8726.000000;0.743077
8725.000000;0.742896
8724.000000;0.742689
8723.000000;0.742632
8722.000000;0.742822
8721.000000;0.743196
8720.000000;0.743591
8719.000000;0.743861
8718.000000;0.743958
8717.000000;0.743948
8716.000000;0.743950
8715.000000;0.744039
8714.000000;0.744204
8713.000000;0.744398
8712.000000;0.744575
8711.000000;0.744688
8710.000000;0.744674
8709.000000;0.744513
8708.000000;0.744291
8707.000000;0.744174
8706.000000;0.744279
8705.000000;0.744573
8704.000000;0.744893
8703.000000;0.745102
8702.000000;0.745216
8701.000000;0.745357
8700.000000;0.745581
8699.000000;0.745798
8698.000000;0.745867
8697.000000;0.745729
8696.000000;0.745434
8695.000000;0.745084
8694.000000;0.744800
8693.000000;0.744710
8692.000000;0.744870
8691.000000;0.745216
8690.000000;0.745632
8689.000000;0.746052
8688.000000;0.746461
8687.000000;0.746798
8686.000000;0.746950
8685.000000;0.746866
8684.000000;0.746645
8683.000000;0.746436
8682.000000;0.746281
8681.000000;0.746058
8680.000000;0.745632
8679.000000;0.745059
8678.000000;0.744606
8677.000000;0.744540
8676.000000;0.744870
8675.000000;0.745365
8674.000000;0.745781
8673.000000;0.746022
8672.000000;0.746063
8671.000000;0.745866
8670.000000;0.745436
8669.000000;0.744918
8668.000000;0.744497
8667.000000;0.744237
8666.000000;0.744095
8665.000000;0.744050
8664.000000;0.744128
8663.000000;0.744278
8662.000000;0.744339
8661.000000;0.744181
8660.000000;0.743853
8659.000000;0.743558
8658.000000;0.743503
8657.000000;0.743740
8656.000000;0.744106
8655.000000;0.744313
8654.000000;0.744164
8653.000000;0.743735
8652.000000;0.743326
8651.000000;0.743214
8650.000000;0.743435
8649.000000;0.743784
8648.000000;0.743990
8647.000000;0.743922
8646.000000;0.743664
8645.000000;0.743420
8644.000000;0.743328
8643.000000;0.743355
8642.000000;0.743362
8641.000000;0.743238
8640.000000;0.742975
8639.000000;0.742640
8638.000000;0.742322
8637.000000;0.742087
8636.000000;0.741951
8635.000000;0.741892
8634.000000;0.741880
8633.000000;0.741875
8632.000000;0.741812
8631.000000;0.741637
8630.000000;0.741378
8629.000000;0.741124
8628.000000;0.740930
8627.000000;0.740790
8626.000000;0.740728
8625.000000;0.740827
8624.000000;0.741091
8623.000000;0.741350
8622.000000;0.741381
8621.000000;0.741130
8620.000000;0.740726
8619.000000;0.740307
8618.000000;0.739905
8617.000000;0.739503
8616.000000;0.739122
8615.000000;0.738803
8614.000000;0.738556
8613.000000;0.738377
8612.000000;0.738302
8611.000000;0.738395
8610.000000;0.738665
8609.000000;0.738993
8608.000000;0.739179
8607.000000;0.739077
8606.000000;0.738701
8605.000000;0.738207
8604.000000;0.737795
8603.000000;0.737617
8602.000000;0.737693
8601.000000;0.737847
8600.000000;0.737784
8599.000000;0.737342
8598.000000;0.736695
8597.000000;0.736227
8596.000000;0.736184
8595.000000;0.736464
8594.000000;0.736734
8593.000000;0.736721
8592.000000;0.736409
8591.000000;0.736024
8590.000000;0.735807
8589.000000;0.735770
8588.000000;0.735709
8587.000000;0.735490
8586.000000;0.735235
8585.000000;0.735103
8584.000000;0.734998
8583.000000;0.734689
8582.000000;0.734170
8581.000000;0.733706
8580.000000;0.733489
8579.000000;0.733461
8578.000000;0.733526
8577.000000;0.733697
8576.000000;0.733932
8575.000000;0.734032
8574.000000;0.733881
8573.000000;0.733632
8572.000000;0.733494
8571.000000;0.733435
8570.000000;0.733269
8569.000000;0.732950
8568.000000;0.732614
8567.000000;0.732377
8566.000000;0.732216
8565.000000;0.732047
8564.000000;0.731807
8563.000000;0.731510
8562.000000;0.731270
8561.000000;0.731201
8560.000000;0.731236
8559.000000;0.731164
8558.000000;0.730935
8557.000000;0.730783
8556.000000;0.730905
8555.000000;0.731125
8554.000000;0.731074
8553.000000;0.730617
8552.000000;0.729951
8551.000000;0.729319
8550.000000;0.728847
8549.000000;0.728600
8548.000000;0.728571
8547.000000;0.728613
8546.000000;0.728543
8545.000000;0.728371
8544.000000;0.728249
8543.000000;0.728203
8542.000000;0.728080
8541.000000;0.727816
8540.000000;0.727574
8539.000000;0.727506
8538.000000;0.727513
8537.000000;0.727369
8536.000000;0.727002
8535.000000;0.726563
8534.000000;0.726242
8533.000000;0.726104
8532.000000;0.726078
8531.000000;0.726059
8530.000000;0.726005
8529.000000;0.725950
8528.000000;0.725919
8527.000000;0.725864
8526.000000;0.725723
8525.000000;0.725515
8524.000000;0.725301
8523.000000;0.725067
8522.000000;0.724741
8521.000000;0.724344
8520.000000;0.724036
8519.000000;0.723974
8518.000000;0.724179
8517.000000;0.724541
8516.000000;0.724873
8515.000000;0.724955
8514.000000;0.724624
8513.000000;0.723928
8512.000000;0.723177
8511.000000;0.722730
8510.000000;0.722702
8509.000000;0.722900
8508.000000;0.723037
8507.000000;0.722979
8506.000000;0.722776
8505.000000;0.722527
8504.000000;0.722290
8503.000000;0.722124
8502.000000;0.722090
8501.000000;0.722150
8500.000000;0.722116
8499.000000;0.721812
8498.000000;0.721285
8497.000000;0.720769
8496.000000;0.720452
8495.000000;0.720340
8494.000000;0.720318
8493.000000;0.720250
8492.000000;0.720037
8491.000000;0.719712
8490.000000;0.719482
8489.000000;0.719525
8488.000000;0.719709
8487.000000;0.719654
8486.000000;0.719150
8485.000000;0.718416
8484.000000;0.717860
8483.000000;0.717700
8482.000000;0.717870
8481.000000;0.718170
8480.000000;0.718376
8479.000000;0.718340
8478.000000;0.718112
8477.000000;0.717902
8476.000000;0.717816
8475.000000;0.717720
8474.000000;0.717467
8473.000000;0.717139
8472.000000;0.716918
8471.000000;0.716801
8470.000000;0.716655
8469.000000;0.716503
8468.000000;0.716531
8467.000000;0.716796
8466.000000;0.717112
8465.000000;0.717266
8464.000000;0.717189
8463.000000;0.716874
8462.000000;0.716291
8461.000000;0.715496
8460.000000;0.714739
8459.000000;0.714305
8458.000000;0.714262
8457.000000;0.714411
8456.000000;0.714476
8455.000000;0.714331
8454.000000;0.714058
8453.000000;0.713825
8452.000000;0.713712
8451.000000;0.713682
8450.000000;0.713682
8449.000000;0.713710
8448.000000;0.713746
8447.000000;0.713693
8446.000000;0.713479
8445.000000;0.713167
8444.000000;0.712874
8443.000000;0.712613
8442.000000;0.712310
8441.000000;0.711961
8440.000000;0.711674
8439.000000;0.711541
8438.000000;0.711533
8437.000000;0.711555
8436.000000;0.711530
8435.000000;0.711427
8434.000000;0.711241
8433.000000;0.710977
8432.000000;0.710655
8431.000000;0.710336
8430.000000;0.710151
8429.000000;0.710238
8428.000000;0.710570
8427.000000;0.710895
8426.000000;0.710923
8425.000000;0.710596
8424.000000;0.710118
8423.000000;0.709730
8422.000000;0.709517
8421.000000;0.709408
8420.000000;0.709300
8419.000000;0.709140
8418.000000;0.708953
8417.000000;0.708819
8416.000000;0.708811
8415.000000;0.708913
8414.000000;0.709014
8413.000000;0.708973
8412.000000;0.708731
8411.000000;0.708363
8410.000000;0.708022
8409.000000;0.707807
8408.000000;0.707690
8407.000000;0.707613
8406.000000;0.707600
8405.000000;0.707699
8404.000000;0.707803
8403.000000;0.707660
8402.000000;0.707132
8401.000000;0.706382
8400.000000;0.705747
8399.000000;0.705465
8398.000000;0.705540
8397.000000;0.705778
8396.000000;0.705902
8395.000000;0.705721
8394.000000;0.705272
8393.000000;0.704782
8392.000000;0.704439
8391.000000;0.704246
8390.000000;0.704118
8389.000000;0.704029
8388.000000;0.703991
8387.000000;0.703984
8386.000000;0.703969
8385.000000;0.703951
8384.000000;0.703962
8383.000000;0.704003
8382.000000;0.704055
8381.000000;0.704077
8380.000000;0.703982
8379.000000;0.703686
8378.000000;0.703227
8377.000000;0.702758
8376.000000;0.702355
8375.000000;0.701951
8374.000000;0.701520
8373.000000;0.701223
8372.000000;0.701245
8371.000000;0.701550
8370.000000;0.701894
8369.000000;0.702036
8368.000000;0.701850
8367.000000;0.701327
8366.000000;0.700586
8365.000000;0.699863
8364.000000;0.699382
8363.000000;0.699198
8362.000000;0.699221
8361.000000;0.699314
8360.000000;0.699340
8359.000000;0.699207
8358.000000;0.698948
8357.000000;0.698699
8356.000000;0.698531
8355.000000;0.698374
8354.000000;0.698198
8353.000000;0.698129
8352.000000;0.698247
8351.000000;0.698371
8350.000000;0.698230
8349.000000;0.697821
8348.000000;0.697421
8347.000000;0.697262
8346.000000;0.697312
8345.000000;0.697382
8344.000000;0.697312
8343.000000;0.697052
8342.000000;0.696668
8341.000000;0.696297
8340.000000;0.696026
8339.000000;0.695817
8338.000000;0.695597
8337.000000;0.695397
8336.000000;0.695268
8335.000000;0.695130
8334.000000;0.694844
8333.000000;0.694411
8332.000000;0.694008
8331.000000;0.693795
8330.000000;0.693785
8329.000000;0.693896
8328.000000;0.694009
8327.000000;0.693985
8326.000000;0.693761
8325.000000;0.693443
8324.000000;0.693224
8323.000000;0.693172
8322.000000;0.693190
8321.000000;0.693169
8320.000000;0.693073
8319.000000;0.692862
8318.000000;0.692477
8317.000000;0.691952
8316.000000;0.691473
8315.000000;0.691228
8314.000000;0.691237
8313.000000;0.691348
8312.000000;0.691374
8311.000000;0.691227
8310.000000;0.690963
8309.000000;0.690724
8308.000000;0.690595
8307.000000;0.690534
8306.000000;0.690445
8305.000000;0.690292
8304.000000;0.690080
8303.000000;0.689776
8302.000000;0.689339
8301.000000;0.688832
8300.000000;0.688400
8299.000000;0.688133
8298.000000;0.688011
8297.000000;0.687973
8296.000000;0.687962
8295.000000;0.687918
8294.000000;0.687785
8293.000000;0.687571
8292.000000;0.687331
8291.000000;0.687086
8290.000000;0.686800
8289.000000;0.686438
8288.000000;0.686014
8287.000000;0.685600
8286.000000;0.685324
8285.000000;0.685318
8284.000000;0.685590
8283.000000;0.685953
8282.000000;0.686140
8281.000000;0.686011
8280.000000;0.685623
8279.000000;0.685138
8278.000000;0.684730
8277.000000;0.684524
8276.000000;0.684524
8275.000000;0.684587
8274.000000;0.684565
8273.000000;0.684455
8272.000000;0.684348
8271.000000;0.684260
8270.000000;0.684108
8269.000000;0.683849
8268.000000;0.683531
8267.000000;0.683207
8266.000000;0.682874
8265.000000;0.682527
8264.000000;0.682210
8263.000000;0.681965
8262.000000;0.681788
8261.000000;0.681656
8260.000000;0.681548
8259.000000;0.681419
8258.000000;0.681213
8257.000000;0.680923
8256.000000;0.680595
8255.000000;0.680267
8254.000000;0.679944
8253.000000;0.679614
8252.000000;0.679282
8251.000000;0.678976
8250.000000;0.678756
8249.000000;0.678701
8248.000000;0.678802
8247.000000;0.678901
8246.000000;0.678798
8245.000000;0.678442
8244.000000;0.677973
8243.000000;0.677569
8242.000000;0.677290
8241.000000;0.677090
8240.000000;0.676913
8239.000000;0.676751
8238.000000;0.676638
8237.000000;0.676590
8236.000000;0.676558
8235.000000;0.676467
8234.000000;0.676317
8233.000000;0.676215
8232.000000;0.676252
8231.000000;0.676384
8230.000000;0.676469
8229.000000;0.676399
8228.000000;0.676159
8227.000000;0.675795
8226.000000;0.675386
8225.000000;0.675013
8224.000000;0.674700
8223.000000;0.674382
8222.000000;0.673998
8221.000000;0.673613
8220.000000;0.673369
8219.000000;0.673333
8218.000000;0.673416
8217.000000;0.673449
8216.000000;0.673296
8215.000000;0.672934
8214.000000;0.672478
8213.000000;0.672110
8212.000000;0.671931
8211.000000;0.671875
8210.000000;0.671789
8209.000000;0.671594
8208.000000;0.671318
8207.000000;0.671024
8206.000000;0.670751
8205.000000;0.670517
8204.000000;0.670332
8203.000000;0.670201
8202.000000;0.670138
8201.000000;0.670143
8200.000000;0.670130
8199.000000;0.669968
8198.000000;0.669638
8197.000000;0.669300
8196.000000;0.669115
8195.000000;0.669052
8194.000000;0.668950
8193.000000;0.668742
8192.000000;0.668512
8191.000000;0.668316
8190.000000;0.668064
8189.000000;0.667628
8188.000000;0.667024
8187.000000;0.666443
8186.000000;0.666102
8185.000000;0.666055
8184.000000;0.666144
8183.000000;0.666155
8182.000000;0.666041
8181.000000;0.665945
8180.000000;0.665974
8179.000000;0.666040
8178.000000;0.665975
8177.000000;0.665742
8176.000000;0.665436
8175.000000;0.665133
8174.000000;0.664841
8173.000000;0.664564
8172.000000;0.664320
8171.000000;0.664096
8170.000000;0.663879
8169.000000;0.663711
8168.000000;0.663621
8167.000000;0.663528
8166.000000;0.663303
8165.000000;0.662942
8164.000000;0.662589
8163.000000;0.662380
8162.000000;0.662342
8161.000000;0.662423
8160.000000;0.662531
8159.000000;0.662515
8158.000000;0.662256
8157.000000;0.661821
8156.000000;0.661438
8155.000000;0.661252
8154.000000;0.661167
8153.000000;0.660982
8152.000000;0.660623
8151.000000;0.660189
8150.000000;0.659816
8149.000000;0.659566
8148.000000;0.659422
8147.000000;0.659317
8146.000000;0.659176
8145.000000;0.658956
8144.000000;0.658664
8143.000000;0.658335
8142.000000;0.658007
8141.000000;0.657728
8140.000000;0.657561
8139.000000;0.657521
8138.000000;0.657524
8137.000000;0.657419
8136.000000;0.657130
8135.000000;0.656737
8134.000000;0.656390
8133.000000;0.656158
8132.000000;0.655980
8131.000000;0.655791
8130.000000;0.655632
8129.000000;0.655583
8128.000000;0.655626
8127.000000;0.655635
8126.000000;0.655510
8125.000000;0.655261
8124.000000;0.654943
8123.000000;0.654587
8122.000000;0.654214
8121.000000;0.653867
8120.000000;0.653583
8119.000000;0.653374
8118.000000;0.653251
8117.000000;0.653224
8116.000000;0.653249
8115.000000;0.653222
8114.000000;0.653067
8113.000000;0.652792
8112.000000;0.652451
8111.000000;0.652084
8110.000000;0.651739
8109.000000;0.651474
8108.000000;0.651306
8107.000000;0.651202
8106.000000;0.651135
8105.000000;0.651092
8104.000000;0.650998
8103.000000;0.650731
8102.000000;0.650286
8101.000000;0.649853
8100.000000;0.649628
8099.000000;0.649588
8098.000000;0.649540
8097.000000;0.649346
8096.000000;0.649052
8095.000000;0.648786
8094.000000;0.648630
8093.000000;0.648574
8092.000000;0.648560
8091.000000;0.648535
8090.000000;0.648485
8089.000000;0.648405
8088.000000;0.648243
8087.000000;0.647937
8086.000000;0.647523
8085.000000;0.647151
8084.000000;0.646937
8083.000000;0.646853
8082.000000;0.646800
8081.000000;0.646725
8080.000000;0.646605
8079.000000;0.646364
8078.000000;0.645935
8077.000000;0.645354
8076.000000;0.644756
8075.000000;0.644275
8074.000000;0.643999
8073.000000;0.643968
8072.000000;0.644128
8071.000000;0.644326
8070.000000;0.644418
8069.000000;0.644380
8068.000000;0.644278
8067.000000;0.644137
8066.000000;0.643909
8065.000000;0.643559
8064.000000;0.643129
8063.000000;0.642713
8062.000000;0.642401
8061.000000;0.642233
8060.000000;0.642161
8059.000000;0.642085
8058.000000;0.641933
8057.000000;0.641696
8056.000000;0.641379
8055.000000;0.640983
8054.000000;0.640543
8053.000000;0.640138
8052.000000;0.639827
8051.000000;0.639621
8050.000000;0.639537
8049.000000;0.639590
8048.000000;0.639697
8047.000000;0.639669
8046.000000;0.639386
8045.000000;0.638919
8044.000000;0.638428
8043.000000;0.638010
8042.000000;0.637704
8041.000000;0.637546
8040.000000;0.637526
8039.000000;0.637525
8038.000000;0.637410
8037.000000;0.637167
8036.000000;0.636877
8035.000000;0.636608
8034.000000;0.636396
8033.000000;0.636266
8032.000000;0.636193
8031.000000;0.636083
8030.000000;0.635868
8029.000000;0.635601
8028.000000;0.635376
8027.000000;0.635212
8026.000000;0.635066
8025.000000;0.634918
8024.000000;0.634748
8023.000000;0.634510
8022.000000;0.634197
8021.000000;0.633895
8020.000000;0.633679
8019.000000;0.633496
8018.000000;0.633254
8017.000000;0.632975
8016.000000;0.632758
8015.000000;0.632626
8014.000000;0.632515
8013.000000;0.632375
8012.000000;0.632205
8011.000000;0.631994
8010.000000;0.631748
8009.000000;0.631521
8008.000000;0.631349
8007.000000;0.631169
8006.000000;0.630904
8005.000000;0.630595
8004.000000;0.630341
8003.000000;0.630140
8002.000000;0.629905
8001.000000;0.629605
8000.000000;0.629295
7999.000000;0.629017
7998.000000;0.628785
7997.000000;0.628657
7996.000000;0.628696
7995.000000;0.628831
7994.000000;0.628888
7993.000000;0.628760
7992.000000;0.628492
7991.000000;0.628178
7990.000000;0.627869
7989.000000;0.627587
7988.000000;0.627333
7987.000000;0.627070
7986.000000;0.626774
7985.000000;0.626504
7984.000000;0.626324
7983.000000;0.626181
7982.000000;0.625948
7981.000000;0.625604
7980.000000;0.625257
7979.000000;0.624986
7978.000000;0.624769
7977.000000;0.624578
7976.000000;0.624429
7975.000000;0.624293
7974.000000;0.624078
7973.000000;0.623759
7972.000000;0.623445
7971.000000;0.623268
7970.000000;0.623246
7969.000000;0.623302
7968.000000;0.623335
7967.000000;0.623244
7966.000000;0.622970
7965.000000;0.622574
7964.000000;0.622214
7963.000000;0.621985
7962.000000;0.621811
7961.000000;0.621542
7960.000000;0.621133
7959.000000;0.620676
7958.000000;0.620308
7957.000000;0.620109
7956.000000;0.620062
7955.000000;0.620070
7954.000000;0.620018
7953.000000;0.619858
7952.000000;0.619618
7951.000000;0.619347
7950.000000;0.619084
7949.000000;0.618874
7948.000000;0.618761
7947.000000;0.618713
7946.000000;0.618615
7945.000000;0.618361
7944.000000;0.617965
7943.000000;0.617535
7942.000000;0.617169
7941.000000;0.616890
7940.000000;0.616669
7939.000000;0.616494
7938.000000;0.616380
7937.000000;0.616325
7936.000000;0.616284
7935.000000;0.616227
7934.000000;0.616184
7933.000000;0.616199
7932.000000;0.616218
7931.000000;0.616099
7930.000000;0.615769
7929.000000;0.615308
7928.000000;0.614845
7927.000000;0.614421
7926.000000;0.614026
7925.000000;0.613715
7924.000000;0.613585
7923.000000;0.613630
7922.000000;0.613698
7921.000000;0.613631
7920.000000;0.613404
7919.000000;0.613116
7918.000000;0.612869
7917.000000;0.612674
7916.000000;0.612461
7915.000000;0.612160
7914.000000;0.611793
7913.000000;0.611468
7912.000000;0.611272
7911.000000;0.611180
7910.000000;0.611098
7909.000000;0.610953
7908.000000;0.610725
7907.000000;0.610418
7906.000000;0.610062
7905.000000;0.609721
7904.000000;0.609468
7903.000000;0.609338
7902.000000;0.609307
7901.000000;0.609310
7900.000000;0.609247
7899.000000;0.609039
7898.000000;0.608693
7897.000000;0.608297
7896.000000;0.607937
7895.000000;0.607641
7894.000000;0.607408
7893.000000;0.607251
7892.000000;0.607163
7891.000000;0.607105
7890.000000;0.607037
7889.000000;0.606940
7888.000000;0.606769
7887.000000;0.606474
7886.000000;0.606098
7885.000000;0.605801
7884.000000;0.605699
7883.000000;0.605738
7882.000000;0.605766
7881.000000;0.605671
7880.000000;0.605420
7879.000000;0.605026
7878.000000;0.604580
7877.000000;0.604235
7876.000000;0.604068
7875.000000;0.603968
7874.000000;0.603753
7873.000000;0.603389
7872.000000;0.603027
7871.000000;0.602833
7870.000000;0.602834
7869.000000;0.602915
7868.000000;0.602916
7867.000000;0.602755
7866.000000;0.602506
7865.000000;0.602331
7864.000000;0.602281
7863.000000;0.602210
7862.000000;0.601966
7861.000000;0.601584
7860.000000;0.601235
7859.000000;0.601013
7858.000000;0.600881
7857.000000;0.600782
7856.000000;0.600693
7855.000000;0.600590
7854.000000;0.600450
7853.000000;0.600305
7852.000000;0.600221
7851.000000;0.600196
7850.000000;0.600158
7849.000000;0.600038
7848.000000;0.599810
7847.000000;0.599484
7846.000000;0.599121
7845.000000;0.598831
7844.000000;0.598673
7843.000000;0.598553
7842.000000;0.598332
7841.000000;0.598000
7840.000000;0.597683
7839.000000;0.597478
7838.000000;0.597360
7837.000000;0.597257
7836.000000;0.597123
7835.000000;0.596942
7834.000000;0.596720
7833.000000;0.596512
7832.000000;0.596373
7831.000000;0.596295
7830.000000;0.596214
7829.000000;0.596090
7828.000000;0.595918
7827.000000;0.595694
7826.000000;0.595435
7825.000000;0.595213
7824.000000;0.595071
7823.000000;0.594930
7822.000000;0.594663
7821.000000;0.594274
7820.000000;0.593923
7819.000000;0.593741
7818.000000;0.593703
7817.000000;0.593686
7816.000000;0.593607
7815.000000;0.593466
7814.000000;0.593325
7813.000000;0.593240
7812.000000;0.593188
7811.000000;0.593053
7810.000000;0.592761
7809.000000;0.592396
7808.000000;0.592136
7807.000000;0.592059
7806.000000;0.592085
7805.000000;0.592099
7804.000000;0.592040
7803.000000;0.591875
7802.000000;0.591583
7801.000000;0.591206
7800.000000;0.590843
7799.000000;0.590561
7798.000000;0.590354
7797.000000;0.590208
7796.000000;0.590131
7795.000000;0.590105
7794.000000;0.590067
7793.000000;0.589976
7792.000000;0.589842
7791.000000;0.589676
7790.000000;0.589468
7789.000000;0.589226
7788.000000;0.588991
7787.000000;0.588793
7786.000000;0.588640
7785.000000;0.588541
7784.000000;0.588495
7783.000000;0.588442
7782.000000;0.588299
7781.000000;0.588067
7780.000000;0.587843
7779.000000;0.587706
7778.000000;0.587635
7777.000000;0.587567
7776.000000;0.587469
7775.000000;0.587333
7774.000000;0.587157
7773.000000;0.586964
7772.000000;0.586800
7771.000000;0.586671
7770.000000;0.586526
7769.000000;0.586327
7768.000000;0.586106
7767.000000;0.585928
7766.000000;0.585824
7765.000000;0.585777
7764.000000;0.585741
7763.000000;0.585665
7762.000000;0.585516
7761.000000;0.585320
7760.000000;0.585149
7759.000000;0.585056
7758.000000;0.585033
7757.000000;0.585028
7756.000000;0.584974
7755.000000;0.584807
7754.000000;0.584502
7753.000000;0.584114
7752.000000;0.583760
7751.000000;0.583548
7750.000000;0.583517
7749.000000;0.583624
7748.000000;0.583750
7747.000000;0.583759
7746.000000;0.583603
7745.000000;0.583371
7744.000000;0.583196
7743.000000;0.583104
7742.000000;0.583023
7741.000000;0.582913
7740.000000;0.582807
7739.000000;0.582730
7738.000000;0.582646
7737.000000;0.582539
7736.000000;0.582449
7735.000000;0.582395
7734.000000;0.582311
7733.000000;0.582125
7732.000000;0.581873
7731.000000;0.581665
7730.000000;0.581561
7729.000000;0.581532
7728.000000;0.581518
7727.000000;0.581495
7726.000000;0.581464
7725.000000;0.581406
7724.000000;0.581291
7723.000000;0.581099
7722.000000;0.580855
7721.000000;0.580610
7720.000000;0.580401
7719.000000;0.580236
7718.000000;0.580119
7717.000000;0.580065
7716.000000;0.580063
7715.000000;0.580050
7714.000000;0.579959
7713.000000;0.579803
7712.000000;0.579662
7711.000000;0.579600
7710.000000;0.579624
7709.000000;0.579702
7708.000000;0.579789
7707.000000;0.579819
7706.000000;0.579731
7705.000000;0.579532
7704.000000;0.579302
7703.000000;0.579118
7702.000000;0.578983
7701.000000;0.578860
7700.000000;0.578739
7699.000000;0.578642
7698.000000;0.578577
7697.000000;0.578501
7696.000000;0.578359
7695.000000;0.578137
7694.000000;0.577885
7693.000000;0.577679
7692.000000;0.577565
7691.000000;0.577539
7690.000000;0.577575
7689.000000;0.577633
7688.000000;0.577669
7687.000000;0.577646
7686.000000;0.577577
7685.000000;0.577526
7684.000000;0.577546
7683.000000;0.577602
7682.000000;0.577602
7681.000000;0.577473
7680.000000;0.577219
7679.000000;0.576917
7678.000000;0.576680
7677.000000;0.576585
7676.000000;0.576615
7675.000000;0.576679
7674.000000;0.576714
7673.000000;0.576731
7672.000000;0.576750
7671.000000;0.576739
7670.000000;0.576670
7669.000000;0.576594
7668.000000;0.576582
7667.000000;0.576606
7666.000000;0.576551
7665.000000;0.576351
7664.000000;0.576063
7663.000000;0.575802
7662.000000;0.575663
7661.000000;0.575693
7660.000000;0.575872
7659.000000;0.576094
7658.000000;0.576220
7657.000000;0.576192
7656.000000;0.576057
7655.000000;0.575892
7654.000000;0.575751
7653.000000;0.575679
7652.000000;0.575717
7651.000000;0.575834
7650.000000;0.575909
7649.000000;0.575839
7648.000000;0.575663
7647.000000;0.575526
7646.000000;0.575524
7645.000000;0.575623
7644.000000;0.575707
7643.000000;0.575693
7642.000000;0.575596
7641.000000;0.575501
7640.000000;0.575485
7639.000000;0.575536
7638.000000;0.575556
7637.000000;0.575460
7636.000000;0.575269
7635.000000;0.575104
7634.000000;0.575064
7633.000000;0.575142
7632.000000;0.575257
7631.000000;0.575354
7630.000000;0.575453
7629.000000;0.575579
7628.000000;0.575689
7627.000000;0.575693
7626.000000;0.575564
7625.000000;0.575386
7624.000000;0.575300
7623.000000;0.575390
7622.000000;0.575615
7621.000000;0.575835
7620.000000;0.575910
7619.000000;0.575798
7618.000000;0.575580
7617.000000;0.575391
7616.000000;0.575305
7615.000000;0.575303
7614.000000;0.575315
7613.000000;0.575306
7612.000000;0.575305
7611.000000;0.575368
7610.000000;0.575507
7609.000000;0.575653
7608.000000;0.575706
7607.000000;0.575659
7606.000000;0.575637
7605.000000;0.575768
7604.000000;0.576036
7603.000000;0.576287
7602.000000;0.576394
7601.000000;0.576356
7600.000000;0.576245
7599.000000;0.576125
7598.000000;0.576050
7597.000000;0.576069
7596.000000;0.576182
7595.000000;0.576324
7594.000000;0.576433
7593.000000;0.576515
7592.000000;0.576607
7591.000000;0.576714
7590.000000;0.576819
7589.000000;0.576934
7588.000000;0.577068
7587.000000;0.577164
7586.000000;0.577133
7585.000000;0.576987
7584.000000;0.576866
7583.000000;0.576908
7582.000000;0.577105
7581.000000;0.577305
7580.000000;0.577369
7579.000000;0.577312
7578.000000;0.577279
7577.000000;0.577400
7576.000000;0.577666
7575.000000;0.577959
7574.000000;0.578163
7573.000000;0.578225
7572.000000;0.578150
7571.000000;0.578001
7570.000000;0.577896
7569.000000;0.577948
7568.000000;0.578166
7567.000000;0.578446
7566.000000;0.578678
7565.000000;0.578826
7564.000000;0.578910
7563.000000;0.578953
7562.000000;0.578979
7561.000000;0.579024
7560.000000;0.579093
7559.000000;0.579153
7558.000000;0.579191
7557.000000;0.579259
7556.000000;0.579406
7555.000000;0.579599
7554.000000;0.579749
7553.000000;0.579831
7552.000000;0.579911
7551.000000;0.580075
7550.000000;0.580338
7549.000000;0.580620
7548.000000;0.580808
7547.000000;0.580853
7546.000000;0.580838
7545.000000;0.580923
7544.000000;0.581179
7543.000000;0.581511
7542.000000;0.581766
7541.000000;0.581905
7540.000000;0.582025
7539.000000;0.582204
7538.000000;0.582405
7537.000000;0.582544
7536.000000;0.582603
7535.000000;0.582635
7534.000000;0.582684
7533.000000;0.582747
7532.000000;0.582831
7531.000000;0.582990
7530.000000;0.583259
7529.000000;0.583582
7528.000000;0.583848
7527.000000;0.584013
7526.000000;0.584139
7525.000000;0.584290
7524.000000;0.584443
7523.000000;0.584539
7522.000000;0.584583
7521.000000;0.584644
7520.000000;0.584764
7519.000000;0.584920
7518.000000;0.585085
7517.000000;0.585268
7516.000000;0.585480
7515.000000;0.585697
7514.000000;0.585891
7513.000000;0.586067
7512.000000;0.586261
7511.000000;0.586497
7510.000000;0.586759
7509.000000;0.586987
7508.000000;0.587125
7507.000000;0.587197
7506.000000;0.587298
7505.000000;0.587504
7504.000000;0.587827
7503.000000;0.588075
7502.000000;0.588271
7501.000000;0.588452
7500.000000;0.588654
7499.000000;0.588864
7498.000000;0.589074
7497.000000;0.589298
7496.000000;0.589526
7495.000000;0.589710
7494.000000;0.589839
7493.000000;0.589969
7492.000000;0.590164
7491.000000;0.590429
7490.000000;0.590730
7489.000000;0.591033
7488.000000;0.591317
7487.000000;0.591568
7486.000000;0.591789
7485.000000;0.591992
7484.000000;0.592176
7483.000000;0.592319
7482.000000;0.592402
7481.000000;0.592430
7480.000000;0.592423
7479.000000;0.592443
7478.000000;0.592590
7477.000000;0.592931
7476.000000;0.593413
7475.000000;0.593891
7474.000000;0.594259
7473.000000;0.594523
7472.000000;0.594737
7471.000000;0.594931
7470.000000;0.595106
7469.000000;0.595266
7468.000000;0.595425
7467.000000;0.595593
7466.000000;0.595767
7465.000000;0.595946
7464.000000;0.596129
7463.000000;0.596331
7462.000000;0.596574
7461.000000;0.596845
7460.000000;0.597075
7459.000000;0.597206
7458.000000;0.597274
7457.000000;0.597382
7456.000000;0.597581
7455.000000;0.597831
7454.000000;0.598073
7453.000000;0.598301
7452.000000;0.598535
7451.000000;0.598763
7450.000000;0.598947
7449.000000;0.599086
7448.000000;0.599239
7447.000000;0.599488
7446.000000;0.599846
7445.000000;0.600221
7444.000000;0.600504
7443.000000;0.600700
7442.000000;0.600925
7441.000000;0.601256
7440.000000;0.601636
7439.000000;0.601965
7438.000000;0.602218
7437.000000;0.602431
7436.000000;0.602610
7435.000000;0.602735
7434.000000;0.602844
7433.000000;0.603032
7432.000000;0.603343
7431.000000;0.603723
7430.000000;0.604078
7429.000000;0.604357
7428.000000;0.604569
7427.000000;0.604792
7426.000000;0.605105
7425.000000;0.605482
7424.000000;0.605810
7423.000000;0.606072
7422.000000;0.606420
7421.000000;0.606975
7420.000000;0.607622
7419.000000;0.608095
7418.000000;0.608256
7417.000000;0.608184
7416.000000;0.608051
7415.000000;0.607968
7414.000000;0.607965
7413.000000;0.608058
7412.000000;0.608292
7411.000000;0.608720
7410.000000;0.609307
7409.000000;0.609864
7408.000000;0.610202
7407.000000;0.610379
7406.000000;0.610615
7405.000000;0.610985
7404.000000;0.611359
7403.000000;0.611642
7402.000000;0.611961
7401.000000;0.612562
7400.000000;0.613512
7399.000000;0.614559
7398.000000;0.615378
7397.000000;0.615883
7396.000000;0.616267
7395.000000;0.616739
7394.000000;0.617253
7393.000000;0.617594
7392.000000;0.617665
7391.000000;0.617609
7390.000000;0.617681
7389.000000;0.618121
7388.000000;0.619130
7387.000000;0.620777
7386.000000;0.622704
7385.000000;0.624075
7384.000000;0.624337
7383.000000;0.624072
7382.000000;0.624523
7381.000000;0.625994
7380.000000;0.627236
7379.000000;0.626928
7378.000000;0.625354
7377.000000;0.624035
7376.000000;0.623984
7375.000000;0.624885
7374.000000;0.625761
7373.000000;0.625975
7372.000000;0.625545
7371.000000;0.624886
7370.000000;0.624556
7369.000000;0.625007
7368.000000;0.626219
7367.000000;0.627669
7366.000000;0.628736
7365.000000;0.628929
7364.000000;0.628155
7363.000000;0.627189
7362.000000;0.627404
7361.000000;0.629341
7360.000000;0.631770
7359.000000;0.632948
7358.000000;0.632638
7357.000000;0.632323
7356.000000;0.633377
7355.000000;0.635776
7354.000000;0.638514
7353.000000;0.640692
7352.000000;0.642099
7351.000000;0.643331
7350.000000;0.645261
7349.000000;0.647867
7348.000000;0.649874
7347.000000;0.650151
7346.000000;0.649167
7345.000000;0.648159
7344.000000;0.647176
7343.000000;0.645257
7342.000000;0.642540
7341.000000;0.640742
7340.000000;0.640784
7339.000000;0.641416
7338.000000;0.640972
7337.000000;0.639528
7336.000000;0.638535
7335.000000;0.639244
7334.000000;0.641830
7333.000000;0.645209
7332.000000;0.647415
7331.000000;0.647282
7330.000000;0.645974
7329.000000;0.645694
7328.000000;0.646702
7327.000000;0.646795
7326.000000;0.644348
7325.000000;0.640703
7324.000000;0.638450
7323.000000;0.638255
7322.000000;0.638658
7321.000000;0.638592
7320.000000;0.638672
7319.000000;0.640031
7318.000000;0.643002
7317.000000;0.646796
7316.000000;0.649799
7315.000000;0.650746
7314.000000;0.650310
7313.000000;0.650831
7312.000000;0.653514
7311.000000;0.656576
7310.000000;0.657279
7309.000000;0.655347
7308.000000;0.653189
7307.000000;0.652999
7306.000000;0.654672
7305.000000;0.656681
7304.000000;0.657724
7303.000000;0.657298
7302.000000;0.655998
7301.000000;0.655541
7300.000000;0.657245
7299.000000;0.660005
7298.000000;0.661043
7297.000000;0.659257
7296.000000;0.656606
7295.000000;0.655561
7294.000000;0.656223
7293.000000;0.656770
7292.000000;0.656029
7291.000000;0.654645
7290.000000;0.653917
7289.000000;0.654352
7288.000000;0.655484
7287.000000;0.656553
7286.000000;0.657084
7285.000000;0.657229
7284.000000;0.657589
7283.000000;0.658520
7282.000000;0.659819
7281.000000;0.661147
7280.000000;0.662475
7279.000000;0.663905
7278.000000;0.665298
7277.000000;0.666365
7276.000000;0.667126
7275.000000;0.668011
7274.000000;0.669428
7273.000000;0.671333
7272.000000;0.673260
7271.000000;0.674750
7270.000000;0.675797
7269.000000;0.676879
7268.000000;0.678409
7267.000000;0.680260
7266.000000;0.682015
7265.000000;0.683606
7264.000000;0.685385
7263.000000;0.687465
7262.000000;0.689355
7261.000000;0.690558
7260.000000;0.691331
7259.000000;0.692406
7258.000000;0.694071
7257.000000;0.696129
7256.000000;0.698705
7255.000000;0.702349
7254.000000;0.707214
7253.000000;0.712427
7252.000000;0.716546
7251.000000;0.719030
7250.000000;0.721007
7249.000000;0.724055
7248.000000;0.728184
7247.000000;0.731670
7246.000000;0.733350
7245.000000;0.734457
7244.000000;0.737237
7243.000000;0.742007
7242.000000;0.746433
7241.000000;0.748167
7240.000000;0.747757
7239.000000;0.748081
7238.000000;0.751037
7237.000000;0.755676
7236.000000;0.759663
7235.000000;0.761871
7234.000000;0.763332
7233.000000;0.765636
7232.000000;0.768665
7231.000000;0.770655
7230.000000;0.770448
7229.000000;0.768990
7228.000000;0.768361
7227.000000;0.769841
7226.000000;0.773100
7225.000000;0.776849
7224.000000;0.779969
7223.000000;0.782273
7222.000000;0.784459
7221.000000;0.787307
7220.000000;0.790816
7219.000000;0.794220
7218.000000;0.796909
7217.000000;0.799191
7216.000000;0.801895
7215.000000;0.805280
7214.000000;0.808838
7213.000000;0.812179
7212.000000;0.815574
7211.000000;0.819470
7210.000000;0.823840
7209.000000;0.828225
7208.000000;0.832277
7207.000000;0.836089
7206.000000;0.840029
7205.000000;0.844240
7204.000000;0.848336
7203.000000;0.851720
7202.000000;0.854287
7201.000000;0.856670
7200.000000;0.859603
7199.000000;0.863146
7198.000000;0.866871
7197.000000;0.870649
7196.000000;0.874889
7195.000000;0.879915
7194.000000;0.885611
7193.000000;0.891757
7192.000000;0.898277
7191.000000;0.904880
7190.000000;0.910980
7189.000000;0.916524
7188.000000;0.922343
7187.000000;0.928980
7186.000000;0.935556
7185.000000;0.940634
7184.000000;0.944048
7183.000000;0.947125
7182.000000;0.951051
7181.000000;0.955645
7180.000000;0.960033
7179.000000;0.963961
7178.000000;0.968007
7177.000000;0.972775
7176.000000;0.978416
7175.000000;0.984804
7174.000000;0.991852
7173.000000;0.999445
7172.000000;1.007384
7171.000000;1.015287
7170.000000;1.022537
7169.000000;1.028798
7168.000000;1.034512
7167.000000;1.040362
7166.000000;1.046110
7165.000000;1.050599
7164.000000;1.053272
7163.000000;1.055223
7162.000000;1.058162
7161.000000;1.062471
7160.000000;1.066953
7159.000000;1.070651
7158.000000;1.074182
7157.000000;1.078815
7156.000000;1.084888
7155.000000;1.091509
7154.000000;1.097739
7153.000000;1.103746
7152.000000;1.110555
7151.000000;1.118662
7150.000000;1.127241
7149.000000;1.134888
7148.000000;1.141008
7147.000000;1.146450
7146.000000;1.152661
7145.000000;1.160074
7144.000000;1.167426
7143.000000;1.173034
7142.000000;1.176823
7141.000000;1.180488
7140.000000;1.185362
7139.000000;1.190768
7138.000000;1.195070
7137.000000;1.197866
7136.000000;1.200384
7135.000000;1.203842
7134.000000;1.208319
7133.000000;1.213372
7132.000000;1.218890
7131.000000;1.224984
7130.000000;1.231597
7129.000000;1.238555
7128.000000;1.245588
7127.000000;1.252128
7126.000000;1.257758
7125.000000;1.263142
7124.000000;1.269686
7123.000000;1.277703
7122.000000;1.285491
7121.000000;1.290997
7120.000000;1.294120
7119.000000;1.296660
7118.000000;1.300172
7117.000000;1.304596
7116.000000;1.308953
7115.000000;1.312733
7114.000000;1.316332
7113.000000;1.320439
7112.000000;1.325381
7111.000000;1.331006
7110.000000;1.336834
7109.000000;1.342296
7108.000000;1.347113
7107.000000;1.351405
7106.000000;1.355542
7105.000000;1.359853
7104.000000;1.364281
7103.000000;1.368506
7102.000000;1.372535
7101.000000;1.376795
7100.000000;1.381316
7099.000000;1.385272
7098.000000;1.387985
7097.000000;1.390070
7096.000000;1.392794
7095.000000;1.396393
7094.000000;1.399849
7093.000000;1.402438
7092.000000;1.404709
7091.000000;1.407623
7090.000000;1.411362
7089.000000;1.415386
7088.000000;1.419205
7087.000000;1.422714
7086.000000;1.426106
7085.000000;1.429701
7084.000000;1.433584
7083.000000;1.437346
7082.000000;1.440552
7081.000000;1.443308
7080.000000;1.446005
7079.000000;1.448733
7078.000000;1.451434
7077.000000;1.454333
7076.000000;1.457554
7075.000000;1.460529
7074.000000;1.462592
7073.000000;1.464096
7072.000000;1.466150
7071.000000;1.469254
7070.000000;1.472875
7069.000000;1.476345
7068.000000;1.479362
7067.000000;1.481531
7066.000000;1.482393
7065.000000;1.482319
7064.000000;1.482493
7063.000000;1.483617
7062.000000;1.485404
7061.000000;1.487476
7060.000000;1.489920
7059.000000;1.492722
7058.000000;1.495439
7057.000000;1.497843
7056.000000;1.500290
7055.000000;1.503021
7054.000000;1.505641
7053.000000;1.507689
7052.000000;1.509263
7051.000000;1.510734
7050.000000;1.512277
7049.000000;1.513910
7048.000000;1.515568
7047.000000;1.517024
7046.000000;1.518195
7045.000000;1.519553
7044.000000;1.521593
7043.000000;1.523839
7042.000000;1.525208
7041.000000;1.525481
7040.000000;1.525567
7039.000000;1.526108
7038.000000;1.526734
7037.000000;1.527044
7036.000000;1.527432
7035.000000;1.528419
7034.000000;1.529825
7033.000000;1.531120
7032.000000;1.532091
7031.000000;1.532791
7030.000000;1.533345
7029.000000;1.534100
7028.000000;1.535410
7027.000000;1.536975
7026.000000;1.537992
7025.000000;1.538305
7024.000000;1.538784
7023.000000;1.540155
7022.000000;1.542022
7021.000000;1.543451
7020.000000;1.544048
7019.000000;1.544098
7018.000000;1.544107
7017.000000;1.544554
7016.000000;1.545620
7015.000000;1.546807
7014.000000;1.547288
7013.000000;1.546917
7012.000000;1.546394
7011.000000;1.546228
7010.000000;1.546227
7009.000000;1.546299
7008.000000;1.546947
7007.000000;1.548405
7006.000000;1.549880
7005.000000;1.550416
7004.000000;1.550176
7003.000000;1.550134
7002.000000;1.550711
7001.000000;1.551354
7000.000000;1.551428
6999.000000;1.551058
6998.000000;1.550989
6997.000000;1.551843
6996.000000;1.553522
6995.000000;1.555271
6994.000000;1.556390
6993.000000;1.556877
6992.000000;1.557235
6991.000000;1.557693
6990.000000;1.557953
6989.000000;1.557766
6988.000000;1.557393
6987.000000;1.557296
6986.000000;1.557620
6985.000000;1.558081
6984.000000;1.558178
6983.000000;1.557501
6982.000000;1.556140
6981.000000;1.554878
6980.000000;1.554642
6979.000000;1.555634
6978.000000;1.557138
6977.000000;1.558152
6976.000000;1.558082
6975.000000;1.556986
6974.000000;1.555505
6973.000000;1.554539
6972.000000;1.554597
6971.000000;1.555333
6970.000000;1.555886
6969.000000;1.555671
6968.000000;1.554733
6967.000000;1.553545
6966.000000;1.552744
6965.000000;1.552829
6964.000000;1.553650
6963.000000;1.554368
6962.000000;1.554332
6961.000000;1.553760
6960.000000;1.553198
6959.000000;1.552704
6958.000000;1.552074
6957.000000;1.551492
6956.000000;1.551261
6955.000000;1.551118
6954.000000;1.550560
6953.000000;1.549713
6952.000000;1.549179
6951.000000;1.549085
6950.000000;1.548986
6949.000000;1.548717
6948.000000;1.548654
6947.000000;1.548967
6946.000000;1.549199
6945.000000;1.548791
6944.000000;1.547663
6943.000000;1.546216
6942.000000;1.545091
6941.000000;1.544795
6940.000000;1.545127
6939.000000;1.545093
6938.000000;1.543939
6937.000000;1.542160
6936.000000;1.540923
6935.000000;1.540667
6934.000000;1.540881
6933.000000;1.541028
6932.000000;1.541006
6931.000000;1.540771
6930.000000;1.540204
6929.000000;1.539405
6928.000000;1.538584
6927.000000;1.537656
6926.000000;1.536458
6925.000000;1.535333
6924.000000;1.534838
6923.000000;1.534857
6922.000000;1.534612
6921.000000;1.533646
6920.000000;1.532225
6919.000000;1.530761
6918.000000;1.529448
6917.000000;1.528478
6916.000000;1.527996
6915.000000;1.527681
6914.000000;1.526915
6913.000000;1.525572
6912.000000;1.524210
6911.000000;1.523386
6910.000000;1.523189
6909.000000;1.523401
6908.000000;1.523658
6907.000000;1.523482
6906.000000;1.522642
6905.000000;1.521570
6904.000000;1.520950
6903.000000;1.520890
6902.000000;1.520904
6901.000000;1.520619
6900.000000;1.519931
6899.000000;1.518647
6898.000000;1.516725
6897.000000;1.514890
6896.000000;1.514239
6895.000000;1.515016
6894.000000;1.516294
6893.000000;1.517064
6892.000000;1.517120
6891.000000;1.516679
6890.000000;1.515751
6889.000000;1.514239
6888.000000;1.512254
6887.000000;1.510068
6886.000000;1.508035
6885.000000;1.506681
6884.000000;1.506433
6883.000000;1.506996
6882.000000;1.507320
6881.000000;1.506493
6880.000000;1.504581
6879.000000;1.502549
6878.000000;1.501534
6877.000000;1.502054
6876.000000;1.503504
6875.000000;1.504426
6874.000000;1.503690
6873.000000;1.501560
6872.000000;1.499306
6871.000000;1.497859
6870.000000;1.497163
6869.000000;1.496720
6868.000000;1.496303
6867.000000;1.496011
6866.000000;1.495906
6865.000000;1.495769
6864.000000;1.495163
6863.000000;1.493807
6862.000000;1.491986
6861.000000;1.490350
6860.000000;1.489159
6859.000000;1.488020
6858.000000;1.486575
6857.000000;1.485036
6856.000000;1.483746
6855.000000;1.482600
6854.000000;1.481344
6853.000000;1.480075
6852.000000;1.478970
6851.000000;1.477863
6850.000000;1.476641
6849.000000;1.475711
6848.000000;1.475421
6847.000000;1.475271
6846.000000;1.474395
6845.000000;1.472713
6844.000000;1.470993
6843.000000;1.469780
6842.000000;1.468854
6841.000000;1.467716
6840.000000;1.466135
6839.000000;1.464243
6838.000000;1.462483
6837.000000;1.461345
6836.000000;1.460783
6835.000000;1.460063
6834.000000;1.458609
6833.000000;1.456754
6832.000000;1.455213
6831.000000;1.454132
6830.000000;1.453128
6829.000000;1.451954
6828.000000;1.450520
6827.000000;1.448507
6826.000000;1.445718
6825.000000;1.442673
6824.000000;1.440177
6823.000000;1.438387
6822.000000;1.436831
6821.000000;1.435170
6820.000000;1.433357
6819.000000;1.431236
6818.000000;1.428722
6817.000000;1.426269
6816.000000;1.424494
6815.000000;1.423332
6814.000000;1.422103
6813.000000;1.420383
6812.000000;1.418306
6811.000000;1.416075
6810.000000;1.413779
6809.000000;1.411654
6808.000000;1.409913
6807.000000;1.408295
6806.000000;1.406294
6805.000000;1.403833
6804.000000;1.401232
6803.000000;1.398615
6802.000000;1.395914
6801.000000;1.393362
6800.000000;1.391381
6799.000000;1.389928
6798.000000;1.388476
6797.000000;1.386619
6796.000000;1.384275
6795.000000;1.381421
6794.000000;1.378177
6793.000000;1.375090
6792.000000;1.372706
6791.000000;1.370869
6790.000000;1.368929
6789.000000;1.366623
6788.000000;1.364187
6787.000000;1.361668
6786.000000;1.358824
6785.000000;1.355786
6784.000000;1.353171
6783.000000;1.351337
6782.000000;1.349984
6781.000000;1.348565
6780.000000;1.346669
6779.000000;1.344032
6778.000000;1.340705
6777.000000;1.337275
6776.000000;1.334392
6775.000000;1.332006
6774.000000;1.329529
6773.000000;1.326759
6772.000000;1.324066
6771.000000;1.321607
6770.000000;1.319003
6769.000000;1.316008
6768.000000;1.312928
6767.000000;1.310109
6766.000000;1.307462
6765.000000;1.304784
6764.000000;1.302166
6763.000000;1.299795
6762.000000;1.297639
6761.000000;1.295558
6760.000000;1.293484
6759.000000;1.291357
6758.000000;1.289116
6757.000000;1.286865
6756.000000;1.284751
6755.000000;1.282586
6754.000000;1.279874
6753.000000;1.276417
6752.000000;1.272655
6751.000000;1.269294
6750.000000;1.266747
6749.000000;1.264947
6748.000000;1.263436
6747.000000;1.261595
6746.000000;1.259053
6745.000000;1.255948
6744.000000;1.252651
6743.000000;1.249327
6742.000000;1.246009
6741.000000;1.242920
6740.000000;1.240354
6739.000000;1.238246
6738.000000;1.236213
6737.000000;1.234036
6736.000000;1.231765
6735.000000;1.229358
6734.000000;1.226619
6733.000000;1.223596
6732.000000;1.220676
6731.000000;1.218148
6730.000000;1.215902
6729.000000;1.213654
6728.000000;1.211228
6727.000000;1.208594
6726.000000;1.205854
6725.000000;1.203234
6724.000000;1.200840
6723.000000;1.198420
6722.000000;1.195619
6721.000000;1.192441
6720.000000;1.189245
6719.000000;1.186266
6718.000000;1.183469
6717.000000;1.180900
6716.000000;1.178705
6715.000000;1.176833
6714.000000;1.174975
6713.000000;1.172862
6712.000000;1.170421
6711.000000;1.167759
6710.000000;1.164852
6709.000000;1.161866
6708.000000;1.159175
6707.000000;1.156780
6706.000000;1.154476
6705.000000;1.152036
6704.000000;1.149490
6703.000000;1.146954
6702.000000;1.144486
6701.000000;1.142122
6700.000000;1.139892
6699.000000;1.137709
6698.000000;1.135415
6697.000000;1.132951
6696.000000;1.130376
6695.000000;1.127723
6694.000000;1.125003
6693.000000;1.122316
6692.000000;1.119764
6691.000000;1.117279
6690.000000;1.114721
6689.000000;1.112094
6688.000000;1.109470
6687.000000;1.106795
6686.000000;1.104025
6685.000000;1.101368
6684.000000;1.099080
6683.000000;1.097023
6682.000000;1.094768
6681.000000;1.092158
6680.000000;1.089471
6679.000000;1.086953
6678.000000;1.084524
6677.000000;1.082026
6676.000000;1.079511
6675.000000;1.077112
6674.000000;1.074838
6673.000000;1.072595
6672.000000;1.070287
6671.000000;1.067839
6670.000000;1.065259
6669.000000;1.062730
6668.000000;1.060464
6667.000000;1.058443
6666.000000;1.056431
6665.000000;1.054264
6664.000000;1.051947
6663.000000;1.049501
6662.000000;1.046915
6661.000000;1.044284
6660.000000;1.041760
6659.000000;1.039322
6658.000000;1.036791
6657.000000;1.034144
6656.000000;1.031615
6655.000000;1.029385
6654.000000;1.027328
6653.000000;1.025145
6652.000000;1.022696
6651.000000;1.020144
6650.000000;1.017813
6649.000000;1.015886
6648.000000;1.014159
6647.000000;1.012172
6646.000000;1.009694
6645.000000;1.006998
6644.000000;1.004474
6643.000000;1.002140
6642.000000;0.999746
6641.000000;0.997263
6640.000000;0.994926
6639.000000;0.992824
6638.000000;0.990760
6637.000000;0.988583
6636.000000;0.986379
6635.000000;0.984254
6634.000000;0.982157
6633.000000;0.980022
6632.000000;0.977868
6631.000000;0.975685
6630.000000;0.973410
6629.000000;0.971093
6628.000000;0.968886
6627.000000;0.966787
6626.000000;0.964588
6625.000000;0.962193
6624.000000;0.959797
6623.000000;0.957624
6622.000000;0.955631
6621.000000;0.953605
6620.000000;0.951432
6619.000000;0.949155
6618.000000;0.946843
6617.000000;0.944534
6616.000000;0.942258
6615.000000;0.940052
6614.000000;0.937976
6613.000000;0.936112
6612.000000;0.934477
6611.000000;0.932907
6610.000000;0.931145
6609.000000;0.929061
6608.000000;0.926734
6607.000000;0.924336
6606.000000;0.922013
6605.000000;0.919863
6604.000000;0.917882
6603.000000;0.915930
6602.000000;0.913878
6601.000000;0.911783
6600.000000;0.909798
6599.000000;0.907909
6598.000000;0.905941
6597.000000;0.903815
6596.000000;0.901664
6595.000000;0.899629
6594.000000;0.897697
6593.000000;0.895784
6592.000000;0.893873
6591.000000;0.892001
6590.000000;0.890188
6589.000000;0.888421
6588.000000;0.886653
6587.000000;0.884806
6586.000000;0.882846
6585.000000;0.880849
6584.000000;0.878904
6583.000000;0.876980
6582.000000;0.874976
6581.000000;0.872894
6580.000000;0.870815
6579.000000;0.868750
6578.000000;0.866642
6577.000000;0.864506
6576.000000;0.862439
6575.000000;0.860481
6574.000000;0.858599
6573.000000;0.856806
6572.000000;0.855155
6571.000000;0.853607
6570.000000;0.852039
6569.000000;0.850389
6568.000000;0.848676
6567.000000;0.846878
6566.000000;0.844947
6565.000000;0.842932
6564.000000;0.840954
6563.000000;0.839023
6562.000000;0.837058
6561.000000;0.835085
6560.000000;0.833275
6559.000000;0.831696
6558.000000;0.830185
6557.000000;0.828516
6556.000000;0.826609
6555.000000;0.824539
6554.000000;0.822450
6553.000000;0.820498
6552.000000;0.818757
6551.000000;0.817146
6550.000000;0.815515
6549.000000;0.813829
6548.000000;0.812154
6547.000000;0.810470
6546.000000;0.808680
6545.000000;0.806801
6544.000000;0.805000
6543.000000;0.803356
6542.000000;0.801761
6541.000000;0.800115
6540.000000;0.798491
6539.000000;0.796994
6538.000000;0.795561
6537.000000;0.794036
6536.000000;0.792357
6535.000000;0.790579
6534.000000;0.788766
6533.000000;0.786944
6532.000000;0.785142
6531.000000;0.783403
6530.000000;0.781755
6529.000000;0.780210
6528.000000;0.778748
6527.000000;0.777298
6526.000000;0.775783
6525.000000;0.774191
6524.000000;0.772567
6523.000000;0.770930
6522.000000;0.769263
6521.000000;0.767581
6520.000000;0.765918
6519.000000;0.764246
6518.000000;0.762482
6517.000000;0.760631
6516.000000;0.758816
6515.000000;0.757150
6514.000000;0.755634
6513.000000;0.754210
6512.000000;0.752837
6511.000000;0.751479
6510.000000;0.750080
6509.000000;0.748608
6508.000000;0.747075
6507.000000;0.745511
6506.000000;0.743934
6505.000000;0.742360
6504.000000;0.740804
6503.000000;0.739251
6502.000000;0.737685
6501.000000;0.736120
6500.000000;0.734582
6499.000000;0.733058
6498.000000;0.731528
6497.000000;0.730024
6496.000000;0.728591
6495.000000;0.727192
6494.000000;0.725747
6493.000000;0.724252
6492.000000;0.722781
6491.000000;0.721366
6490.000000;0.719961
6489.000000;0.718546
6488.000000;0.717183
6487.000000;0.715923
6486.000000;0.714719
6485.000000;0.713466
6484.000000;0.712107
6483.000000;0.710673
6482.000000;0.709254
6481.000000;0.707915
6480.000000;0.706625
6479.000000;0.705273
6478.000000;0.703795
6477.000000;0.702242
6476.000000;0.700702
6475.000000;0.699215
6474.000000;0.697810
6473.000000;0.696558
6472.000000;0.695454
6471.000000;0.694328
6470.000000;0.692982
6469.000000;0.691425
6468.000000;0.689853
6467.000000;0.688400
6466.000000;0.687040
6465.000000;0.685708
6464.000000;0.684398
6463.000000;0.683111
6462.000000;0.681806
6461.000000;0.680463
6460.000000;0.679127
6459.000000;0.677849
6458.000000;0.676643
6457.000000;0.675502
6456.000000;0.674383
6455.000000;0.673198
6454.000000;0.671879
6453.000000;0.670457
6452.000000;0.669022
6451.000000;0.667611
6450.000000;0.666220
6449.000000;0.664895
6448.000000;0.663689
6447.000000;0.662547
6446.000000;0.661332
6445.000000;0.659997
6444.000000;0.658643
6443.000000;0.657374
6442.000000;0.656184
6441.000000;0.655017
6440.000000;0.653848
6439.000000;0.652677
6438.000000;0.651502
6437.000000;0.650332
6436.000000;0.649187
6435.000000;0.648066
6434.000000;0.646946
6433.000000;0.645826
6432.000000;0.644699
6431.000000;0.643519
6430.000000;0.642256
6429.000000;0.640972
6428.000000;0.639754
6427.000000;0.638595
6426.000000;0.637417
6425.000000;0.636220
6424.000000;0.635085
6423.000000;0.634023
6422.000000;0.632928
6421.000000;0.631717
6420.000000;0.630444
6419.000000;0.629224
6418.000000;0.628105
6417.000000;0.627055
6416.000000;0.626014
6415.000000;0.624939
6414.000000;0.623833
6413.000000;0.622750
6412.000000;0.621720
6411.000000;0.620672
6410.000000;0.619511
6409.000000;0.618255
6408.000000;0.617025
6407.000000;0.615899
6406.000000;0.614839
6405.000000;0.613779
6404.000000;0.612707
6403.000000;0.611628
6402.000000;0.610530
6401.000000;0.609422
6400.000000;0.608341
6399.000000;0.607301
6398.000000;0.606279
6397.000000;0.605256
6396.000000;0.604216
6395.000000;0.603115
6394.000000;0.601920
6393.000000;0.600706
6392.000000;0.599611
6391.000000;0.598695
6390.000000;0.597879
6389.000000;0.597054
6388.000000;0.596175
6387.000000;0.595243
6386.000000;0.594257
6385.000000;0.593237
6384.000000;0.592211
6383.000000;0.591186
6382.000000;0.590158
6381.000000;0.589158
6380.000000;0.588216
6379.000000;0.587293
6378.000000;0.586302
6377.000000;0.585229
6376.000000;0.584138
6375.000000;0.583056
6374.000000;0.581950
6373.000000;0.580820
6372.000000;0.579748
6371.000000;0.578806
6370.000000;0.577978
6369.000000;0.577205
6368.000000;0.576428
6367.000000;0.575581
6366.000000;0.574608
6365.000000;0.573531
6364.000000;0.572445
6363.000000;0.571410
6362.000000;0.570410
6361.000000;0.569435
6360.000000;0.568525
6359.000000;0.567700
6358.000000;0.566905
6357.000000;0.566072
6356.000000;0.565185
6355.000000;0.564271
6354.000000;0.563353
6353.000000;0.562458
6352.000000;0.561612
6351.000000;0.560806
6350.000000;0.559990
6349.000000;0.559125
6348.000000;0.558218
6347.000000;0.557287
6346.000000;0.556343
6345.000000;0.555404
6344.000000;0.554505
6343.000000;0.553653
6342.000000;0.552842
6341.000000;0.552085
6340.000000;0.551390
6339.000000;0.550689
6338.000000;0.549870
6337.000000;0.548896
6336.000000;0.547860
6335.000000;0.546873
6334.000000;0.545967
6333.000000;0.545103
6332.000000;0.544244
6331.000000;0.543367
6330.000000;0.542462
6329.000000;0.541552
6328.000000;0.540693
6327.000000;0.539923
6326.000000;0.539223
6325.000000;0.538533
6324.000000;0.537797
6323.000000;0.536986
6322.000000;0.536113
6321.000000;0.535242
6320.000000;0.534426
6319.000000;0.533659
6318.000000;0.532906
6317.000000;0.532158
6316.000000;0.531427
6315.000000;0.530694
6314.000000;0.529926
6313.000000;0.529144
6312.000000;0.528406
6311.000000;0.527717
6310.000000;0.527016
6309.000000;0.526260
6308.000000;0.525466
6307.000000;0.524664
6306.000000;0.523849
6305.000000;0.523013
6304.000000;0.522171
6303.000000;0.521349
6302.000000;0.520577
6301.000000;0.519881
6300.000000;0.519252
6299.000000;0.518615
6298.000000;0.517897
6297.000000;0.517113
6296.000000;0.516336
6295.000000;0.515589
6294.000000;0.514830
6293.000000;0.514060
6292.000000;0.513335
6291.000000;0.512671
6290.000000;0.511996
6289.000000;0.511250
6288.000000;0.510454
6287.000000;0.509659
6286.000000;0.508873
6285.000000;0.508092
6284.000000;0.507349
6283.000000;0.506677
6282.000000;0.506049
6281.000000;0.505399
6280.000000;0.504688
6279.000000;0.503933
6278.000000;0.503186
6277.000000;0.502496
6276.000000;0.501880
6275.000000;0.501314
6274.000000;0.500753
6273.000000;0.500156
6272.000000;0.499492
6271.000000;0.498751
6270.000000;0.497971
6269.000000;0.497233
6268.000000;0.496588
6267.000000;0.495992
6266.000000;0.495358
6265.000000;0.494653
6264.000000;0.493903
6263.000000;0.493154
6262.000000;0.492457
6261.000000;0.491861
6260.000000;0.491360
6259.000000;0.490847
6258.000000;0.490210
6257.000000;0.489457
6256.000000;0.488692
6255.000000;0.487987
6254.000000;0.487327
6253.000000;0.486694
6252.000000;0.486095
6251.000000;0.485512
6250.000000;0.484900
6249.000000;0.484240
6248.000000;0.483561
6247.000000;0.482880
6246.000000;0.482198
6245.000000;0.481553
6244.000000;0.480997
6243.000000;0.480511
6242.000000;0.480002
6241.000000;0.479404
6240.000000;0.478732
6239.000000;0.478019
6238.000000;0.477285
6237.000000;0.476585
6236.000000;0.475998
6235.000000;0.475533
6234.000000;0.475080
6233.000000;0.474504
6232.000000;0.473770
6231.000000;0.472952
6230.000000;0.472175
6229.000000;0.471543
6228.000000;0.471075
6227.000000;0.470674
6226.000000;0.470202
6225.000000;0.469599
6224.000000;0.468913
6223.000000;0.468212
6222.000000;0.467519
6221.000000;0.466839
6220.000000;0.466207
6219.000000;0.465656
6218.000000;0.465190
6217.000000;0.464780
6216.000000;0.464375
6215.000000;0.463907
6214.000000;0.463346
6213.000000;0.462729
6212.000000;0.462123
6211.000000;0.461547
6210.000000;0.460985
6209.000000;0.460445
6208.000000;0.459942
6207.000000;0.459431
6206.000000;0.458851
6205.000000;0.458223
6204.000000;0.457642
6203.000000;0.457145
6202.000000;0.456666
6201.000000;0.456140
6200.000000;0.455580
6199.000000;0.455014
6198.000000;0.454430
6197.000000;0.453815
6196.000000;0.453197
6195.000000;0.452612
6194.000000;0.452074
6193.000000;0.451593
6192.000000;0.451163
6191.000000;0.450712
6190.000000;0.450146
6189.000000;0.449483
6188.000000;0.448853
6187.000000;0.448342
6186.000000;0.447876
6185.000000;0.447336
6184.000000;0.446720
6183.000000;0.446120
6182.000000;0.445597
6181.000000;0.445127
6180.000000;0.444675
6179.000000;0.444228
6178.000000;0.443779
6177.000000;0.443316
6176.000000;0.442848
6175.000000;0.442399
6174.000000;0.441972
6173.000000;0.441530
6172.000000;0.441030
6171.000000;0.440473
6170.000000;0.439908
6169.000000;0.439391
6168.000000;0.438913
6167.000000;0.438404
6166.000000;0.437831
6165.000000;0.437264
6164.000000;0.436793
6163.000000;0.436398
6162.000000;0.435961
6161.000000;0.435421
6160.000000;0.434853
6159.000000;0.434369
6158.000000;0.433988
6157.000000;0.433644
6156.000000;0.433256
6155.000000;0.432781
6154.000000;0.432217
6153.000000;0.431609
6152.000000;0.431018
6151.000000;0.430472
6150.000000;0.429953
6149.000000;0.429445
6148.000000;0.428950
6147.000000;0.428457
6146.000000;0.427930
6145.000000;0.427367
6144.000000;0.426821
6143.000000;0.426348
6142.000000;0.425959
6141.000000;0.425629
6140.000000;0.425324
6139.000000;0.425003
6138.000000;0.424636
6137.000000;0.424244
6136.000000;0.423870
6135.000000;0.423502
6134.000000;0.423078
6133.000000;0.422574
6132.000000;0.422055
6131.000000;0.421586
6130.000000;0.421145
6129.000000;0.420669
6128.000000;0.420148
6127.000000;0.419638
6126.000000;0.419192
6125.000000;0.418816
6124.000000;0.418483
6123.000000;0.418161
6122.000000;0.417822
6121.000000;0.417453
6120.000000;0.417048
6119.000000;0.416585
6118.000000;0.416054
6117.000000;0.415496
6116.000000;0.414991
6115.000000;0.414576
6114.000000;0.414195
6113.000000;0.413763
6112.000000;0.413253
6111.000000;0.412719
6110.000000;0.412234
6109.000000;0.411833
6108.000000;0.411482
6107.000000;0.411110
6106.000000;0.410688
6105.000000;0.410270
6104.000000;0.409949
6103.000000;0.409740
6102.000000;0.409556
6101.000000;0.409299
6100.000000;0.408936
6099.000000;0.408489
6098.000000;0.407986
6097.000000;0.407452
6096.000000;0.406916
6095.000000;0.406408
6094.000000;0.405945
6093.000000;0.405534
6092.000000;0.405176
6091.000000;0.404848
6090.000000;0.404511
6089.000000;0.404154
6088.000000;0.403805
6087.000000;0.403488
6086.000000;0.403187
6085.000000;0.402863
6084.000000;0.402483
6083.000000;0.402043
6082.000000;0.401565
6081.000000;0.401101
6080.000000;0.400701
6079.000000;0.400361
6078.000000;0.400021
6077.000000;0.399629
6076.000000;0.399194
6075.000000;0.398769
6074.000000;0.398398
6073.000000;0.398102
6072.000000;0.397866
6071.000000;0.397633
6070.000000;0.397323
6069.000000;0.396899
6068.000000;0.396410
6067.000000;0.395952
6066.000000;0.395593
6065.000000;0.395324
6064.000000;0.395074
6063.000000;0.394771
6062.000000;0.394394
6061.000000;0.393988
6060.000000;0.393620
6059.000000;0.393312
6058.000000;0.393028
6057.000000;0.392726
6056.000000;0.392399
6055.000000;0.392073
6054.000000;0.391767
6053.000000;0.391474
6052.000000;0.391158
6051.000000;0.390776
6050.000000;0.390327
6049.000000;0.389862
6048.000000;0.389440
6047.000000;0.389087
6046.000000;0.388796
6045.000000;0.388556
6044.000000;0.388347
6043.000000;0.388117
6042.000000;0.387805
6041.000000;0.387397
6040.000000;0.386943
6039.000000;0.386508
6038.000000;0.386135
6037.000000;0.385825
6036.000000;0.385545
6035.000000;0.385256
6034.000000;0.384959
6033.000000;0.384695
6032.000000;0.384486
6031.000000;0.384292
6030.000000;0.384045
6029.000000;0.383719
6028.000000;0.383335
6027.000000;0.382923
6026.000000;0.382519
6025.000000;0.382170
6024.000000;0.381916
6023.000000;0.381742
6022.000000;0.381594
6021.000000;0.381434
6020.000000;0.381259
6019.000000;0.381084
6018.000000;0.380918
6017.000000;0.380753
6016.000000;0.380551
6015.000000;0.380256
6014.000000;0.379853
6013.000000;0.379410
6012.000000;0.379011
6011.000000;0.378681
6010.000000;0.378391
6009.000000;0.378120
6008.000000;0.377872
6007.000000;0.377644
6006.000000;0.377414
6005.000000;0.377150
6004.000000;0.376827
6003.000000;0.376432
6002.000000;0.376013
6001.000000;0.375670
6000.000000;0.375465
5999.000000;0.375344
5998.000000;0.375201
5997.000000;0.375002
5996.000000;0.374783
5995.000000;0.374569
5994.000000;0.374340
5993.000000;0.374084
5992.000000;0.373821
5991.000000;0.373572
5990.000000;0.373342
5989.000000;0.373135
5988.000000;0.372944
5987.000000;0.372740
5986.000000;0.372510
5985.000000;0.372296
5984.000000;0.372147
5983.000000;0.372031
5982.000000;0.371863
5981.000000;0.371606
5980.000000;0.371290
5979.000000;0.370947
5978.000000;0.370594
5977.000000;0.370281
5976.000000;0.370074
5975.000000;0.369967
5974.000000;0.369869
5973.000000;0.369696
5972.000000;0.369443
5971.000000;0.369153
5970.000000;0.368866
5969.000000;0.368610
5968.000000;0.368387
5967.000000;0.368164
5966.000000;0.367902
5965.000000;0.367625
5964.000000;0.367392
5963.000000;0.367208
5962.000000;0.367020
5961.000000;0.366807
5960.000000;0.366625
5959.000000;0.366521
5958.000000;0.366464
5957.000000;0.366383
5956.000000;0.366252
5955.000000;0.366087
5954.000000;0.365906
5953.000000;0.365724
5952.000000;0.365557
5951.000000;0.365419
5950.000000;0.365307
5949.000000;0.365203
5948.000000;0.365086
5947.000000;0.364932
5946.000000;0.364743
5945.000000;0.364553
5944.000000;0.364388
5943.000000;0.364237
5942.000000;0.364087
5941.000000;0.363966
5940.000000;0.363900
5939.000000;0.363839
5938.000000;0.363695
5937.000000;0.363461
5936.000000;0.363223
5935.000000;0.363063
5934.000000;0.362980
5933.000000;0.362918
5932.000000;0.362823
5931.000000;0.362669
5930.000000;0.362464
5929.000000;0.362256
5928.000000;0.362091
5927.000000;0.361967
5926.000000;0.361851
5925.000000;0.361745
5924.000000;0.361674
5923.000000;0.361621
5922.000000;0.361548
5921.000000;0.361460
5920.000000;0.361404
5919.000000;0.361381
5918.000000;0.361329
5917.000000;0.361213
5916.000000;0.361062
5915.000000;0.360912
5914.000000;0.360753
5913.000000;0.360584
5912.000000;0.360432
5911.000000;0.360309
5910.000000;0.360180
5909.000000;0.360025
5908.000000;0.359884
5907.000000;0.359796
5906.000000;0.359744
5905.000000;0.359684
5904.000000;0.359599
5903.000000;0.359487
5902.000000;0.359340
5901.000000;0.359163
5900.000000;0.358996
5899.000000;0.358879
5898.000000;0.358802
5897.000000;0.358732
5896.000000;0.358652
5895.000000;0.358566
5894.000000;0.358480
5893.000000;0.358389
5892.000000;0.358294
5891.000000;0.358199
5890.000000;0.358117
5889.000000;0.358063
5888.000000;0.358044
5887.000000;0.358046
5886.000000;0.358059
5885.000000;0.358080
5884.000000;0.358096
5883.000000;0.358061
5882.000000;0.357958
5881.000000;0.357832
5880.000000;0.357746
5879.000000;0.357697
5878.000000;0.357630
5877.000000;0.357523
5876.000000;0.357413
5875.000000;0.357345
5874.000000;0.357341
5873.000000;0.357418
5872.000000;0.357563
5871.000000;0.357698
5870.000000;0.357740
5869.000000;0.357694
5868.000000;0.357646
5867.000000;0.357645
5866.000000;0.357649
5865.000000;0.357614
5864.000000;0.357557
5863.000000;0.357513
5862.000000;0.357474
5861.000000;0.357415
5860.000000;0.357338
5859.000000;0.357265
5858.000000;0.357216
5857.000000;0.357213
5856.000000;0.357279
5855.000000;0.357395
5854.000000;0.357506
5853.000000;0.357573
5852.000000;0.357602
5851.000000;0.357618
5850.000000;0.357634
5849.000000;0.357672
5848.000000;0.357749
5847.000000;0.357850
5846.000000;0.357929
5845.000000;0.357956
5844.000000;0.357945
5843.000000;0.357919
5842.000000;0.357902
5841.000000;0.357925
5840.000000;0.358018
5839.000000;0.358172
5838.000000;0.358341
5837.000000;0.358501
5836.000000;0.358646
5835.000000;0.358766
5834.000000;0.358850
5833.000000;0.358925
5832.000000;0.359033
5831.000000;0.359158
5830.000000;0.359246
5829.000000;0.359286
5828.000000;0.359324
5827.000000;0.359390
5826.000000;0.359462
5825.000000;0.359539
5824.000000;0.359655
5823.000000;0.359817
5822.000000;0.359980
5821.000000;0.360124
5820.000000;0.360285
5819.000000;0.360495
5818.000000;0.360726
5817.000000;0.360929
5816.000000;0.361107
5815.000000;0.361287
5814.000000;0.361468
5813.000000;0.361623
5812.000000;0.361725
5811.000000;0.361774
5810.000000;0.361803
5809.000000;0.361883
5808.000000;0.362079
5807.000000;0.362382
5806.000000;0.362720
5805.000000;0.363037
5804.000000;0.363329
5803.000000;0.363591
5802.000000;0.363793
5801.000000;0.363925
5800.000000;0.364017
5799.000000;0.364101
5798.000000;0.364193
5797.000000;0.364314
5796.000000;0.364490
5795.000000;0.364710
5794.000000;0.364941
5793.000000;0.365181
5792.000000;0.365458
5791.000000;0.365755
5790.000000;0.366009
5789.000000;0.366201
5788.000000;0.366395
5787.000000;0.366656
5786.000000;0.366986
5785.000000;0.367351
5784.000000;0.367720
5783.000000;0.368051
5782.000000;0.368296
5781.000000;0.368458
5780.000000;0.368613
5779.000000;0.368834
5778.000000;0.369113
5777.000000;0.369402
5776.000000;0.369666
5775.000000;0.369892
5774.000000;0.370085
5773.000000;0.370289
5772.000000;0.370581
5771.000000;0.370988
5770.000000;0.371449
5769.000000;0.371879
5768.000000;0.372247
5767.000000;0.372572
5766.000000;0.372876
5765.000000;0.373175
5764.000000;0.373488
5763.000000;0.373814
5762.000000;0.374121
5761.000000;0.374397
5760.000000;0.374664
5759.000000;0.374954
5758.000000;0.375272
5757.000000;0.375618
5756.000000;0.375997
5755.000000;0.376402
5754.000000;0.376810
5753.000000;0.377217
5752.000000;0.377640
5751.000000;0.378075
5750.000000;0.378487
5749.000000;0.378859
5748.000000;0.379225
5747.000000;0.379622
5746.000000;0.380050
5745.000000;0.380488
5744.000000;0.380938
5743.000000;0.381408
5742.000000;0.381890
5741.000000;0.382371
5740.000000;0.382843
5739.000000;0.383312
5738.000000;0.383794
5737.000000;0.384312
5736.000000;0.384866
5735.000000;0.385409
5734.000000;0.385892
5733.000000;0.386316
5732.000000;0.386722
5731.000000;0.387125
5730.000000;0.387523
5729.000000;0.387955
5728.000000;0.388475
5727.000000;0.389058
5726.000000;0.389615
5725.000000;0.390103
5724.000000;0.390571
5723.000000;0.391080
5722.000000;0.391629
5721.000000;0.392187
5720.000000;0.392741
5719.000000;0.393276
5718.000000;0.393770
5717.000000;0.394231
5716.000000;0.394705
5715.000000;0.395209
5714.000000;0.395713
5713.000000;0.396210
5712.000000;0.396752
5711.000000;0.397373
5710.000000;0.398037
5709.000000;0.398686
5708.000000;0.399311
5707.000000;0.399927
5706.000000;0.400539
5705.000000;0.401137
5704.000000;0.401757
5703.000000;0.402416
5702.000000;0.403070
5701.000000;0.403692
5700.000000;0.404243
5699.000000;0.404735
5698.000000;0.405222
5697.000000;0.405778
5696.000000;0.406436
5695.000000;0.407143
5694.000000;0.407814
5693.000000;0.408424
5692.000000;0.409006
5691.000000;0.409572
5690.000000;0.410100
5689.000000;0.410607
5688.000000;0.411148
5687.000000;0.411749
5686.000000;0.412373
5685.000000;0.412992
5684.000000;0.413610
5683.000000;0.414218
5682.000000;0.414789
5681.000000;0.415334
5680.000000;0.415902
5679.000000;0.416517
5678.000000;0.417160
5677.000000;0.417834
5676.000000;0.418562
5675.000000;0.419308
5674.000000;0.419992
5673.000000;0.420613
5672.000000;0.421275
5671.000000;0.422037
5670.000000;0.422814
5669.000000;0.423494
5668.000000;0.424086
5667.000000;0.424683
5666.000000;0.425336
5665.000000;0.426014
5664.000000;0.426655
5663.000000;0.427204
5662.000000;0.427638
5661.000000;0.428004
5660.000000;0.428402
5659.000000;0.428891
5658.000000;0.429448
5657.000000;0.430025
5656.000000;0.430618
5655.000000;0.431233
5654.000000;0.431845
5653.000000;0.432424
5652.000000;0.432969
5651.000000;0.433492
5650.000000;0.434008
5649.000000;0.434551
5648.000000;0.435162
5647.000000;0.435826
5646.000000;0.436477
5645.000000;0.437073
5644.000000;0.437627
5643.000000;0.438150
5642.000000;0.438639
5641.000000;0.439124
5640.000000;0.439656
5639.000000;0.440227
5638.000000;0.440752
5637.000000;0.441187
5636.000000;0.441581
5635.000000;0.441995
5634.000000;0.442434
5633.000000;0.442878
5632.000000;0.443322
5631.000000;0.443748
5630.000000;0.444114
5629.000000;0.444418
5628.000000;0.444730
5627.000000;0.445105
5626.000000;0.445530
5625.000000;0.445970
5624.000000;0.446419
5623.000000;0.446859
5622.000000;0.447243
5621.000000;0.447556
5620.000000;0.447845
5619.000000;0.448151
5618.000000;0.448456
5617.000000;0.448738
5616.000000;0.449012
5615.000000;0.449305
5614.000000;0.449625
5613.000000;0.449979
5612.000000;0.450358
5611.000000;0.450687
5610.000000;0.450879
5609.000000;0.450980
5608.000000;0.451156
5607.000000;0.451497
5606.000000;0.451918
5605.000000;0.452303
5604.000000;0.452637
5603.000000;0.452941
5602.000000;0.453172
5601.000000;0.453290
5600.000000;0.453336
5599.000000;0.453381
5598.000000;0.453439
5597.000000;0.453517
5596.000000;0.453656
5595.000000;0.453871
5594.000000;0.454094
5593.000000;0.454266
5592.000000;0.454414
5591.000000;0.454572
5590.000000;0.454705
5589.000000;0.454772
5588.000000;0.454812
5587.000000;0.454884
5586.000000;0.454971
5585.000000;0.455027
5584.000000;0.455037
5583.000000;0.455002
5582.000000;0.454919
5581.000000;0.454828
5580.000000;0.454807
5579.000000;0.454862
5578.000000;0.454881
5577.000000;0.454800
5576.000000;0.454714
5575.000000;0.454746
5574.000000;0.454876
5573.000000;0.454999
5572.000000;0.455087
5571.000000;0.455185
5570.000000;0.455286
5569.000000;0.455332
5568.000000;0.455315
5567.000000;0.455285
5566.000000;0.455259
5565.000000;0.455195
5564.000000;0.455067
5563.000000;0.454902
5562.000000;0.454754
5561.000000;0.454689
5560.000000;0.454747
5559.000000;0.454906
5558.000000;0.455102
5557.000000;0.455299
5556.000000;0.455502
5555.000000;0.455670
5554.000000;0.455722
5553.000000;0.455628
5552.000000;0.455445
5551.000000;0.455221
5550.000000;0.454940
5549.000000;0.454609
5548.000000;0.454308
5547.000000;0.454092
5546.000000;0.453917
5545.000000;0.453738
5544.000000;0.453606
5543.000000;0.453602
5542.000000;0.453725
5541.000000;0.453906
5540.000000;0.454096
5539.000000;0.454288
5538.000000;0.454444
5537.000000;0.454456
5536.000000;0.454198
5535.000000;0.453645
5534.000000;0.452948
5533.000000;0.452382
5532.000000;0.452143
5531.000000;0.452185
5530.000000;0.452289
5529.000000;0.452309
5528.000000;0.452319
5527.000000;0.452476
5526.000000;0.452815
5525.000000;0.453232
5524.000000;0.453585
5523.000000;0.453793
5522.000000;0.453824
5521.000000;0.453651
5520.000000;0.453306
5519.000000;0.452937
5518.000000;0.452771
5517.000000;0.452914
5516.000000;0.453175
5515.000000;0.453261
5514.000000;0.453176
5513.000000;0.453265
5512.000000;0.453738
5511.000000;0.454373
5510.000000;0.454823
5509.000000;0.455022
5508.000000;0.455069
5507.000000;0.454802
5506.000000;0.453964
5505.000000;0.452813
5504.000000;0.452128
5503.000000;0.452482
5502.000000;0.453656
5501.000000;0.454951
5500.000000;0.456085
5499.000000;0.457429
5498.000000;0.459314
5497.000000;0.461428
5496.000000;0.463098
5495.000000;0.464052
5494.000000;0.464491
5493.000000;0.464452
5492.000000;0.463570
5491.000000;0.461691
5490.000000;0.459343
5489.000000;0.457227
5488.000000;0.455509
5487.000000;0.454000
5486.000000;0.452943
5485.000000;0.453112
5484.000000;0.454745
5483.000000;0.457027
5482.000000;0.459135
5481.000000;0.461146
5480.000000;0.463444
5479.000000;0.465658
5478.000000;0.467029
5477.000000;0.467522
5476.000000;0.467614
5475.000000;0.467215
5474.000000;0.465831
5473.000000;0.463795
5472.000000;0.462358
5471.000000;0.462516
5470.000000;0.464163
5469.000000;0.466352
5468.000000;0.468177
5467.000000;0.469354
5466.000000;0.470151
5465.000000;0.470901
5464.000000;0.471490
5463.000000;0.471446
5462.000000;0.470643
5461.000000;0.469510
5460.000000;0.468471
5459.000000;0.467576
5458.000000;0.466862
5457.000000;0.466748
5456.000000;0.467856
5455.000000;0.470366
5454.000000;0.473659
5453.000000;0.476913
5452.000000;0.479994
5451.000000;0.483534
5450.000000;0.487748
5449.000000;0.491500
5448.000000;0.493394
5447.000000;0.493513
5446.000000;0.493167
5445.000000;0.493129
5444.000000;0.493008
5443.000000;0.492361
5442.000000;0.491601
5441.000000;0.491446
5440.000000;0.492050
5439.000000;0.493226
5438.000000;0.494999
5437.000000;0.497391
5436.000000;0.500068
5435.000000;0.502433
5434.000000;0.503879
5433.000000;0.504042
5432.000000;0.503020
5431.000000;0.501451
5430.000000;0.499985
5429.000000;0.498500
5428.000000;0.496297
5427.000000;0.493182
5426.000000;0.490038
5425.000000;0.488341
5424.000000;0.489221
5423.000000;0.492673
5422.000000;0.497653
5421.000000;0.503314
5420.000000;0.509763
5419.000000;0.517239
5418.000000;0.524878
5417.000000;0.531098
5416.000000;0.535271
5415.000000;0.537934
5414.000000;0.539223
5413.000000;0.538332
5412.000000;0.535084
5411.000000;0.530949
5410.000000;0.527679
5409.000000;0.525715
5408.000000;0.524615
5407.000000;0.524338
5406.000000;0.525405
5405.000000;0.527949
5404.000000;0.531672
5403.000000;0.536545
5402.000000;0.542413
5401.000000;0.548574
5400.000000;0.554327
5399.000000;0.559546
5398.000000;0.564229
5397.000000;0.567947
5396.000000;0.570561
5395.000000;0.572782
5394.000000;0.575221
5393.000000;0.577555
5392.000000;0.579319
5391.000000;0.581059
5390.000000;0.583687
5389.000000;0.587207
5388.000000;0.591015
5387.000000;0.595227
5386.000000;0.600418
5385.000000;0.606156
5384.000000;0.611446
5383.000000;0.616436
5382.000000;0.622185
5381.000000;0.628779
5380.000000;0.635022
5379.000000;0.640162
5378.000000;0.644638
5377.000000;0.648625
5376.000000;0.651407
5375.000000;0.652886
5374.000000;0.654422
5373.000000;0.657477
5372.000000;0.662200
5371.000000;0.667975
5370.000000;0.674575
5369.000000;0.682076
5368.000000;0.690047
5367.000000;0.697804
5366.000000;0.705265
5365.000000;0.712901
5364.000000;0.721237
5363.000000;0.730553
5362.000000;0.740779
5361.000000;0.751530
5360.000000;0.762556
5359.000000;0.774247
5358.000000;0.786969
5357.000000;0.800043
5356.000000;0.812354
5355.000000;0.824066
5354.000000;0.836414
5353.000000;0.849491
5352.000000;0.861807
5351.000000;0.872711
5350.000000;0.883851
5349.000000;0.897166
5348.000000;0.912394
5347.000000;0.927762
5346.000000;0.942509
5345.000000;0.957039
5344.000000;0.971094
5343.000000;0.983694
5342.000000;0.994955
5341.000000;1.006383
5340.000000;1.019104
5339.000000;1.032790
5338.000000;1.046459
5337.000000;1.059834
5336.000000;1.073294
5335.000000;1.087306
5334.000000;1.102520
5333.000000;1.119530
5332.000000;1.137902
5331.000000;1.156065
5330.000000;1.172840
5329.000000;1.188673
5328.000000;1.204832
5327.000000;1.221764
5326.000000;1.239087
5325.000000;1.256646
5324.000000;1.274703
5323.000000;1.293421
5322.000000;1.312761
5321.000000;1.332584
5320.000000;1.352534
5319.000000;1.372314
5318.000000;1.392236
5317.000000;1.412948
5316.000000;1.434246
5315.000000;1.455139
5314.000000;1.475442
5313.000000;1.496037
5312.000000;1.517144
5311.000000;1.537625
5310.000000;1.556651
5309.000000;1.574746
5308.000000;1.592342
5307.000000;1.608677
5306.000000;1.623134
5305.000000;1.636416
5304.000000;1.649322
5303.000000;1.661541
5302.000000;1.672737
5301.000000;1.683854
5300.000000;1.696267
5299.000000;1.710051
5298.000000;1.723852
5297.000000;1.736187
5296.000000;1.746112
5295.000000;1.753342
5294.000000;1.758548
5293.000000;1.763086
5292.000000;1.768102
5291.000000;1.773951
5290.000000;1.780182
5289.000000;1.785567
5288.000000;1.788612
5287.000000;1.789030
5286.000000;1.788411
5285.000000;1.788528
5284.000000;1.789378
5283.000000;1.789959
5282.000000;1.790448
5281.000000;1.791992
5280.000000;1.794542
5279.000000;1.796626
5278.000000;1.797644
5277.000000;1.798828
5276.000000;1.801355
5275.000000;1.804769
5274.000000;1.807947
5273.000000;1.810497
5272.000000;1.812783
5271.000000;1.815508
5270.000000;1.819282
5269.000000;1.823657
5268.000000;1.826620
5267.000000;1.826495
5266.000000;1.824390
5265.000000;1.823316
5264.000000;1.824462
5263.000000;1.825684
5262.000000;1.824447
5261.000000;1.820871
5260.000000;1.817076
5259.000000;1.814893
5258.000000;1.815118
5257.000000;1.817475
5256.000000;1.820466
5255.000000;1.822125
5254.000000;1.822033
5253.000000;1.821597
5252.000000;1.821714
5251.000000;1.821763
5250.000000;1.821088
5249.000000;1.819837
5248.000000;1.817864
5247.000000;1.814561
5246.000000;1.810582
5245.000000;1.808134
5244.000000;1.808278
5243.000000;1.809013
5242.000000;1.807654
5241.000000;1.804396
5240.000000;1.801803
5239.000000;1.801314
5238.000000;1.801956
5237.000000;1.802122
5236.000000;1.801576
5235.000000;1.801645
5234.000000;1.803889
5233.000000;1.808555
5232.000000;1.814080
5231.000000;1.818267
5230.000000;1.820111
5229.000000;1.820179
5228.000000;1.819243
5227.000000;1.817395
5226.000000;1.814720
5225.000000;1.811923
5224.000000;1.809577
5223.000000;1.807188
5222.000000;1.803665
5221.000000;1.798918
5220.000000;1.794434
5219.000000;1.792199
5218.000000;1.793126
5217.000000;1.796356
5216.000000;1.800123
5215.000000;1.803286
5214.000000;1.805978
5213.000000;1.809037
5212.000000;1.813083
5211.000000;1.817746
5210.000000;1.821366
5209.000000;1.821770
5208.000000;1.818006
5207.000000;1.811559
5206.000000;1.805332
5205.000000;1.801159
5204.000000;1.798754
5203.000000;1.797261
5202.000000;1.796829
5201.000000;1.797840
5200.000000;1.799362
5199.000000;1.799679
5198.000000;1.798063
5197.000000;1.795252
5196.000000;1.792606
5195.000000;1.791256
5194.000000;1.791593
5193.000000;1.792864
5192.000000;1.793432
5191.000000;1.792286
5190.000000;1.790185
5189.000000;1.788696
5188.000000;1.788392
5187.000000;1.788767
5186.000000;1.789394
5185.000000;1.790135
5184.000000;1.790507
5183.000000;1.789925
5182.000000;1.788545
5181.000000;1.787118
5180.000000;1.786041
5179.000000;1.785238
5178.000000;1.784850
5177.000000;1.785226
5176.000000;1.786145
5175.000000;1.786789
5174.000000;1.786662
5173.000000;1.786030
5172.000000;1.785515
5171.000000;1.785692
5170.000000;1.786702
5169.000000;1.787678
5168.000000;1.787177
5167.000000;1.785129
5166.000000;1.783636
5165.000000;1.784656
5164.000000;1.787417
5163.000000;1.789472
5162.000000;1.790109
5161.000000;1.790889
5160.000000;1.792681
5159.000000;1.794174
5158.000000;1.794008
5157.000000;1.792768
5156.000000;1.791722
5155.000000;1.790800
5154.000000;1.789111
5153.000000;1.786717
5152.000000;1.784688
5151.000000;1.783841
5150.000000;1.784053
5149.000000;1.784617
5148.000000;1.784877
5147.000000;1.784718
5146.000000;1.784578
5145.000000;1.784755
5144.000000;1.784929
5143.000000;1.784902
5142.000000;1.785403
5141.000000;1.787177
5140.000000;1.789494
5139.000000;1.790744
5138.000000;1.790553
5137.000000;1.789972
5136.000000;1.789468
5135.000000;1.788267
5134.000000;1.786153
5133.000000;1.784365
5132.000000;1.783953
5131.000000;1.784451
5130.000000;1.784925
5129.000000;1.785382
5128.000000;1.786257
5127.000000;1.787369
5126.000000;1.788252
5125.000000;1.788899
5124.000000;1.789455
5123.000000;1.789664
5122.000000;1.789216
5121.000000;1.788271
5120.000000;1.787276
5119.000000;1.786683
5118.000000;1.786921
5117.000000;1.788001
5116.000000;1.789056
5115.000000;1.789146
5114.000000;1.788760
5113.000000;1.789399
5112.000000;1.791263
5111.000000;1.792659
5110.000000;1.792424
5109.000000;1.791693
5108.000000;1.792189
5107.000000;1.793735
5106.000000;1.794642
5105.000000;1.793974
5104.000000;1.792389
5103.000000;1.791045
5102.000000;1.790601
5101.000000;1.791031
5100.000000;1.791763
5099.000000;1.792114
5098.000000;1.791960
5097.000000;1.791791
5096.000000;1.791893
5095.000000;1.792029
5094.000000;1.792148
5093.000000;1.792613
5092.000000;1.793361
5091.000000;1.793734
5090.000000;1.793660
5089.000000;1.794044
5088.000000;1.795321
5087.000000;1.796518
5086.000000;1.796538
5085.000000;1.795614
5084.000000;1.794667
5083.000000;1.793970
5082.000000;1.793304
5081.000000;1.792761
5080.000000;1.792514
5079.000000;1.792296
5078.000000;1.791859
5077.000000;1.791454
5076.000000;1.791173
5075.000000;1.790471
5074.000000;1.789136
5073.000000;1.788164
5072.000000;1.788777
5071.000000;1.790874
5070.000000;1.793152
5069.000000;1.794425
5068.000000;1.794310
5067.000000;1.793136
5066.000000;1.791880
5065.000000;1.791678
5064.000000;1.792567
5063.000000;1.793084
5062.000000;1.791892
5061.000000;1.789522
5060.000000;1.787744
5059.000000;1.787561
5058.000000;1.788581
5057.000000;1.789956
5056.000000;1.791139
5055.000000;1.791896
5054.000000;1.792393
5053.000000;1.793296
5052.000000;1.795186
5051.000000;1.797680
5050.000000;1.799447
5049.000000;1.799413
5048.000000;1.797853
5047.000000;1.796000
5046.000000;1.794739
5045.000000;1.793877
5044.000000;1.792678
5043.000000;1.790980
5042.000000;1.789431
5041.000000;1.788427
5040.000000;1.787464
5039.000000;1.786154
5038.000000;1.785342
5037.000000;1.786155
5036.000000;1.788247
5035.000000;1.790058
5034.000000;1.790759
5033.000000;1.790696
5032.000000;1.789943
5031.000000;1.787994
5030.000000;1.785245
5029.000000;1.783239
5028.000000;1.782780
5027.000000;1.782971
5026.000000;1.782674
5025.000000;1.781760
5024.000000;1.780268
5023.000000;1.777742
5022.000000;1.774494
5021.000000;1.772323
5020.000000;1.772653
5019.000000;1.774634
5018.000000;1.776163
5017.000000;1.776259
5016.000000;1.775427
5015.000000;1.774250
5014.000000;1.772935
5013.000000;1.771952
5012.000000;1.771915
5011.000000;1.772734
5010.000000;1.773625
5009.000000;1.773912
5008.000000;1.773375
5007.000000;1.772019
5006.000000;1.770453
5005.000000;1.769884
5004.000000;1.771129
5003.000000;1.773404
5002.000000;1.774574
5001.000000;1.773045
5000.000000;1.769198
4999.000000;1.764983
4998.000000;1.762239
4997.000000;1.761359
4996.000000;1.761361
4995.000000;1.761218
4994.000000;1.760933
4993.000000;1.760991
4992.000000;1.761137
4991.000000;1.760476
4990.000000;1.758725
4989.000000;1.756553
4988.000000;1.754593
4987.000000;1.752913
4986.000000;1.751476
4985.000000;1.750211
4984.000000;1.748499
4983.000000;1.745561
4982.000000;1.741729
4981.000000;1.738433
4980.000000;1.736662
4979.000000;1.736246
4978.000000;1.736677
4977.000000;1.737598
4976.000000;1.738105
4975.000000;1.736801
4974.000000;1.733472
4973.000000;1.729826
4972.000000;1.727642
4971.000000;1.726880
4970.000000;1.726247
4969.000000;1.725007
4968.000000;1.723496
4967.000000;1.722274
4966.000000;1.721397
4965.000000;1.720315
4964.000000;1.718211
4963.000000;1.714811
4962.000000;1.711048
4961.000000;1.708416
4960.000000;1.707567
4959.000000;1.708017
4958.000000;1.709064
4957.000000;1.710121
4956.000000;1.710135
4955.000000;1.707968
4954.000000;1.703816
4953.000000;1.699243
4952.000000;1.695373
4951.000000;1.692068
4950.000000;1.689095
4949.000000;1.686822
4948.000000;1.685221
4947.000000;1.683335
4946.000000;1.680623
4945.000000;1.677881
4944.000000;1.675983
4943.000000;1.674586
4942.000000;1.672888
4941.000000;1.670805
4940.000000;1.668514
4939.000000;1.665635
4938.000000;1.661906
4937.000000;1.658119
4936.000000;1.655391
4935.000000;1.653840
4934.000000;1.652682
4933.000000;1.651262
4932.000000;1.649384
4931.000000;1.647063
4930.000000;1.644537
4929.000000;1.642155
4928.000000;1.639744
4927.000000;1.636584
4926.000000;1.632497
4925.000000;1.628445
4924.000000;1.625544
4923.000000;1.623889
4922.000000;1.622765
4921.000000;1.621503
4920.000000;1.619736
4919.000000;1.617389
4918.000000;1.614887
4917.000000;1.612874
4916.000000;1.611287
4915.000000;1.609207
4914.000000;1.606068
4913.000000;1.602470
4912.000000;1.599320
4911.000000;1.596742
4910.000000;1.594249
4909.000000;1.591366
4908.000000;1.587806
4907.000000;1.583733
4906.000000;1.580119
4905.000000;1.577931
4904.000000;1.576574
4903.000000;1.574112
4902.000000;1.569659
4901.000000;1.564544
4900.000000;1.560397
4899.000000;1.557169
4898.000000;1.553944
4897.000000;1.550732
4896.000000;1.548244
4895.000000;1.546405
4894.000000;1.544276
4893.000000;1.541282
4892.000000;1.537666
4891.000000;1.533891
4890.000000;1.530310
4889.000000;1.527221
4888.000000;1.524582
4887.000000;1.521897
4886.000000;1.518908
4885.000000;1.516079
4884.000000;1.513877
4883.000000;1.512009
4882.000000;1.509956
4881.000000;1.507846
4880.000000;1.506069
4879.000000;1.504355
4878.000000;1.501995
4877.000000;1.498790
4876.000000;1.495179
4875.000000;1.491593
4874.000000;1.488217
4873.000000;1.485180
4872.000000;1.482414
4871.000000;1.479497
4870.000000;1.476095
4869.000000;1.472368
4868.000000;1.468645
4867.000000;1.465010
4866.000000;1.461573
4865.000000;1.458684
4864.000000;1.456372
4863.000000;1.453938
4862.000000;1.450656
4861.000000;1.446601
4860.000000;1.442346
4859.000000;1.438206
4858.000000;1.434241
4857.000000;1.430616
4856.000000;1.427377
4855.000000;1.424204
4854.000000;1.420898
4853.000000;1.417838
4852.000000;1.415402
4851.000000;1.413234
4850.000000;1.410698
4849.000000;1.407803
4848.000000;1.405097
4847.000000;1.402783
4846.000000;1.400490
4845.000000;1.397791
4844.000000;1.394491
4843.000000;1.390555
4842.000000;1.386248
4841.000000;1.382209
4840.000000;1.378928
4839.000000;1.376231
4838.000000;1.373606
4837.000000;1.370853
4836.000000;1.368067
4835.000000;1.365214
4834.000000;1.362197
4833.000000;1.359189
4832.000000;1.356420
4831.000000;1.353760
4830.000000;1.350893
4829.000000;1.347775
4828.000000;1.344535
4827.000000;1.341113
4826.000000;1.337399
4825.000000;1.333632
4824.000000;1.330230
4823.000000;1.327309
4822.000000;1.324661
4821.000000;1.322064
4820.000000;1.319308
4819.000000;1.316110
4818.000000;1.312418
4817.000000;1.308701
4816.000000;1.305530
4815.000000;1.302963
4814.000000;1.300604
4813.000000;1.298131
4812.000000;1.295516
4811.000000;1.292781
4810.000000;1.289931
4809.000000;1.287022
4808.000000;1.284079
4807.000000;1.281029
4806.000000;1.277881
4805.000000;1.274793
4804.000000;1.271780
4803.000000;1.268595
4802.000000;1.265130
4801.000000;1.261706
4800.000000;1.258697
4799.000000;1.256075
4798.000000;1.253584
4797.000000;1.251132
4796.000000;1.248720
4795.000000;1.246212
4794.000000;1.243526
4793.000000;1.240823
4792.000000;1.238189
4791.000000;1.235331
4790.000000;1.231959
4789.000000;1.228278
4788.000000;1.224745
4787.000000;1.221537
4786.000000;1.218603
4785.000000;1.216024
4784.000000;1.213853
4783.000000;1.211738
4782.000000;1.209193
4781.000000;1.206235
4780.000000;1.203360
4779.000000;1.200847
4778.000000;1.198458
4777.000000;1.195841
4776.000000;1.192931
4775.000000;1.189861
4774.000000;1.186759
4773.000000;1.183727
4772.000000;1.180846
4771.000000;1.178142
4770.000000;1.175610
4769.000000;1.173253
4768.000000;1.171010
4767.000000;1.168747
4766.000000;1.166407
4765.000000;1.164044
4764.000000;1.161614
4763.000000;1.158933
4762.000000;1.155995
4761.000000;1.153108
4760.000000;1.150513
4759.000000;1.148061
4758.000000;1.145505
4757.000000;1.142909
4756.000000;1.140492
4755.000000;1.138232
4754.000000;1.135948
4753.000000;1.133656
4752.000000;1.131534
4751.000000;1.129559
4750.000000;1.127460
4749.000000;1.125021
4748.000000;1.122246
4747.000000;1.119293
4746.000000;1.116434
4745.000000;1.114005
4744.000000;1.112153
4743.000000;1.110638
4742.000000;1.109008
4741.000000;1.106924
4740.000000;1.104256
4739.000000;1.101070
4738.000000;1.097758
4737.000000;1.094968
4736.000000;1.093117
4735.000000;1.091994
4734.000000;1.090998
4733.000000;1.089675
4732.000000;1.087855
4731.000000;1.085466
4730.000000;1.082559
4729.000000;1.079468
4728.000000;1.076649
4727.000000;1.074295
4726.000000;1.072254
4725.000000;1.070276
4724.000000;1.068212
4723.000000;1.066048
4722.000000;1.063921
4721.000000;1.062047
4720.000000;1.060472
4719.000000;1.058966
4718.000000;1.057298
4717.000000;1.055493
4716.000000;1.053687
4715.000000;1.051871
4714.000000;1.050002
4713.000000;1.048219
4712.000000;1.046673
4711.000000;1.045206
4710.000000;1.043484
4709.000000;1.041460
4708.000000;1.039455
4707.000000;1.037756
4706.000000;1.036299
4705.000000;1.034791
4704.000000;1.032987
4703.000000;1.030833
4702.000000;1.028480
4701.000000;1.026201
4700.000000;1.024234
4699.000000;1.022655
4698.000000;1.021382
4697.000000;1.020249
4696.000000;1.019035
4695.000000;1.017568
4694.000000;1.015880
4693.000000;1.014173
4692.000000;1.012575
4691.000000;1.011036
4690.000000;1.009501
4689.000000;1.008050
4688.000000;1.006755
4687.000000;1.005563
4686.000000;1.004409
4685.000000;1.003315
4684.000000;1.002270
4683.000000;1.001168
4682.000000;0.999966
4681.000000;0.998741
4680.000000;0.997481
4679.000000;0.996011
4678.000000;0.994266
4677.000000;0.992478
4676.000000;0.990910
4675.000000;0.989558
4674.000000;0.988298
4673.000000;0.987135
4672.000000;0.986117
4671.000000;0.985130
4670.000000;0.984007
4669.000000;0.982742
4668.000000;0.981426
4667.000000;0.980079
4666.000000;0.978703
4665.000000;0.977402
4664.000000;0.976256
4663.000000;0.975170
4662.000000;0.974013
4661.000000;0.972828
4660.000000;0.971730
4659.000000;0.970724
4658.000000;0.969764
4657.000000;0.968901
4656.000000;0.968144
4655.000000;0.967327
4654.000000;0.966289
4653.000000;0.965137
4652.000000;0.964106
4651.000000;0.963254
4650.000000;0.962458
4649.000000;0.961648
4648.000000;0.960862
4647.000000;0.960106
4646.000000;0.959330
4645.000000;0.958512
4644.000000;0.957641
4643.000000;0.956689
4642.000000;0.955712
4641.000000;0.954874
4640.000000;0.954248
4639.000000;0.953687
4638.000000;0.953008
4637.000000;0.952204
4636.000000;0.951361
4635.000000;0.950503
4634.000000;0.949659
4633.000000;0.948923
4632.000000;0.948287
4631.000000;0.947574
4630.000000;0.946710
4629.000000;0.945918
4628.000000;0.945445
4627.000000;0.945222
4626.000000;0.944997
4625.000000;0.944681
4624.000000;0.944320
4623.000000;0.943864
4622.000000;0.943215
4621.000000;0.942451
4620.000000;0.941743
4619.000000;0.941097
4618.000000;0.940364
4617.000000;0.939510
4616.000000;0.938679
4615.000000;0.938011
4614.000000;0.937556
4613.000000;0.937291
4612.000000;0.937096
4611.000000;0.936780
4610.000000;0.936292
4609.000000;0.935850
4608.000000;0.935694
4607.000000;0.935783
4606.000000;0.935882
4605.000000;0.935847
4604.000000;0.935682
4603.000000;0.935410
4602.000000;0.935053
4601.000000;0.934685
4600.000000;0.934332
4599.000000;0.933928
4598.000000;0.933480
4597.000000;0.933156
4596.000000;0.933050
4595.000000;0.933020
4594.000000;0.932927
4593.000000;0.932867
4592.000000;0.932950
4591.000000;0.933003
4590.000000;0.932775
4589.000000;0.932332
4588.000000;0.931967
4587.000000;0.931820
4586.000000;0.931834
4585.000000;0.931998
4584.000000;0.932330
4583.000000;0.932642
4582.000000;0.932658
4581.000000;0.932393
4580.000000;0.932182
4579.000000;0.932288
4578.000000;0.932678
4577.000000;0.933167
4576.000000;0.933595
4575.000000;0.933830
4574.000000;0.933848
4573.000000;0.933840
4572.000000;0.934080
4571.000000;0.934638
4570.000000;0.935315
4569.000000;0.935860
4568.000000;0.936140
4567.000000;0.936171
4566.000000;0.936131
4565.000000;0.936303
4564.000000;0.936830
4563.000000;0.937562
4562.000000;0.938252
4561.000000;0.938839
4560.000000;0.939390
4559.000000;0.939898
4558.000000;0.940360
4557.000000;0.940977
4556.000000;0.941985
4555.000000;0.943276
4554.000000;0.944422
4553.000000;0.945112
4552.000000;0.945438
4551.000000;0.945726
4550.000000;0.946232
4549.000000;0.946993
4548.000000;0.947831
4547.000000;0.948525
4546.000000;0.949064
4545.000000;0.949699
4544.000000;0.950636
4543.000000;0.951775
4542.000000;0.952871
4541.000000;0.953819
4540.000000;0.954611
4539.000000;0.955200
4538.000000;0.955633
4537.000000;0.956188
4536.000000;0.957103
4535.000000;0.958246
4534.000000;0.959312
4533.000000;0.960277
4532.000000;0.961359
4531.000000;0.962572
4530.000000;0.963656
4529.000000;0.964488
4528.000000;0.965281
4527.000000;0.966268
4526.000000;0.967402
4525.000000;0.968471
4524.000000;0.969359
4523.000000;0.970111
4522.000000;0.970852
4521.000000;0.971670
4520.000000;0.972518
4519.000000;0.973242
4518.000000;0.973798
4517.000000;0.974378
4516.000000;0.975198
4515.000000;0.976232
4514.000000;0.977296
4513.000000;0.978292
4512.000000;0.979209
4511.000000;0.979991
4510.000000;0.980620
4509.000000;0.981264
4508.000000;0.982143
4507.000000;0.983263
4506.000000;0.984462
4505.000000;0.985639
4504.000000;0.986774
4503.000000;0.987803
4502.000000;0.988701
4501.000000;0.989644
4500.000000;0.990857
4499.000000;0.992289
4498.000000;0.993652
4497.000000;0.994762
4496.000000;0.995685
4495.000000;0.996567
4494.000000;0.997514
4493.000000;0.998605
4492.000000;0.999863
4491.000000;1.001191
4490.000000;1.002490
4489.000000;1.003795
4488.000000;1.005155
4487.000000;1.006482
4486.000000;1.007687
4485.000000;1.008881
4484.000000;1.010246
4483.000000;1.011774
4482.000000;1.013335
4481.000000;1.014913
4480.000000;1.016556
4479.000000;1.018148
4478.000000;1.019474
4477.000000;1.020513
4476.000000;1.021502
4475.000000;1.022714
4474.000000;1.024299
4473.000000;1.026239
4472.000000;1.028312
4471.000000;1.030201
4470.000000;1.031840
4469.000000;1.033535
4468.000000;1.035550
4467.000000;1.037738
4466.000000;1.039788
4465.000000;1.041704
4464.000000;1.043709
4463.000000;1.045787
4462.000000;1.047641
4461.000000;1.049136
4460.000000;1.050505
4459.000000;1.052106
4458.000000;1.054161
4457.000000;1.056654
4456.000000;1.059281
4455.000000;1.061579
4454.000000;1.063359
4453.000000;1.064944
4452.000000;1.066732
4451.000000;1.068683
4450.000000;1.070490
4449.000000;1.072145
4448.000000;1.073966
4447.000000;1.076110
4446.000000;1.078417
4445.000000;1.080754
4444.000000;1.083187
4443.000000;1.085748
4442.000000;1.088301
4441.000000;1.090729
4440.000000;1.093061
4439.000000;1.095364
4438.000000;1.097662
4437.000000;1.099957
4436.000000;1.102199
4435.000000;1.104312
4434.000000;1.106374
4433.000000;1.108642
4432.000000;1.111223
4431.000000;1.113884
4430.000000;1.116403
4429.000000;1.118933
4428.000000;1.121735
4427.000000;1.124718
4426.000000;1.127582
4425.000000;1.130298
4424.000000;1.133092
4423.000000;1.136033
4422.000000;1.138932
4421.000000;1.141601
4420.000000;1.143928
4419.000000;1.145848
4418.000000;1.147541
4417.000000;1.149510
4416.000000;1.152111
4415.000000;1.155125
4414.000000;1.158121
4413.000000;1.161099
4412.000000;1.164363
4411.000000;1.167893
4410.000000;1.171305
4409.000000;1.174380
4408.000000;1.177209
4407.000000;1.179886
4406.000000;1.182484
4405.000000;1.185254
4404.000000;1.188389
4403.000000;1.191653
4402.000000;1.194709
4401.000000;1.197765
4400.000000;1.201376
4399.000000;1.205581
4398.000000;1.209747
4397.000000;1.213345
4396.000000;1.216405
4395.000000;1.219115
4394.000000;1.221524
4393.000000;1.223827
4392.000000;1.226432
4391.000000;1.229467
4390.000000;1.232563
4389.000000;1.235405
4388.000000;1.238253
4387.000000;1.241648
4386.000000;1.245758
4385.000000;1.250157
4384.000000;1.254187
4383.000000;1.257508
4382.000000;1.260394
4381.000000;1.263442
4380.000000;1.266900
4379.000000;1.270471
4378.000000;1.273894
4377.000000;1.277392
4376.000000;1.281214
4375.000000;1.285062
4374.000000;1.288477
4373.000000;1.291583
4372.000000;1.294893
4371.000000;1.298512
4370.000000;1.302122
4369.000000;1.305683
4368.000000;1.309537
4367.000000;1.313776
4366.000000;1.318081
4365.000000;1.322311
4364.000000;1.326689
4363.000000;1.331229
4362.000000;1.335446
4361.000000;1.338900
4360.000000;1.341691
4359.000000;1.344292
4358.000000;1.347180
4357.000000;1.350721
4356.000000;1.355056
4355.000000;1.359931
4354.000000;1.364908
4353.000000;1.369739
4352.000000;1.374351
4351.000000;1.378610
4350.000000;1.382467
4349.000000;1.386285
4348.000000;1.390586
4347.000000;1.395444
4346.000000;1.400465
4345.000000;1.405367
4344.000000;1.410257
4343.000000;1.415297
4342.000000;1.420393
4341.000000;1.425252
4340.000000;1.429567
4339.000000;1.433281
4338.000000;1.436808
4337.000000;1.440776
4336.000000;1.445360
4335.000000;1.450185
4334.000000;1.455054
4333.000000;1.460255
4332.000000;1.465822
4331.000000;1.471054
4330.000000;1.475368
4329.000000;1.479151
4328.000000;1.483140
4327.000000;1.487450
4326.000000;1.491852
4325.000000;1.496492
4324.000000;1.501516
4323.000000;1.506477
4322.000000;1.511003
4321.000000;1.515664
4320.000000;1.521206
4319.000000;1.527239
4318.000000;1.532679
4317.000000;1.537267
4316.000000;1.541661
4315.000000;1.546195
4314.000000;1.550643
4313.000000;1.555146
4312.000000;1.560295
4311.000000;1.566183
4310.000000;1.572270
4309.000000;1.578229
4308.000000;1.584145
4307.000000;1.589966
4306.000000;1.595560
4305.000000;1.601206
4304.000000;1.607168
4303.000000;1.612871
4302.000000;1.617493
4301.000000;1.621294
4300.000000;1.625376
4299.000000;1.630197
4298.000000;1.635372
4297.000000;1.640770
4296.000000;1.646720
4295.000000;1.653151
4294.000000;1.659591
4293.000000;1.665949
4292.000000;1.672222
4291.000000;1.677576
4290.000000;1.681119
4289.000000;1.683723
4288.000000;1.687625
4287.000000;1.693823
4286.000000;1.701014
4285.000000;1.707313
4284.000000;1.712041
4283.000000;1.715619
4282.000000;1.718814
4281.000000;1.722600
4280.000000;1.727910
4279.000000;1.734909
4278.000000;1.742860
4277.000000;1.750804
4276.000000;1.757973
4275.000000;1.763855
4274.000000;1.768719
4273.000000;1.773859
4272.000000;1.780434
4271.000000;1.788227
4270.000000;1.796279
4269.000000;1.804319
4268.000000;1.812463
4267.000000;1.819871
4266.000000;1.825120
4265.000000;1.828065
4264.000000;1.830237
4263.000000;1.833371
4262.000000;1.838427
4261.000000;1.845673
4260.000000;1.854516
4259.000000;1.863279
4258.000000;1.870191
4257.000000;1.874839
4256.000000;1.878143
4255.000000;1.881378
4254.000000;1.885925
4253.000000;1.892968
4252.000000;1.902034
4251.000000;1.910685
4250.000000;1.916940
4249.000000;1.921456
4248.000000;1.926122
4247.000000;1.931595
4246.000000;1.937624
4245.000000;1.944440
4244.000000;1.951885
4243.000000;1.958313
4242.000000;1.962521
4241.000000;1.965886
4240.000000;1.970425
4239.000000;1.975793
4238.000000;1.980652
4237.000000;1.986014
4236.000000;1.994361
4235.000000;2.005650
4234.000000;2.016460
4233.000000;2.023455
4232.000000;2.026215
4231.000000;2.026691
4230.000000;2.027814
4229.000000;2.032344
4228.000000;2.040955
4227.000000;2.051383
4226.000000;2.060668
4225.000000;2.067745
4224.000000;2.072893
4223.000000;2.076550
4222.000000;2.080561
4221.000000;2.088200
4220.000000;2.100064
4219.000000;2.111401
4218.000000;2.116737
4217.000000;2.116461
4216.000000;2.115408
4215.000000;2.116980
4214.000000;2.122257
4213.000000;2.132176
4212.000000;2.146210
4211.000000;2.159718
4210.000000;2.167176
4209.000000;2.168853
4208.000000;2.170203
4207.000000;2.174925
4206.000000;2.182551
4205.000000;2.191786
4204.000000;2.202000
4203.000000;2.211395
4202.000000;2.217869
4201.000000;2.222400
4200.000000;2.228139
4199.000000;2.235988
4198.000000;2.243876
4197.000000;2.249853
4196.000000;2.253363
4195.000000;2.254426
4194.000000;2.254485
4193.000000;2.256739
4192.000000;2.262639
4191.000000;2.269401
4190.000000;2.273662
4189.000000;2.276075
4188.000000;2.279436
4187.000000;2.284511
4186.000000;2.290930
4185.000000;2.299479
4184.000000;2.309606
4183.000000;2.317191
4182.000000;2.319683
4181.000000;2.321429
4180.000000;2.328412
4179.000000;2.340222
4178.000000;2.351763
4177.000000;2.360092
4176.000000;2.364883
4175.000000;2.365138
4174.000000;2.361915
4173.000000;2.361614
4172.000000;2.369720
4171.000000;2.383855
4170.000000;2.397529
4169.000000;2.408315
4168.000000;2.416836
4167.000000;2.420509
4166.000000;2.417490
4165.000000;2.414048
4164.000000;2.418208
4163.000000;2.429012
4162.000000;2.438793
4161.000000;2.444158
4160.000000;2.447798
4159.000000;2.450492
4158.000000;2.450383
4157.000000;2.449092
4156.000000;2.450073
4155.000000;2.452511
4154.000000;2.454724
4153.000000;2.461016
4152.000000;2.475777
4151.000000;2.492856
4150.000000;2.501043
4149.000000;2.500376
4148.000000;2.502252
4147.000000;2.514096
4146.000000;2.532410
4145.000000;2.549339
4144.000000;2.559928
4143.000000;2.562435
4142.000000;2.559334
4141.000000;2.559416
4140.000000;2.569452
4139.000000;2.583434
4138.000000;2.589351
4137.000000;2.587701
4136.000000;2.590245
4135.000000;2.601737
4134.000000;2.615302
4133.000000;2.621955
4132.000000;2.617212
4131.000000;2.601788
4130.000000;2.581683
4129.000000;2.567096
4128.000000;2.564700
4127.000000;2.571164
4126.000000;2.581498
4125.000000;2.600096
4124.000000;2.631527
4123.000000;2.662194
4122.000000;2.667447
4121.000000;2.646008
4120.000000;2.621867
4119.000000;2.611050
4118.000000;2.613276
4117.000000;2.626148
4116.000000;2.649126
4115.000000;2.672217
4114.000000;2.677318
4113.000000;2.664547
4112.000000;2.657139
4111.000000;2.671459
4110.000000;2.700668
4109.000000;2.722575
4108.000000;2.719089
4107.000000;2.694656
4106.000000;2.670387
4105.000000;2.665327
4104.000000;2.687811
4103.000000;2.729729
4102.000000;2.770032
4101.000000;2.792903
4100.000000;2.798622
4099.000000;2.794687
4098.000000;2.788726
4097.000000;2.787812
4096.000000;2.791046
4095.000000;2.784286
4094.000000;2.757483
4093.000000;2.725288
4092.000000;2.710570
4091.000000;2.717599
4090.000000;2.731234
4089.000000;2.737971
4088.000000;2.741409
4087.000000;2.750059
4086.000000;2.760901
4085.000000;2.763405
4084.000000;2.752931
4083.000000;2.734417
4082.000000;2.720306
4081.000000;2.726219
4080.000000;2.757907
4079.000000;2.795448
4078.000000;2.804970
4077.000000;2.785075
4076.000000;2.764277
4075.000000;2.758474
4074.000000;2.764886
4073.000000;2.779553
4072.000000;2.805102
4071.000000;2.837837
4070.000000;2.859461
4069.000000;2.855401
4068.000000;2.836861
4067.000000;2.825042
4066.000000;2.826594
4065.000000;2.836816
4064.000000;2.847143
4063.000000;2.847471
4062.000000;2.834890
4061.000000;2.823410
4060.000000;2.834106
4059.000000;2.869326
4058.000000;2.905375
4057.000000;2.917167
4056.000000;2.907033
4055.000000;2.892958
4054.000000;2.882923
4053.000000;2.874721
4052.000000;2.867619
4051.000000;2.862898
4050.000000;2.857620
4049.000000;2.846088
4048.000000;2.828357
4047.000000;2.810564
4046.000000;2.801872
4045.000000;2.816054
4044.000000;2.856267
4043.000000;2.902831
4042.000000;2.934267
4041.000000;2.949307
4040.000000;2.954211
4039.000000;2.944220
4038.000000;2.918433
4037.000000;2.900283
4036.000000;2.917644
4035.000000;2.973392
4034.000000;3.036759
4033.000000;3.069971
4032.000000;3.062076
4031.000000;3.026120
4030.000000;2.988863
4029.000000;2.968394
4028.000000;2.964310
4027.000000;2.966471
4026.000000;2.967120
4025.000000;2.966161
4024.000000;2.965557
4023.000000;2.965024
4022.000000;2.967713
4021.000000;2.979492
4020.000000;2.999012
4019.000000;3.019126
4018.000000;3.040448
4017.000000;3.072573
4016.000000;3.104067
4015.000000;3.104251
4014.000000;3.081551
4013.000000;3.070462
4012.000000;3.081175
4011.000000;3.095086
4010.000000;3.100064
4009.000000;3.110118
4008.000000;3.125615
4007.000000;3.114031
4006.000000;3.065058
4005.000000;3.019812
4004.000000;3.004946
4003.000000;3.001584
4002.000000;2.984818
4001.000000;2.966260
4000.000000;2.970062
3999.000000;2.996389
3998.000000;3.039724
3997.000000;3.121474
3996.000000;3.256941
3995.000000;3.373506
3994.000000;3.341129
3993.000000;3.208335
3992.000000;3.097227
3991.000000;3.041935
3990.000000;3.031919
3989.000000;3.050322
3988.000000;3.072616
3987.000000;3.067182
3986.000000;3.031166
3985.000000;3.003913
3984.000000;3.015288
3983.000000;3.054826
3982.000000;3.096804
3981.000000;3.147954
3980.000000;3.229009
3979.000000;3.305824
3978.000000;3.322160
3977.000000;3.288919
3976.000000;3.244620
3975.000000;3.220599
3974.000000;3.205319
3973.000000;3.169511
3972.000000;3.125954
3971.000000;3.105433
3970.000000;3.117258
3969.000000;3.160384
3968.000000;3.241748
3967.000000;3.345042
3966.000000;3.392018
3965.000000;3.348888
3964.000000;3.265033
3963.000000;3.177599
3962.000000;3.112946
3961.000000;3.091529
3960.000000;3.119200
3959.000000;3.177762
3958.000000;3.242607
3957.000000;3.307995
3956.000000;3.358310
3955.000000;3.350810
3954.000000;3.287249
3953.000000;3.241091
3952.000000;3.262489
3951.000000;3.343024
3950.000000;3.421638
3949.000000;3.425585
3948.000000;3.381386
3947.000000;3.352334
3946.000000;3.350310
3945.000000;3.368057
3944.000000;3.399045
3943.000000;3.416801
3942.000000;3.391875
3941.000000;3.354156
3940.000000;3.349377
3939.000000;3.373419
3938.000000;3.382266
3937.000000;3.362967
3936.000000;3.345423
3935.000000;3.331095
3934.000000;3.296707
3933.000000;3.259844
3932.000000;3.279059
3931.000000;3.392367
3930.000000;3.597862
3929.000000;3.826349
3928.000000;3.946834
3927.000000;4.047011
3926.000000;4.101962
3925.000000;3.918367
3924.000000;3.738866
3923.000000;3.638713
3922.000000;3.611278
3921.000000;3.660139
3920.000000;3.814807
3919.000000;4.242300
3918.000000;4.794612
3917.000000;4.508533
3916.000000;4.308734
3915.000000;3.985710
3914.000000;3.779150
3913.000000;3.626929
3912.000000;3.538357
3911.000000;3.558125
3910.000000;3.684848
3909.000000;3.865226
3908.000000;4.114978
3907.000000;4.188688
3906.000000;3.848212
3905.000000;3.685185
3904.000000;3.725932
3903.000000;3.931723
3902.000000;4.058905
3901.000000;3.872899
3900.000000;3.820029
3899.000000;3.905623
3898.000000;3.753546
3897.000000;3.587793
3896.000000;3.577192
3895.000000;3.642536
3894.000000;3.669609
3893.000000;3.591167
3892.000000;3.515096
3891.000000;3.577926
3890.000000;3.968014
3889.000000;4.266848
3888.000000;3.719313
3887.000000;3.514409
3886.000000;3.464869
3885.000000;3.481583
3884.000000;3.495487
3883.000000;3.460759
3882.000000;3.431857
3881.000000;3.490349
3880.000000;3.718850
3879.000000;4.259557
3878.000000;4.177191
3877.000000;3.851622
3876.000000;3.730396
3875.000000;3.857637
3874.000000;4.251325
3873.000000;3.700270
3872.000000;3.452919
3871.000000;3.463741
3870.000000;3.637513
3869.000000;3.882430
3868.000000;3.962708
3867.000000;3.827989
3866.000000;3.642452
3865.000000;3.615493
3864.000000;3.696253
3863.000000;3.711518
3862.000000;3.642557
3861.000000;3.571073
3860.000000;3.588601
3859.000000;3.644894
3858.000000;3.516889
3857.000000;3.319466
3856.000000;3.213535
3855.000000;3.506258
3854.000000;3.670309
3853.000000;3.386369
3852.000000;3.436206
3851.000000;3.694933
3850.000000;4.414541
3849.000000;4.110984
3848.000000;3.769958
3847.000000;3.666871
3846.000000;3.698784
3845.000000;3.777890
3844.000000;3.375999
3843.000000;3.071206
3842.000000;2.935486
3841.000000;2.918633
3840.000000;2.999978
3839.000000;3.122291
3838.000000;3.275532
3837.000000;3.501278
3836.000000;3.781498
3835.000000;4.293465
3834.000000;3.995077
3833.000000;3.509696
3832.000000;3.394346
3831.000000;3.439404
3830.000000;3.662713
3829.000000;4.026744
3828.000000;3.680624
3827.000000;3.462652
3826.000000;3.462445
3825.000000;3.435894
3824.000000;3.324180
3823.000000;3.257861
3822.000000;3.285206
3821.000000;3.358178
3820.000000;3.570735
3819.000000;4.052163
3818.000000;4.475644
3817.000000;4.244261
3816.000000;4.067328
3815.000000;4.155554
3814.000000;3.939012
3813.000000;3.855393
3812.000000;4.114348
3811.000000;3.811864
3810.000000;3.491867
3809.000000;3.391669
3808.000000;3.420178
3807.000000;3.618918
3806.000000;4.083917
3805.000000;3.933117
3804.000000;3.722421
3803.000000;3.881152
3802.000000;4.165148
3801.000000;4.382999
3800.000000;3.972134
3799.000000;3.686022
3798.000000;3.615218
3797.000000;3.661946
3796.000000;3.731553
3795.000000;3.816373
3794.000000;4.181451
3793.000000;4.718288
3792.000000;4.115542
3791.000000;3.801863
3790.000000;3.747228
3789.000000;3.903098
3788.000000;3.966305
3787.000000;3.821739
3786.000000;3.755338
3785.000000;3.930132
3784.000000;4.001797
3783.000000;3.697111
3782.000000;3.618097
3781.000000;3.719513
3780.000000;3.757281
3779.000000;3.759686
3778.000000;4.044118
3777.000000;3.874007
3776.000000;3.542806
3775.000000;3.485540
3774.000000;3.548601
3773.000000;3.729963
3772.000000;4.147085
3771.000000;4.685560
3770.000000;4.003350
3769.000000;3.718570
3768.000000;3.696594
3767.000000;3.852648
3766.000000;4.209103
3765.000000;4.693878
3764.000000;4.716274
3763.000000;4.150039
3762.000000;3.776370
3761.000000;3.645718
3760.000000;3.889687
3759.000000;3.736251
3758.000000;3.320135
3757.000000;3.196992
3756.000000;3.174171
3755.000000;3.261127
3754.000000;3.456074
3753.000000;3.751657
3752.000000;3.638912
3751.000000;3.217001
3750.000000;3.119208
3749.000000;3.229561
3748.000000;3.439485
3747.000000;3.768737
3746.000000;3.745069
3745.000000;3.564293
3744.000000;3.593769
3743.000000;3.763434
3742.000000;3.992272
3741.000000;3.903756
3740.000000;3.727303
3739.000000;3.621542
3738.000000;3.566382
3737.000000;3.656899
3736.000000;3.773195
3735.000000;3.540633
3734.000000;3.386926
3733.000000;3.434792
3732.000000;3.648826
3731.000000;3.938575
3730.000000;3.995943
3729.000000;3.916806
3728.000000;3.800458
3727.000000;3.710463
3726.000000;3.680342
3725.000000;3.717445
3724.000000;3.779742
3723.000000;3.690849
3722.000000;3.597361
3721.000000;3.619765
3720.000000;3.774133
3719.000000;4.033946
3718.000000;3.926102
3717.000000;3.757804
3716.000000;3.636245
3715.000000;3.500733
3714.000000;3.531140
3713.000000;3.813235
3712.000000;3.840785
3711.000000;3.498302
3710.000000;3.354544
3709.000000;3.349993
3708.000000;3.397697
3707.000000;3.444220
3706.000000;3.460959
3705.000000;3.488678
3704.000000;3.555347
3703.000000;3.660622
3702.000000;3.734822
3701.000000;3.871377
3700.000000;4.292558
3699.000000;4.008173
3698.000000;3.743474
3697.000000;3.831180
3696.000000;3.996987
3695.000000;4.102459
3694.000000;3.929264
3693.000000;3.578138
3692.000000;3.294391
3691.000000;3.124329
3690.000000;3.100014
3689.000000;3.233831
3688.000000;3.424738
3687.000000;3.499011
3686.000000;3.487562
3685.000000;3.437341
3684.000000;3.426250
3683.000000;3.479119
3682.000000;3.599213
3681.000000;3.776843
3680.000000;3.792730
3679.000000;3.638508
3678.000000;3.574546
3677.000000;3.400949
3676.000000;3.184143
3675.000000;3.137721
3674.000000;3.219510
3673.000000;3.386595
3672.000000;3.699836
3671.000000;4.333366
3670.000000;4.487263
3669.000000;4.079860
3668.000000;3.918521
3667.000000;3.980088
3666.000000;4.697503
3665.000000;4.182956
3664.000000;3.665159
3663.000000;3.478615
3662.000000;3.449159
3661.000000;3.530188
3660.000000;3.536635
3659.000000;3.438624
3658.000000;3.400189
3657.000000;3.467164
3656.000000;3.582059
3655.000000;3.694937
3654.000000;3.838556
3653.000000;3.862583
3652.000000;3.647228
3651.000000;3.580019
3650.000000;3.885855
3649.000000;4.071142
3648.000000;3.724171
3647.000000;3.626860
3646.000000;3.562346
3645.000000;3.561098
3644.000000;3.732111
3643.000000;3.923540
3642.000000;3.860761
3641.000000;3.813151
3640.000000;3.691159
3639.000000;3.547402
3638.000000;3.493145
3637.000000;3.703573
3636.000000;4.142076
3635.000000;3.635056
3634.000000;3.444796
3633.000000;3.426360
3632.000000;3.392541
3631.000000;3.380059
3630.000000;3.448634
3629.000000;3.856177
3628.000000;4.363760
3627.000000;3.781649
3626.000000;3.664428
3625.000000;3.704688
3624.000000;3.854936
3623.000000;4.400753
3622.000000;4.639432
3621.000000;4.018851
3620.000000;3.859313
3619.000000;3.912328
3618.000000;4.075110
3617.000000;4.034617
3616.000000;3.876860
3615.000000;3.791297
3614.000000;3.738849
3613.000000;3.781110
3612.000000;3.940061
3611.000000;4.135502
3610.000000;4.322995
3609.000000;4.686214
3608.000000;4.397353
3607.000000;3.955250
3606.000000;3.830444
3605.000000;3.912979
3604.000000;4.059665
3603.000000;4.057210
3602.000000;4.068437
3601.000000;4.093890
3600.000000;3.853122
3599.000000;3.645000
3598.000000;3.551740
3597.000000;3.530547
3596.000000;3.526699
3595.000000;3.471794
3594.000000;3.439833
3593.000000;3.519985
3592.000000;3.698988
3591.000000;3.878059
3590.000000;3.952812
3589.000000;3.977343
3588.000000;4.003905
3587.000000;4.090223
3586.000000;4.108761
3585.000000;3.838809
3584.000000;3.596487
3583.000000;3.451729
3582.000000;3.406610
3581.000000;3.419385
3580.000000;3.418694
3579.000000;3.444261
3578.000000;3.671441
3577.000000;4.028345
3576.000000;3.835376
3575.000000;3.780774
3574.000000;3.873159
3573.000000;3.903943
3572.000000;3.835640
3571.000000;3.754453
3570.000000;3.685356
3569.000000;3.632941
3568.000000;3.623081
3567.000000;3.630597
3566.000000;3.589059
3565.000000;3.650027
3564.000000;3.884071
3563.000000;3.666850
3562.000000;3.448676
3561.000000;3.433517
3560.000000;3.471911
3559.000000;3.524751
3558.000000;3.527264
3557.000000;3.485834
3556.000000;3.456986
3555.000000;3.462750
3554.000000;3.501334
3553.000000;3.680009
3552.000000;4.180186
3551.000000;4.124790
3550.000000;3.914656
3549.000000;4.046944
3548.000000;4.129852
3547.000000;3.901801
3546.000000;3.972447
3545.000000;4.022837
3544.000000;3.913499
3543.000000;4.134836
3542.000000;4.067945
3541.000000;3.847651
3540.000000;3.836334
3539.000000;4.099638
3538.000000;4.335106
3537.000000;3.789274
3536.000000;3.467069
3535.000000;3.348333
3534.000000;3.394245
3533.000000;3.600611
3532.000000;3.972038
3531.000000;3.950567
3530.000000;3.692523
3529.000000;3.610347
3528.000000;3.588471
3527.000000;3.604268
3526.000000;3.593871
3525.000000;3.466630
3524.000000;3.388920
3523.000000;3.469717
3522.000000;3.656113
3521.000000;3.850389
3520.000000;3.908060
3519.000000;3.750034
3518.000000;3.695039
3517.000000;3.686519
3516.000000;3.626425
3515.000000;3.590854
3514.000000;3.627099
3513.000000;3.753799
3512.000000;3.900764
3511.000000;3.869229
3510.000000;3.749398
3509.000000;3.816986
3508.000000;4.253609
3507.000000;4.042959
3506.000000;3.670350
3505.000000;3.578580
3504.000000;3.603760
3503.000000;3.799354
3502.000000;4.248877
3501.000000;4.091813
3500.000000;3.871344
3499.000000;3.824475
3498.000000;3.741031
3497.000000;3.604436
3496.000000;3.540299
3495.000000;3.492948
3494.000000;3.462137
3493.000000;3.570780
3492.000000;3.826109
3491.000000;3.865228
3490.000000;3.708159
3489.000000;3.802036
3488.000000;3.929013
3487.000000;3.659486
3486.000000;3.504597
3485.000000;3.486848
3484.000000;3.511245
3483.000000;3.541198
3482.000000;3.562112
3481.000000;3.551824
3480.000000;3.503696
3479.000000;3.484171
3478.000000;3.551621
3477.000000;3.714738
3476.000000;3.755032
3475.000000;3.563292
3474.000000;3.398218
3473.000000;3.350322
3472.000000;3.458504
3471.000000;3.852636
3470.000000;4.380246
3469.000000;3.820212
3468.000000;3.576674
3467.000000;3.450300
3466.000000;3.429577
3465.000000;3.490149
3464.000000;3.726964
3463.000000;4.122772
3462.000000;3.831774
3461.000000;3.667429
3460.000000;3.521599
3459.000000;3.392722
3458.000000;3.370931
3457.000000;3.450460
3456.000000;3.797018
3455.000000;3.772980
3454.000000;3.469379
3453.000000;3.443074
3452.000000;3.488219
3451.000000;3.565781
3450.000000;3.556089
3449.000000;3.358082
3448.000000;3.210651
3447.000000;3.181368
3446.000000;3.235022
3445.000000;3.319326
3444.000000;3.392353
3443.000000;3.465599
3442.000000;3.543666
3441.000000;3.650067
3440.000000;3.753851
3439.000000;4.083217
3438.000000;4.387589
3437.000000;3.557883
3436.000000;3.344042
3435.000000;3.290604
3434.000000;3.344113
3433.000000;3.473848
3432.000000;3.578314
3431.000000;3.568631
3430.000000;3.546523
3429.000000;3.611556
3428.000000;3.735937
3427.000000;4.107321
3426.000000;4.006247
3425.000000;3.681946
3424.000000;3.607942
3423.000000;3.582663
3422.000000;3.559796
3421.000000;3.656480
3420.000000;4.258211
3419.000000;3.941302
3418.000000;3.703072
3417.000000;3.778067
3416.000000;3.848302
3415.000000;3.897598
3414.000000;3.912138
3413.000000;3.883872
3412.000000;3.891388
3411.000000;3.974916
3410.000000;4.150375
3409.000000;4.405497
3408.000000;4.149876
3407.000000;3.767831
3406.000000;3.712745
3405.000000;3.852933
3404.000000;4.079230
3403.000000;4.150059
3402.000000;3.898974
3401.000000;3.678871
3400.000000;3.516730
3399.000000;3.385895
3398.000000;3.314274
3397.000000;3.306620
3396.000000;3.373229
3395.000000;3.617916
3394.000000;4.089923
3393.000000;3.877625
3392.000000;4.078038
3391.000000;3.981580
3390.000000;3.650678
3389.000000;3.647495
3388.000000;3.795317
3387.000000;3.650124
3386.000000;3.575171
3385.000000;3.700699
3384.000000;3.775109
3383.000000;3.646189
3382.000000;3.592200
3381.000000;3.775865
3380.000000;3.707634
3379.000000;3.415606
3378.000000;3.339792
3377.000000;3.399486
3376.000000;3.662463
3375.000000;3.859869
3374.000000;3.799704
3373.000000;3.975454
3372.000000;3.933121
3371.000000;3.673787
3370.000000;3.533754
3369.000000;3.563743
3368.000000;3.773906
3367.000000;3.916867
3366.000000;3.889135
3365.000000;3.958175
3364.000000;4.036708
3363.000000;3.783464
3362.000000;3.601263
3361.000000;3.538375
3360.000000;3.534917
3359.000000;3.575413
3358.000000;3.621947
3357.000000;3.605841
3356.000000;3.622366
3355.000000;3.700288
3354.000000;4.022566
3353.000000;4.145756
3352.000000;3.614440
3351.000000;3.470496
3350.000000;3.470715
3349.000000;3.592081
3348.000000;3.707488
3347.000000;3.681251
3346.000000;3.661392
3345.000000;3.735490
3344.000000;3.970114
3343.000000;4.276788
3342.000000;4.147475
3341.000000;4.002255
3340.000000;3.876079
3339.000000;3.834342
3338.000000;3.901553
3337.000000;3.826842
3336.000000;3.615531
3335.000000;3.489935
3334.000000;3.545507
3333.000000;3.801138
3332.000000;3.731223
3331.000000;3.590702
3330.000000;3.727949
3329.000000;3.770899
3328.000000;3.494004
3327.000000;3.419906
3326.000000;3.493235
3325.000000;3.520062
3324.000000;3.406954
3323.000000;3.350140
3322.000000;3.373760
3321.000000;3.457598
3320.000000;3.589975
3319.000000;3.810800
3318.000000;4.287722
3317.000000;3.863232
3316.000000;3.687522
3315.000000;4.379161
3314.000000;3.908029
3313.000000;3.610482
3312.000000;3.669593
3311.000000;3.899755
3310.000000;4.044796
3309.000000;4.134101
3308.000000;3.719000
3307.000000;3.558910
3306.000000;3.659486
3305.000000;3.819736
3304.000000;3.740193
3303.000000;3.731934
3302.000000;3.727152
3301.000000;3.597965
3300.000000;3.474111
3299.000000;3.466820
3298.000000;3.770185
3297.000000;3.833791
3296.000000;3.460375
3295.000000;3.366499
3294.000000;3.337925
3293.000000;3.389281
3292.000000;3.522532
3291.000000;3.661515
3290.000000;3.925782
3289.000000;4.166979
3288.000000;3.737121
3287.000000;3.650262
3286.000000;3.667947
3285.000000;3.555758
3284.000000;3.636498
3283.000000;3.814227
3282.000000;3.559988
3281.000000;3.467912
3280.000000;3.483798
3279.000000;3.535479
3278.000000;3.641283
3277.000000;3.857149
3276.000000;4.108373
3275.000000;4.194451
3274.000000;4.108001
3273.000000;3.781467
3272.000000;3.480855
3271.000000;3.327469
3270.000000;3.317294
3269.000000;3.558442
3268.000000;3.916546
3267.000000;3.558299
3266.000000;3.366245
3265.000000;3.322406
3264.000000;3.368305
3263.000000;3.539997
3262.000000;3.759121
3261.000000;3.935376
3260.000000;4.168687
3259.000000;4.052099
3258.000000;3.904466
3257.000000;3.848037
3256.000000;3.814788
3255.000000;3.820353
3254.000000;3.856554
3253.000000;3.848632
3252.000000;3.933038
3251.000000;4.262926
3250.000000;4.833799
3249.000000;4.042624
3248.000000;4.058313
3247.000000;4.137659
3246.000000;4.071831
3245.000000;3.943288
3244.000000;3.952626
3243.000000;4.100242
3242.000000;4.371856
3241.000000;4.656558
3240.000000;4.627205
3239.000000;4.413974
3238.000000;4.165993
3237.000000;4.025098
3236.000000;3.865176
3235.000000;3.720197
3234.000000;3.763938
3233.000000;4.170625
3232.000000;4.168862
3231.000000;3.891102
3230.000000;3.586943
3229.000000;3.466408
3228.000000;3.573958
3227.000000;4.180020
3226.000000;3.728801
3225.000000;3.533905
3224.000000;3.698559
3223.000000;4.064257
3222.000000;3.743803
3221.000000;3.725995
3220.000000;3.750356
3219.000000;3.706602
3218.000000;3.654580
3217.000000;3.673732
3216.000000;3.763424
3215.000000;3.893579
3214.000000;3.864349
3213.000000;3.760479
3212.000000;3.750630
3211.000000;3.688609
3210.000000;3.529389
3209.000000;3.415293
3208.000000;3.413725
3207.000000;3.521069
3206.000000;3.718068
3205.000000;4.005454
3204.000000;3.941454
3203.000000;3.842303
3202.000000;3.949117
3201.000000;4.017490
3200.000000;3.803852
3199.000000;3.552010
3198.000000;3.496191
3197.000000;3.613188
3196.000000;3.957836
3195.000000;4.183293
3194.000000;3.655500
3193.000000;3.486742
3192.000000;3.502985
3191.000000;3.724642
3190.000000;3.725659
3189.000000;3.558499
3188.000000;3.577294
3187.000000;3.963448
3186.000000;4.256177
3185.000000;3.866957
3184.000000;3.886513
3183.000000;3.804580
3182.000000;3.694939
3181.000000;3.613535
3180.000000;3.639183
3179.000000;3.841594
3178.000000;4.824383
3177.000000;4.021604
3176.000000;3.630198
3175.000000;3.413414
3174.000000;3.297926
3173.000000;3.270186
3172.000000;3.346938
3171.000000;3.604963
3170.000000;4.056138
3169.000000;3.746586
3168.000000;3.606348
3167.000000;3.633003
3166.000000;3.739629
3165.000000;3.708876
3164.000000;3.636464
3163.000000;3.511798
3162.000000;3.376941
3161.000000;3.363282
3160.000000;3.485096
3159.000000;3.972653
3158.000000;4.350237
3157.000000;4.028699
3156.000000;4.064620
3155.000000;3.926310
3154.000000;3.908946
3153.000000;4.272715
3152.000000;4.372978
3151.000000;3.971005
3150.000000;3.684946
3149.000000;3.449780
3148.000000;3.389221
3147.000000;3.557129
3146.000000;4.209700
3145.000000;3.914278
3144.000000;3.661909
3143.000000;3.497086
3142.000000;3.359232
3141.000000;3.320250
3140.000000;3.421517
3139.000000;3.722282
3138.000000;3.747375
3137.000000;3.478343
3136.000000;3.455232
3135.000000;3.638594
3134.000000;3.863520
3133.000000;3.731483
3132.000000;3.894390
3131.000000;4.110435
3130.000000;3.837689
3129.000000;3.817494
3128.000000;3.976766
3127.000000;4.142553
3126.000000;4.033689
3125.000000;3.785034
3124.000000;3.645938
3123.000000;3.640747
3122.000000;3.759617
3121.000000;3.669599
3120.000000;3.534798
3119.000000;3.591053
3118.000000;3.932435
3117.000000;4.980409
3116.000000;3.997193
3115.000000;3.838118
3114.000000;3.524263
3113.000000;3.316824
3112.000000;3.268278
3111.000000;3.351946
3110.000000;3.505617
3109.000000;3.645174
3108.000000;3.732831
3107.000000;3.810933
3106.000000;3.712445
3105.000000;3.489626
3104.000000;3.339002
3103.000000;3.288223
3102.000000;3.355001
3101.000000;3.518702
3100.000000;3.543048
3099.000000;3.370163
3098.000000;3.241250
3097.000000;3.208584
3096.000000;3.250627
3095.000000;3.301604
3094.000000;3.302681
3093.000000;3.292864
3092.000000;3.326085
3091.000000;3.369357
3090.000000;3.388431
3089.000000;3.443458
3088.000000;3.667697
3087.000000;3.883529
3086.000000;3.608249
3085.000000;3.522195
3084.000000;3.557053
3083.000000;3.745832
3082.000000;3.973001
3081.000000;3.894275
3080.000000;3.804014
3079.000000;3.803127
3078.000000;3.754869
3077.000000;3.888883
3076.000000;4.131045
3075.000000;3.798282
3074.000000;3.800455
3073.000000;3.909630
3072.000000;3.950283
3071.000000;4.240902
3070.000000;3.833104
3069.000000;3.640693
3068.000000;3.530090
3067.000000;3.468452
3066.000000;3.499185
3065.000000;3.611198
3064.000000;3.697764
3063.000000;3.799043
3062.000000;4.013527
3061.000000;3.710445
3060.000000;3.522982
3059.000000;3.485480
3058.000000;3.475852
3057.000000;3.485740
3056.000000;3.529528
3055.000000;3.543902
3054.000000;3.542890
3053.000000;3.605179
3052.000000;3.721922
3051.000000;3.862722
3050.000000;3.876867
3049.000000;3.686194
3048.000000;3.509177
3047.000000;3.429650
3046.000000;3.428288
3045.000000;3.460098
3044.000000;3.491647
3043.000000;3.553783
3042.000000;3.727232
3041.000000;4.294267
3040.000000;4.019427
3039.000000;3.697641
3038.000000;3.643130
3037.000000;3.724865
3036.000000;3.879449
3035.000000;4.036698
3034.000000;3.866489
3033.000000;3.636261
3032.000000;3.540750
3031.000000;3.569925
3030.000000;3.748675
3029.000000;3.875188
3028.000000;3.788627
3027.000000;3.727572
3026.000000;3.779372
3025.000000;4.033041
3024.000000;4.314090
3023.000000;4.067998
3022.000000;3.745550
3021.000000;3.624547
3020.000000;3.884031
3019.000000;4.094076
3018.000000;3.686835
3017.000000;3.571635
3016.000000;3.564934
3015.000000;3.569336
3014.000000;3.571249
3013.000000;3.534693
3012.000000;3.567649
3011.000000;3.754649
3010.000000;3.937102
3009.000000;3.847004
3008.000000;3.721151
3007.000000;3.731249
3006.000000;3.753054
3005.000000;3.483885
3004.000000;3.339695
3003.000000;3.331570
3002.000000;3.397667
3001.000000;3.545477
3000.000000;3.795999
2999.000000;4.020515
2998.000000;3.941587
2997.000000;3.806408
2996.000000;3.825263
2995.000000;3.923055
2994.000000;3.797864
2993.000000;3.617287
2992.000000;3.530494
2991.000000;3.520431
2990.000000;3.560665
2989.000000;3.617202
2988.000000;3.601257
2987.000000;3.504665
2986.000000;3.499127
2985.000000;3.662477
2984.000000;3.804015
2983.000000;3.682704
2982.000000;3.645383
2981.000000;3.670007
2980.000000;3.683160
2979.000000;3.697540
2978.000000;3.691273
2977.000000;3.740434
2976.000000;3.831264
2975.000000;3.741632
2974.000000;3.940735
2973.000000;4.237071
2972.000000;3.750839
2971.000000;3.564828
2970.000000;3.552645
2969.000000;3.614984
2968.000000;3.583463
2967.000000;3.487414
2966.000000;3.428697
2965.000000;3.385832
2964.000000;3.354742
2963.000000;3.316579
2962.000000;3.275545
2961.000000;3.283354
2960.000000;3.452022
2959.000000;4.008177
2958.000000;3.858928
2957.000000;3.648033
2956.000000;3.935073
2955.000000;4.132817
2954.000000;3.567084
2953.000000;3.474228
2952.000000;3.778541
2951.000000;4.232791
2950.000000;3.654469
2949.000000;3.644420
2948.000000;3.688812
2947.000000;3.646958
2946.000000;3.617978
2945.000000;3.672578
2944.000000;4.260441
2943.000000;4.187522
2942.000000;3.792667
2941.000000;3.820555
2940.000000;3.678860
2939.000000;3.503476
2938.000000;3.457204
2937.000000;3.542088
2936.000000;3.792236
2935.000000;3.999437
2934.000000;3.679796
2933.000000;3.486800
2932.000000;3.444623
2931.000000;3.464940
2930.000000;3.498183
2929.000000;3.658391
2928.000000;4.157512
2927.000000;4.141797
2926.000000;4.114014
2925.000000;4.392407
2924.000000;3.892836
2923.000000;3.806169
2922.000000;4.164890
2921.000000;3.816242
2920.000000;3.390721
2919.000000;3.306083
2918.000000;3.362970
2917.000000;3.488163
2916.000000;3.525586
2915.000000;3.466252
2914.000000;3.443708
2913.000000;3.455618
2912.000000;3.479910
2911.000000;3.529842
2910.000000;3.630661
2909.000000;3.748450
2908.000000;3.702812
2907.000000;3.716790
2906.000000;4.106267
2905.000000;3.860004
2904.000000;3.539414
2903.000000;3.487706
2902.000000;3.547635
2901.000000;3.529710
2900.000000;3.466294
2899.000000;3.522380
2898.000000;3.646700
2897.000000;3.771285
2896.000000;3.814228
2895.000000;3.628970
2894.000000;3.399768
2893.000000;3.289623
2892.000000;3.311782
2891.000000;3.382535
2890.000000;3.423967
2889.000000;3.538990
2888.000000;3.815370
2887.000000;4.069804
2886.000000;3.943535
2885.000000;3.861931
2884.000000;4.123300
2883.000000;4.045351
2882.000000;3.729726
2881.000000;3.655974
2880.000000;3.734475
2879.000000;3.971988
2878.000000;4.135831
2877.000000;3.885704
2876.000000;3.708701
2875.000000;3.545565
2874.000000;3.381269
2873.000000;3.287683
2872.000000;3.287478
2871.000000;3.351056
2870.000000;3.455645
2869.000000;3.641458
2868.000000;3.950757
2867.000000;4.410937
2866.000000;4.496782
2865.000000;4.124503
2864.000000;3.809511
2863.000000;3.628801
2862.000000;3.617126
2861.000000;3.642100
2860.000000;3.542925
2859.000000;3.417294
2858.000000;3.380055
2857.000000;3.434541
2856.000000;3.527765
2855.000000;3.644223
2854.000000;3.665672
2853.000000;3.559405
2852.000000;3.481396
2851.000000;3.459942
2850.000000;3.519274
2849.000000;3.799995
2848.000000;4.255297
2847.000000;3.822529
2846.000000;3.669699
2845.000000;3.835089
2844.000000;4.051425
2843.000000;3.662251
2842.000000;3.417586
2841.000000;3.369933
2840.000000;3.380670
2839.000000;3.382530
2838.000000;3.382311
2837.000000;3.404612
2836.000000;3.418752
2835.000000;3.426743
2834.000000;3.459110
2833.000000;3.525036
2832.000000;3.594481
2831.000000;3.610958
2830.000000;3.574510
2829.000000;3.583758
2828.000000;3.709405
2827.000000;3.944583
2826.000000;4.031616
2825.000000;3.975727
2824.000000;4.231522
2823.000000;4.229108
2822.000000;4.303658
2821.000000;4.510131
2820.000000;3.886593
2819.000000;3.732186
2818.000000;3.768210
2817.000000;4.007635
2816.000000;3.881003
2815.000000;3.597569
2814.000000;3.570209
2813.000000;3.605075
2812.000000;3.684182
2811.000000;3.795998
2810.000000;3.766962
2809.000000;3.854180
2808.000000;4.258339
2807.000000;3.966582
2806.000000;3.680182
2805.000000;3.854835
2804.000000;3.968885
2803.000000;3.543898
2802.000000;3.409862
2801.000000;3.558983
2800.000000;3.912260
2799.000000;3.715165
2798.000000;3.454957
2797.000000;3.382540
2796.000000;3.411662
2795.000000;3.528199
2794.000000;3.641443
2793.000000;3.666868
2792.000000;3.619100
2791.000000;3.606393
2790.000000;3.688407
2789.000000;3.749102
2788.000000;3.644369
2787.000000;3.542152
2786.000000;3.500648
2785.000000;3.525579
2784.000000;3.727310
2783.000000;3.953036
2782.000000;3.818972
2781.000000;3.832946
2780.000000;3.995657
2779.000000;3.880323
2778.000000;3.679366
2777.000000;3.582127
2776.000000;3.530806
2775.000000;3.477423
2774.000000;3.432258
2773.000000;3.439765
2772.000000;3.537726
2771.000000;3.835081
2770.000000;4.463171
2769.000000;4.108236
2768.000000;3.761442
2767.000000;3.595334
2766.000000;3.549165
2765.000000;3.613123
2764.000000;3.796200
2763.000000;3.866373
2762.000000;3.571917
2761.000000;3.393481
2760.000000;3.351936
2759.000000;3.390678
2758.000000;3.464100
2757.000000;3.594514
2756.000000;3.692588
2755.000000;3.565677
2754.000000;3.495800
2753.000000;3.583643
2752.000000;3.724597
2751.000000;3.660298
2750.000000;3.511647
2749.000000;3.467076
2748.000000;3.501042
2747.000000;3.556966
2746.000000;3.620949
2745.000000;3.728381
2744.000000;3.897324
2743.000000;4.070691
2742.000000;4.029226
2741.000000;3.934437
2740.000000;3.919623
2739.000000;3.928942
2738.000000;3.776977
2737.000000;3.541947
2736.000000;3.426887
2735.000000;3.447448
2734.000000;3.618669
2733.000000;3.920076
2732.000000;3.946467
2731.000000;3.955752
2730.000000;4.337564
2729.000000;4.050506
2728.000000;3.741574
2727.000000;3.669338
2726.000000;3.662332
2725.000000;3.775990
2724.000000;3.955571
2723.000000;3.923817
2722.000000;3.913142
2721.000000;4.004090
2720.000000;3.909952
2719.000000;3.862485
2718.000000;3.864146
2717.000000;3.971048
2716.000000;4.181958
2715.000000;4.021842
2714.000000;4.117846
2713.000000;4.241570
2712.000000;4.150704
2711.000000;4.344852
2710.000000;4.097049
2709.000000;3.928147
2708.000000;3.931872
2707.000000;3.920960
2706.000000;3.821199
2705.000000;3.738572
2704.000000;3.745869
2703.000000;3.848736
2702.000000;4.337477
2701.000000;4.052246
2700.000000;3.569586
2699.000000;3.427014
2698.000000;3.423677
2697.000000;3.569232
2696.000000;3.901114
2695.000000;4.113073
2694.000000;4.136212
2693.000000;4.304508
2692.000000;4.206901
2691.000000;3.789980
2690.000000;3.569361
2689.000000;3.502381
2688.000000;3.743946
2687.000000;4.409075
2686.000000;3.813962
2685.000000;3.575623
2684.000000;3.489116
2683.000000;3.475305
2682.000000;3.724610
2681.000000;3.931746
2680.000000;3.737635
2679.000000;3.863487
2678.000000;3.770405
2677.000000;3.483737
2676.000000;3.428022
2675.000000;3.473985
2674.000000;3.555974
2673.000000;3.618837
2672.000000;3.689405
2671.000000;3.813271
2670.000000;4.132087
2669.000000;4.073563
2668.000000;3.667098
2667.000000;3.547014
2666.000000;3.631033
2665.000000;3.800550
2664.000000;3.771447
2663.000000;3.603268
2662.000000;3.540547
2661.000000;3.629245
2660.000000;3.669842
2659.000000;3.517371
2658.000000;3.459319
2657.000000;3.507115
2656.000000;3.547976
2655.000000;3.575162
2654.000000;3.560938
2653.000000;3.450446
2652.000000;3.330313
2651.000000;3.306787
2650.000000;3.422481
2649.000000;3.651475
2648.000000;3.853906
2647.000000;3.844777
2646.000000;3.795768
2645.000000;3.900839
2644.000000;4.053815
2643.000000;3.969381
2642.000000;3.928329
2641.000000;4.241773
2640.000000;4.320582
2639.000000;3.918782
2638.000000;3.977870
2637.000000;4.124992
2636.000000;3.756189
2635.000000;3.568474
2634.000000;3.557720
2633.000000;3.726184
2632.000000;4.089342
2631.000000;4.042107
2630.000000;3.771554
2629.000000;3.709270
2628.000000;3.779183
2627.000000;3.618198
2626.000000;3.441254
2625.000000;3.432545
2624.000000;3.606639
2623.000000;4.212229
2622.000000;4.384766
2621.000000;3.865441
2620.000000;3.754914
2619.000000;3.660085
2618.000000;3.602065
2617.000000;3.666224
2616.000000;3.919206
2615.000000;4.516220
2614.000000;4.213264
2613.000000;4.001089
2612.000000;4.296522
2611.000000;3.960318
2610.000000;3.694805
2609.000000;3.657265
2608.000000;3.743080
2607.000000;4.076082
2606.000000;4.064720
2605.000000;3.798457
2604.000000;3.763903
2603.000000;3.757321
2602.000000;3.694207
2601.000000;3.881621
2600.000000;3.906750
2599.000000;3.550553
2598.000000;3.489446
2597.000000;3.562144
2596.000000;3.597132
2595.000000;3.667857
2594.000000;3.739466
2593.000000;3.703369
2592.000000;3.554977
2591.000000;3.542432
2590.000000;3.913156
2589.000000;3.909944
2588.000000;3.579946
2587.000000;3.562527
2586.000000;3.612704
2585.000000;3.572874
2584.000000;3.455848
2583.000000;3.388239
2582.000000;3.458956
2581.000000;3.787669
2580.000000;3.800798
2579.000000;3.485273
2578.000000;3.420367
2577.000000;3.548010
2576.000000;3.993792
2575.000000;3.826688
2574.000000;3.469100
2573.000000;3.418549
2572.000000;3.452873
2571.000000;3.553400
2570.000000;3.699541
2569.000000;3.758518
2568.000000;3.680677
2567.000000;3.641518
2566.000000;3.706195
2565.000000;4.072068
2564.000000;4.365173
2563.000000;4.128883
2562.000000;4.250048
2561.000000;3.683862
2560.000000;3.436947
2559.000000;3.445441
2558.000000;3.591377
2557.000000;3.855223
2556.000000;3.778858
2555.000000;3.633750
2554.000000;3.649736
2553.000000;3.842599
2552.000000;4.020155
2551.000000;3.802179
2550.000000;3.714759
2549.000000;3.761719
2548.000000;3.843385
2547.000000;4.153630
2546.000000;4.581382
2545.000000;4.126624
2544.000000;3.961562
2543.000000;3.892714
2542.000000;3.727952
2541.000000;3.597456
2540.000000;3.544640
2539.000000;3.604060
2538.000000;3.709892
2537.000000;3.876158
2536.000000;3.908198
2535.000000;3.980491
2534.000000;4.601396
2533.000000;3.846231
2532.000000;3.500861
2531.000000;3.483677
2530.000000;3.665792
2529.000000;3.826191
2528.000000;3.834609
2527.000000;3.735813
2526.000000;3.589951
2525.000000;3.587916
2524.000000;3.583098
2523.000000;3.592805
2522.000000;3.714009
2521.000000;4.102753
2520.000000;4.238257
2519.000000;3.825128
2518.000000;3.788404
2517.000000;3.983123
2516.000000;4.488736
2515.000000;4.436075
2514.000000;4.050557
2513.000000;3.838116
2512.000000;3.712054
2511.000000;3.745421
2510.000000;3.813910
2509.000000;3.782339
2508.000000;3.724611
2507.000000;3.783767
2506.000000;3.824778
2505.000000;3.858985
2504.000000;4.179572
2503.000000;3.915780
2502.000000;3.597450
2501.000000;3.472369
2500.000000;3.381176
2499.000000;3.336405
2498.000000;3.384529
2497.000000;3.530433
2496.000000;3.653294
2495.000000;3.657235
2494.000000;3.687571
2493.000000;3.715687
2492.000000;3.713075
2491.000000;3.707869
2490.000000;3.696331
2489.000000;4.220149
2488.000000;3.968576
2487.000000;3.375048
2486.000000;3.236527
2485.000000;3.249835
2484.000000;3.378723
2483.000000;3.493382
2482.000000;3.516134
2481.000000;3.488114
2480.000000;3.427806
2479.000000;3.414716
2478.000000;3.619155
2477.000000;4.384811
2476.000000;3.957589
2475.000000;3.714744
2474.000000;3.905684
2473.000000;3.983398
2472.000000;3.607275
2471.000000;3.527358
2470.000000;3.609544
2469.000000;3.595340
2468.000000;3.496656
2467.000000;3.468568
2466.000000;3.650084
2465.000000;3.765831
2464.000000;3.546188
2463.000000;3.444730
2462.000000;3.451513
2461.000000;3.500188
2460.000000;3.545611
2459.000000;3.593458
2458.000000;3.692684
2457.000000;3.756809
2456.000000;3.647358
2455.000000;3.541053
2454.000000;3.566829
2453.000000;3.689095
2452.000000;3.899325
2451.000000;4.236994
2450.000000;4.184255
2449.000000;3.882598
2448.000000;3.744856
2447.000000;3.673470
2446.000000;3.582448
2445.000000;3.532064
2444.000000;3.660288
2443.000000;3.801954
2442.000000;3.725633
2441.000000;3.739341
2440.000000;3.696560
2439.000000;3.603451
2438.000000;3.561898
2437.000000;3.594825
2436.000000;3.800902
2435.000000;3.961554
2434.000000;3.831611
2433.000000;3.769582
2432.000000;3.800958
2431.000000;3.772331
2430.000000;3.585523
2429.000000;3.459278
2428.000000;3.552403
2427.000000;4.017006
2426.000000;4.475908
2425.000000;4.215170
2424.000000;3.802633
2423.000000;3.583450
2422.000000;3.547278
2421.000000;3.654431
2420.000000;3.822037
2419.000000;3.980617
2418.000000;4.150939
2417.000000;3.709364
2416.000000;3.484905
2415.000000;3.421417
2414.000000;3.404240
2413.000000;3.424957
2412.000000;3.480322
2411.000000;3.527176
2410.000000;3.514826
2409.000000;3.524455
2408.000000;3.765284
2407.000000;4.144810
2406.000000;3.814452
2405.000000;3.629401
2404.000000;3.647705
2403.000000;3.876802
2402.000000;4.396648
2401.000000;3.902843
2400.000000;3.632922
2399.000000;3.622689
2398.000000;3.749351
2397.000000;4.095722
2396.000000;4.726259
2395.000000;4.297927
2394.000000;3.942910
2393.000000;3.673167
2392.000000;3.503796
2391.000000;3.445422
2390.000000;3.469126
2389.000000;3.615783
2388.000000;3.847618
2387.000000;3.818809
2386.000000;3.878364
2385.000000;4.277375
2384.000000;4.167200
2383.000000;3.963407
2382.000000;4.034185
2381.000000;4.206588
2380.000000;4.290947
2379.000000;4.022001
2378.000000;3.813828
2377.000000;3.743151
2376.000000;3.734516
2375.000000;3.748400
2374.000000;3.798346
2373.000000;3.956276
2372.000000;4.357275
2371.000000;4.740638
2370.000000;4.662422
2369.000000;4.540898
2368.000000;4.141654
2367.000000;3.906105
2366.000000;3.814119
2365.000000;3.814008
2364.000000;3.870160
2363.000000;4.010052
2362.000000;4.265974
2361.000000;4.287996
2360.000000;4.151690
2359.000000;4.126120
2358.000000;4.078963
2357.000000;4.047076
2356.000000;4.017416
2355.000000;4.211579
2354.000000;4.533425
2353.000000;4.289187
2352.000000;4.318042
2351.000000;4.311096
2350.000000;4.143794
2349.000000;3.958986
2348.000000;3.882028
2347.000000;3.872594
2346.000000;4.095472
2345.000000;4.276763
2344.000000;3.964050
2343.000000;3.918155
2342.000000;4.125880
2341.000000;4.391071
2340.000000;4.332931
2339.000000;4.411964
2338.000000;4.859363
2337.000000;4.933056
2336.000000;4.510280
2335.000000;4.342959
2334.000000;4.356665
2333.000000;4.260838
2332.000000;3.980562
2331.000000;3.871465
2330.000000;3.984268
2329.000000;4.491374
2328.000000;4.514294
2327.000000;4.180291
2326.000000;4.288337
2325.000000;4.512847
2324.000000;4.421331
2323.000000;4.136126
2322.000000;4.103537
2321.000000;4.278775
2320.000000;4.334073
2319.000000;4.040354
2318.000000;3.831612
2317.000000;3.737177
2316.000000;3.737520
2315.000000;3.853499
2314.000000;3.971698
2313.000000;3.906919
2312.000000;3.919367
2311.000000;4.189526
2310.000000;4.717459
2309.000000;4.668805
2308.000000;4.225070
2307.000000;4.030691
2306.000000;4.018575
2305.000000;4.329221
2304.000000;4.758785
2303.000000;4.134154
2302.000000;4.329851
2301.000000;4.302530
2300.000000;3.840723
2299.000000;3.678449
2298.000000;3.585637
2297.000000;3.490182
2296.000000;3.372348
2295.000000;3.310789
2294.000000;3.318694
2293.000000;3.325575
2292.000000;3.361096
2291.000000;3.512095
2290.000000;3.779238
2289.000000;4.214443
2288.000000;4.218068
2287.000000;3.776680
2286.000000;3.745247
2285.000000;3.999860
2284.000000;3.998372
2283.000000;3.823885
2282.000000;3.775945
2281.000000;3.708907
2280.000000;3.667429
2279.000000;3.717351
2278.000000;3.990544
2277.000000;4.257876
2276.000000;4.131835
2275.000000;4.080735
2274.000000;4.060867
2273.000000;4.215797
2272.000000;4.037232
2271.000000;3.890409
2270.000000;4.002718
2269.000000;4.011596
2268.000000;3.848977
2267.000000;3.804694
2266.000000;3.948813
2265.000000;4.780348
2264.000000;4.058780
2263.000000;3.862358
2262.000000;4.197277
2261.000000;4.277616
2260.000000;3.920373
2259.000000;3.855193
2258.000000;3.852515
2257.000000;3.853882
2256.000000;3.897169
2255.000000;4.000899
2254.000000;3.886628
2253.000000;3.694302
2252.000000;3.587560
2251.000000;3.546339
2250.000000;3.499705
2249.000000;3.444551
2248.000000;3.483780
2247.000000;3.642172
2246.000000;3.837623
2245.000000;3.992846
2244.000000;4.110586
2243.000000;4.057639
2242.000000;3.876067
2241.000000;3.724025
2240.000000;3.561568
2239.000000;3.442057
2238.000000;3.435601
2237.000000;3.526813
2236.000000;3.667229
2235.000000;3.714759
2234.000000;3.531101
2233.000000;3.367240
2232.000000;3.335694
2231.000000;3.432541
2230.000000;3.630379
2229.000000;3.809367
2228.000000;3.751991
2227.000000;3.666872
2226.000000;3.711069
2225.000000;3.761764
2224.000000;3.629618
2223.000000;3.495062
2222.000000;3.461630
2221.000000;3.512565
2220.000000;3.580595
2219.000000;3.661075
2218.000000;3.819839
2217.000000;4.021567
2216.000000;3.972386
2215.000000;3.806353
2214.000000;3.740733
2213.000000;3.755306
2212.000000;3.890206
2211.000000;3.860291
2210.000000;3.736596
2209.000000;3.727747
2208.000000;3.694103
2207.000000;3.554230
2206.000000;3.444660
2205.000000;3.454111
2204.000000;3.572492
2203.000000;3.625013
2202.000000;3.572652
2201.000000;3.570936
2200.000000;3.756755
2199.000000;4.151524
2198.000000;3.880396
2197.000000;3.702000
2196.000000;3.656436
2195.000000;3.639559
2194.000000;3.604245
2193.000000;3.611626
2192.000000;3.615600
2191.000000;3.528560
2190.000000;3.465727
2189.000000;3.512052
2188.000000;3.700876
2187.000000;3.739800
2186.000000;3.626113
2185.000000;3.643640
2184.000000;3.911868
2183.000000;4.209371
2182.000000;3.790098
2181.000000;3.633469
2180.000000;3.595625
2179.000000;3.611563
2178.000000;3.686679
2177.000000;3.765949
2176.000000;3.903813
2175.000000;4.333598
2174.000000;4.525152
2173.000000;3.890121
2172.000000;3.628809
2171.000000;3.520777
2170.000000;3.565368
2169.000000;3.632735
2168.000000;3.684337
2167.000000;3.831185
2166.000000;4.021438
2165.000000;4.205776
2164.000000;4.033802
2163.000000;3.915272
2162.000000;3.852248
2161.000000;3.676214
2160.000000;3.647133
2159.000000;3.676425
2158.000000;3.638872
2157.000000;3.634810
2156.000000;3.714405
2155.000000;3.744260
2154.000000;3.811005
2153.000000;4.016069
2152.000000;3.888535
2151.000000;3.842397
2150.000000;3.846506
2149.000000;3.709449
2148.000000;3.606579
2147.000000;3.661954
2146.000000;4.046413
2145.000000;4.430145
2144.000000;3.948727
2143.000000;3.916794
2142.000000;4.226240
2141.000000;4.509367
2140.000000;3.860926
2139.000000;3.717602
2138.000000;3.716452
2137.000000;3.700036
2136.000000;3.504580
2135.000000;3.429656
2134.000000;3.514106
2133.000000;4.177898
2132.000000;3.968411
2131.000000;3.595483
2130.000000;3.486318
2129.000000;3.423699
2128.000000;3.415285
2127.000000;3.407484
2126.000000;3.377697
2125.000000;3.393590
2124.000000;3.514751
2123.000000;3.686960
2122.000000;3.731099
2121.000000;3.664177
2120.000000;3.596519
2119.000000;3.547089
2118.000000;3.512708
2117.000000;3.520584
2116.000000;3.641835
2115.000000;3.859062
2114.000000;4.064681
2113.000000;4.132469
2112.000000;3.755160
2111.000000;3.506122
2110.000000;3.406097
2109.000000;3.417847
2108.000000;3.636956
2107.000000;3.932429
2106.000000;3.697636
2105.000000;3.558795
2104.000000;3.545856
2103.000000;3.589407
2102.000000;3.673118
2101.000000;3.733732
2100.000000;3.825327
2099.000000;3.838554
2098.000000;3.764627
2097.000000;3.753958
2096.000000;3.849468
2095.000000;4.001373
2094.000000;4.081586
2093.000000;4.081158
2092.000000;3.980450
2091.000000;3.840397
2090.000000;3.654006
2089.000000;3.555317
2088.000000;3.624213
2087.000000;4.037565
2086.000000;4.099937
2085.000000;3.670473
2084.000000;3.571988
2083.000000;3.608641
2082.000000;3.790482
2081.000000;3.748763
2080.000000;3.712630
2079.000000;3.831308
2078.000000;3.743259
2077.000000;3.588601
2076.000000;3.508898
2075.000000;3.551653
2074.000000;3.867878
2073.000000;3.874760
2072.000000;3.743334
2071.000000;3.913569
2070.000000;5.070020
2069.000000;3.820976
2068.000000;3.662690
2067.000000;3.695477
2066.000000;3.805667
2065.000000;3.809355
2064.000000;3.896970
2063.000000;4.096618
2062.000000;3.865447
2061.000000;3.627868
2060.000000;3.617133
2059.000000;3.737111
2058.000000;4.026494
2057.000000;4.375902
2056.000000;3.991846
2055.000000;3.731006
2054.000000;3.645255
2053.000000;3.686865
2052.000000;3.773554
2051.000000;4.536044
2050.000000;3.790761
2049.000000;3.468174
2048.000000;3.481147
2047.000000;3.705390
2046.000000;4.104799
2045.000000;4.193908
2044.000000;3.744484
2043.000000;3.601446
2042.000000;3.607266
2041.000000;3.647287
2040.000000;3.790737
2039.000000;4.247082
2038.000000;3.819143
2037.000000;3.501419
2036.000000;3.434903
2035.000000;3.474261
2034.000000;3.572492
2033.000000;3.654546
2032.000000;3.626300
2031.000000;3.505185
2030.000000;3.419630
2029.000000;3.398411
2028.000000;3.413596
2027.000000;3.476964
2026.000000;3.704758
2025.000000;3.886830
2024.000000;3.763533
2023.000000;4.010993
2022.000000;4.151955
2021.000000;3.686620
2020.000000;3.571471
2019.000000;3.602875
2018.000000;3.552945
2017.000000;3.529150
2016.000000;3.682525
2015.000000;3.940852
2014.000000;4.154320
2013.000000;4.032762
2012.000000;3.744436
2011.000000;3.728565
2010.000000;4.099595
2009.000000;3.943929
2008.000000;3.567048
2007.000000;3.498671
2006.000000;3.490544
2005.000000;3.571889
2004.000000;3.771341
2003.000000;4.405995
2002.000000;4.179214
2001.000000;3.867865
2000.000000;3.892955
1999.000000;3.897945
1998.000000;3.860351
1997.000000;4.247309
1996.000000;4.026506
1995.000000;3.619820
1994.000000;3.531313
1993.000000;3.536341
1992.000000;3.555645
1991.000000;3.671760
1990.000000;3.960621
1989.000000;3.802553
1988.000000;3.656253
1987.000000;3.560662
1986.000000;3.407307
1985.000000;3.309132
1984.000000;3.346215
1983.000000;3.516006
1982.000000;3.705642
1981.000000;3.800783
1980.000000;3.902198
1979.000000;4.299461
1978.000000;4.033005
1977.000000;3.700309
1976.000000;3.837160
1975.000000;4.027007
1974.000000;3.850019
1973.000000;3.689867
1972.000000;3.606207
1971.000000;3.590618
1970.000000;3.686616
1969.000000;3.623581
1968.000000;3.443464
1967.000000;3.390732
1966.000000;3.493002
1965.000000;3.698135
1964.000000;4.006235
1963.000000;4.149746
1962.000000;3.688405
1961.000000;3.523309
1960.000000;3.444360
1959.000000;3.418393
1958.000000;3.476810
1957.000000;3.621077
1956.000000;3.798164
1955.000000;3.890496
1954.000000;3.982242
1953.000000;3.929520
1952.000000;3.533190
1951.000000;3.316002
1950.000000;3.307117
1949.000000;3.490525
1948.000000;3.902342
1947.000000;3.996351
1946.000000;3.911424
1945.000000;4.518433
1944.000000;3.972352
1943.000000;3.591080
1942.000000;3.555164
1941.000000;3.757786
1940.000000;4.076051
1939.000000;3.828502
1938.000000;3.622513
1937.000000;3.512394
1936.000000;3.481819
1935.000000;3.469687
1934.000000;3.392892
1933.000000;3.357222
1932.000000;3.475827
1931.000000;3.923217
1930.000000;4.009622
1929.000000;3.560151
1928.000000;3.518340
1927.000000;3.519172
1926.000000;3.486662
1925.000000;3.494770
1924.000000;3.747887
1923.000000;4.176080
1922.000000;3.969248
1921.000000;3.839849
1920.000000;3.663048
1919.000000;3.524963
1918.000000;3.510302
1917.000000;3.594551
1916.000000;3.710482
1915.000000;3.726191
1914.000000;3.699433
1913.000000;3.572824
1912.000000;3.453859
1911.000000;3.453613
1910.000000;3.603171
1909.000000;3.880508
1908.000000;4.226413
1907.000000;4.713116
1906.000000;4.091852
1905.000000;3.753607
1904.000000;3.702926
1903.000000;4.061172
1902.000000;4.107305
1901.000000;3.528706
1900.000000;3.373100
1899.000000;3.360489
1898.000000;3.503537
1897.000000;3.847996
1896.000000;4.063737
1895.000000;3.947916
1894.000000;4.025843
1893.000000;4.201529
1892.000000;4.109856
1891.000000;4.349032
1890.000000;4.301615
1889.000000;3.918886
1888.000000;3.904029
1887.000000;3.899652
1886.000000;3.711052
1885.000000;3.618507
1884.000000;3.705351
1883.000000;4.046592
1882.000000;4.715973
1881.000000;4.210230
1880.000000;3.888547
1879.000000;3.658531
1878.000000;3.489297
1877.000000;3.411418
1876.000000;3.467484
1875.000000;3.660533
1874.000000;3.857675
1873.000000;3.811540
1872.000000;3.611778
1871.000000;3.384787
1870.000000;3.222380
1869.000000;3.188660
1868.000000;3.281742
1867.000000;3.445064
1866.000000;3.614040
1865.000000;3.842725
1864.000000;4.051963
1863.000000;3.810799
1862.000000;3.580525
1861.000000;3.465369
1860.000000;3.418813
1859.000000;3.442720
1858.000000;3.602287
1857.000000;3.927148
1856.000000;4.083222
1855.000000;3.942801
1854.000000;3.803257
1853.000000;3.732567
1852.000000;3.744393
1851.000000;3.776634
1850.000000;3.735618
1849.000000;3.660543
1848.000000;3.617457
1847.000000;3.672516
1846.000000;3.812255
1845.000000;3.900107
1844.000000;3.784545
1843.000000;3.640802
1842.000000;3.605610
1841.000000;3.639165
1840.000000;3.649535
1839.000000;3.674649
1838.000000;3.839818
1837.000000;3.936898
1836.000000;3.729576
1835.000000;3.610772
1834.000000;3.615342
1833.000000;3.623421
1832.000000;3.662657
1831.000000;3.852756
1830.000000;4.044626
1829.000000;3.710932
1828.000000;3.455678
1827.000000;3.369033
1826.000000;3.422452
1825.000000;3.573530
1824.000000;3.647220
1823.000000;3.579446
1822.000000;3.544916
1821.000000;3.625671
1820.000000;3.801476
1819.000000;3.820226
1818.000000;3.569796
1817.000000;3.397299
1816.000000;3.393147
1815.000000;3.532133
1814.000000;3.694359
1813.000000;3.770715
1812.000000;4.056672
1811.000000;4.139553
1810.000000;3.711896
1809.000000;3.555906
1808.000000;3.642504
1807.000000;4.125150
1806.000000;4.046270
1805.000000;3.715046
1804.000000;3.701079
1803.000000;3.931419
1802.000000;4.434271
1801.000000;4.125211
1800.000000;3.942333
1799.000000;3.663870
1798.000000;3.400697
1797.000000;3.287929
1796.000000;3.285175
1795.000000;3.343194
1794.000000;3.421250
1793.000000;3.587369
1792.000000;3.903667
1791.000000;3.904258
1790.000000;3.692259
1789.000000;3.492456
1788.000000;3.320065
1787.000000;3.262556
1786.000000;3.278078
1785.000000;3.348765
1784.000000;3.438621
1783.000000;3.586566
1782.000000;3.927542
1781.000000;4.264133
1780.000000;4.612593
1779.000000;4.182119
1778.000000;3.847876
1777.000000;3.651133
1776.000000;3.527260
1775.000000;3.501869
1774.000000;3.600229
1773.000000;3.813686
1772.000000;3.656579
1771.000000;3.448482
1770.000000;3.426777
1769.000000;3.466872
1768.000000;3.499494
1767.000000;3.558740
1766.000000;3.762885
1765.000000;4.271625
1764.000000;4.182972
1763.000000;3.847094
1762.000000;3.898299
1761.000000;4.189128
1760.000000;4.004495
1759.000000;3.669102
1758.000000;3.495759
1757.000000;3.432668
1756.000000;3.496754
1755.000000;3.601914
1754.000000;3.560040
1753.000000;3.539612
1752.000000;3.598402
1751.000000;3.474665
1750.000000;3.362600
1749.000000;3.379250
1748.000000;3.482254
1747.000000;3.568387
1746.000000;3.472999
1745.000000;3.347540
1744.000000;3.338141
1743.000000;3.447079
1742.000000;3.601385
1741.000000;3.723720
1740.000000;3.766099
1739.000000;3.760213
1738.000000;3.673337
1737.000000;3.636743
1736.000000;3.898823
1735.000000;4.362081
1734.000000;4.089718
1733.000000;3.999654
1732.000000;3.964326
1731.000000;3.857096
1730.000000;3.753997
1729.000000;3.692145
1728.000000;3.679800
1727.000000;3.647930
1726.000000;3.704163
1725.000000;3.916274
1724.000000;4.129364
1723.000000;4.205998
1722.000000;3.973076
1721.000000;3.700556
1720.000000;3.630312
1719.000000;3.626688
1718.000000;3.613406
1717.000000;3.848866
1716.000000;3.849809
1715.000000;3.479575
1714.000000;3.369596
1713.000000;3.559733
1712.000000;3.703120
1711.000000;3.346293
1710.000000;3.225930
1709.000000;3.299840
1708.000000;3.494999
1707.000000;3.776461
1706.000000;3.919921
1705.000000;3.743653
1704.000000;3.486111
1703.000000;3.386587
1702.000000;3.365764
1701.000000;3.335855
1700.000000;3.305858
1699.000000;3.352735
1698.000000;3.434174
1697.000000;3.424955
1696.000000;3.415554
1695.000000;3.472617
1694.000000;3.529235
1693.000000;3.575971
1692.000000;3.766156
1691.000000;3.726099
1690.000000;3.372289
1689.000000;3.211623
1688.000000;3.194239
1687.000000;3.226054
1686.000000;3.236928
1685.000000;3.249397
1684.000000;3.383401
1683.000000;3.787331
1682.000000;3.921171
1681.000000;3.633082
1680.000000;3.683725
1679.000000;4.076250
1678.000000;4.478418
1677.000000;4.044701
1676.000000;3.811106
1675.000000;3.650632
1674.000000;3.495325
1673.000000;3.432241
1672.000000;3.434105
1671.000000;3.408253
1670.000000;3.354698
1669.000000;3.310586
1668.000000;3.276384
1667.000000;3.355648
1666.000000;3.757049
1665.000000;3.904351
1664.000000;3.547807
1663.000000;3.699841
1662.000000;4.166164
1661.000000;3.816896
1660.000000;3.571286
1659.000000;3.581089
1658.000000;3.839752
1657.000000;4.332453
1656.000000;4.350490
1655.000000;4.012166
1654.000000;3.822030
1653.000000;3.740400
1652.000000;3.683448
1651.000000;3.659772
1650.000000;3.716411
1649.000000;3.755544
1648.000000;3.680822
1647.000000;3.618843
1646.000000;3.670090
1645.000000;3.973766
1644.000000;4.107487
1643.000000;3.695180
1642.000000;3.768228
1641.000000;4.251625
1640.000000;3.778924
1639.000000;3.488785
1638.000000;3.354894
1637.000000;3.292856
1636.000000;3.322107
1635.000000;3.389592
1634.000000;3.377870
1633.000000;3.278219
1632.000000;3.208227
1631.000000;3.195280
1630.000000;3.234633
1629.000000;3.335832
1628.000000;3.666322
1627.000000;4.087838
1626.000000;3.875332
1625.000000;3.897550
1624.000000;3.885928
1623.000000;3.739113
1622.000000;3.624759
1621.000000;3.623230
1620.000000;3.654640
1619.000000;3.568581
1618.000000;3.548851
1617.000000;3.707386
1616.000000;3.914064
1615.000000;3.759905
1614.000000;3.565797
1613.000000;3.536377
1612.000000;3.619641
1611.000000;3.542340
1610.000000;3.398032
1609.000000;3.351623
1608.000000;3.353009
1607.000000;3.439668
1606.000000;3.612969
1605.000000;3.595221
1604.000000;3.402239
1603.000000;3.273870
1602.000000;3.228719
1601.000000;3.248472
1600.000000;3.305083
1599.000000;3.390784
1598.000000;3.631232
1597.000000;3.934262
1596.000000;3.570885
1595.000000;3.301212
1594.000000;3.189341
1593.000000;3.140347
1592.000000;3.137740
1591.000000;3.170485
1590.000000;3.261890
1589.000000;3.408614
1588.000000;3.533326
1587.000000;3.568971
1586.000000;3.631440
1585.000000;3.659827
1584.000000;3.464192
1583.000000;3.318549
1582.000000;3.308154
1581.000000;3.447092
1580.000000;3.674150
1579.000000;3.634258
1578.000000;3.485359
1577.000000;3.389103
1576.000000;3.336464
1575.000000;3.315880
1574.000000;3.283200
1573.000000;3.286874
1572.000000;3.397269
1571.000000;3.605788
1570.000000;3.850902
1569.000000;4.181613
1568.000000;4.833294
1567.000000;5.435650
1566.000000;4.136125
1565.000000;3.652314
1564.000000;3.473557
1563.000000;3.432316
1562.000000;3.420155
1561.000000;3.378994
1560.000000;3.364885
1559.000000;3.414466
1558.000000;3.573798
1557.000000;3.733580
1556.000000;3.609026
1555.000000;3.474901
1554.000000;3.363342
1553.000000;3.285342
1552.000000;3.247583
1551.000000;3.235697
1550.000000;3.288110
1549.000000;3.395527
1548.000000;3.384212
1547.000000;3.301733
1546.000000;3.306431
1545.000000;3.277518
1544.000000;3.235420
1543.000000;3.319636
1542.000000;3.602965
1541.000000;4.026493
1540.000000;3.929406
1539.000000;3.720017
1538.000000;3.576518
1537.000000;3.469990
1536.000000;3.431898
1535.000000;3.436692
1534.000000;3.463255
1533.000000;3.488511
1532.000000;3.576835
1531.000000;3.662805
1530.000000;3.503266
1529.000000;3.377490
1528.000000;3.545711
1527.000000;3.754280
1526.000000;3.472325
1525.000000;3.457127
1524.000000;3.943023
1523.000000;4.005316
1522.000000;3.566084
1521.000000;3.551428
1520.000000;3.585274
1519.000000;3.597360
1518.000000;3.584163
1517.000000;3.587104
1516.000000;3.764446
1515.000000;4.129881
1514.000000;4.315035
1513.000000;3.722431
1512.000000;3.459245
1511.000000;3.387588
1510.000000;3.408652
1509.000000;3.536622
1508.000000;3.461733
1507.000000;3.224956
1506.000000;3.103527
1505.000000;3.070268
1504.000000;3.105940
1503.000000;3.207022
1502.000000;3.355563
1501.000000;3.562166
1500.000000;3.678289
1499.000000;3.445308
1498.000000;3.277412
1497.000000;3.276201
1496.000000;3.382768
1495.000000;3.555656
1494.000000;3.793227
1493.000000;3.852277
1492.000000;3.760329
1491.000000;4.023028
1490.000000;4.195989
1489.000000;3.621218
1488.000000;3.343065
1487.000000;3.245908
1486.000000;3.248591
1485.000000;3.296044
1484.000000;3.322988
1483.000000;3.345172
1482.000000;3.377848
1481.000000;3.385069
1480.000000;3.441628
1479.000000;3.612272
1478.000000;3.817195
1477.000000;3.915356
1476.000000;3.874783
1475.000000;3.769335
1474.000000;3.730481
1473.000000;3.685955
1472.000000;3.504772
1471.000000;3.381632
1470.000000;3.322367
1469.000000;3.275724
1468.000000;3.242373
1467.000000;3.280625
1466.000000;3.586235
1465.000000;3.709300
1464.000000;3.398936
1463.000000;3.347259
1462.000000;3.374369
1461.000000;3.400300
1460.000000;3.429205
1459.000000;3.422346
1458.000000;3.383571
1457.000000;3.338570
1456.000000;3.321729
1455.000000;3.300638
1454.000000;3.260085
1453.000000;3.253091
1452.000000;3.341439
1451.000000;3.499816
1450.000000;3.605705
1449.000000;3.597837
1448.000000;3.707009
1447.000000;4.038858
1446.000000;3.689014
1445.000000;3.407090
1444.000000;3.379827
1443.000000;3.578134
1442.000000;4.030275
1441.000000;3.648029
1440.000000;3.335226
1439.000000;3.314176
1438.000000;3.402915
1437.000000;3.354396
1436.000000;3.235122
1435.000000;3.220110
1434.000000;3.245226
1433.000000;3.266490
1432.000000;3.292424
1431.000000;3.361636
1430.000000;3.480353
1429.000000;3.666983
1428.000000;3.816717
1427.000000;3.536188
1426.000000;3.375050
1425.000000;3.443303
1424.000000;3.789463
1423.000000;4.005923
1422.000000;3.749231
1421.000000;3.721666
1420.000000;3.793690
1419.000000;3.931919
1418.000000;3.848983
1417.000000;3.646607
1416.000000;3.461129
1415.000000;3.397127
1414.000000;3.532366
1413.000000;3.795266
1412.000000;4.271533
1411.000000;3.791484
1410.000000;3.343137
1409.000000;3.178801
1408.000000;3.118066
1407.000000;3.140802
1406.000000;3.249982
1405.000000;3.429604
1404.000000;3.555575
1403.000000;3.440407
1402.000000;3.294141
1401.000000;3.248655
1400.000000;3.397554
1399.000000;3.663659
1398.000000;3.469697
1397.000000;3.353631
1396.000000;3.412714
1395.000000;3.495525
1394.000000;3.426356
1393.000000;3.303583
1392.000000;3.252431
1391.000000;3.220613
1390.000000;3.199763
1389.000000;3.244146
1388.000000;3.406667
1387.000000;3.495059
1386.000000;3.394905
1385.000000;3.331254
1384.000000;3.280290
1383.000000;3.255113
1382.000000;3.298546
1381.000000;3.446502
1380.000000;3.601754
1379.000000;3.492317
1378.000000;3.382055
1377.000000;3.382230
1376.000000;3.492421
1375.000000;3.733564
1374.000000;3.883417
1373.000000;4.004268
1372.000000;3.709691
1371.000000;3.356455
1370.000000;3.228760
1369.000000;3.216413
1368.000000;3.264381
1367.000000;3.387651
1366.000000;3.535772
1365.000000;3.491172
1364.000000;3.339726
1363.000000;3.253757
1362.000000;3.285845
1361.000000;3.416902
1360.000000;3.513070
1359.000000;3.547789
1358.000000;3.565108
1357.000000;3.486672
1356.000000;3.456556
1355.000000;3.592112
1354.000000;3.855743
1353.000000;3.622224
1352.000000;3.337909
1351.000000;3.194587
1350.000000;3.137945
1349.000000;3.185339
1348.000000;3.421807
1347.000000;3.948849
1346.000000;3.675554
1345.000000;3.454605
1344.000000;3.392812
1343.000000;3.412418
1342.000000;3.506146
1341.000000;3.548288
1340.000000;3.395601
1339.000000;3.259267
1338.000000;3.273082
1337.000000;3.379728
1336.000000;3.442109
1335.000000;3.350281
1334.000000;3.253017
1333.000000;3.297704
1332.000000;3.503291
1331.000000;3.617670
1330.000000;3.500563
1329.000000;3.437143
1328.000000;3.580408
1327.000000;3.730854
1326.000000;3.451345
1325.000000;3.308623
1324.000000;3.345091
1323.000000;3.508241
1322.000000;3.782362
1321.000000;3.792237
1320.000000;3.519950
1319.000000;3.332765
1318.000000;3.284850
1317.000000;3.326024
1316.000000;3.405154
1315.000000;3.472695
1314.000000;3.390797
1313.000000;3.296043
1312.000000;3.346855
1311.000000;3.396678
1310.000000;3.328113
1309.000000;3.315148
1308.000000;3.373755
1307.000000;3.607055
1306.000000;3.912472
1305.000000;3.586728
1304.000000;3.428906
1303.000000;3.439619
1302.000000;3.373633
1301.000000;3.229784
1300.000000;3.107829
1299.000000;3.044315
1298.000000;3.044715
1297.000000;3.117041
1296.000000;3.257893
1295.000000;3.489329
1294.000000;3.973594
1293.000000;3.800877
1292.000000;3.521768
1291.000000;3.411360
1290.000000;3.390856
1289.000000;3.429947
1288.000000;3.395293
1287.000000;3.348908
1286.000000;3.522835
1285.000000;3.764704
1284.000000;3.423166
1283.000000;3.262818
1282.000000;3.276507
1281.000000;3.419186
1280.000000;3.638267
1279.000000;3.744472
1278.000000;3.821558
1277.000000;4.176236
1276.000000;4.034469
1275.000000;4.013812
1274.000000;3.760641
1273.000000;3.334247
1272.000000;3.140381
1271.000000;3.084626
1270.000000;3.142401
1269.000000;3.345000
1268.000000;3.838312
1267.000000;4.572754
1266.000000;4.219228
1265.000000;3.770840
1264.000000;3.556060
1263.000000;3.417347
1262.000000;3.331115
1261.000000;3.359035
1260.000000;3.533400
1259.000000;3.519337
1258.000000;3.341463
1257.000000;3.284397
1256.000000;3.237835
1255.000000;3.169360
1254.000000;3.118535
1253.000000;3.105760
1252.000000;3.138313
1251.000000;3.232490
1250.000000;3.350957
1249.000000;3.339092
1248.000000;3.217643
1247.000000;3.122710
1246.000000;3.116024
1245.000000;3.207727
1244.000000;3.395066
1243.000000;3.847377
1242.000000;3.616980
1241.000000;3.267444
1240.000000;3.128099
1239.000000;3.093604
1238.000000;3.126514
1237.000000;3.197880
1236.000000;3.319649
1235.000000;3.630798
1234.000000;3.647034
1233.000000;3.223198
1232.000000;3.128613
1231.000000;3.212741
1230.000000;3.396718
1229.000000;3.314859
1228.000000;3.127025
1227.000000;3.079695
1226.000000;3.091264
1225.000000;3.074605
1224.000000;3.037195
1223.000000;3.023677
1222.000000;3.087353
1221.000000;3.302175
1220.000000;3.670333
1219.000000;3.837961
1218.000000;3.754011
1217.000000;3.403254
1216.000000;3.248455
1215.000000;3.305432
1214.000000;3.493969
1213.000000;3.723335
1212.000000;3.834961
1211.000000;4.013946
1210.000000;3.932937
1209.000000;3.493067
1208.000000;3.293262
1207.000000;3.327592
1206.000000;3.722794
1205.000000;3.614089
1204.000000;3.236057
1203.000000;3.120366
1202.000000;3.043949
1201.000000;3.017846
1200.000000;2.988363
