Criado como novo conjunto de dados;"e2410_daniel_v2.spp","29523.3 Secs"
cm-1;Abs
10000.000000;0.608480
9999.000000;0.607943
9998.000000;0.607512
9997.000000;0.607138
9996.000000;0.606774
9995.000000;0.606309
9994.000000;0.605667
9993.000000;0.604965
9992.000000;0.604303
9991.000000;0.603651
9990.000000;0.603066
9989.000000;0.602794
9988.000000;0.602870
9987.000000;0.602887
9986.000000;0.602438
9985.000000;0.601619
9984.000000;0.600826
9983.000000;0.600227
9982.000000;0.599705
9981.000000;0.599150
9980.000000;0.598525
9979.000000;0.597800
9978.000000;0.597049
9977.000000;0.596465
9976.000000;0.596084
9975.000000;0.595686
9974.000000;0.595149
9973.000000;0.594656
9972.000000;0.594348
9971.000000;0.594037
9970.000000;0.593524
9969.000000;0.592930
9968.000000;0.592447
9967.000000;0.592025
9966.000000;0.591587
9965.000000;0.591256
9964.000000;0.591044
9963.000000;0.590614
9962.000000;0.589726
9961.000000;0.588685
9960.000000;0.587973
9959.000000;0.587642
9958.000000;0.587406
9957.000000;0.587125
9956.000000;0.586823
9955.000000;0.586417
9954.000000;0.585819
9953.000000;0.585161
9952.000000;0.584568
9951.000000;0.583891
9950.000000;0.583008
9949.000000;0.582186
9948.000000;0.581772
9947.000000;0.581657
9946.000000;0.581438
9945.000000;0.581010
9944.000000;0.580602
9943.000000;0.580319
9942.000000;0.580029
9941.000000;0.579622
9940.000000;0.579097
9939.000000;0.578419
9938.000000;0.577609
9937.000000;0.576885
9936.000000;0.576454
9935.000000;0.576239
9934.000000;0.576042
9933.000000;0.575834
9932.000000;0.575631
9931.000000;0.575248
9930.000000;0.574497
9929.000000;0.573524
9928.000000;0.572651
9927.000000;0.572006
9926.000000;0.571529
9925.000000;0.571201
9924.000000;0.570969
9923.000000;0.570623
9922.000000;0.570053
9921.000000;0.569507
9920.000000;0.569266
9919.000000;0.569197
9918.000000;0.568943
9917.000000;0.568411
9916.000000;0.567780
9915.000000;0.567126
9914.000000;0.566398
9913.000000;0.565679
9912.000000;0.565136
9911.000000;0.564746
9910.000000;0.564337
9909.000000;0.563859
9908.000000;0.563375
9907.000000;0.562909
9906.000000;0.562504
9905.000000;0.562298
9904.000000;0.562275
9903.000000;0.562078
9902.000000;0.561365
9901.000000;0.560248
9900.000000;0.559103
9899.000000;0.558099
9898.000000;0.557212
9897.000000;0.556547
9896.000000;0.556276
9895.000000;0.556296
9894.000000;0.556268
9893.000000;0.555990
9892.000000;0.555501
9891.000000;0.554886
9890.000000;0.554235
9889.000000;0.553704
9888.000000;0.553382
9887.000000;0.553116
9886.000000;0.552693
9885.000000;0.552120
9884.000000;0.551530
9883.000000;0.550935
9882.000000;0.550290
9881.000000;0.549702
9880.000000;0.549304
9879.000000;0.549031
9878.000000;0.548733
9877.000000;0.548409
9876.000000;0.548101
9875.000000;0.547703
9874.000000;0.547128
9873.000000;0.546548
9872.000000;0.546183
9871.000000;0.545938
9870.000000;0.545510
9869.000000;0.544806
9868.000000;0.544013
9867.000000;0.543304
9866.000000;0.542701
9865.000000;0.542163
9864.000000;0.541624
9863.000000;0.541020
9862.000000;0.540412
9861.000000;0.539982
9860.000000;0.539768
9859.000000;0.539546
9858.000000;0.539137
9857.000000;0.538650
9856.000000;0.538243
9855.000000;0.537839
9854.000000;0.537329
9853.000000;0.536838
9852.000000;0.536509
9851.000000;0.536181
9850.000000;0.535614
9849.000000;0.534911
9848.000000;0.534390
9847.000000;0.534097
9846.000000;0.533746
9845.000000;0.533118
9844.000000;0.532291
9843.000000;0.531490
9842.000000;0.530896
9841.000000;0.530580
9840.000000;0.530456
9839.000000;0.530333
9838.000000;0.530121
9837.000000;0.529904
9836.000000;0.529700
9835.000000;0.529329
9834.000000;0.528661
9833.000000;0.527840
9832.000000;0.527071
9831.000000;0.526367
9830.000000;0.525677
9829.000000;0.525060
9828.000000;0.524553
9827.000000;0.524046
9826.000000;0.523504
9825.000000;0.523109
9824.000000;0.522968
9823.000000;0.522870
9822.000000;0.522582
9821.000000;0.522207
9820.000000;0.521947
9819.000000;0.521694
9818.000000;0.521175
9817.000000;0.520401
9816.000000;0.519679
9815.000000;0.519211
9814.000000;0.518938
9813.000000;0.518716
9812.000000;0.518449
9811.000000;0.518087
9810.000000;0.517663
9809.000000;0.517263
9808.000000;0.516861
9807.000000;0.516312
9806.000000;0.515607
9805.000000;0.514943
9804.000000;0.514394
9803.000000;0.513750
9802.000000;0.512873
9801.000000;0.512003
9800.000000;0.511447
9799.000000;0.511172
9798.000000;0.510937
9797.000000;0.510658
9796.000000;0.510398
9795.000000;0.510129
9794.000000;0.509759
9793.000000;0.509274
9792.000000;0.508659
9791.000000;0.507859
9790.000000;0.507009
9789.000000;0.506458
9788.000000;0.506334
9787.000000;0.506268
9786.000000;0.505850
9785.000000;0.505159
9784.000000;0.504547
9783.000000;0.504099
9782.000000;0.503622
9781.000000;0.503054
9780.000000;0.502507
9779.000000;0.502008
9778.000000;0.501486
9777.000000;0.500982
9776.000000;0.500603
9775.000000;0.500303
9774.000000;0.499956
9773.000000;0.499571
9772.000000;0.499227
9771.000000;0.498862
9770.000000;0.498346
9769.000000;0.497698
9768.000000;0.497012
9767.000000;0.496284
9766.000000;0.495505
9765.000000;0.494826
9764.000000;0.494404
9763.000000;0.494159
9762.000000;0.493886
9761.000000;0.493514
9760.000000;0.493100
9759.000000;0.492666
9758.000000;0.492227
9757.000000;0.491850
9756.000000;0.491513
9755.000000;0.491049
9754.000000;0.490433
9753.000000;0.489952
9752.000000;0.489857
9751.000000;0.489981
9750.000000;0.489920
9749.000000;0.489506
9748.000000;0.488857
9747.000000;0.488113
9746.000000;0.487356
9745.000000;0.486713
9744.000000;0.486268
9743.000000;0.485918
9742.000000;0.485489
9741.000000;0.484952
9740.000000;0.484377
9739.000000;0.483795
9738.000000;0.483240
9737.000000;0.482806
9736.000000;0.482487
9735.000000;0.482082
9734.000000;0.481455
9733.000000;0.480762
9732.000000;0.480245
9731.000000;0.479934
9730.000000;0.479695
9729.000000;0.479433
9728.000000;0.479097
9727.000000;0.478638
9726.000000;0.478128
9725.000000;0.477749
9724.000000;0.477511
9723.000000;0.477176
9722.000000;0.476633
9721.000000;0.476112
9720.000000;0.475809
9719.000000;0.475541
9718.000000;0.475024
9717.000000;0.474305
9716.000000;0.473621
9715.000000;0.473012
9714.000000;0.472381
9713.000000;0.471790
9712.000000;0.471388
9711.000000;0.471130
9710.000000;0.470856
9709.000000;0.470576
9708.000000;0.470404
9707.000000;0.470280
9706.000000;0.469994
9705.000000;0.469473
9704.000000;0.468822
9703.000000;0.468159
9702.000000;0.467575
9701.000000;0.467169
9700.000000;0.466931
9699.000000;0.466669
9698.000000;0.466212
9697.000000;0.465610
9696.000000;0.465008
9695.000000;0.464441
9694.000000;0.463920
9693.000000;0.463544
9692.000000;0.463332
9691.000000;0.463089
9690.000000;0.462653
9689.000000;0.462135
9688.000000;0.461734
9687.000000;0.461413
9686.000000;0.460984
9685.000000;0.460393
9684.000000;0.459720
9683.000000;0.459014
9682.000000;0.458314
9681.000000;0.457733
9680.000000;0.457348
9679.000000;0.457082
9678.000000;0.456831
9677.000000;0.456575
9676.000000;0.456265
9675.000000;0.455773
9674.000000;0.455106
9673.000000;0.454500
9672.000000;0.454121
9671.000000;0.453864
9670.000000;0.453578
9669.000000;0.453315
9668.000000;0.453150
9667.000000;0.452972
9666.000000;0.452662
9665.000000;0.452282
9664.000000;0.451899
9663.000000;0.451406
9662.000000;0.450722
9661.000000;0.450005
9660.000000;0.449432
9659.000000;0.448951
9658.000000;0.448455
9657.000000;0.448007
9656.000000;0.447675
9655.000000;0.447335
9654.000000;0.446879
9653.000000;0.446433
9652.000000;0.446141
9651.000000;0.445910
9650.000000;0.445571
9649.000000;0.445139
9648.000000;0.444683
9647.000000;0.444152
9646.000000;0.443559
9645.000000;0.443118
9644.000000;0.442940
9643.000000;0.442783
9642.000000;0.442360
9641.000000;0.441713
9640.000000;0.441044
9639.000000;0.440376
9638.000000;0.439685
9637.000000;0.439155
9636.000000;0.438935
9635.000000;0.438803
9634.000000;0.438403
9633.000000;0.437724
9632.000000;0.437057
9631.000000;0.436585
9630.000000;0.436296
9629.000000;0.436154
9628.000000;0.436080
9627.000000;0.435864
9626.000000;0.435399
9625.000000;0.434898
9624.000000;0.434605
9623.000000;0.434427
9622.000000;0.434101
9621.000000;0.433621
9620.000000;0.433189
9619.000000;0.432852
9618.000000;0.432486
9617.000000;0.432062
9616.000000;0.431644
9615.000000;0.431191
9614.000000;0.430643
9613.000000;0.430125
9612.000000;0.429783
9611.000000;0.429501
9610.000000;0.429036
9609.000000;0.428355
9608.000000;0.427611
9607.000000;0.426897
9606.000000;0.426284
9605.000000;0.425961
9604.000000;0.426007
9603.000000;0.426118
9602.000000;0.425859
9601.000000;0.425179
9600.000000;0.424394
9599.000000;0.423731
9598.000000;0.423175
9597.000000;0.422701
9596.000000;0.422349
9595.000000;0.422057
9594.000000;0.421706
9593.000000;0.421316
9592.000000;0.421000
9591.000000;0.420740
9590.000000;0.420445
9589.000000;0.420176
9588.000000;0.420041
9587.000000;0.419909
9586.000000;0.419508
9585.000000;0.418825
9584.000000;0.418146
9583.000000;0.417658
9582.000000;0.417258
9581.000000;0.416775
9580.000000;0.416207
9579.000000;0.415665
9578.000000;0.415242
9577.000000;0.414972
9576.000000;0.414796
9575.000000;0.414563
9574.000000;0.414164
9573.000000;0.413671
9572.000000;0.413238
9571.000000;0.412883
9570.000000;0.412498
9569.000000;0.412017
9568.000000;0.411477
9567.000000;0.410957
9566.000000;0.410538
9565.000000;0.410251
9564.000000;0.409979
9563.000000;0.409516
9562.000000;0.408822
9561.000000;0.408114
9560.000000;0.407609
9559.000000;0.407307
9558.000000;0.407107
9557.000000;0.406954
9556.000000;0.406761
9555.000000;0.406388
9554.000000;0.405894
9553.000000;0.405581
9552.000000;0.405581
9551.000000;0.405565
9550.000000;0.405124
9549.000000;0.404317
9548.000000;0.403586
9547.000000;0.403225
9546.000000;0.403160
9545.000000;0.403146
9544.000000;0.402959
9543.000000;0.402475
9542.000000;0.401782
9541.000000;0.401151
9540.000000;0.400744
9539.000000;0.400435
9538.000000;0.400070
9537.000000;0.399734
9536.000000;0.399537
9535.000000;0.399317
9534.000000;0.398823
9533.000000;0.398094
9532.000000;0.397383
9531.000000;0.396793
9530.000000;0.396255
9529.000000;0.395794
9528.000000;0.395544
9527.000000;0.395494
9526.000000;0.395456
9525.000000;0.395297
9524.000000;0.395017
9523.000000;0.394620
9522.000000;0.394086
9521.000000;0.393477
9520.000000;0.392897
9519.000000;0.392365
9518.000000;0.391847
9517.000000;0.391366
9516.000000;0.390963
9515.000000;0.390621
9514.000000;0.390324
9513.000000;0.390105
9512.000000;0.389922
9511.000000;0.389636
9510.000000;0.389230
9509.000000;0.388908
9508.000000;0.388799
9507.000000;0.388702
9506.000000;0.388341
9505.000000;0.387733
9504.000000;0.387107
9503.000000;0.386571
9502.000000;0.386098
9501.000000;0.385699
9500.000000;0.385386
9499.000000;0.385018
9498.000000;0.384463
9497.000000;0.383854
9496.000000;0.383460
9495.000000;0.383337
9494.000000;0.383290
9493.000000;0.383147
9492.000000;0.382906
9491.000000;0.382623
9490.000000;0.382347
9489.000000;0.382111
9488.000000;0.381860
9487.000000;0.381445
9486.000000;0.380847
9485.000000;0.380286
9484.000000;0.379959
9483.000000;0.379760
9482.000000;0.379463
9481.000000;0.379067
9480.000000;0.378741
9479.000000;0.378505
9478.000000;0.378199
9477.000000;0.377741
9476.000000;0.377212
9475.000000;0.376700
9474.000000;0.376242
9473.000000;0.375886
9472.000000;0.375645
9471.000000;0.375410
9470.000000;0.375060
9469.000000;0.374618
9468.000000;0.374189
9467.000000;0.373801
9466.000000;0.373443
9465.000000;0.373173
9464.000000;0.373022
9463.000000;0.372855
9462.000000;0.372499
9461.000000;0.371961
9460.000000;0.371388
9459.000000;0.370886
9458.000000;0.370506
9457.000000;0.370302
9456.000000;0.370222
9455.000000;0.370037
9454.000000;0.369558
9453.000000;0.368874
9452.000000;0.368227
9451.000000;0.367727
9450.000000;0.367343
9449.000000;0.367077
9448.000000;0.366927
9447.000000;0.366764
9446.000000;0.366452
9445.000000;0.366061
9444.000000;0.365787
9443.000000;0.365659
9442.000000;0.365502
9441.000000;0.365162
9440.000000;0.364644
9439.000000;0.364054
9438.000000;0.363536
9437.000000;0.363224
9436.000000;0.363133
9435.000000;0.363097
9434.000000;0.362917
9433.000000;0.362534
9432.000000;0.361999
9431.000000;0.361362
9430.000000;0.360701
9429.000000;0.360144
9428.000000;0.359722
9427.000000;0.359289
9426.000000;0.358718
9425.000000;0.358110
9424.000000;0.357666
9423.000000;0.357420
9422.000000;0.357260
9421.000000;0.357132
9420.000000;0.357071
9419.000000;0.357055
9418.000000;0.356966
9417.000000;0.356699
9416.000000;0.356239
9415.000000;0.355675
9414.000000;0.355165
9413.000000;0.354828
9412.000000;0.354615
9411.000000;0.354361
9410.000000;0.354013
9409.000000;0.353665
9408.000000;0.353345
9407.000000;0.352936
9406.000000;0.352424
9405.000000;0.352006
9404.000000;0.351842
9403.000000;0.351828
9402.000000;0.351759
9401.000000;0.351576
9400.000000;0.351296
9399.000000;0.350866
9398.000000;0.350253
9397.000000;0.349568
9396.000000;0.348954
9395.000000;0.348444
9394.000000;0.348047
9393.000000;0.347842
9392.000000;0.347821
9391.000000;0.347770
9390.000000;0.347478
9389.000000;0.346984
9388.000000;0.346492
9387.000000;0.346125
9386.000000;0.345888
9385.000000;0.345752
9384.000000;0.345630
9383.000000;0.345383
9382.000000;0.344992
9381.000000;0.344623
9380.000000;0.344404
9379.000000;0.344251
9378.000000;0.344012
9377.000000;0.343655
9376.000000;0.343186
9375.000000;0.342558
9374.000000;0.341826
9373.000000;0.341240
9372.000000;0.340988
9371.000000;0.340963
9370.000000;0.340932
9369.000000;0.340791
9368.000000;0.340531
9367.000000;0.340111
9366.000000;0.339565
9365.000000;0.339089
9364.000000;0.338823
9363.000000;0.338649
9362.000000;0.338393
9361.000000;0.338100
9360.000000;0.337913
9359.000000;0.337808
9358.000000;0.337669
9357.000000;0.337512
9356.000000;0.337408
9355.000000;0.337270
9354.000000;0.336953
9353.000000;0.336497
9352.000000;0.336061
9351.000000;0.335666
9350.000000;0.335193
9349.000000;0.334626
9348.000000;0.334094
9347.000000;0.333687
9346.000000;0.333387
9345.000000;0.333152
9344.000000;0.332935
9343.000000;0.332658
9342.000000;0.332284
9341.000000;0.331894
9340.000000;0.331571
9339.000000;0.331270
9338.000000;0.330915
9337.000000;0.330544
9336.000000;0.330265
9335.000000;0.330110
9334.000000;0.330028
9333.000000;0.329959
9332.000000;0.329833
9331.000000;0.329601
9330.000000;0.329326
9329.000000;0.329143
9328.000000;0.329020
9327.000000;0.328720
9326.000000;0.328097
9325.000000;0.327312
9324.000000;0.326615
9323.000000;0.326070
9322.000000;0.325633
9321.000000;0.325325
9320.000000;0.325150
9319.000000;0.324972
9318.000000;0.324674
9317.000000;0.324347
9316.000000;0.324163
9315.000000;0.324117
9314.000000;0.324059
9313.000000;0.323887
9312.000000;0.323579
9311.000000;0.323120
9310.000000;0.322565
9309.000000;0.322077
9308.000000;0.321784
9307.000000;0.321641
9306.000000;0.321545
9305.000000;0.321454
9304.000000;0.321299
9303.000000;0.320950
9302.000000;0.320437
9301.000000;0.320046
9300.000000;0.319994
9299.000000;0.320105
9298.000000;0.320008
9297.000000;0.319567
9296.000000;0.318960
9295.000000;0.318406
9294.000000;0.317998
9293.000000;0.317748
9292.000000;0.317608
9291.000000;0.317473
9290.000000;0.317299
9289.000000;0.317148
9288.000000;0.317045
9287.000000;0.316875
9286.000000;0.316550
9285.000000;0.316165
9284.000000;0.315843
9283.000000;0.315548
9282.000000;0.315179
9281.000000;0.314760
9280.000000;0.314375
9279.000000;0.314009
9278.000000;0.313614
9277.000000;0.313242
9276.000000;0.312951
9275.000000;0.312676
9274.000000;0.312341
9273.000000;0.312034
9272.000000;0.311888
9271.000000;0.311862
9270.000000;0.311782
9269.000000;0.311526
9268.000000;0.311075
9267.000000;0.310465
9266.000000;0.309818
9265.000000;0.309342
9264.000000;0.309130
9263.000000;0.309033
9262.000000;0.308844
9261.000000;0.308531
9260.000000;0.308173
9259.000000;0.307795
9258.000000;0.307385
9257.000000;0.307017
9256.000000;0.306775
9255.000000;0.306634
9254.000000;0.306526
9253.000000;0.306443
9252.000000;0.306391
9251.000000;0.306326
9250.000000;0.306244
9249.000000;0.306210
9248.000000;0.306181
9247.000000;0.305949
9246.000000;0.305398
9245.000000;0.304714
9244.000000;0.304187
9243.000000;0.303910
9242.000000;0.303789
9241.000000;0.303733
9240.000000;0.303677
9239.000000;0.303530
9238.000000;0.303271
9237.000000;0.303032
9236.000000;0.302921
9235.000000;0.302833
9234.000000;0.302582
9233.000000;0.302130
9232.000000;0.301574
9231.000000;0.301013
9230.000000;0.300554
9229.000000;0.300317
9228.000000;0.300297
9227.000000;0.300296
9226.000000;0.300156
9225.000000;0.299931
9224.000000;0.299721
9223.000000;0.299452
9222.000000;0.299000
9221.000000;0.298436
9220.000000;0.297964
9219.000000;0.297682
9218.000000;0.297535
9217.000000;0.297434
9216.000000;0.297294
9215.000000;0.297044
9214.000000;0.296716
9213.000000;0.296450
9212.000000;0.296293
9211.000000;0.296104
9210.000000;0.295767
9209.000000;0.295366
9208.000000;0.295040
9207.000000;0.294789
9206.000000;0.294574
9205.000000;0.294447
9204.000000;0.294411
9203.000000;0.294310
9202.000000;0.294028
9201.000000;0.293702
9200.000000;0.293523
9199.000000;0.293430
9198.000000;0.293208
9197.000000;0.292803
9196.000000;0.292373
9195.000000;0.292053
9194.000000;0.291871
9193.000000;0.291821
9192.000000;0.291857
9191.000000;0.291848
9190.000000;0.291678
9189.000000;0.291366
9188.000000;0.290995
9187.000000;0.290581
9186.000000;0.290129
9185.000000;0.289707
9184.000000;0.289362
9183.000000;0.289064
9182.000000;0.288830
9181.000000;0.288771
9180.000000;0.288879
9179.000000;0.288928
9178.000000;0.288733
9177.000000;0.288409
9176.000000;0.288172
9175.000000;0.288012
9174.000000;0.287752
9173.000000;0.287340
9172.000000;0.286893
9171.000000;0.286507
9170.000000;0.286210
9169.000000;0.286039
9168.000000;0.286002
9167.000000;0.285995
9166.000000;0.285883
9165.000000;0.285646
9164.000000;0.285331
9163.000000;0.284960
9162.000000;0.284582
9161.000000;0.284321
9160.000000;0.284233
9159.000000;0.284193
9158.000000;0.284065
9157.000000;0.283883
9156.000000;0.283725
9155.000000;0.283519
9154.000000;0.283145
9153.000000;0.282651
9152.000000;0.282196
9151.000000;0.281853
9150.000000;0.281611
9149.000000;0.281488
9148.000000;0.281475
9147.000000;0.281423
9146.000000;0.281167
9145.000000;0.280730
9144.000000;0.280278
9143.000000;0.279921
9142.000000;0.279688
9141.000000;0.279620
9140.000000;0.279712
9139.000000;0.279825
9138.000000;0.279786
9137.000000;0.279564
9136.000000;0.279235
9135.000000;0.278847
9134.000000;0.278418
9133.000000;0.278029
9132.000000;0.277765
9131.000000;0.277603
9130.000000;0.277445
9129.000000;0.277231
9128.000000;0.276938
9127.000000;0.276554
9126.000000;0.276139
9125.000000;0.275817
9124.000000;0.275621
9123.000000;0.275441
9122.000000;0.275204
9121.000000;0.275000
9120.000000;0.274933
9119.000000;0.274944
9118.000000;0.274904
9117.000000;0.274777
9116.000000;0.274581
9115.000000;0.274279
9114.000000;0.273867
9113.000000;0.273461
9112.000000;0.273173
9111.000000;0.272968
9110.000000;0.272764
9109.000000;0.272567
9108.000000;0.272404
9107.000000;0.272208
9106.000000;0.271926
9105.000000;0.271632
9104.000000;0.271428
9103.000000;0.271284
9102.000000;0.271118
9101.000000;0.270939
9100.000000;0.270796
9099.000000;0.270665
9098.000000;0.270495
9097.000000;0.270308
9096.000000;0.270142
9095.000000;0.269965
9094.000000;0.269749
9093.000000;0.269522
9092.000000;0.269285
9091.000000;0.268966
9090.000000;0.268562
9089.000000;0.268199
9088.000000;0.267957
9087.000000;0.267758
9086.000000;0.267526
9085.000000;0.267322
9084.000000;0.267210
9083.000000;0.267110
9082.000000;0.266930
9081.000000;0.266720
9080.000000;0.266572
9079.000000;0.266479
9078.000000;0.266401
9077.000000;0.266358
9076.000000;0.266334
9075.000000;0.266222
9074.000000;0.265992
9073.000000;0.265790
9072.000000;0.265720
9071.000000;0.265652
9070.000000;0.265398
9069.000000;0.264979
9068.000000;0.264551
9067.000000;0.264187
9066.000000;0.263871
9065.000000;0.263620
9064.000000;0.263440
9063.000000;0.263271
9062.000000;0.263091
9061.000000;0.262977
9060.000000;0.262963
9059.000000;0.262923
9058.000000;0.262737
9057.000000;0.262465
9056.000000;0.262224
9055.000000;0.262018
9054.000000;0.261807
9053.000000;0.261623
9052.000000;0.261490
9051.000000;0.261334
9050.000000;0.261129
9049.000000;0.260986
9048.000000;0.260964
9047.000000;0.260930
9046.000000;0.260758
9045.000000;0.260517
9044.000000;0.260329
9043.000000;0.260162
9042.000000;0.259957
9041.000000;0.259799
9040.000000;0.259755
9039.000000;0.259683
9038.000000;0.259416
9037.000000;0.259044
9036.000000;0.258781
9035.000000;0.258623
9034.000000;0.258371
9033.000000;0.257962
9032.000000;0.257548
9031.000000;0.257268
9030.000000;0.257116
9029.000000;0.257024
9028.000000;0.256930
9027.000000;0.256773
9026.000000;0.256551
9025.000000;0.256356
9024.000000;0.256249
9023.000000;0.256153
9022.000000;0.255969
9021.000000;0.255726
9020.000000;0.255516
9019.000000;0.255353
9018.000000;0.255211
9017.000000;0.255116
9016.000000;0.255073
9015.000000;0.254985
9014.000000;0.254774
9013.000000;0.254515
9012.000000;0.254317
9011.000000;0.254162
9010.000000;0.253981
9009.000000;0.253796
9008.000000;0.253651
9007.000000;0.253493
9006.000000;0.253254
9005.000000;0.252983
9004.000000;0.252757
9003.000000;0.252545
9002.000000;0.252287
9001.000000;0.252031
9000.000000;0.251854
8999.000000;0.251736
8998.000000;0.251628
8997.000000;0.251540
8996.000000;0.251461
8995.000000;0.251301
8994.000000;0.251031
8993.000000;0.250774
8992.000000;0.250631
8991.000000;0.250532
8990.000000;0.250385
8989.000000;0.250244
8988.000000;0.250168
8987.000000;0.250069
8986.000000;0.249856
8985.000000;0.249608
8984.000000;0.249430
8983.000000;0.249252
8982.000000;0.248970
8981.000000;0.248673
8980.000000;0.248519
8979.000000;0.248467
8978.000000;0.248346
8977.000000;0.248112
8976.000000;0.247866
8975.000000;0.247655
8974.000000;0.247463
8973.000000;0.247328
8972.000000;0.247300
8971.000000;0.247312
8970.000000;0.247254
8969.000000;0.247134
8968.000000;0.247004
8967.000000;0.246814
8966.000000;0.246497
8965.000000;0.246145
8964.000000;0.245909
8963.000000;0.245768
8962.000000;0.245579
8961.000000;0.245321
8960.000000;0.245110
8959.000000;0.245003
8958.000000;0.244948
8957.000000;0.244915
8956.000000;0.244914
8955.000000;0.244894
8954.000000;0.244773
8953.000000;0.244581
8952.000000;0.244439
8951.000000;0.244397
8950.000000;0.244385
8949.000000;0.244304
8948.000000;0.244060
8947.000000;0.243593
8946.000000;0.242973
8945.000000;0.242439
8944.000000;0.242192
8943.000000;0.242184
8942.000000;0.242210
8941.000000;0.242161
8940.000000;0.242070
8939.000000;0.241987
8938.000000;0.241924
8937.000000;0.241902
8936.000000;0.241926
8935.000000;0.241928
8934.000000;0.241847
8933.000000;0.241707
8932.000000;0.241547
8931.000000;0.241327
8930.000000;0.241009
8929.000000;0.240683
8928.000000;0.240504
8927.000000;0.240523
8926.000000;0.240639
8925.000000;0.240686
8924.000000;0.240498
8923.000000;0.240031
8922.000000;0.239471
8921.000000;0.239140
8920.000000;0.239175
8919.000000;0.239366
8918.000000;0.239407
8917.000000;0.239203
8916.000000;0.238879
8915.000000;0.238603
8914.000000;0.238492
8913.000000;0.238577
8912.000000;0.238730
8911.000000;0.238741
8910.000000;0.238561
8909.000000;0.238353
8908.000000;0.238220
8907.000000;0.238048
8906.000000;0.237734
8905.000000;0.237400
8904.000000;0.237207
8903.000000;0.237117
8902.000000;0.237020
8901.000000;0.236966
8900.000000;0.237052
8899.000000;0.237188
8898.000000;0.237192
8897.000000;0.237036
8896.000000;0.236809
8895.000000;0.236521
8894.000000;0.236160
8893.000000;0.235852
8892.000000;0.235751
8891.000000;0.235801
8890.000000;0.235817
8889.000000;0.235761
8888.000000;0.235769
8887.000000;0.235893
8886.000000;0.236024
8885.000000;0.236064
8884.000000;0.236008
8883.000000;0.235859
8882.000000;0.235605
8881.000000;0.235297
8880.000000;0.235026
8879.000000;0.234810
8878.000000;0.234591
8877.000000;0.234341
8876.000000;0.234073
8875.000000;0.233805
8874.000000;0.233586
8873.000000;0.233499
8872.000000;0.233531
8871.000000;0.233520
8870.000000;0.233350
8869.000000;0.233139
8868.000000;0.233093
8867.000000;0.233225
8866.000000;0.233353
8865.000000;0.233348
8864.000000;0.233236
8863.000000;0.233103
8862.000000;0.233002
8861.000000;0.232962
8860.000000;0.232971
8859.000000;0.232958
8858.000000;0.232871
8857.000000;0.232741
8856.000000;0.232611
8855.000000;0.232476
8854.000000;0.232343
8853.000000;0.232267
8852.000000;0.232249
8851.000000;0.232186
8850.000000;0.232012
8849.000000;0.231790
8848.000000;0.231599
8847.000000;0.231413
8846.000000;0.231214
8845.000000;0.231082
8844.000000;0.231062
8843.000000;0.231058
8842.000000;0.230988
8841.000000;0.230948
8840.000000;0.231042
8839.000000;0.231176
8838.000000;0.231167
8837.000000;0.231017
8836.000000;0.230890
8835.000000;0.230897
8834.000000;0.231016
8833.000000;0.231185
8832.000000;0.231326
8831.000000;0.231329
8830.000000;0.231157
8829.000000;0.230933
8828.000000;0.230796
8827.000000;0.230750
8826.000000;0.230747
8825.000000;0.230816
8824.000000;0.230985
8823.000000;0.231158
8822.000000;0.231224
8821.000000;0.231229
8820.000000;0.231277
8819.000000;0.231350
8818.000000;0.231355
8817.000000;0.231310
8816.000000;0.231325
8815.000000;0.231448
8814.000000;0.231655
8813.000000;0.231927
8812.000000;0.232192
8811.000000;0.232270
8810.000000;0.232022
8809.000000;0.231549
8808.000000;0.231104
8807.000000;0.230854
8806.000000;0.230834
8805.000000;0.231036
8804.000000;0.231386
8803.000000;0.231684
8802.000000;0.231756
8801.000000;0.231645
8800.000000;0.231521
8799.000000;0.231437
8798.000000;0.231322
8797.000000;0.231164
8796.000000;0.231051
8795.000000;0.231045
8794.000000;0.231136
8793.000000;0.231296
8792.000000;0.231483
8791.000000;0.231601
8790.000000;0.231598
8789.000000;0.231569
8788.000000;0.231651
8787.000000;0.231856
8786.000000;0.232080
8785.000000;0.232241
8784.000000;0.232296
8783.000000;0.232206
8782.000000;0.232009
8781.000000;0.231873
8780.000000;0.231946
8779.000000;0.232188
8778.000000;0.232442
8777.000000;0.232635
8776.000000;0.232792
8775.000000;0.232936
8774.000000;0.233076
8773.000000;0.233247
8772.000000;0.233445
8771.000000;0.233558
8770.000000;0.233507
8769.000000;0.233384
8768.000000;0.233359
8767.000000;0.233485
8766.000000;0.233697
8765.000000;0.233946
8764.000000;0.234203
8763.000000;0.234395
8762.000000;0.234461
8761.000000;0.234451
8760.000000;0.234449
8759.000000;0.234456
8758.000000;0.234447
8757.000000;0.234473
8756.000000;0.234586
8755.000000;0.234732
8754.000000;0.234842
8753.000000;0.234971
8752.000000;0.235200
8751.000000;0.235458
8750.000000;0.235588
8749.000000;0.235553
8748.000000;0.235457
8747.000000;0.235396
8746.000000;0.235414
8745.000000;0.235557
8744.000000;0.235842
8743.000000;0.236187
8742.000000;0.236495
8741.000000;0.236780
8740.000000;0.237091
8739.000000;0.237374
8738.000000;0.237518
8737.000000;0.237530
8736.000000;0.237520
8735.000000;0.237529
8734.000000;0.237516
8733.000000;0.237490
8732.000000;0.237539
8731.000000;0.237702
8730.000000;0.237905
8729.000000;0.238045
8728.000000;0.238063
8727.000000;0.237960
8726.000000;0.237809
8725.000000;0.237760
8724.000000;0.237943
8723.000000;0.238355
8722.000000;0.238862
8721.000000;0.239282
8720.000000;0.239482
8719.000000;0.239457
8718.000000;0.239369
8717.000000;0.239423
8716.000000;0.239645
8715.000000;0.239851
8714.000000;0.239881
8713.000000;0.239760
8712.000000;0.239592
8711.000000;0.239413
8710.000000;0.239231
8709.000000;0.239120
8708.000000;0.239154
8707.000000;0.239322
8706.000000;0.239574
8705.000000;0.239882
8704.000000;0.240176
8703.000000;0.240331
8702.000000;0.240308
8701.000000;0.240237
8700.000000;0.240273
8699.000000;0.240459
8698.000000;0.240761
8697.000000;0.241129
8696.000000;0.241454
8695.000000;0.241598
8694.000000;0.241558
8693.000000;0.241500
8692.000000;0.241511
8691.000000;0.241480
8690.000000;0.241306
8689.000000;0.241093
8688.000000;0.240990
8687.000000;0.240974
8686.000000;0.240939
8685.000000;0.240895
8684.000000;0.240912
8683.000000;0.240963
8682.000000;0.240973
8681.000000;0.240956
8680.000000;0.240978
8679.000000;0.241040
8678.000000;0.241140
8677.000000;0.241330
8676.000000;0.241574
8675.000000;0.241662
8674.000000;0.241425
8673.000000;0.240992
8672.000000;0.240657
8671.000000;0.240565
8670.000000;0.240648
8669.000000;0.240799
8668.000000;0.240953
8667.000000;0.241051
8666.000000;0.241060
8665.000000;0.241022
8664.000000;0.240958
8663.000000;0.240810
8662.000000;0.240563
8661.000000;0.240358
8660.000000;0.240343
8659.000000;0.240476
8658.000000;0.240588
8657.000000;0.240592
8656.000000;0.240502
8655.000000;0.240329
8654.000000;0.240110
8653.000000;0.239965
8652.000000;0.239987
8651.000000;0.240108
8650.000000;0.240189
8649.000000;0.240208
8648.000000;0.240219
8647.000000;0.240214
8646.000000;0.240133
8645.000000;0.239985
8644.000000;0.239835
8643.000000;0.239691
8642.000000;0.239524
8641.000000;0.239342
8640.000000;0.239185
8639.000000;0.239066
8638.000000;0.239015
8637.000000;0.239070
8636.000000;0.239175
8635.000000;0.239182
8634.000000;0.239042
8633.000000;0.238893
8632.000000;0.238837
8631.000000;0.238757
8630.000000;0.238509
8629.000000;0.238155
8628.000000;0.237876
8627.000000;0.237722
8626.000000;0.237631
8625.000000;0.237599
8624.000000;0.237655
8623.000000;0.237737
8622.000000;0.237755
8621.000000;0.237727
8620.000000;0.237703
8619.000000;0.237611
8618.000000;0.237347
8617.000000;0.236984
8616.000000;0.236718
8615.000000;0.236620
8614.000000;0.236596
8613.000000;0.236543
8612.000000;0.236425
8611.000000;0.236225
8610.000000;0.235956
8609.000000;0.235709
8608.000000;0.235560
8607.000000;0.235447
8606.000000;0.235255
8605.000000;0.235001
8604.000000;0.234808
8603.000000;0.234718
8602.000000;0.234655
8601.000000;0.234546
8600.000000;0.234365
8599.000000;0.234112
8598.000000;0.233834
8597.000000;0.233648
8596.000000;0.233625
8595.000000;0.233678
8594.000000;0.233668
8593.000000;0.233573
8592.000000;0.233466
8591.000000;0.233376
8590.000000;0.233276
8589.000000;0.233174
8588.000000;0.233095
8587.000000;0.233023
8586.000000;0.232932
8585.000000;0.232839
8584.000000;0.232726
8583.000000;0.232498
8582.000000;0.232130
8581.000000;0.231783
8580.000000;0.231639
8579.000000;0.231669
8578.000000;0.231691
8577.000000;0.231613
8576.000000;0.231476
8575.000000;0.231305
8574.000000;0.231071
8573.000000;0.230798
8572.000000;0.230574
8571.000000;0.230440
8570.000000;0.230366
8569.000000;0.230323
8568.000000;0.230277
8567.000000;0.230153
8566.000000;0.229900
8565.000000;0.229600
8564.000000;0.229392
8563.000000;0.229306
8562.000000;0.229252
8561.000000;0.229168
8560.000000;0.229067
8559.000000;0.228960
8558.000000;0.228818
8557.000000;0.228622
8556.000000;0.228387
8555.000000;0.228132
8554.000000;0.227885
8553.000000;0.227686
8552.000000;0.227543
8551.000000;0.227409
8550.000000;0.227244
8549.000000;0.227072
8548.000000;0.226913
8547.000000;0.226733
8546.000000;0.226519
8545.000000;0.226350
8544.000000;0.226314
8543.000000;0.226376
8542.000000;0.226423
8541.000000;0.226378
8540.000000;0.226232
8539.000000;0.225997
8538.000000;0.225707
8537.000000;0.225413
8536.000000;0.225136
8535.000000;0.224864
8534.000000;0.224633
8533.000000;0.224527
8532.000000;0.224560
8531.000000;0.224613
8530.000000;0.224577
8529.000000;0.224464
8528.000000;0.224322
8527.000000;0.224127
8526.000000;0.223846
8525.000000;0.223548
8524.000000;0.223332
8523.000000;0.223197
8522.000000;0.223058
8521.000000;0.222862
8520.000000;0.222609
8519.000000;0.222314
8518.000000;0.222016
8517.000000;0.221777
8516.000000;0.221629
8515.000000;0.221551
8514.000000;0.221524
8513.000000;0.221540
8512.000000;0.221533
8511.000000;0.221392
8510.000000;0.221102
8509.000000;0.220778
8508.000000;0.220506
8507.000000;0.220257
8506.000000;0.220003
8505.000000;0.219814
8504.000000;0.219748
8503.000000;0.219729
8502.000000;0.219638
8501.000000;0.219456
8500.000000;0.219245
8499.000000;0.219065
8498.000000;0.218975
8497.000000;0.219012
8496.000000;0.219097
8495.000000;0.219058
8494.000000;0.218817
8493.000000;0.218481
8492.000000;0.218198
8491.000000;0.218007
8490.000000;0.217889
8489.000000;0.217825
8488.000000;0.217748
8487.000000;0.217548
8486.000000;0.217238
8485.000000;0.216997
8484.000000;0.216944
8483.000000;0.216980
8482.000000;0.216953
8481.000000;0.216858
8480.000000;0.216772
8479.000000;0.216693
8478.000000;0.216579
8477.000000;0.216451
8476.000000;0.216334
8475.000000;0.216179
8474.000000;0.215948
8473.000000;0.215699
8472.000000;0.215488
8471.000000;0.215274
8470.000000;0.215026
8469.000000;0.214832
8468.000000;0.214778
8467.000000;0.214800
8466.000000;0.214769
8465.000000;0.214661
8464.000000;0.214542
8463.000000;0.214444
8462.000000;0.214358
8461.000000;0.214283
8460.000000;0.214199
8459.000000;0.214031
8458.000000;0.213767
8457.000000;0.213512
8456.000000;0.213352
8455.000000;0.213234
8454.000000;0.213073
8453.000000;0.212894
8452.000000;0.212775
8451.000000;0.212704
8450.000000;0.212628
8449.000000;0.212545
8448.000000;0.212476
8447.000000;0.212384
8446.000000;0.212240
8445.000000;0.212082
8444.000000;0.211950
8443.000000;0.211814
8442.000000;0.211661
8441.000000;0.211557
8440.000000;0.211521
8439.000000;0.211447
8438.000000;0.211247
8437.000000;0.210991
8436.000000;0.210792
8435.000000;0.210637
8434.000000;0.210450
8433.000000;0.210235
8432.000000;0.210050
8431.000000;0.209903
8430.000000;0.209777
8429.000000;0.209703
8428.000000;0.209677
8427.000000;0.209601
8426.000000;0.209398
8425.000000;0.209128
8424.000000;0.208892
8423.000000;0.208682
8422.000000;0.208455
8421.000000;0.208258
8420.000000;0.208158
8419.000000;0.208112
8418.000000;0.208021
8417.000000;0.207874
8416.000000;0.207723
8415.000000;0.207579
8414.000000;0.207414
8413.000000;0.207241
8412.000000;0.207089
8411.000000;0.206945
8410.000000;0.206803
8409.000000;0.206714
8408.000000;0.206702
8407.000000;0.206692
8406.000000;0.206607
8405.000000;0.206476
8404.000000;0.206362
8403.000000;0.206245
8402.000000;0.206060
8401.000000;0.205797
8400.000000;0.205497
8399.000000;0.205216
8398.000000;0.205037
8397.000000;0.205029
8396.000000;0.205132
8395.000000;0.205167
8394.000000;0.205043
8393.000000;0.204854
8392.000000;0.204697
8391.000000;0.204527
8390.000000;0.204268
8389.000000;0.203971
8388.000000;0.203721
8387.000000;0.203506
8386.000000;0.203294
8385.000000;0.203134
8384.000000;0.203061
8383.000000;0.202995
8382.000000;0.202861
8381.000000;0.202718
8380.000000;0.202633
8379.000000;0.202535
8378.000000;0.202335
8377.000000;0.202104
8376.000000;0.201988
8375.000000;0.201985
8374.000000;0.201965
8373.000000;0.201879
8372.000000;0.201796
8371.000000;0.201758
8370.000000;0.201713
8369.000000;0.201591
8368.000000;0.201363
8367.000000;0.201054
8366.000000;0.200761
8365.000000;0.200608
8364.000000;0.200593
8363.000000;0.200551
8362.000000;0.200343
8361.000000;0.200021
8360.000000;0.199724
8359.000000;0.199494
8358.000000;0.199294
8357.000000;0.199125
8356.000000;0.199013
8355.000000;0.198925
8354.000000;0.198818
8353.000000;0.198715
8352.000000;0.198631
8351.000000;0.198493
8350.000000;0.198240
8349.000000;0.197945
8348.000000;0.197723
8347.000000;0.197571
8346.000000;0.197395
8345.000000;0.197149
8344.000000;0.196870
8343.000000;0.196611
8342.000000;0.196431
8341.000000;0.196383
8340.000000;0.196417
8339.000000;0.196378
8338.000000;0.196175
8337.000000;0.195911
8336.000000;0.195736
8335.000000;0.195641
8334.000000;0.195503
8333.000000;0.195268
8332.000000;0.194988
8331.000000;0.194730
8330.000000;0.194529
8329.000000;0.194398
8328.000000;0.194302
8327.000000;0.194165
8326.000000;0.193977
8325.000000;0.193827
8324.000000;0.193758
8323.000000;0.193675
8322.000000;0.193487
8321.000000;0.193265
8320.000000;0.193137
8319.000000;0.193098
8318.000000;0.193036
8317.000000;0.192883
8316.000000;0.192664
8315.000000;0.192422
8314.000000;0.192189
8313.000000;0.192005
8312.000000;0.191861
8311.000000;0.191691
8310.000000;0.191467
8309.000000;0.191245
8308.000000;0.191056
8307.000000;0.190840
8306.000000;0.190556
8305.000000;0.190278
8304.000000;0.190087
8303.000000;0.189949
8302.000000;0.189792
8301.000000;0.189629
8300.000000;0.189508
8299.000000;0.189410
8298.000000;0.189296
8297.000000;0.189180
8296.000000;0.189082
8295.000000;0.188957
8294.000000;0.188780
8293.000000;0.188610
8292.000000;0.188487
8291.000000;0.188355
8290.000000;0.188143
8289.000000;0.187883
8288.000000;0.187624
8287.000000;0.187347
8286.000000;0.187038
8285.000000;0.186772
8284.000000;0.186605
8283.000000;0.186474
8282.000000;0.186295
8281.000000;0.186095
8280.000000;0.185934
8279.000000;0.185795
8278.000000;0.185642
8277.000000;0.185514
8276.000000;0.185431
8275.000000;0.185304
8274.000000;0.185051
8273.000000;0.184746
8272.000000;0.184525
8271.000000;0.184391
8270.000000;0.184240
8269.000000;0.184008
8268.000000;0.183705
8267.000000;0.183360
8266.000000;0.183048
8265.000000;0.182882
8264.000000;0.182880
8263.000000;0.182896
8262.000000;0.182804
8261.000000;0.182657
8260.000000;0.182577
8259.000000;0.182549
8258.000000;0.182481
8257.000000;0.182361
8256.000000;0.182222
8255.000000;0.182018
8254.000000;0.181692
8253.000000;0.181337
8252.000000;0.181103
8251.000000;0.180983
8250.000000;0.180827
8249.000000;0.180578
8248.000000;0.180335
8247.000000;0.180185
8246.000000;0.180086
8245.000000;0.179967
8244.000000;0.179814
8243.000000;0.179644
8242.000000;0.179459
8241.000000;0.179254
8240.000000;0.179034
8239.000000;0.178811
8238.000000;0.178621
8237.000000;0.178510
8236.000000;0.178461
8235.000000;0.178388
8234.000000;0.178223
8233.000000;0.177979
8232.000000;0.177695
8231.000000;0.177375
8230.000000;0.177050
8229.000000;0.176819
8228.000000;0.176734
8227.000000;0.176719
8226.000000;0.176662
8225.000000;0.176534
8224.000000;0.176356
8223.000000;0.176124
8222.000000;0.175847
8221.000000;0.175589
8220.000000;0.175383
8219.000000;0.175166
8218.000000;0.174874
8217.000000;0.174556
8216.000000;0.174301
8215.000000;0.174127
8214.000000;0.174004
8213.000000;0.173933
8212.000000;0.173902
8211.000000;0.173834
8210.000000;0.173673
8209.000000;0.173469
8208.000000;0.173297
8207.000000;0.173146
8206.000000;0.172965
8205.000000;0.172751
8204.000000;0.172530
8203.000000;0.172296
8202.000000;0.172045
8201.000000;0.171821
8200.000000;0.171651
8199.000000;0.171492
8198.000000;0.171311
8197.000000;0.171154
8196.000000;0.171053
8195.000000;0.170948
8194.000000;0.170772
8193.000000;0.170562
8192.000000;0.170383
8191.000000;0.170235
8190.000000;0.170098
8189.000000;0.169994
8188.000000;0.169921
8187.000000;0.169794
8186.000000;0.169552
8185.000000;0.169255
8184.000000;0.168983
8183.000000;0.168726
8182.000000;0.168450
8181.000000;0.168204
8180.000000;0.168048
8179.000000;0.167942
8178.000000;0.167818
8177.000000;0.167682
8176.000000;0.167563
8175.000000;0.167414
8174.000000;0.167177
8173.000000;0.166891
8172.000000;0.166650
8171.000000;0.166483
8170.000000;0.166377
8169.000000;0.166336
8168.000000;0.166332
8167.000000;0.166258
8166.000000;0.166035
8165.000000;0.165721
8164.000000;0.165436
8163.000000;0.165222
8162.000000;0.165055
8161.000000;0.164932
8160.000000;0.164847
8159.000000;0.164747
8158.000000;0.164589
8157.000000;0.164401
8156.000000;0.164214
8155.000000;0.163994
8154.000000;0.163727
8153.000000;0.163493
8152.000000;0.163358
8151.000000;0.163261
8150.000000;0.163099
8149.000000;0.162873
8148.000000;0.162637
8147.000000;0.162387
8146.000000;0.162091
8145.000000;0.161797
8144.000000;0.161595
8143.000000;0.161498
8142.000000;0.161446
8141.000000;0.161381
8140.000000;0.161250
8139.000000;0.161001
8138.000000;0.160652
8137.000000;0.160319
8136.000000;0.160100
8135.000000;0.159966
8134.000000;0.159836
8133.000000;0.159697
8132.000000;0.159571
8131.000000;0.159434
8130.000000;0.159269
8129.000000;0.159124
8128.000000;0.159033
8127.000000;0.158940
8126.000000;0.158768
8125.000000;0.158526
8124.000000;0.158252
8123.000000;0.157948
8122.000000;0.157632
8121.000000;0.157391
8120.000000;0.157269
8119.000000;0.157180
8118.000000;0.157020
8117.000000;0.156814
8116.000000;0.156633
8115.000000;0.156467
8114.000000;0.156255
8113.000000;0.156001
8112.000000;0.155744
8111.000000;0.155483
8110.000000;0.155218
8109.000000;0.155014
8108.000000;0.154907
8107.000000;0.154821
8106.000000;0.154667
8105.000000;0.154465
8104.000000;0.154276
8103.000000;0.154076
8102.000000;0.153822
8101.000000;0.153571
8100.000000;0.153409
8099.000000;0.153312
8098.000000;0.153191
8097.000000;0.153034
8096.000000;0.152890
8095.000000;0.152746
8094.000000;0.152544
8093.000000;0.152296
8092.000000;0.152074
8091.000000;0.151894
8090.000000;0.151699
8089.000000;0.151464
8088.000000;0.151211
8087.000000;0.150955
8086.000000;0.150694
8085.000000;0.150446
8084.000000;0.150236
8083.000000;0.150063
8082.000000;0.149924
8081.000000;0.149835
8080.000000;0.149769
8079.000000;0.149644
8078.000000;0.149418
8077.000000;0.149155
8076.000000;0.148919
8075.000000;0.148684
8074.000000;0.148425
8073.000000;0.148216
8072.000000;0.148139
8071.000000;0.148129
8070.000000;0.148028
8069.000000;0.147761
8068.000000;0.147388
8067.000000;0.147014
8066.000000;0.146720
8065.000000;0.146542
8064.000000;0.146441
8063.000000;0.146327
8062.000000;0.146165
8061.000000;0.146003
8060.000000;0.145884
8059.000000;0.145772
8058.000000;0.145639
8057.000000;0.145519
8056.000000;0.145410
8055.000000;0.145230
8054.000000;0.144944
8053.000000;0.144652
8052.000000;0.144451
8051.000000;0.144286
8050.000000;0.144055
8049.000000;0.143774
8048.000000;0.143540
8047.000000;0.143379
8046.000000;0.143259
8045.000000;0.143166
8044.000000;0.143089
8043.000000;0.142960
8042.000000;0.142737
8041.000000;0.142490
8040.000000;0.142306
8039.000000;0.142148
8038.000000;0.141923
8037.000000;0.141635
8036.000000;0.141382
8035.000000;0.141214
8034.000000;0.141088
8033.000000;0.140945
8032.000000;0.140753
8031.000000;0.140506
8030.000000;0.140250
8029.000000;0.140064
8028.000000;0.139946
8027.000000;0.139795
8026.000000;0.139565
8025.000000;0.139341
8024.000000;0.139196
8023.000000;0.139046
8022.000000;0.138776
8021.000000;0.138425
8020.000000;0.138121
8019.000000;0.137904
8018.000000;0.137727
8017.000000;0.137572
8016.000000;0.137427
8015.000000;0.137225
8014.000000;0.136941
8013.000000;0.136698
8012.000000;0.136636
8011.000000;0.136691
8010.000000;0.136652
8009.000000;0.136420
8008.000000;0.136096
8007.000000;0.135807
8006.000000;0.135575
8005.000000;0.135367
8004.000000;0.135161
8003.000000;0.134937
8002.000000;0.134689
8001.000000;0.134458
8000.000000;0.134284
7999.000000;0.134141
7998.000000;0.133974
7997.000000;0.133788
7996.000000;0.133626
7995.000000;0.133487
7994.000000;0.133333
7993.000000;0.133171
7992.000000;0.133035
7991.000000;0.132918
7990.000000;0.132774
7989.000000;0.132594
7988.000000;0.132394
7987.000000;0.132175
7986.000000;0.131930
7985.000000;0.131688
7984.000000;0.131479
7983.000000;0.131284
7982.000000;0.131080
7981.000000;0.130890
7980.000000;0.130735
7979.000000;0.130585
7978.000000;0.130400
7977.000000;0.130195
7976.000000;0.129997
7975.000000;0.129784
7974.000000;0.129536
7973.000000;0.129296
7972.000000;0.129117
7971.000000;0.128970
7970.000000;0.128801
7969.000000;0.128612
7968.000000;0.128435
7967.000000;0.128242
7966.000000;0.127974
7965.000000;0.127642
7964.000000;0.127318
7963.000000;0.127057
7962.000000;0.126877
7961.000000;0.126778
7960.000000;0.126720
7959.000000;0.126617
7958.000000;0.126423
7957.000000;0.126182
7956.000000;0.125960
7955.000000;0.125757
7954.000000;0.125546
7953.000000;0.125340
7952.000000;0.125156
7951.000000;0.124959
7950.000000;0.124725
7949.000000;0.124498
7948.000000;0.124324
7947.000000;0.124169
7946.000000;0.123968
7945.000000;0.123724
7944.000000;0.123481
7943.000000;0.123249
7942.000000;0.123023
7941.000000;0.122842
7940.000000;0.122729
7939.000000;0.122631
7938.000000;0.122480
7937.000000;0.122287
7936.000000;0.122105
7935.000000;0.121945
7934.000000;0.121776
7933.000000;0.121593
7932.000000;0.121399
7931.000000;0.121169
7930.000000;0.120900
7929.000000;0.120659
7928.000000;0.120509
7927.000000;0.120426
7926.000000;0.120340
7925.000000;0.120237
7924.000000;0.120135
7923.000000;0.120010
7922.000000;0.119821
7921.000000;0.119569
7920.000000;0.119275
7919.000000;0.118931
7918.000000;0.118545
7917.000000;0.118198
7916.000000;0.117976
7915.000000;0.117865
7914.000000;0.117776
7913.000000;0.117653
7912.000000;0.117499
7911.000000;0.117336
7910.000000;0.117191
7909.000000;0.117094
7908.000000;0.117024
7907.000000;0.116910
7906.000000;0.116712
7905.000000;0.116469
7904.000000;0.116222
7903.000000;0.115945
7902.000000;0.115620
7901.000000;0.115312
7900.000000;0.115104
7899.000000;0.114998
7898.000000;0.114945
7897.000000;0.114914
7896.000000;0.114874
7895.000000;0.114754
7894.000000;0.114514
7893.000000;0.114219
7892.000000;0.113969
7891.000000;0.113788
7890.000000;0.113642
7889.000000;0.113512
7888.000000;0.113387
7887.000000;0.113228
7886.000000;0.113021
7885.000000;0.112824
7884.000000;0.112686
7883.000000;0.112559
7882.000000;0.112367
7881.000000;0.112129
7880.000000;0.111924
7879.000000;0.111773
7878.000000;0.111616
7877.000000;0.111405
7876.000000;0.111138
7875.000000;0.110845
7874.000000;0.110575
7873.000000;0.110386
7872.000000;0.110286
7871.000000;0.110203
7870.000000;0.110065
7869.000000;0.109871
7868.000000;0.109663
7867.000000;0.109460
7866.000000;0.109270
7865.000000;0.109113
7864.000000;0.108976
7863.000000;0.108803
7862.000000;0.108566
7861.000000;0.108319
7860.000000;0.108127
7859.000000;0.107990
7858.000000;0.107871
7857.000000;0.107758
7856.000000;0.107637
7855.000000;0.107475
7854.000000;0.107283
7853.000000;0.107130
7852.000000;0.107058
7851.000000;0.107008
7850.000000;0.106901
7849.000000;0.106719
7848.000000;0.106486
7847.000000;0.106217
7846.000000;0.105937
7845.000000;0.105706
7844.000000;0.105550
7843.000000;0.105419
7842.000000;0.105267
7841.000000;0.105112
7840.000000;0.104970
7839.000000;0.104811
7838.000000;0.104625
7837.000000;0.104470
7836.000000;0.104378
7835.000000;0.104283
7834.000000;0.104109
7833.000000;0.103882
7832.000000;0.103670
7831.000000;0.103480
7830.000000;0.103286
7829.000000;0.103103
7828.000000;0.102968
7827.000000;0.102875
7826.000000;0.102789
7825.000000;0.102690
7824.000000;0.102553
7823.000000;0.102349
7822.000000;0.102106
7821.000000;0.101916
7820.000000;0.101824
7819.000000;0.101763
7818.000000;0.101651
7817.000000;0.101502
7816.000000;0.101357
7815.000000;0.101207
7814.000000;0.101031
7813.000000;0.100862
7812.000000;0.100731
7811.000000;0.100599
7810.000000;0.100434
7809.000000;0.100276
7808.000000;0.100157
7807.000000;0.100018
7806.000000;0.099785
7805.000000;0.099494
7804.000000;0.099249
7803.000000;0.099103
7802.000000;0.099046
7801.000000;0.099052
7800.000000;0.099080
7799.000000;0.099060
7798.000000;0.098959
7797.000000;0.098823
7796.000000;0.098693
7795.000000;0.098530
7794.000000;0.098304
7793.000000;0.098076
7792.000000;0.097926
7791.000000;0.097849
7790.000000;0.097789
7789.000000;0.097737
7788.000000;0.097692
7787.000000;0.097597
7786.000000;0.097394
7785.000000;0.097127
7784.000000;0.096891
7783.000000;0.096709
7782.000000;0.096526
7781.000000;0.096308
7780.000000;0.096081
7779.000000;0.095878
7778.000000;0.095714
7777.000000;0.095588
7776.000000;0.095482
7775.000000;0.095369
7774.000000;0.095268
7773.000000;0.095223
7772.000000;0.095218
7771.000000;0.095155
7770.000000;0.094988
7769.000000;0.094788
7768.000000;0.094649
7767.000000;0.094582
7766.000000;0.094553
7765.000000;0.094553
7764.000000;0.094554
7763.000000;0.094473
7762.000000;0.094267
7761.000000;0.094013
7760.000000;0.093823
7759.000000;0.093709
7758.000000;0.093611
7757.000000;0.093502
7756.000000;0.093394
7755.000000;0.093274
7754.000000;0.093120
7753.000000;0.092946
7752.000000;0.092781
7751.000000;0.092625
7750.000000;0.092475
7749.000000;0.092356
7748.000000;0.092275
7747.000000;0.092199
7746.000000;0.092113
7745.000000;0.092049
7744.000000;0.092005
7743.000000;0.091912
7742.000000;0.091732
7741.000000;0.091529
7740.000000;0.091380
7739.000000;0.091280
7738.000000;0.091198
7737.000000;0.091148
7736.000000;0.091124
7735.000000;0.091053
7734.000000;0.090892
7733.000000;0.090722
7732.000000;0.090646
7731.000000;0.090654
7730.000000;0.090652
7729.000000;0.090589
7728.000000;0.090473
7727.000000;0.090311
7726.000000;0.090124
7725.000000;0.089980
7724.000000;0.089933
7723.000000;0.089947
7722.000000;0.089949
7721.000000;0.089921
7720.000000;0.089883
7719.000000;0.089825
7718.000000;0.089732
7717.000000;0.089628
7716.000000;0.089534
7715.000000;0.089424
7714.000000;0.089285
7713.000000;0.089160
7712.000000;0.089078
7711.000000;0.088992
7710.000000;0.088857
7709.000000;0.088720
7708.000000;0.088657
7707.000000;0.088662
7706.000000;0.088680
7705.000000;0.088695
7704.000000;0.088706
7703.000000;0.088671
7702.000000;0.088561
7701.000000;0.088427
7700.000000;0.088350
7699.000000;0.088323
7698.000000;0.088276
7697.000000;0.088169
7696.000000;0.088013
7695.000000;0.087837
7694.000000;0.087681
7693.000000;0.087604
7692.000000;0.087620
7691.000000;0.087653
7690.000000;0.087624
7689.000000;0.087540
7688.000000;0.087466
7687.000000;0.087434
7686.000000;0.087438
7685.000000;0.087476
7684.000000;0.087534
7683.000000;0.087561
7682.000000;0.087518
7681.000000;0.087430
7680.000000;0.087340
7679.000000;0.087256
7678.000000;0.087180
7677.000000;0.087141
7676.000000;0.087138
7675.000000;0.087114
7674.000000;0.087026
7673.000000;0.086905
7672.000000;0.086807
7671.000000;0.086747
7670.000000;0.086725
7669.000000;0.086747
7668.000000;0.086783
7667.000000;0.086754
7666.000000;0.086636
7665.000000;0.086517
7664.000000;0.086480
7663.000000;0.086491
7662.000000;0.086470
7661.000000;0.086423
7660.000000;0.086420
7659.000000;0.086484
7658.000000;0.086567
7657.000000;0.086606
7656.000000;0.086559
7655.000000;0.086423
7654.000000;0.086277
7653.000000;0.086247
7652.000000;0.086363
7651.000000;0.086497
7650.000000;0.086496
7649.000000;0.086352
7648.000000;0.086176
7647.000000;0.086071
7646.000000;0.086072
7645.000000;0.086157
7644.000000;0.086254
7643.000000;0.086277
7642.000000;0.086217
7641.000000;0.086167
7640.000000;0.086207
7639.000000;0.086305
7638.000000;0.086385
7637.000000;0.086418
7636.000000;0.086410
7635.000000;0.086352
7634.000000;0.086256
7633.000000;0.086191
7632.000000;0.086219
7631.000000;0.086326
7630.000000;0.086458
7629.000000;0.086571
7628.000000;0.086617
7627.000000;0.086561
7626.000000;0.086453
7625.000000;0.086419
7624.000000;0.086515
7623.000000;0.086643
7622.000000;0.086694
7621.000000;0.086688
7620.000000;0.086714
7619.000000;0.086790
7618.000000;0.086871
7617.000000;0.086943
7616.000000;0.087030
7615.000000;0.087122
7614.000000;0.087186
7613.000000;0.087208
7612.000000;0.087181
7611.000000;0.087097
7610.000000;0.086993
7609.000000;0.086957
7608.000000;0.087027
7607.000000;0.087130
7606.000000;0.087183
7605.000000;0.087205
7604.000000;0.087257
7603.000000;0.087333
7602.000000;0.087382
7601.000000;0.087413
7600.000000;0.087481
7599.000000;0.087611
7598.000000;0.087773
7597.000000;0.087930
7596.000000;0.088052
7595.000000;0.088123
7594.000000;0.088158
7593.000000;0.088202
7592.000000;0.088259
7591.000000;0.088284
7590.000000;0.088267
7589.000000;0.088270
7588.000000;0.088345
7587.000000;0.088464
7586.000000;0.088575
7585.000000;0.088687
7584.000000;0.088832
7583.000000;0.088998
7582.000000;0.089138
7581.000000;0.089228
7580.000000;0.089262
7579.000000;0.089252
7578.000000;0.089253
7577.000000;0.089338
7576.000000;0.089515
7575.000000;0.089713
7574.000000;0.089877
7573.000000;0.090015
7572.000000;0.090134
7571.000000;0.090203
7570.000000;0.090230
7569.000000;0.090289
7568.000000;0.090430
7567.000000;0.090610
7566.000000;0.090766
7565.000000;0.090892
7564.000000;0.091010
7563.000000;0.091129
7562.000000;0.091264
7561.000000;0.091430
7560.000000;0.091594
7559.000000;0.091694
7558.000000;0.091743
7557.000000;0.091828
7556.000000;0.091983
7555.000000;0.092143
7554.000000;0.092264
7553.000000;0.092392
7552.000000;0.092567
7551.000000;0.092750
7550.000000;0.092900
7549.000000;0.093045
7548.000000;0.093206
7547.000000;0.093352
7546.000000;0.093481
7545.000000;0.093662
7544.000000;0.093928
7543.000000;0.094204
7542.000000;0.094413
7541.000000;0.094576
7540.000000;0.094739
7539.000000;0.094884
7538.000000;0.094979
7537.000000;0.095052
7536.000000;0.095150
7535.000000;0.095265
7534.000000;0.095387
7533.000000;0.095547
7532.000000;0.095759
7531.000000;0.095968
7530.000000;0.096132
7529.000000;0.096284
7528.000000;0.096463
7527.000000;0.096661
7526.000000;0.096867
7525.000000;0.097105
7524.000000;0.097351
7523.000000;0.097516
7522.000000;0.097575
7521.000000;0.097639
7520.000000;0.097827
7519.000000;0.098120
7518.000000;0.098424
7517.000000;0.098687
7516.000000;0.098911
7515.000000;0.099093
7514.000000;0.099253
7513.000000;0.099453
7512.000000;0.099717
7511.000000;0.099988
7510.000000;0.100220
7509.000000;0.100442
7508.000000;0.100686
7507.000000;0.100919
7506.000000;0.101117
7505.000000;0.101324
7504.000000;0.101580
7503.000000;0.101841
7502.000000;0.102047
7501.000000;0.102220
7500.000000;0.102404
7499.000000;0.102599
7498.000000;0.102791
7497.000000;0.102999
7496.000000;0.103240
7495.000000;0.103484
7494.000000;0.103711
7493.000000;0.103947
7492.000000;0.104205
7491.000000;0.104444
7490.000000;0.104636
7489.000000;0.104818
7488.000000;0.105022
7487.000000;0.105232
7486.000000;0.105441
7485.000000;0.105681
7484.000000;0.105949
7483.000000;0.106187
7482.000000;0.106382
7481.000000;0.106596
7480.000000;0.106855
7479.000000;0.107095
7478.000000;0.107271
7477.000000;0.107429
7476.000000;0.107621
7475.000000;0.107821
7474.000000;0.108008
7473.000000;0.108226
7472.000000;0.108498
7471.000000;0.108773
7470.000000;0.109006
7469.000000;0.109232
7468.000000;0.109478
7467.000000;0.109706
7466.000000;0.109907
7465.000000;0.110151
7464.000000;0.110487
7463.000000;0.110850
7462.000000;0.111154
7461.000000;0.111405
7460.000000;0.111639
7459.000000;0.111845
7458.000000;0.112018
7457.000000;0.112206
7456.000000;0.112444
7455.000000;0.112693
7454.000000;0.112912
7453.000000;0.113125
7452.000000;0.113361
7451.000000;0.113594
7450.000000;0.113802
7449.000000;0.114018
7448.000000;0.114267
7447.000000;0.114520
7446.000000;0.114755
7445.000000;0.115004
7444.000000;0.115277
7443.000000;0.115520
7442.000000;0.115709
7441.000000;0.115901
7440.000000;0.116141
7439.000000;0.116385
7438.000000;0.116588
7437.000000;0.116786
7436.000000;0.117028
7435.000000;0.117293
7434.000000;0.117535
7433.000000;0.117750
7432.000000;0.117946
7431.000000;0.118121
7430.000000;0.118297
7429.000000;0.118516
7428.000000;0.118774
7427.000000;0.119018
7426.000000;0.119230
7425.000000;0.119451
7424.000000;0.119708
7423.000000;0.119979
7422.000000;0.120254
7421.000000;0.120566
7420.000000;0.120903
7419.000000;0.121178
7418.000000;0.121329
7417.000000;0.121410
7416.000000;0.121517
7415.000000;0.121684
7414.000000;0.121888
7413.000000;0.122097
7412.000000;0.122267
7411.000000;0.122398
7410.000000;0.122575
7409.000000;0.122868
7408.000000;0.123188
7407.000000;0.123362
7406.000000;0.123372
7405.000000;0.123408
7404.000000;0.123627
7403.000000;0.123964
7402.000000;0.124283
7401.000000;0.124573
7400.000000;0.124882
7399.000000;0.125211
7398.000000;0.125549
7397.000000;0.125857
7396.000000;0.126050
7395.000000;0.126128
7394.000000;0.126205
7393.000000;0.126311
7392.000000;0.126277
7391.000000;0.126009
7390.000000;0.125779
7389.000000;0.125969
7388.000000;0.126590
7387.000000;0.127319
7386.000000;0.127916
7385.000000;0.128357
7384.000000;0.128645
7383.000000;0.128762
7382.000000;0.128802
7381.000000;0.128985
7380.000000;0.129382
7379.000000;0.129787
7378.000000;0.129956
7377.000000;0.129878
7376.000000;0.129796
7375.000000;0.129984
7374.000000;0.130493
7373.000000;0.131114
7372.000000;0.131531
7371.000000;0.131546
7370.000000;0.131294
7369.000000;0.131107
7368.000000;0.131168
7367.000000;0.131499
7366.000000;0.132109
7365.000000;0.132830
7364.000000;0.133262
7363.000000;0.133184
7362.000000;0.132860
7361.000000;0.132837
7360.000000;0.133416
7359.000000;0.134350
7358.000000;0.135069
7357.000000;0.135209
7356.000000;0.134921
7355.000000;0.134711
7354.000000;0.135031
7353.000000;0.135878
7352.000000;0.136769
7351.000000;0.137182
7350.000000;0.137082
7349.000000;0.136936
7348.000000;0.137147
7347.000000;0.137609
7346.000000;0.137908
7345.000000;0.137886
7344.000000;0.137823
7343.000000;0.138117
7342.000000;0.138863
7341.000000;0.139783
7340.000000;0.140513
7339.000000;0.140929
7338.000000;0.141215
7337.000000;0.141520
7336.000000;0.141776
7335.000000;0.141906
7334.000000;0.142041
7333.000000;0.142434
7332.000000;0.143134
7331.000000;0.143793
7330.000000;0.143989
7329.000000;0.143802
7328.000000;0.143834
7327.000000;0.144413
7326.000000;0.145139
7325.000000;0.145502
7324.000000;0.145474
7323.000000;0.145421
7322.000000;0.145731
7321.000000;0.146537
7320.000000;0.147601
7319.000000;0.148514
7318.000000;0.149192
7317.000000;0.149922
7316.000000;0.150832
7315.000000;0.151619
7314.000000;0.151922
7313.000000;0.151948
7312.000000;0.152390
7311.000000;0.153543
7310.000000;0.154820
7309.000000;0.155404
7308.000000;0.155185
7307.000000;0.154791
7306.000000;0.154899
7305.000000;0.155781
7304.000000;0.157230
7303.000000;0.158578
7302.000000;0.159194
7301.000000;0.159103
7300.000000;0.159025
7299.000000;0.159706
7298.000000;0.161170
7297.000000;0.162710
7296.000000;0.163594
7295.000000;0.163832
7294.000000;0.164122
7293.000000;0.165037
7292.000000;0.166505
7291.000000;0.168047
7290.000000;0.169322
7289.000000;0.170416
7288.000000;0.171591
7287.000000;0.172846
7286.000000;0.173901
7285.000000;0.174680
7284.000000;0.175461
7283.000000;0.176420
7282.000000;0.177440
7281.000000;0.178376
7280.000000;0.179268
7279.000000;0.180264
7278.000000;0.181410
7277.000000;0.182669
7276.000000;0.184037
7275.000000;0.185475
7274.000000;0.186859
7273.000000;0.188156
7272.000000;0.189489
7271.000000;0.190923
7270.000000;0.192355
7269.000000;0.193720
7268.000000;0.195114
7267.000000;0.196634
7266.000000;0.198235
7265.000000;0.199871
7264.000000;0.201605
7263.000000;0.203467
7262.000000;0.205323
7261.000000;0.207035
7260.000000;0.208616
7259.000000;0.210144
7258.000000;0.211680
7257.000000;0.213317
7256.000000;0.215128
7255.000000;0.217070
7254.000000;0.219107
7253.000000;0.221295
7252.000000;0.223555
7251.000000;0.225643
7250.000000;0.227437
7249.000000;0.229147
7248.000000;0.231225
7247.000000;0.233843
7246.000000;0.236562
7245.000000;0.238798
7244.000000;0.240573
7243.000000;0.242517
7242.000000;0.245048
7241.000000;0.247883
7240.000000;0.250493
7239.000000;0.252698
7238.000000;0.254764
7237.000000;0.257175
7236.000000;0.260110
7235.000000;0.263177
7234.000000;0.265919
7233.000000;0.268387
7232.000000;0.270946
7231.000000;0.273815
7230.000000;0.276843
7229.000000;0.279708
7228.000000;0.282366
7227.000000;0.285056
7226.000000;0.287936
7225.000000;0.290967
7224.000000;0.294070
7223.000000;0.297178
7222.000000;0.300169
7221.000000;0.303067
7220.000000;0.306154
7219.000000;0.309617
7218.000000;0.313264
7217.000000;0.316822
7216.000000;0.320252
7215.000000;0.323637
7214.000000;0.327039
7213.000000;0.330554
7212.000000;0.334283
7211.000000;0.338230
7210.000000;0.342314
7209.000000;0.346503
7208.000000;0.350832
7207.000000;0.355225
7206.000000;0.359499
7205.000000;0.363657
7204.000000;0.367916
7203.000000;0.372318
7202.000000;0.376589
7201.000000;0.380590
7200.000000;0.384568
7199.000000;0.388771
7198.000000;0.393138
7197.000000;0.397555
7196.000000;0.402118
7195.000000;0.406930
7194.000000;0.411863
7193.000000;0.416770
7192.000000;0.421709
7191.000000;0.426765
7190.000000;0.431840
7189.000000;0.436840
7188.000000;0.441877
7187.000000;0.447084
7186.000000;0.452415
7185.000000;0.457634
7184.000000;0.462497
7183.000000;0.466996
7182.000000;0.471517
7181.000000;0.476615
7180.000000;0.482495
7179.000000;0.488765
7178.000000;0.494831
7177.000000;0.500531
7176.000000;0.506180
7175.000000;0.511976
7174.000000;0.517735
7173.000000;0.523311
7172.000000;0.528878
7171.000000;0.534680
7170.000000;0.540737
7169.000000;0.546968
7168.000000;0.553226
7167.000000;0.559250
7166.000000;0.564977
7165.000000;0.570588
7164.000000;0.576091
7163.000000;0.581203
7162.000000;0.585984
7161.000000;0.591190
7160.000000;0.597498
7159.000000;0.604618
7158.000000;0.611629
7157.000000;0.618043
7156.000000;0.624115
7155.000000;0.630175
7154.000000;0.636276
7153.000000;0.642509
7152.000000;0.648955
7151.000000;0.655435
7150.000000;0.661758
7149.000000;0.668018
7148.000000;0.674271
7147.000000;0.680260
7146.000000;0.685874
7145.000000;0.691610
7144.000000;0.698056
7143.000000;0.704992
7142.000000;0.711550
7141.000000;0.717297
7140.000000;0.722659
7139.000000;0.728275
7138.000000;0.734347
7137.000000;0.740751
7136.000000;0.747296
7135.000000;0.753720
7134.000000;0.759832
7133.000000;0.765792
7132.000000;0.771878
7131.000000;0.778039
7130.000000;0.784048
7129.000000;0.789938
7128.000000;0.795922
7127.000000;0.801981
7126.000000;0.807928
7125.000000;0.813807
7124.000000;0.819797
7123.000000;0.825859
7122.000000;0.831817
7121.000000;0.837623
7120.000000;0.843241
7119.000000;0.848500
7118.000000;0.853467
7117.000000;0.858654
7116.000000;0.864391
7115.000000;0.870260
7114.000000;0.875703
7113.000000;0.880864
7112.000000;0.886257
7111.000000;0.891849
7110.000000;0.897179
7109.000000;0.902257
7108.000000;0.907536
7107.000000;0.913042
7106.000000;0.918371
7105.000000;0.923413
7104.000000;0.928296
7103.000000;0.932909
7102.000000;0.937108
7101.000000;0.941177
7100.000000;0.945535
7099.000000;0.950099
7098.000000;0.954499
7097.000000;0.958808
7096.000000;0.963469
7095.000000;0.968555
7094.000000;0.973675
7093.000000;0.978501
7092.000000;0.982877
7091.000000;0.986594
7090.000000;0.989718
7089.000000;0.992911
7088.000000;0.996775
7087.000000;1.001064
7086.000000;1.005138
7085.000000;1.008887
7084.000000;1.012558
7083.000000;1.016107
7082.000000;1.019422
7081.000000;1.022812
7080.000000;1.026557
7079.000000;1.030312
7078.000000;1.033629
7077.000000;1.036812
7076.000000;1.040426
7075.000000;1.044260
7074.000000;1.047677
7073.000000;1.050727
7072.000000;1.054013
7071.000000;1.057608
7070.000000;1.060991
7069.000000;1.063922
7068.000000;1.066577
7067.000000;1.069017
7066.000000;1.071347
7065.000000;1.074032
7064.000000;1.077182
7063.000000;1.079971
7062.000000;1.081708
7061.000000;1.083028
7060.000000;1.085075
7059.000000;1.087968
7058.000000;1.090924
7057.000000;1.093546
7056.000000;1.095989
7055.000000;1.098176
7054.000000;1.099971
7053.000000;1.101840
7052.000000;1.104233
7051.000000;1.106633
7050.000000;1.108304
7049.000000;1.109625
7048.000000;1.111543
7047.000000;1.114065
7046.000000;1.116419
7045.000000;1.118386
7044.000000;1.120295
7043.000000;1.122032
7042.000000;1.123339
7041.000000;1.124710
7040.000000;1.126757
7039.000000;1.128989
7038.000000;1.130447
7037.000000;1.131316
7036.000000;1.132597
7035.000000;1.134433
7034.000000;1.136086
7033.000000;1.137354
7032.000000;1.138690
7031.000000;1.140046
7030.000000;1.140946
7029.000000;1.141609
7028.000000;1.142760
7027.000000;1.144362
7026.000000;1.145699
7025.000000;1.146668
7024.000000;1.147831
7023.000000;1.149261
7022.000000;1.150430
7021.000000;1.151163
7020.000000;1.151664
7019.000000;1.151808
7018.000000;1.151498
7017.000000;1.151509
7016.000000;1.152754
7015.000000;1.154887
7014.000000;1.156718
7013.000000;1.157821
7012.000000;1.158646
7011.000000;1.159318
7010.000000;1.159557
7009.000000;1.159575
7008.000000;1.159889
7007.000000;1.160423
7006.000000;1.160826
7005.000000;1.161384
7004.000000;1.162512
7003.000000;1.163710
7002.000000;1.164204
7001.000000;1.164299
7000.000000;1.164802
6999.000000;1.165505
6998.000000;1.165567
6997.000000;1.165116
6996.000000;1.165021
6995.000000;1.165320
6994.000000;1.165283
6993.000000;1.164919
6992.000000;1.165037
6991.000000;1.165782
6990.000000;1.166414
6989.000000;1.166577
6988.000000;1.166603
6987.000000;1.166604
6986.000000;1.166391
6985.000000;1.166213
6984.000000;1.166494
6983.000000;1.166931
6982.000000;1.166915
6981.000000;1.166636
6980.000000;1.166717
6979.000000;1.167008
6978.000000;1.166868
6977.000000;1.166420
6976.000000;1.166339
6975.000000;1.166609
6974.000000;1.166670
6973.000000;1.166599
6972.000000;1.166954
6971.000000;1.167553
6970.000000;1.167607
6969.000000;1.166990
6968.000000;1.166236
6967.000000;1.165432
6966.000000;1.164290
6965.000000;1.163120
6964.000000;1.162551
6963.000000;1.162420
6962.000000;1.162036
6961.000000;1.161430
6960.000000;1.161231
6959.000000;1.161432
6958.000000;1.161369
6957.000000;1.160848
6956.000000;1.160266
6955.000000;1.159709
6954.000000;1.159003
6953.000000;1.158504
6952.000000;1.158777
6951.000000;1.159530
6950.000000;1.159871
6949.000000;1.159556
6948.000000;1.159027
6947.000000;1.158363
6946.000000;1.157228
6945.000000;1.155741
6944.000000;1.154413
6943.000000;1.153336
6942.000000;1.152323
6941.000000;1.151614
6940.000000;1.151570
6939.000000;1.151856
6938.000000;1.151794
6937.000000;1.151276
6936.000000;1.150558
6935.000000;1.149536
6934.000000;1.148137
6933.000000;1.146996
6932.000000;1.146729
6931.000000;1.146879
6930.000000;1.146547
6929.000000;1.145736
6928.000000;1.145084
6927.000000;1.144637
6926.000000;1.143973
6925.000000;1.143182
6924.000000;1.142571
6923.000000;1.141746
6922.000000;1.140125
6921.000000;1.138096
6920.000000;1.136600
6919.000000;1.135871
6918.000000;1.135538
6917.000000;1.135532
6916.000000;1.135864
6915.000000;1.135893
6914.000000;1.134971
6913.000000;1.133497
6912.000000;1.132291
6911.000000;1.131306
6910.000000;1.130064
6909.000000;1.128906
6908.000000;1.128508
6907.000000;1.128478
6906.000000;1.127781
6905.000000;1.126421
6904.000000;1.125374
6903.000000;1.124935
6902.000000;1.124423
6901.000000;1.123517
6900.000000;1.122675
6899.000000;1.122120
6898.000000;1.121451
6897.000000;1.120392
6896.000000;1.119117
6895.000000;1.117826
6894.000000;1.116705
6893.000000;1.116144
6892.000000;1.116231
6891.000000;1.116261
6890.000000;1.115522
6889.000000;1.114284
6888.000000;1.113223
6887.000000;1.112300
6886.000000;1.111122
6885.000000;1.109961
6884.000000;1.109347
6883.000000;1.108970
6882.000000;1.108065
6881.000000;1.106655
6880.000000;1.105377
6879.000000;1.104345
6878.000000;1.103202
6877.000000;1.102061
6876.000000;1.101374
6875.000000;1.101000
6874.000000;1.100393
6873.000000;1.099570
6872.000000;1.098967
6871.000000;1.098479
6870.000000;1.097585
6869.000000;1.096314
6868.000000;1.095176
6867.000000;1.094294
6866.000000;1.093425
6865.000000;1.092649
6864.000000;1.092166
6863.000000;1.091608
6862.000000;1.090421
6861.000000;1.088751
6860.000000;1.087142
6859.000000;1.085588
6858.000000;1.083740
6857.000000;1.081785
6856.000000;1.080241
6855.000000;1.079064
6854.000000;1.077820
6853.000000;1.076526
6852.000000;1.075479
6851.000000;1.074500
6850.000000;1.073176
6849.000000;1.071632
6848.000000;1.070270
6847.000000;1.068978
6846.000000;1.067414
6845.000000;1.065782
6844.000000;1.064484
6843.000000;1.063305
6842.000000;1.061823
6841.000000;1.060308
6840.000000;1.059274
6839.000000;1.058402
6838.000000;1.056841
6837.000000;1.054448
6836.000000;1.051857
6835.000000;1.049502
6834.000000;1.047378
6833.000000;1.045591
6832.000000;1.044273
6831.000000;1.043109
6830.000000;1.041684
6829.000000;1.040095
6828.000000;1.038542
6827.000000;1.036633
6826.000000;1.033923
6825.000000;1.030812
6824.000000;1.028062
6823.000000;1.025687
6822.000000;1.023168
6821.000000;1.020486
6820.000000;1.018083
6819.000000;1.016032
6818.000000;1.014063
6817.000000;1.012184
6816.000000;1.010506
6815.000000;1.008670
6814.000000;1.006263
6813.000000;1.003604
6812.000000;1.001319
6811.000000;0.999346
6810.000000;0.997152
6809.000000;0.994685
6808.000000;0.992301
6807.000000;0.989946
6806.000000;0.987234
6805.000000;0.984184
6804.000000;0.981159
6803.000000;0.978231
6802.000000;0.975305
6801.000000;0.972626
6800.000000;0.970412
6799.000000;0.968202
6798.000000;0.965366
6797.000000;0.962078
6796.000000;0.959073
6795.000000;0.956589
6794.000000;0.954263
6793.000000;0.951885
6792.000000;0.949495
6791.000000;0.946920
6790.000000;0.943967
6789.000000;0.940943
6788.000000;0.938294
6787.000000;0.935871
6786.000000;0.933214
6785.000000;0.930357
6784.000000;0.927682
6783.000000;0.925136
6782.000000;0.922333
6781.000000;0.919283
6780.000000;0.916342
6779.000000;0.913542
6778.000000;0.910627
6777.000000;0.907642
6776.000000;0.904829
6775.000000;0.902060
6774.000000;0.899026
6773.000000;0.895875
6772.000000;0.893026
6771.000000;0.890454
6770.000000;0.887734
6769.000000;0.884726
6768.000000;0.881659
6767.000000;0.878614
6766.000000;0.875486
6765.000000;0.872378
6764.000000;0.869520
6763.000000;0.866894
6762.000000;0.864353
6761.000000;0.861965
6760.000000;0.859790
6759.000000;0.857521
6758.000000;0.854840
6757.000000;0.851926
6756.000000;0.849111
6755.000000;0.846287
6754.000000;0.843164
6753.000000;0.839876
6752.000000;0.836756
6751.000000;0.833738
6750.000000;0.830547
6749.000000;0.827298
6748.000000;0.824303
6747.000000;0.821459
6746.000000;0.818424
6745.000000;0.815252
6744.000000;0.812270
6743.000000;0.809461
6742.000000;0.806545
6741.000000;0.803572
6740.000000;0.800859
6739.000000;0.798380
6738.000000;0.795782
6737.000000;0.792975
6736.000000;0.790204
6735.000000;0.787568
6734.000000;0.784930
6733.000000;0.782252
6732.000000;0.779579
6731.000000;0.776771
6730.000000;0.773672
6729.000000;0.770485
6728.000000;0.767548
6727.000000;0.764822
6726.000000;0.762012
6725.000000;0.759081
6724.000000;0.756239
6723.000000;0.753511
6722.000000;0.750729
6721.000000;0.747877
6720.000000;0.745030
6719.000000;0.742086
6718.000000;0.738944
6717.000000;0.735860
6716.000000;0.733143
6715.000000;0.730698
6714.000000;0.728169
6713.000000;0.725468
6712.000000;0.722772
6711.000000;0.720102
6710.000000;0.717315
6709.000000;0.714551
6708.000000;0.712046
6707.000000;0.709679
6706.000000;0.707157
6705.000000;0.704371
6704.000000;0.701462
6703.000000;0.698470
6702.000000;0.695396
6701.000000;0.692422
6700.000000;0.689737
6699.000000;0.687210
6698.000000;0.684574
6697.000000;0.681823
6696.000000;0.679113
6695.000000;0.676405
6694.000000;0.673585
6693.000000;0.670779
6692.000000;0.668183
6691.000000;0.665697
6690.000000;0.663107
6689.000000;0.660474
6688.000000;0.657966
6687.000000;0.655445
6686.000000;0.652656
6685.000000;0.649716
6684.000000;0.646975
6683.000000;0.644469
6682.000000;0.641906
6681.000000;0.639166
6680.000000;0.636412
6679.000000;0.633734
6678.000000;0.631056
6677.000000;0.628381
6676.000000;0.625793
6675.000000;0.623229
6674.000000;0.620566
6673.000000;0.617895
6672.000000;0.615406
6671.000000;0.613062
6670.000000;0.610665
6669.000000;0.608196
6668.000000;0.605780
6667.000000;0.603387
6666.000000;0.600888
6665.000000;0.598350
6664.000000;0.595936
6663.000000;0.593594
6662.000000;0.591129
6661.000000;0.588551
6660.000000;0.586050
6659.000000;0.583653
6658.000000;0.581223
6657.000000;0.578738
6656.000000;0.576289
6655.000000;0.573841
6654.000000;0.571281
6653.000000;0.568654
6652.000000;0.566097
6651.000000;0.563602
6650.000000;0.561082
6649.000000;0.558602
6648.000000;0.556263
6647.000000;0.553944
6646.000000;0.551445
6645.000000;0.548844
6644.000000;0.546392
6643.000000;0.544127
6642.000000;0.541865
6641.000000;0.539532
6640.000000;0.537220
6639.000000;0.534933
6638.000000;0.532566
6637.000000;0.530122
6636.000000;0.527715
6635.000000;0.525362
6634.000000;0.522994
6633.000000;0.520649
6632.000000;0.518426
6631.000000;0.516275
6630.000000;0.514066
6629.000000;0.511805
6628.000000;0.509580
6627.000000;0.507347
6626.000000;0.504991
6625.000000;0.502554
6624.000000;0.500190
6623.000000;0.497936
6622.000000;0.495733
6621.000000;0.493602
6620.000000;0.491573
6619.000000;0.489533
6618.000000;0.487345
6617.000000;0.485076
6616.000000;0.482880
6615.000000;0.480735
6614.000000;0.478503
6613.000000;0.476194
6612.000000;0.473922
6611.000000;0.471679
6610.000000;0.469389
6609.000000;0.467125
6608.000000;0.465040
6607.000000;0.463107
6606.000000;0.461147
6605.000000;0.459101
6604.000000;0.457040
6603.000000;0.454967
6602.000000;0.452803
6601.000000;0.450566
6600.000000;0.448352
6599.000000;0.446168
6598.000000;0.443952
6597.000000;0.441724
6596.000000;0.439572
6595.000000;0.437510
6594.000000;0.435504
6593.000000;0.433576
6592.000000;0.431717
6591.000000;0.429801
6590.000000;0.427733
6589.000000;0.425616
6588.000000;0.423586
6587.000000;0.421587
6586.000000;0.419488
6585.000000;0.417333
6584.000000;0.415261
6583.000000;0.413288
6582.000000;0.411347
6581.000000;0.409463
6580.000000;0.407673
6579.000000;0.405856
6578.000000;0.403858
6577.000000;0.401728
6576.000000;0.399647
6575.000000;0.397678
6574.000000;0.395778
6573.000000;0.393961
6572.000000;0.392230
6571.000000;0.390450
6570.000000;0.388494
6569.000000;0.386453
6568.000000;0.384499
6567.000000;0.382613
6566.000000;0.380667
6565.000000;0.378697
6564.000000;0.376840
6563.000000;0.375075
6562.000000;0.373248
6561.000000;0.371328
6560.000000;0.369408
6559.000000;0.367500
6558.000000;0.365547
6557.000000;0.363615
6556.000000;0.361836
6555.000000;0.360183
6554.000000;0.358495
6553.000000;0.356720
6552.000000;0.354937
6551.000000;0.353159
6550.000000;0.351336
6549.000000;0.349509
6548.000000;0.347792
6547.000000;0.346164
6546.000000;0.344481
6545.000000;0.342695
6544.000000;0.340887
6543.000000;0.339097
6542.000000;0.337292
6541.000000;0.335491
6540.000000;0.333758
6539.000000;0.332076
6538.000000;0.330356
6537.000000;0.328586
6536.000000;0.326833
6535.000000;0.325120
6534.000000;0.323427
6533.000000;0.321778
6532.000000;0.320184
6531.000000;0.318554
6530.000000;0.316799
6529.000000;0.314990
6528.000000;0.313267
6527.000000;0.311636
6526.000000;0.309996
6525.000000;0.308323
6524.000000;0.306668
6523.000000;0.305019
6522.000000;0.303327
6521.000000;0.301632
6520.000000;0.300015
6519.000000;0.298446
6518.000000;0.296844
6517.000000;0.295231
6516.000000;0.293697
6515.000000;0.292231
6514.000000;0.290748
6513.000000;0.289239
6512.000000;0.287745
6511.000000;0.286225
6510.000000;0.284607
6509.000000;0.282942
6508.000000;0.281358
6507.000000;0.279875
6506.000000;0.278404
6505.000000;0.276897
6504.000000;0.275360
6503.000000;0.273763
6502.000000;0.272076
6501.000000;0.270373
6500.000000;0.268756
6499.000000;0.267220
6498.000000;0.265697
6497.000000;0.264207
6496.000000;0.262807
6495.000000;0.261456
6494.000000;0.260066
6493.000000;0.258643
6492.000000;0.257248
6491.000000;0.255846
6490.000000;0.254354
6489.000000;0.252795
6488.000000;0.251269
6487.000000;0.249801
6486.000000;0.248348
6485.000000;0.246914
6484.000000;0.245514
6483.000000;0.244086
6482.000000;0.242573
6481.000000;0.241057
6480.000000;0.239658
6479.000000;0.238342
6478.000000;0.236985
6477.000000;0.235572
6476.000000;0.234195
6475.000000;0.232866
6474.000000;0.231508
6473.000000;0.230102
6472.000000;0.228696
6471.000000;0.227301
6470.000000;0.225898
6469.000000;0.224529
6468.000000;0.223247
6467.000000;0.221989
6466.000000;0.220646
6465.000000;0.219233
6464.000000;0.217852
6463.000000;0.216519
6462.000000;0.215171
6461.000000;0.213808
6460.000000;0.212495
6459.000000;0.211233
6458.000000;0.209955
6457.000000;0.208662
6456.000000;0.207410
6455.000000;0.206200
6454.000000;0.204981
6453.000000;0.203761
6452.000000;0.202564
6451.000000;0.201330
6450.000000;0.199978
6449.000000;0.198562
6448.000000;0.197213
6447.000000;0.195963
6446.000000;0.194735
6445.000000;0.193493
6444.000000;0.192267
6443.000000;0.191041
6442.000000;0.189752
6441.000000;0.188409
6440.000000;0.187097
6439.000000;0.185853
6438.000000;0.184654
6437.000000;0.183502
6436.000000;0.182410
6435.000000;0.181319
6434.000000;0.180149
6433.000000;0.178906
6432.000000;0.177669
6431.000000;0.176470
6430.000000;0.175291
6429.000000;0.174139
6428.000000;0.173028
6427.000000;0.171907
6426.000000;0.170722
6425.000000;0.169511
6424.000000;0.168340
6423.000000;0.167182
6422.000000;0.165977
6421.000000;0.164756
6420.000000;0.163602
6419.000000;0.162496
6418.000000;0.161356
6417.000000;0.160179
6416.000000;0.159039
6415.000000;0.157952
6414.000000;0.156864
6413.000000;0.155761
6412.000000;0.154680
6411.000000;0.153624
6410.000000;0.152570
6409.000000;0.151532
6408.000000;0.150517
6407.000000;0.149460
6406.000000;0.148303
6405.000000;0.147110
6404.000000;0.145984
6403.000000;0.144924
6402.000000;0.143859
6401.000000;0.142792
6400.000000;0.141778
6399.000000;0.140785
6398.000000;0.139728
6397.000000;0.138614
6396.000000;0.137528
6395.000000;0.136493
6394.000000;0.135462
6393.000000;0.134426
6392.000000;0.133419
6391.000000;0.132416
6390.000000;0.131366
6389.000000;0.130303
6388.000000;0.129313
6387.000000;0.128395
6386.000000;0.127469
6385.000000;0.126508
6384.000000;0.125548
6383.000000;0.124583
6382.000000;0.123569
6381.000000;0.122513
6380.000000;0.121468
6379.000000;0.120430
6378.000000;0.119355
6377.000000;0.118272
6376.000000;0.117261
6375.000000;0.116335
6374.000000;0.115419
6373.000000;0.114468
6372.000000;0.113505
6371.000000;0.112555
6370.000000;0.111626
6369.000000;0.110745
6368.000000;0.109915
6367.000000;0.109058
6366.000000;0.108097
6365.000000;0.107064
6364.000000;0.106053
6363.000000;0.105080
6362.000000;0.104097
6361.000000;0.103106
6360.000000;0.102156
6359.000000;0.101237
6358.000000;0.100300
6357.000000;0.099353
6356.000000;0.098443
6355.000000;0.097567
6354.000000;0.096689
6353.000000;0.095824
6352.000000;0.095014
6351.000000;0.094225
6350.000000;0.093377
6349.000000;0.092466
6348.000000;0.091563
6347.000000;0.090702
6346.000000;0.089858
6345.000000;0.089024
6344.000000;0.088199
6343.000000;0.087346
6342.000000;0.086446
6341.000000;0.085576
6340.000000;0.084813
6339.000000;0.084098
6338.000000;0.083298
6337.000000;0.082388
6336.000000;0.081461
6335.000000;0.080579
6334.000000;0.079716
6333.000000;0.078857
6332.000000;0.078028
6331.000000;0.077215
6330.000000;0.076358
6329.000000;0.075451
6328.000000;0.074552
6327.000000;0.073700
6326.000000;0.072881
6325.000000;0.072089
6324.000000;0.071329
6323.000000;0.070576
6322.000000;0.069801
6321.000000;0.069022
6320.000000;0.068274
6319.000000;0.067531
6318.000000;0.066750
6317.000000;0.065954
6316.000000;0.065196
6315.000000;0.064455
6314.000000;0.063664
6313.000000;0.062823
6312.000000;0.062005
6311.000000;0.061249
6310.000000;0.060536
6309.000000;0.059845
6308.000000;0.059159
6307.000000;0.058427
6306.000000;0.057609
6305.000000;0.056749
6304.000000;0.055925
6303.000000;0.055150
6302.000000;0.054396
6301.000000;0.053673
6300.000000;0.053008
6299.000000;0.052360
6298.000000;0.051667
6297.000000;0.050944
6296.000000;0.050245
6295.000000;0.049564
6294.000000;0.048847
6293.000000;0.048097
6292.000000;0.047370
6291.000000;0.046674
6290.000000;0.045960
6289.000000;0.045214
6288.000000;0.044460
6287.000000;0.043713
6286.000000;0.042975
6285.000000;0.042283
6284.000000;0.041656
6283.000000;0.041033
6282.000000;0.040340
6281.000000;0.039595
6280.000000;0.038880
6279.000000;0.038213
6278.000000;0.037548
6277.000000;0.036862
6276.000000;0.036174
6275.000000;0.035481
6274.000000;0.034773
6273.000000;0.034080
6272.000000;0.033435
6271.000000;0.032802
6270.000000;0.032131
6269.000000;0.031451
6268.000000;0.030822
6267.000000;0.030218
6266.000000;0.029551
6265.000000;0.028810
6264.000000;0.028073
6263.000000;0.027403
6262.000000;0.026798
6261.000000;0.026248
6260.000000;0.025733
6259.000000;0.025186
6258.000000;0.024545
6257.000000;0.023834
6256.000000;0.023125
6255.000000;0.022442
6254.000000;0.021776
6253.000000;0.021143
6252.000000;0.020563
6251.000000;0.019986
6250.000000;0.019342
6249.000000;0.018645
6248.000000;0.017961
6247.000000;0.017315
6246.000000;0.016688
6245.000000;0.016091
6244.000000;0.015541
6243.000000;0.014993
6242.000000;0.014391
6241.000000;0.013764
6240.000000;0.013176
6239.000000;0.012614
6238.000000;0.012016
6237.000000;0.011396
6236.000000;0.010828
6235.000000;0.010314
6234.000000;0.009785
6233.000000;0.009211
6232.000000;0.008624
6231.000000;0.008025
6230.000000;0.007375
6229.000000;0.006690
6228.000000;0.006040
6227.000000;0.005454
6226.000000;0.004897
6225.000000;0.004344
6224.000000;0.003797
6223.000000;0.003240
6222.000000;0.002655
6221.000000;0.002074
6220.000000;0.001539
6219.000000;0.001016
6218.000000;0.000443
6217.000000;-0.000162
6216.000000;-0.000723
6215.000000;-0.001221
6214.000000;-0.001717
6213.000000;-0.002252
6212.000000;-0.002812
6211.000000;-0.003394
6210.000000;-0.004006
6209.000000;-0.004611
6208.000000;-0.005153
6207.000000;-0.005643
6206.000000;-0.006147
6205.000000;-0.006680
6204.000000;-0.007199
6203.000000;-0.007698
6202.000000;-0.008222
6201.000000;-0.008790
6200.000000;-0.009375
6199.000000;-0.009958
6198.000000;-0.010543
6197.000000;-0.011108
6196.000000;-0.011615
6195.000000;-0.012080
6194.000000;-0.012553
6193.000000;-0.013041
6192.000000;-0.013511
6191.000000;-0.013967
6190.000000;-0.014446
6189.000000;-0.014952
6188.000000;-0.015456
6187.000000;-0.015956
6186.000000;-0.016482
6185.000000;-0.017024
6184.000000;-0.017536
6183.000000;-0.018008
6182.000000;-0.018474
6181.000000;-0.018959
6180.000000;-0.019463
6179.000000;-0.019988
6178.000000;-0.020534
6177.000000;-0.021076
6176.000000;-0.021596
6175.000000;-0.022113
6174.000000;-0.022636
6173.000000;-0.023117
6172.000000;-0.023521
6171.000000;-0.023904
6170.000000;-0.024349
6169.000000;-0.024853
6168.000000;-0.025353
6167.000000;-0.025838
6166.000000;-0.026348
6165.000000;-0.026874
6164.000000;-0.027370
6163.000000;-0.027832
6162.000000;-0.028302
6161.000000;-0.028783
6160.000000;-0.029242
6159.000000;-0.029678
6158.000000;-0.030125
6157.000000;-0.030593
6156.000000;-0.031066
6155.000000;-0.031546
6154.000000;-0.032043
6153.000000;-0.032531
6152.000000;-0.032986
6151.000000;-0.033446
6150.000000;-0.033956
6149.000000;-0.034490
6148.000000;-0.034986
6147.000000;-0.035448
6146.000000;-0.035927
6145.000000;-0.036424
6144.000000;-0.036885
6143.000000;-0.037291
6142.000000;-0.037668
6141.000000;-0.038031
6140.000000;-0.038380
6139.000000;-0.038741
6138.000000;-0.039148
6137.000000;-0.039584
6136.000000;-0.040010
6135.000000;-0.040432
6134.000000;-0.040877
6133.000000;-0.041321
6132.000000;-0.041723
6131.000000;-0.042102
6130.000000;-0.042511
6129.000000;-0.042949
6128.000000;-0.043377
6127.000000;-0.043800
6126.000000;-0.044256
6125.000000;-0.044731
6124.000000;-0.045171
6123.000000;-0.045561
6122.000000;-0.045934
6121.000000;-0.046298
6120.000000;-0.046645
6119.000000;-0.047006
6118.000000;-0.047429
6117.000000;-0.047893
6116.000000;-0.048342
6115.000000;-0.048764
6114.000000;-0.049197
6113.000000;-0.049641
6112.000000;-0.050061
6111.000000;-0.050458
6110.000000;-0.050866
6109.000000;-0.051281
6108.000000;-0.051667
6107.000000;-0.052024
6106.000000;-0.052385
6105.000000;-0.052753
6104.000000;-0.053103
6103.000000;-0.053443
6102.000000;-0.053799
6101.000000;-0.054165
6100.000000;-0.054527
6099.000000;-0.054918
6098.000000;-0.055373
6097.000000;-0.055849
6096.000000;-0.056272
6095.000000;-0.056635
6094.000000;-0.056989
6093.000000;-0.057357
6092.000000;-0.057722
6091.000000;-0.058089
6090.000000;-0.058473
6089.000000;-0.058833
6088.000000;-0.059112
6087.000000;-0.059337
6086.000000;-0.059601
6085.000000;-0.059950
6084.000000;-0.060353
6083.000000;-0.060777
6082.000000;-0.061213
6081.000000;-0.061635
6080.000000;-0.062011
6079.000000;-0.062363
6078.000000;-0.062750
6077.000000;-0.063179
6076.000000;-0.063612
6075.000000;-0.064032
6074.000000;-0.064437
6073.000000;-0.064796
6072.000000;-0.065082
6071.000000;-0.065347
6070.000000;-0.065672
6069.000000;-0.066052
6068.000000;-0.066407
6067.000000;-0.066714
6066.000000;-0.067034
6065.000000;-0.067412
6064.000000;-0.067820
6063.000000;-0.068212
6062.000000;-0.068579
6061.000000;-0.068926
6060.000000;-0.069253
6059.000000;-0.069571
6058.000000;-0.069886
6057.000000;-0.070181
6056.000000;-0.070446
6055.000000;-0.070719
6054.000000;-0.071033
6053.000000;-0.071358
6052.000000;-0.071645
6051.000000;-0.071910
6050.000000;-0.072213
6049.000000;-0.072557
6048.000000;-0.072892
6047.000000;-0.073195
6046.000000;-0.073479
6045.000000;-0.073744
6044.000000;-0.073977
6043.000000;-0.074212
6042.000000;-0.074508
6041.000000;-0.074869
6040.000000;-0.075248
6039.000000;-0.075617
6038.000000;-0.075977
6037.000000;-0.076308
6036.000000;-0.076584
6035.000000;-0.076825
6034.000000;-0.077078
6033.000000;-0.077349
6032.000000;-0.077619
6031.000000;-0.077897
6030.000000;-0.078208
6029.000000;-0.078530
6028.000000;-0.078820
6027.000000;-0.079082
6026.000000;-0.079356
6025.000000;-0.079646
6024.000000;-0.079923
6023.000000;-0.080183
6022.000000;-0.080443
6021.000000;-0.080690
6020.000000;-0.080900
6019.000000;-0.081098
6018.000000;-0.081326
6017.000000;-0.081570
6016.000000;-0.081794
6015.000000;-0.082013
6014.000000;-0.082273
6013.000000;-0.082562
6012.000000;-0.082829
6011.000000;-0.083068
6010.000000;-0.083323
6009.000000;-0.083595
6008.000000;-0.083845
6007.000000;-0.084067
6006.000000;-0.084299
6005.000000;-0.084551
6004.000000;-0.084799
6003.000000;-0.085045
6002.000000;-0.085315
6001.000000;-0.085601
6000.000000;-0.085858
5999.000000;-0.086084
5998.000000;-0.086319
5997.000000;-0.086571
5996.000000;-0.086803
5995.000000;-0.086998
5994.000000;-0.087185
5993.000000;-0.087393
5992.000000;-0.087625
5991.000000;-0.087880
5990.000000;-0.088153
5989.000000;-0.088416
5988.000000;-0.088642
5987.000000;-0.088840
5986.000000;-0.089027
5985.000000;-0.089191
5984.000000;-0.089330
5983.000000;-0.089483
5982.000000;-0.089687
5981.000000;-0.089916
5980.000000;-0.090117
5979.000000;-0.090296
5978.000000;-0.090492
5977.000000;-0.090700
5976.000000;-0.090895
5975.000000;-0.091089
5974.000000;-0.091311
5973.000000;-0.091535
5972.000000;-0.091718
5971.000000;-0.091869
5970.000000;-0.092033
5969.000000;-0.092203
5968.000000;-0.092346
5967.000000;-0.092477
5966.000000;-0.092646
5965.000000;-0.092853
5964.000000;-0.093055
5963.000000;-0.093246
5962.000000;-0.093453
5961.000000;-0.093667
5960.000000;-0.093847
5959.000000;-0.093994
5958.000000;-0.094149
5957.000000;-0.094326
5956.000000;-0.094505
5955.000000;-0.094674
5954.000000;-0.094830
5953.000000;-0.094947
5952.000000;-0.095006
5951.000000;-0.095052
5950.000000;-0.095153
5949.000000;-0.095316
5948.000000;-0.095496
5947.000000;-0.095669
5946.000000;-0.095835
5945.000000;-0.095972
5944.000000;-0.096053
5943.000000;-0.096099
5942.000000;-0.096161
5941.000000;-0.096245
5940.000000;-0.096332
5939.000000;-0.096446
5938.000000;-0.096619
5937.000000;-0.096826
5936.000000;-0.097002
5935.000000;-0.097126
5934.000000;-0.097219
5933.000000;-0.097281
5932.000000;-0.097311
5931.000000;-0.097357
5930.000000;-0.097471
5929.000000;-0.097634
5928.000000;-0.097789
5927.000000;-0.097925
5926.000000;-0.098067
5925.000000;-0.098197
5924.000000;-0.098275
5923.000000;-0.098321
5922.000000;-0.098400
5921.000000;-0.098517
5920.000000;-0.098622
5919.000000;-0.098693
5918.000000;-0.098754
5917.000000;-0.098816
5916.000000;-0.098869
5915.000000;-0.098940
5914.000000;-0.099061
5913.000000;-0.099212
5912.000000;-0.099343
5911.000000;-0.099456
5910.000000;-0.099586
5909.000000;-0.099719
5908.000000;-0.099805
5907.000000;-0.099847
5906.000000;-0.099887
5905.000000;-0.099929
5904.000000;-0.099948
5903.000000;-0.099962
5902.000000;-0.100025
5901.000000;-0.100136
5900.000000;-0.100244
5899.000000;-0.100325
5898.000000;-0.100402
5897.000000;-0.100469
5896.000000;-0.100495
5895.000000;-0.100491
5894.000000;-0.100514
5893.000000;-0.100585
5892.000000;-0.100665
5891.000000;-0.100714
5890.000000;-0.100725
5889.000000;-0.100700
5888.000000;-0.100662
5887.000000;-0.100666
5886.000000;-0.100737
5885.000000;-0.100816
5884.000000;-0.100830
5883.000000;-0.100796
5882.000000;-0.100802
5881.000000;-0.100881
5880.000000;-0.100994
5879.000000;-0.101100
5878.000000;-0.101190
5877.000000;-0.101249
5876.000000;-0.101270
5875.000000;-0.101289
5874.000000;-0.101340
5873.000000;-0.101384
5872.000000;-0.101358
5871.000000;-0.101265
5870.000000;-0.101169
5869.000000;-0.101096
5868.000000;-0.101038
5867.000000;-0.101014
5866.000000;-0.101045
5865.000000;-0.101093
5864.000000;-0.101095
5863.000000;-0.101055
5862.000000;-0.101022
5861.000000;-0.101001
5860.000000;-0.100962
5859.000000;-0.100915
5858.000000;-0.100891
5857.000000;-0.100865
5856.000000;-0.100794
5855.000000;-0.100703
5854.000000;-0.100664
5853.000000;-0.100668
5852.000000;-0.100640
5851.000000;-0.100555
5850.000000;-0.100460
5849.000000;-0.100377
5848.000000;-0.100280
5847.000000;-0.100177
5846.000000;-0.100109
5845.000000;-0.100076
5844.000000;-0.100030
5843.000000;-0.099958
5842.000000;-0.099893
5841.000000;-0.099837
5840.000000;-0.099759
5839.000000;-0.099674
5838.000000;-0.099621
5837.000000;-0.099577
5836.000000;-0.099457
5835.000000;-0.099237
5834.000000;-0.098987
5833.000000;-0.098777
5832.000000;-0.098619
5831.000000;-0.098503
5830.000000;-0.098424
5829.000000;-0.098353
5828.000000;-0.098251
5827.000000;-0.098128
5826.000000;-0.098015
5825.000000;-0.097885
5824.000000;-0.097677
5823.000000;-0.097397
5822.000000;-0.097125
5821.000000;-0.096915
5820.000000;-0.096759
5819.000000;-0.096652
5818.000000;-0.096597
5817.000000;-0.096551
5816.000000;-0.096434
5815.000000;-0.096231
5814.000000;-0.096002
5813.000000;-0.095791
5812.000000;-0.095589
5811.000000;-0.095394
5810.000000;-0.095228
5809.000000;-0.095087
5808.000000;-0.094930
5807.000000;-0.094741
5806.000000;-0.094533
5805.000000;-0.094300
5804.000000;-0.094031
5803.000000;-0.093764
5802.000000;-0.093555
5801.000000;-0.093390
5800.000000;-0.093193
5799.000000;-0.092940
5798.000000;-0.092674
5797.000000;-0.092425
5796.000000;-0.092172
5795.000000;-0.091913
5794.000000;-0.091673
5793.000000;-0.091449
5792.000000;-0.091206
5791.000000;-0.090944
5790.000000;-0.090698
5789.000000;-0.090468
5788.000000;-0.090212
5787.000000;-0.089912
5786.000000;-0.089593
5785.000000;-0.089254
5784.000000;-0.088877
5783.000000;-0.088489
5782.000000;-0.088150
5781.000000;-0.087875
5780.000000;-0.087622
5779.000000;-0.087370
5778.000000;-0.087136
5777.000000;-0.086907
5776.000000;-0.086641
5775.000000;-0.086332
5774.000000;-0.086015
5773.000000;-0.085695
5772.000000;-0.085344
5771.000000;-0.084969
5770.000000;-0.084609
5769.000000;-0.084269
5768.000000;-0.083909
5767.000000;-0.083527
5766.000000;-0.083164
5765.000000;-0.082832
5764.000000;-0.082493
5763.000000;-0.082125
5762.000000;-0.081745
5761.000000;-0.081363
5760.000000;-0.080967
5759.000000;-0.080570
5758.000000;-0.080199
5757.000000;-0.079842
5756.000000;-0.079464
5755.000000;-0.079067
5754.000000;-0.078682
5753.000000;-0.078298
5752.000000;-0.077875
5751.000000;-0.077419
5750.000000;-0.076969
5749.000000;-0.076523
5748.000000;-0.076038
5747.000000;-0.075507
5746.000000;-0.074973
5745.000000;-0.074465
5744.000000;-0.073976
5743.000000;-0.073516
5742.000000;-0.073101
5741.000000;-0.072699
5740.000000;-0.072251
5739.000000;-0.071755
5738.000000;-0.071260
5737.000000;-0.070784
5736.000000;-0.070305
5735.000000;-0.069826
5734.000000;-0.069368
5733.000000;-0.068911
5732.000000;-0.068405
5731.000000;-0.067850
5730.000000;-0.067293
5729.000000;-0.066749
5728.000000;-0.066200
5727.000000;-0.065660
5726.000000;-0.065164
5725.000000;-0.064687
5724.000000;-0.064159
5723.000000;-0.063570
5722.000000;-0.062971
5721.000000;-0.062383
5720.000000;-0.061783
5719.000000;-0.061181
5718.000000;-0.060624
5717.000000;-0.060104
5716.000000;-0.059557
5715.000000;-0.058955
5714.000000;-0.058335
5713.000000;-0.057727
5712.000000;-0.057121
5711.000000;-0.056518
5710.000000;-0.055934
5709.000000;-0.055351
5708.000000;-0.054727
5707.000000;-0.054066
5706.000000;-0.053418
5705.000000;-0.052795
5704.000000;-0.052164
5703.000000;-0.051520
5702.000000;-0.050898
5701.000000;-0.050300
5700.000000;-0.049692
5699.000000;-0.049066
5698.000000;-0.048452
5697.000000;-0.047840
5696.000000;-0.047189
5695.000000;-0.046494
5694.000000;-0.045797
5693.000000;-0.045112
5692.000000;-0.044422
5691.000000;-0.043749
5690.000000;-0.043145
5689.000000;-0.042612
5688.000000;-0.042082
5687.000000;-0.041497
5686.000000;-0.040847
5685.000000;-0.040141
5684.000000;-0.039407
5683.000000;-0.038709
5682.000000;-0.038088
5681.000000;-0.037484
5680.000000;-0.036803
5679.000000;-0.036045
5678.000000;-0.035305
5677.000000;-0.034640
5676.000000;-0.034026
5675.000000;-0.033430
5674.000000;-0.032841
5673.000000;-0.032239
5672.000000;-0.031589
5671.000000;-0.030901
5670.000000;-0.030214
5669.000000;-0.029526
5668.000000;-0.028804
5667.000000;-0.028056
5666.000000;-0.027335
5665.000000;-0.026663
5664.000000;-0.026024
5663.000000;-0.025420
5662.000000;-0.024857
5661.000000;-0.024296
5660.000000;-0.023684
5659.000000;-0.023041
5658.000000;-0.022429
5657.000000;-0.021865
5656.000000;-0.021315
5655.000000;-0.020771
5654.000000;-0.020241
5653.000000;-0.019681
5652.000000;-0.019041
5651.000000;-0.018353
5650.000000;-0.017703
5649.000000;-0.017114
5648.000000;-0.016540
5647.000000;-0.015954
5646.000000;-0.015365
5645.000000;-0.014754
5644.000000;-0.014101
5643.000000;-0.013468
5642.000000;-0.012941
5641.000000;-0.012494
5640.000000;-0.012017
5639.000000;-0.011472
5638.000000;-0.010922
5637.000000;-0.010393
5636.000000;-0.009846
5635.000000;-0.009282
5634.000000;-0.008762
5633.000000;-0.008309
5632.000000;-0.007880
5631.000000;-0.007462
5630.000000;-0.007086
5629.000000;-0.006731
5628.000000;-0.006326
5627.000000;-0.005861
5626.000000;-0.005398
5625.000000;-0.004955
5624.000000;-0.004492
5623.000000;-0.004019
5622.000000;-0.003611
5621.000000;-0.003275
5620.000000;-0.002923
5619.000000;-0.002493
5618.000000;-0.002033
5617.000000;-0.001606
5616.000000;-0.001223
5615.000000;-0.000882
5614.000000;-0.000601
5613.000000;-0.000367
5612.000000;-0.000132
5611.000000;0.000126
5610.000000;0.000385
5609.000000;0.000646
5608.000000;0.000945
5607.000000;0.001286
5606.000000;0.001630
5605.000000;0.001962
5604.000000;0.002299
5603.000000;0.002619
5602.000000;0.002870
5601.000000;0.003043
5600.000000;0.003192
5599.000000;0.003343
5598.000000;0.003482
5597.000000;0.003620
5596.000000;0.003789
5595.000000;0.003982
5594.000000;0.004152
5593.000000;0.004298
5592.000000;0.004464
5591.000000;0.004646
5590.000000;0.004799
5589.000000;0.004927
5588.000000;0.005082
5587.000000;0.005266
5586.000000;0.005410
5585.000000;0.005486
5584.000000;0.005536
5583.000000;0.005589
5582.000000;0.005628
5581.000000;0.005668
5580.000000;0.005758
5579.000000;0.005896
5578.000000;0.006011
5577.000000;0.006062
5576.000000;0.006079
5575.000000;0.006095
5574.000000;0.006098
5573.000000;0.006090
5572.000000;0.006107
5571.000000;0.006144
5570.000000;0.006152
5569.000000;0.006109
5568.000000;0.006042
5567.000000;0.005968
5566.000000;0.005890
5565.000000;0.005840
5564.000000;0.005860
5563.000000;0.005905
5562.000000;0.005884
5561.000000;0.005786
5560.000000;0.005699
5559.000000;0.005672
5558.000000;0.005657
5557.000000;0.005613
5556.000000;0.005569
5555.000000;0.005529
5554.000000;0.005439
5553.000000;0.005282
5552.000000;0.005136
5551.000000;0.005060
5550.000000;0.005030
5549.000000;0.005013
5548.000000;0.005018
5547.000000;0.005021
5546.000000;0.004950
5545.000000;0.004783
5544.000000;0.004594
5543.000000;0.004450
5542.000000;0.004332
5541.000000;0.004220
5540.000000;0.004140
5539.000000;0.004089
5538.000000;0.004006
5537.000000;0.003888
5536.000000;0.003808
5535.000000;0.003790
5534.000000;0.003764
5533.000000;0.003687
5532.000000;0.003605
5531.000000;0.003544
5530.000000;0.003456
5529.000000;0.003319
5528.000000;0.003188
5527.000000;0.003109
5526.000000;0.003073
5525.000000;0.003063
5524.000000;0.003090
5523.000000;0.003124
5522.000000;0.003087
5521.000000;0.002979
5520.000000;0.002892
5519.000000;0.002867
5518.000000;0.002853
5517.000000;0.002799
5516.000000;0.002731
5515.000000;0.002661
5514.000000;0.002540
5513.000000;0.002381
5512.000000;0.002300
5511.000000;0.002347
5510.000000;0.002420
5509.000000;0.002433
5508.000000;0.002431
5507.000000;0.002476
5506.000000;0.002531
5505.000000;0.002537
5504.000000;0.002539
5503.000000;0.002593
5502.000000;0.002640
5501.000000;0.002624
5500.000000;0.002572
5499.000000;0.002525
5498.000000;0.002549
5497.000000;0.002710
5496.000000;0.002975
5495.000000;0.003179
5494.000000;0.003214
5493.000000;0.003219
5492.000000;0.003369
5491.000000;0.003601
5490.000000;0.003711
5489.000000;0.003660
5488.000000;0.003608
5487.000000;0.003629
5486.000000;0.003648
5485.000000;0.003620
5484.000000;0.003658
5483.000000;0.003855
5482.000000;0.004074
5481.000000;0.004220
5480.000000;0.004483
5479.000000;0.005007
5478.000000;0.005613
5477.000000;0.006040
5476.000000;0.006319
5475.000000;0.006609
5474.000000;0.006849
5473.000000;0.006960
5472.000000;0.007086
5471.000000;0.007349
5470.000000;0.007634
5469.000000;0.007873
5468.000000;0.008198
5467.000000;0.008639
5466.000000;0.009044
5465.000000;0.009374
5464.000000;0.009814
5463.000000;0.010433
5462.000000;0.010982
5461.000000;0.011338
5460.000000;0.011763
5459.000000;0.012373
5458.000000;0.012885
5457.000000;0.013166
5456.000000;0.013485
5455.000000;0.014044
5454.000000;0.014728
5453.000000;0.015414
5452.000000;0.016143
5451.000000;0.016925
5450.000000;0.017668
5449.000000;0.018434
5448.000000;0.019290
5447.000000;0.020010
5446.000000;0.020471
5445.000000;0.020997
5444.000000;0.021875
5443.000000;0.022879
5442.000000;0.023613
5441.000000;0.024144
5440.000000;0.024913
5439.000000;0.026074
5438.000000;0.027327
5437.000000;0.028424
5436.000000;0.029427
5435.000000;0.030420
5434.000000;0.031424
5433.000000;0.032574
5432.000000;0.033899
5431.000000;0.035104
5430.000000;0.036048
5429.000000;0.037060
5428.000000;0.038372
5427.000000;0.039744
5426.000000;0.040924
5425.000000;0.042028
5424.000000;0.043306
5423.000000;0.044806
5422.000000;0.046439
5421.000000;0.048127
5420.000000;0.049850
5419.000000;0.051696
5418.000000;0.053735
5417.000000;0.055904
5416.000000;0.058012
5415.000000;0.059941
5414.000000;0.061829
5413.000000;0.063833
5412.000000;0.065887
5411.000000;0.067827
5410.000000;0.069652
5409.000000;0.071585
5408.000000;0.073787
5407.000000;0.076149
5406.000000;0.078458
5405.000000;0.080757
5404.000000;0.083304
5403.000000;0.086126
5402.000000;0.089115
5401.000000;0.092231
5400.000000;0.095331
5399.000000;0.098361
5398.000000;0.101429
5397.000000;0.104631
5396.000000;0.107953
5395.000000;0.111336
5394.000000;0.114850
5393.000000;0.118520
5392.000000;0.122229
5391.000000;0.125967
5390.000000;0.129875
5389.000000;0.134007
5388.000000;0.138236
5387.000000;0.142454
5386.000000;0.146729
5385.000000;0.151270
5384.000000;0.156091
5383.000000;0.160941
5382.000000;0.165816
5381.000000;0.170962
5380.000000;0.176366
5379.000000;0.181781
5378.000000;0.187202
5377.000000;0.192889
5376.000000;0.198877
5375.000000;0.204921
5374.000000;0.210984
5373.000000;0.217253
5372.000000;0.223782
5371.000000;0.230492
5370.000000;0.237368
5369.000000;0.244495
5368.000000;0.251916
5367.000000;0.259605
5366.000000;0.267541
5365.000000;0.275779
5364.000000;0.284297
5363.000000;0.292979
5362.000000;0.301909
5361.000000;0.311213
5360.000000;0.320791
5359.000000;0.330543
5358.000000;0.340629
5357.000000;0.351208
5356.000000;0.362056
5355.000000;0.372912
5354.000000;0.383997
5353.000000;0.395740
5352.000000;0.408007
5351.000000;0.420231
5350.000000;0.432398
5349.000000;0.445154
5348.000000;0.458804
5347.000000;0.472921
5346.000000;0.487144
5345.000000;0.501677
5344.000000;0.516747
5343.000000;0.532159
5342.000000;0.547765
5341.000000;0.563634
5340.000000;0.579807
5339.000000;0.596418
5338.000000;0.613695
5337.000000;0.631701
5336.000000;0.650178
5335.000000;0.668790
5334.000000;0.687616
5333.000000;0.707254
5332.000000;0.728017
5331.000000;0.749371
5330.000000;0.770802
5329.000000;0.792602
5328.000000;0.815273
5327.000000;0.838774
5326.000000;0.862703
5325.000000;0.886822
5324.000000;0.911061
5323.000000;0.935332
5322.000000;0.959853
5321.000000;0.985214
5320.000000;1.011568
5319.000000;1.038312
5318.000000;1.065088
5317.000000;1.092389
5316.000000;1.120527
5315.000000;1.148872
5314.000000;1.176803
5313.000000;1.204656
5312.000000;1.232803
5311.000000;1.260771
5310.000000;1.288513
5309.000000;1.317181
5308.000000;1.347146
5307.000000;1.376592
5306.000000;1.403983
5305.000000;1.430393
5304.000000;1.457026
5303.000000;1.482505
5302.000000;1.505336
5301.000000;1.526987
5300.000000;1.549572
5299.000000;1.572514
5298.000000;1.594301
5297.000000;1.615376
5296.000000;1.636065
5295.000000;1.653903
5294.000000;1.666981
5293.000000;1.677913
5292.000000;1.690337
5291.000000;1.703921
5290.000000;1.716300
5289.000000;1.727234
5288.000000;1.737244
5287.000000;1.744974
5286.000000;1.749825
5285.000000;1.754340
5284.000000;1.760112
5283.000000;1.764811
5282.000000;1.767114
5281.000000;1.770065
5280.000000;1.775464
5279.000000;1.779914
5278.000000;1.780961
5277.000000;1.782228
5276.000000;1.787054
5275.000000;1.792331
5274.000000;1.793967
5273.000000;1.793878
5272.000000;1.795529
5271.000000;1.797286
5270.000000;1.796441
5269.000000;1.795426
5268.000000;1.797657
5267.000000;1.801009
5266.000000;1.801684
5265.000000;1.801078
5264.000000;1.802228
5263.000000;1.803134
5262.000000;1.800181
5261.000000;1.795112
5260.000000;1.792231
5259.000000;1.791703
5258.000000;1.791095
5257.000000;1.790735
5256.000000;1.792076
5255.000000;1.793545
5254.000000;1.793551
5253.000000;1.794567
5252.000000;1.799077
5251.000000;1.804712
5250.000000;1.808340
5249.000000;1.811278
5248.000000;1.814820
5247.000000;1.815332
5246.000000;1.810440
5245.000000;1.805194
5244.000000;1.805121
5243.000000;1.807890
5242.000000;1.807644
5241.000000;1.804176
5240.000000;1.801169
5239.000000;1.799164
5238.000000;1.797140
5237.000000;1.797262
5236.000000;1.801652
5235.000000;1.807030
5234.000000;1.808763
5233.000000;1.807876
5232.000000;1.807839
5231.000000;1.807828
5230.000000;1.805473
5229.000000;1.802799
5228.000000;1.802710
5227.000000;1.803156
5226.000000;1.801106
5225.000000;1.798812
5224.000000;1.799757
5223.000000;1.801888
5222.000000;1.801399
5221.000000;1.799900
5220.000000;1.801192
5219.000000;1.804314
5218.000000;1.805934
5217.000000;1.806715
5216.000000;1.808942
5215.000000;1.810684
5214.000000;1.808826
5213.000000;1.805255
5212.000000;1.803881
5211.000000;1.804630
5210.000000;1.805859
5209.000000;1.809157
5208.000000;1.815757
5207.000000;1.821055
5206.000000;1.819320
5205.000000;1.812204
5204.000000;1.805693
5203.000000;1.801808
5202.000000;1.799772
5201.000000;1.801181
5200.000000;1.807198
5199.000000;1.813717
5198.000000;1.815602
5197.000000;1.813770
5196.000000;1.812122
5195.000000;1.810295
5194.000000;1.805980
5193.000000;1.801180
5192.000000;1.799499
5191.000000;1.800447
5190.000000;1.801559
5189.000000;1.803414
5188.000000;1.807430
5187.000000;1.811040
5186.000000;1.810688
5185.000000;1.807833
5184.000000;1.806453
5183.000000;1.806881
5182.000000;1.807084
5181.000000;1.807171
5180.000000;1.808040
5179.000000;1.808501
5178.000000;1.808089
5177.000000;1.809539
5176.000000;1.814018
5175.000000;1.817475
5174.000000;1.816375
5173.000000;1.813519
5172.000000;1.812942
5171.000000;1.813390
5170.000000;1.811920
5169.000000;1.809700
5168.000000;1.808699
5167.000000;1.806968
5166.000000;1.802768
5165.000000;1.799164
5164.000000;1.799371
5163.000000;1.801561
5162.000000;1.802853
5161.000000;1.804480
5160.000000;1.807658
5159.000000;1.808877
5158.000000;1.805416
5157.000000;1.801134
5156.000000;1.800496
5155.000000;1.801497
5154.000000;1.800315
5153.000000;1.798424
5152.000000;1.798945
5151.000000;1.800241
5150.000000;1.799257
5149.000000;1.797900
5148.000000;1.799723
5147.000000;1.803483
5146.000000;1.806018
5145.000000;1.807944
5144.000000;1.810527
5143.000000;1.810756
5142.000000;1.806120
5141.000000;1.800498
5140.000000;1.798410
5139.000000;1.797904
5138.000000;1.795329
5137.000000;1.792967
5136.000000;1.794970
5135.000000;1.799271
5134.000000;1.800451
5133.000000;1.798345
5132.000000;1.796976
5131.000000;1.797346
5130.000000;1.798024
5129.000000;1.800085
5128.000000;1.804774
5127.000000;1.808469
5126.000000;1.806494
5125.000000;1.800388
5124.000000;1.795343
5123.000000;1.793073
5122.000000;1.792618
5121.000000;1.794670
5120.000000;1.799512
5119.000000;1.803311
5118.000000;1.802217
5117.000000;1.798322
5116.000000;1.796000
5115.000000;1.795617
5114.000000;1.795493
5113.000000;1.795952
5112.000000;1.796799
5111.000000;1.794737
5110.000000;1.788824
5109.000000;1.784454
5108.000000;1.786262
5107.000000;1.791189
5106.000000;1.793404
5105.000000;1.792625
5104.000000;1.791707
5103.000000;1.790153
5102.000000;1.787086
5101.000000;1.786490
5100.000000;1.792173
5099.000000;1.800509
5098.000000;1.804350
5097.000000;1.802643
5096.000000;1.799630
5095.000000;1.797152
5094.000000;1.794803
5093.000000;1.794181
5092.000000;1.796265
5091.000000;1.797550
5090.000000;1.795086
5089.000000;1.792364
5088.000000;1.793906
5087.000000;1.797636
5086.000000;1.798646
5085.000000;1.797441
5084.000000;1.797467
5083.000000;1.797529
5082.000000;1.794374
5081.000000;1.790189
5080.000000;1.789868
5079.000000;1.793009
5078.000000;1.795035
5077.000000;1.794526
5076.000000;1.793506
5075.000000;1.792289
5074.000000;1.790236
5073.000000;1.789405
5072.000000;1.791401
5071.000000;1.792758
5070.000000;1.789466
5069.000000;1.784078
5068.000000;1.782271
5067.000000;1.784981
5066.000000;1.788958
5065.000000;1.792340
5064.000000;1.794618
5063.000000;1.793857
5062.000000;1.790110
5061.000000;1.788446
5060.000000;1.792332
5059.000000;1.797402
5058.000000;1.797283
5057.000000;1.792876
5056.000000;1.789490
5055.000000;1.787968
5054.000000;1.785412
5053.000000;1.781736
5052.000000;1.779006
5051.000000;1.776632
5050.000000;1.773241
5049.000000;1.770875
5048.000000;1.771595
5047.000000;1.772414
5046.000000;1.769215
5045.000000;1.763583
5044.000000;1.760028
5043.000000;1.759100
5042.000000;1.758728
5041.000000;1.759569
5040.000000;1.763187
5039.000000;1.767193
5038.000000;1.767781
5037.000000;1.765282
5036.000000;1.762307
5035.000000;1.758969
5034.000000;1.754807
5033.000000;1.752128
5032.000000;1.752556
5031.000000;1.753381
5030.000000;1.752127
5029.000000;1.751485
5028.000000;1.754158
5027.000000;1.756779
5026.000000;1.755113
5025.000000;1.751606
5024.000000;1.750816
5023.000000;1.751335
5022.000000;1.749055
5021.000000;1.745121
5020.000000;1.743431
5019.000000;1.742731
5018.000000;1.738549
5017.000000;1.731343
5016.000000;1.725697
5015.000000;1.723067
5014.000000;1.721448
5013.000000;1.720391
5012.000000;1.720853
5011.000000;1.721188
5010.000000;1.718758
5009.000000;1.714933
5008.000000;1.713179
5007.000000;1.713520
5006.000000;1.713453
5005.000000;1.712435
5004.000000;1.710979
5003.000000;1.707530
5002.000000;1.701272
5001.000000;1.695743
5000.000000;1.694872
4999.000000;1.697276
4998.000000;1.698730
4997.000000;1.698150
4996.000000;1.696738
4995.000000;1.693740
4994.000000;1.687971
4993.000000;1.681586
4992.000000;1.677520
4991.000000;1.674888
4990.000000;1.671227
4989.000000;1.667250
4988.000000;1.665067
4987.000000;1.663684
4986.000000;1.660614
4985.000000;1.656380
4984.000000;1.653115
4983.000000;1.650469
4982.000000;1.646962
4981.000000;1.643371
4980.000000;1.640868
4979.000000;1.637853
4978.000000;1.632626
4977.000000;1.627154
4976.000000;1.624056
4975.000000;1.622020
4974.000000;1.618245
4973.000000;1.613419
4972.000000;1.610152
4971.000000;1.608311
4970.000000;1.605892
4969.000000;1.602845
4968.000000;1.600256
4967.000000;1.597441
4966.000000;1.593483
4965.000000;1.589869
4964.000000;1.588003
4963.000000;1.585974
4962.000000;1.581303
4961.000000;1.575195
4960.000000;1.570448
4959.000000;1.567164
4958.000000;1.563887
4957.000000;1.560785
4956.000000;1.558188
4955.000000;1.554136
4954.000000;1.547151
4953.000000;1.539571
4952.000000;1.534513
4951.000000;1.531460
4950.000000;1.528073
4949.000000;1.524401
4948.000000;1.521741
4947.000000;1.519083
4946.000000;1.514464
4945.000000;1.508635
4944.000000;1.503798
4943.000000;1.499968
4942.000000;1.495777
4941.000000;1.491494
4940.000000;1.488129
4939.000000;1.484781
4938.000000;1.479929
4937.000000;1.474181
4936.000000;1.468874
4935.000000;1.463337
4934.000000;1.456378
4933.000000;1.449150
4932.000000;1.443718
4931.000000;1.439999
4930.000000;1.436564
4929.000000;1.433244
4928.000000;1.430537
4927.000000;1.427595
4926.000000;1.423314
4925.000000;1.418355
4924.000000;1.413813
4923.000000;1.409183
4922.000000;1.403719
4921.000000;1.398329
4920.000000;1.393938
4919.000000;1.389461
4918.000000;1.383704
4917.000000;1.377765
4916.000000;1.373277
4915.000000;1.369724
4914.000000;1.365692
4913.000000;1.361403
4912.000000;1.357706
4911.000000;1.353842
4910.000000;1.348671
4909.000000;1.343030
4908.000000;1.338542
4907.000000;1.335050
4906.000000;1.331242
4905.000000;1.326855
4904.000000;1.322320
4903.000000;1.317249
4902.000000;1.311221
4901.000000;1.305139
4900.000000;1.300077
4899.000000;1.295750
4898.000000;1.291502
4897.000000;1.287594
4896.000000;1.284110
4895.000000;1.280069
4894.000000;1.275171
4893.000000;1.270807
4892.000000;1.267629
4891.000000;1.263830
4890.000000;1.257840
4889.000000;1.251166
4888.000000;1.246321
4887.000000;1.243362
4886.000000;1.240536
4885.000000;1.237084
4884.000000;1.233279
4883.000000;1.228738
4882.000000;1.222930
4881.000000;1.216658
4880.000000;1.211088
4879.000000;1.206041
4878.000000;1.200844
4877.000000;1.195983
4876.000000;1.192221
4875.000000;1.188964
4874.000000;1.185138
4873.000000;1.180923
4872.000000;1.177036
4871.000000;1.173148
4870.000000;1.168572
4869.000000;1.163689
4868.000000;1.159181
4867.000000;1.154699
4866.000000;1.149736
4865.000000;1.144910
4864.000000;1.140892
4863.000000;1.137011
4862.000000;1.132426
4861.000000;1.127737
4860.000000;1.123899
4859.000000;1.120437
4858.000000;1.116291
4857.000000;1.111652
4856.000000;1.107368
4855.000000;1.103326
4854.000000;1.098936
4853.000000;1.094533
4852.000000;1.090755
4851.000000;1.087144
4850.000000;1.082845
4849.000000;1.078147
4848.000000;1.073963
4847.000000;1.070328
4846.000000;1.066647
4845.000000;1.062862
4844.000000;1.059160
4843.000000;1.055123
4842.000000;1.050400
4841.000000;1.045614
4840.000000;1.041457
4839.000000;1.037535
4838.000000;1.033235
4837.000000;1.029019
4836.000000;1.025604
4835.000000;1.022546
4834.000000;1.018880
4833.000000;1.014611
4832.000000;1.010401
4831.000000;1.006337
4830.000000;1.002171
4829.000000;0.998202
4828.000000;0.994750
4827.000000;0.991302
4826.000000;0.987246
4825.000000;0.982945
4824.000000;0.979050
4823.000000;0.975359
4822.000000;0.971379
4821.000000;0.967361
4820.000000;0.963713
4819.000000;0.960004
4818.000000;0.955702
4817.000000;0.951312
4816.000000;0.947627
4815.000000;0.944376
4814.000000;0.940786
4813.000000;0.936972
4812.000000;0.933617
4811.000000;0.930709
4810.000000;0.927657
4809.000000;0.924362
4808.000000;0.921071
4807.000000;0.917562
4806.000000;0.913454
4805.000000;0.909027
4804.000000;0.904843
4803.000000;0.900918
4802.000000;0.897083
4801.000000;0.893687
4800.000000;0.891000
4799.000000;0.888398
4798.000000;0.885129
4797.000000;0.881503
4796.000000;0.878336
4795.000000;0.875597
4794.000000;0.872567
4793.000000;0.869039
4792.000000;0.865395
4791.000000;0.861738
4790.000000;0.857882
4789.000000;0.854023
4788.000000;0.850577
4787.000000;0.847506
4786.000000;0.844468
4785.000000;0.841420
4784.000000;0.838449
4783.000000;0.835311
4782.000000;0.831808
4781.000000;0.828289
4780.000000;0.825137
4779.000000;0.822105
4778.000000;0.818787
4777.000000;0.815362
4776.000000;0.812217
4775.000000;0.809240
4774.000000;0.806132
4773.000000;0.803010
4772.000000;0.800046
4771.000000;0.796930
4770.000000;0.793372
4769.000000;0.789759
4768.000000;0.786612
4767.000000;0.783817
4766.000000;0.781005
4765.000000;0.778242
4764.000000;0.775684
4763.000000;0.772989
4762.000000;0.769807
4761.000000;0.766454
4760.000000;0.763390
4759.000000;0.760451
4758.000000;0.757316
4757.000000;0.754267
4756.000000;0.751726
4755.000000;0.749422
4754.000000;0.746809
4753.000000;0.743975
4752.000000;0.741368
4751.000000;0.738942
4750.000000;0.736336
4749.000000;0.733617
4748.000000;0.731076
4747.000000;0.728558
4746.000000;0.725716
4745.000000;0.722724
4744.000000;0.720030
4743.000000;0.717629
4742.000000;0.715194
4741.000000;0.712711
4740.000000;0.710341
4739.000000;0.707928
4738.000000;0.705259
4737.000000;0.702568
4736.000000;0.700172
4735.000000;0.697877
4734.000000;0.695343
4733.000000;0.692746
4732.000000;0.690462
4731.000000;0.688381
4730.000000;0.686176
4729.000000;0.683951
4728.000000;0.681988
4727.000000;0.680104
4726.000000;0.677925
4725.000000;0.675552
4724.000000;0.673333
4723.000000;0.671183
4722.000000;0.668787
4721.000000;0.666252
4720.000000;0.663940
4719.000000;0.661845
4718.000000;0.659718
4717.000000;0.657623
4716.000000;0.655769
4715.000000;0.653972
4714.000000;0.651870
4713.000000;0.649515
4712.000000;0.647208
4711.000000;0.644977
4710.000000;0.642723
4709.000000;0.640649
4708.000000;0.638958
4707.000000;0.637364
4706.000000;0.635452
4705.000000;0.633348
4704.000000;0.631465
4703.000000;0.629802
4702.000000;0.628059
4701.000000;0.626247
4700.000000;0.624608
4699.000000;0.623104
4698.000000;0.621511
4697.000000;0.619855
4696.000000;0.618235
4695.000000;0.616431
4694.000000;0.614226
4693.000000;0.611929
4692.000000;0.610044
4691.000000;0.608580
4690.000000;0.607198
4689.000000;0.605813
4688.000000;0.604541
4687.000000;0.603247
4686.000000;0.601702
4685.000000;0.600041
4684.000000;0.598540
4683.000000;0.597111
4682.000000;0.595503
4681.000000;0.593826
4680.000000;0.592352
4679.000000;0.590990
4678.000000;0.589465
4677.000000;0.587852
4676.000000;0.586421
4675.000000;0.585111
4674.000000;0.583670
4673.000000;0.582153
4672.000000;0.580795
4671.000000;0.579543
4670.000000;0.578205
4669.000000;0.576882
4668.000000;0.575777
4667.000000;0.574749
4666.000000;0.573539
4665.000000;0.572269
4664.000000;0.571201
4663.000000;0.570215
4662.000000;0.569016
4661.000000;0.567701
4660.000000;0.566582
4659.000000;0.565617
4658.000000;0.564540
4657.000000;0.563400
4656.000000;0.562473
4655.000000;0.561720
4654.000000;0.560847
4653.000000;0.559807
4652.000000;0.558762
4651.000000;0.557690
4650.000000;0.556476
4649.000000;0.555273
4648.000000;0.554322
4647.000000;0.553524
4646.000000;0.552636
4645.000000;0.551726
4644.000000;0.551010
4643.000000;0.550379
4642.000000;0.549551
4641.000000;0.548549
4640.000000;0.547587
4639.000000;0.546647
4638.000000;0.545619
4637.000000;0.544680
4636.000000;0.544060
4635.000000;0.543578
4634.000000;0.542878
4633.000000;0.542004
4632.000000;0.541251
4631.000000;0.540623
4630.000000;0.539908
4629.000000;0.539155
4628.000000;0.538590
4627.000000;0.538166
4626.000000;0.537647
4625.000000;0.537052
4624.000000;0.536564
4623.000000;0.536134
4622.000000;0.535587
4621.000000;0.535005
4620.000000;0.534564
4619.000000;0.534125
4618.000000;0.533417
4617.000000;0.532504
4616.000000;0.531674
4615.000000;0.531006
4614.000000;0.530452
4613.000000;0.530128
4612.000000;0.530082
4611.000000;0.529957
4610.000000;0.529381
4609.000000;0.528544
4608.000000;0.527933
4607.000000;0.527651
4606.000000;0.527457
4605.000000;0.527300
4604.000000;0.527280
4603.000000;0.527239
4602.000000;0.526901
4601.000000;0.526359
4600.000000;0.525944
4599.000000;0.525702
4598.000000;0.525450
4597.000000;0.525243
4596.000000;0.525296
4595.000000;0.525527
4594.000000;0.525623
4593.000000;0.525510
4592.000000;0.525338
4591.000000;0.525116
4590.000000;0.524773
4589.000000;0.524455
4588.000000;0.524344
4587.000000;0.524321
4586.000000;0.524189
4585.000000;0.524094
4584.000000;0.524275
4583.000000;0.524585
4582.000000;0.524717
4581.000000;0.524765
4580.000000;0.525051
4579.000000;0.525536
4578.000000;0.525875
4577.000000;0.525966
4576.000000;0.525987
4575.000000;0.525997
4574.000000;0.525974
4573.000000;0.526115
4572.000000;0.526622
4571.000000;0.527285
4570.000000;0.527737
4569.000000;0.528014
4568.000000;0.528415
4567.000000;0.528918
4566.000000;0.529251
4565.000000;0.529433
4564.000000;0.529753
4563.000000;0.530265
4562.000000;0.530769
4561.000000;0.531228
4560.000000;0.531769
4559.000000;0.532338
4558.000000;0.532799
4557.000000;0.533289
4556.000000;0.534045
4555.000000;0.534980
4554.000000;0.535819
4553.000000;0.536557
4552.000000;0.537368
4551.000000;0.538185
4550.000000;0.538830
4549.000000;0.539417
4548.000000;0.540181
4547.000000;0.541031
4546.000000;0.541742
4545.000000;0.542445
4544.000000;0.543458
4543.000000;0.544713
4542.000000;0.545855
4541.000000;0.546793
4540.000000;0.547707
4539.000000;0.548618
4538.000000;0.549413
4537.000000;0.550181
4536.000000;0.551085
4535.000000;0.552001
4534.000000;0.552742
4533.000000;0.553482
4532.000000;0.554509
4531.000000;0.555693
4530.000000;0.556678
4529.000000;0.557467
4528.000000;0.558331
4527.000000;0.559280
4526.000000;0.560130
4525.000000;0.560964
4524.000000;0.562005
4523.000000;0.563134
4522.000000;0.564039
4521.000000;0.564751
4520.000000;0.565543
4519.000000;0.566430
4518.000000;0.567248
4517.000000;0.568106
4516.000000;0.569221
4515.000000;0.570449
4514.000000;0.571475
4513.000000;0.572363
4512.000000;0.573406
4511.000000;0.574547
4510.000000;0.575483
4509.000000;0.576232
4508.000000;0.577071
4507.000000;0.578001
4506.000000;0.578817
4505.000000;0.579596
4504.000000;0.580608
4503.000000;0.581830
4502.000000;0.583026
4501.000000;0.584222
4500.000000;0.585607
4499.000000;0.587065
4498.000000;0.588312
4497.000000;0.589383
4496.000000;0.590528
4495.000000;0.591713
4494.000000;0.592750
4493.000000;0.593753
4492.000000;0.594983
4491.000000;0.596358
4490.000000;0.597625
4489.000000;0.598870
4488.000000;0.600334
4487.000000;0.601881
4486.000000;0.603200
4485.000000;0.604393
4484.000000;0.605805
4483.000000;0.607405
4482.000000;0.608873
4481.000000;0.610216
4480.000000;0.611731
4479.000000;0.613440
4478.000000;0.615123
4477.000000;0.616802
4476.000000;0.618668
4475.000000;0.620603
4474.000000;0.622307
4473.000000;0.623814
4472.000000;0.625406
4471.000000;0.627130
4470.000000;0.628859
4469.000000;0.630697
4468.000000;0.632787
4467.000000;0.634908
4466.000000;0.636750
4465.000000;0.638429
4464.000000;0.640255
4463.000000;0.642188
4462.000000;0.644049
4461.000000;0.646002
4460.000000;0.648256
4459.000000;0.650545
4458.000000;0.652501
4457.000000;0.654315
4456.000000;0.656408
4455.000000;0.658704
4454.000000;0.660861
4453.000000;0.662987
4452.000000;0.665406
4451.000000;0.667944
4450.000000;0.670133
4449.000000;0.672000
4448.000000;0.673971
4447.000000;0.676166
4446.000000;0.678430
4445.000000;0.680851
4444.000000;0.683578
4443.000000;0.686310
4442.000000;0.688645
4441.000000;0.690769
4440.000000;0.693121
4439.000000;0.695619
4438.000000;0.697915
4437.000000;0.700173
4436.000000;0.702827
4435.000000;0.705761
4434.000000;0.708508
4433.000000;0.711061
4432.000000;0.713719
4431.000000;0.716347
4430.000000;0.718624
4429.000000;0.720857
4428.000000;0.723679
4427.000000;0.727042
4426.000000;0.730288
4425.000000;0.733139
4424.000000;0.735846
4423.000000;0.738473
4422.000000;0.740877
4421.000000;0.743297
4420.000000;0.746170
4419.000000;0.749432
4418.000000;0.752668
4417.000000;0.755834
4416.000000;0.759118
4415.000000;0.762301
4414.000000;0.765044
4413.000000;0.767602
4412.000000;0.770467
4411.000000;0.773543
4410.000000;0.776444
4409.000000;0.779345
4408.000000;0.782654
4407.000000;0.786104
4406.000000;0.789120
4405.000000;0.791892
4404.000000;0.795142
4403.000000;0.798974
4402.000000;0.802861
4401.000000;0.806585
4400.000000;0.810287
4399.000000;0.813749
4398.000000;0.816622
4397.000000;0.819237
4396.000000;0.822280
4395.000000;0.825792
4394.000000;0.829338
4393.000000;0.832902
4392.000000;0.836697
4391.000000;0.840386
4390.000000;0.843524
4389.000000;0.846538
4388.000000;0.850202
4387.000000;0.854360
4386.000000;0.858222
4385.000000;0.861712
4384.000000;0.865419
4383.000000;0.869405
4382.000000;0.873176
4381.000000;0.876690
4380.000000;0.880313
4379.000000;0.883957
4378.000000;0.887327
4377.000000;0.890827
4376.000000;0.895062
4375.000000;0.899657
4374.000000;0.903684
4373.000000;0.907108
4372.000000;0.910645
4371.000000;0.914423
4370.000000;0.918006
4369.000000;0.921537
4368.000000;0.925585
4367.000000;0.929967
4366.000000;0.933977
4365.000000;0.937704
4364.000000;0.941916
4363.000000;0.946756
4362.000000;0.951710
4361.000000;0.956680
4360.000000;0.961879
4359.000000;0.966824
4358.000000;0.970749
4357.000000;0.973940
4356.000000;0.977426
4355.000000;0.981493
4354.000000;0.985659
4353.000000;0.989862
4352.000000;0.994452
4351.000000;0.999244
4350.000000;1.003830
4349.000000;1.008538
4348.000000;1.013822
4347.000000;1.019097
4346.000000;1.023536
4345.000000;1.027616
4344.000000;1.032397
4343.000000;1.037696
4342.000000;1.042528
4341.000000;1.047012
4340.000000;1.052170
4339.000000;1.058054
4338.000000;1.063698
4337.000000;1.068771
4336.000000;1.073765
4335.000000;1.078773
4334.000000;1.083608
4333.000000;1.088790
4332.000000;1.094866
4331.000000;1.101060
4330.000000;1.106184
4329.000000;1.110548
4328.000000;1.115365
4327.000000;1.120763
4326.000000;1.126026
4325.000000;1.131250
4324.000000;1.136953
4323.000000;1.142634
4322.000000;1.147575
4321.000000;1.152520
4320.000000;1.158630
4319.000000;1.165324
4318.000000;1.171114
4317.000000;1.176041
4316.000000;1.181251
4315.000000;1.186841
4314.000000;1.192218
4313.000000;1.197897
4312.000000;1.204645
4311.000000;1.211498
4310.000000;1.216938
4309.000000;1.221464
4308.000000;1.226684
4307.000000;1.232583
4306.000000;1.238136
4305.000000;1.243781
4304.000000;1.250601
4303.000000;1.257764
4302.000000;1.263500
4301.000000;1.268098
4300.000000;1.273290
4299.000000;1.279265
4298.000000;1.285024
4297.000000;1.290875
4296.000000;1.297766
4295.000000;1.304874
4294.000000;1.310798
4293.000000;1.316407
4292.000000;1.323414
4291.000000;1.331032
4290.000000;1.337211
4289.000000;1.342270
4288.000000;1.347995
4287.000000;1.354027
4286.000000;1.358731
4285.000000;1.362888
4284.000000;1.368832
4283.000000;1.376597
4282.000000;1.384396
4281.000000;1.392109
4280.000000;1.400655
4279.000000;1.408798
4278.000000;1.414636
4277.000000;1.419540
4276.000000;1.426416
4275.000000;1.434823
4274.000000;1.441837
4273.000000;1.447134
4272.000000;1.452959
4271.000000;1.459673
4270.000000;1.465784
4269.000000;1.471684
4268.000000;1.478880
4267.000000;1.486149
4266.000000;1.491050
4265.000000;1.494799
4264.000000;1.500852
4263.000000;1.509337
4262.000000;1.517387
4261.000000;1.524360
4260.000000;1.532109
4259.000000;1.540617
4258.000000;1.548025
4257.000000;1.554624
4256.000000;1.562209
4255.000000;1.570226
4254.000000;1.577012
4253.000000;1.583531
4252.000000;1.591378
4251.000000;1.598823
4250.000000;1.603726
4249.000000;1.608606
4248.000000;1.616823
4247.000000;1.626481
4246.000000;1.633421
4245.000000;1.638409
4244.000000;1.644947
4243.000000;1.652422
4242.000000;1.658306
4241.000000;1.664509
4240.000000;1.674472
4239.000000;1.686093
4238.000000;1.694651
4237.000000;1.701051
4236.000000;1.709526
4235.000000;1.719557
4234.000000;1.727782
4233.000000;1.735290
4232.000000;1.744768
4231.000000;1.753021
4230.000000;1.755575
4229.000000;1.756221
4228.000000;1.762178
4227.000000;1.773016
4226.000000;1.783238
4225.000000;1.792722
4224.000000;1.804877
4223.000000;1.817050
4222.000000;1.823685
4221.000000;1.827204
4220.000000;1.834353
4219.000000;1.844477
4218.000000;1.852268
4217.000000;1.859062
4216.000000;1.869704
4215.000000;1.881129
4214.000000;1.886649
4213.000000;1.888851
4212.000000;1.894864
4211.000000;1.902892
4210.000000;1.906373
4209.000000;1.908213
4208.000000;1.916261
4207.000000;1.928142
4206.000000;1.935704
4205.000000;1.941040
4204.000000;1.951936
4203.000000;1.965042
4202.000000;1.970494
4201.000000;1.971040
4200.000000;1.977679
4199.000000;1.989937
4198.000000;1.997978
4197.000000;2.001648
4196.000000;2.009749
4195.000000;2.021423
4194.000000;2.027295
4193.000000;2.029392
4192.000000;2.039066
4191.000000;2.056166
4190.000000;2.069447
4189.000000;2.077248
4188.000000;2.088627
4187.000000;2.103150
4186.000000;2.110790
4185.000000;2.112025
4184.000000;2.117734
4183.000000;2.130006
4182.000000;2.141881
4181.000000;2.153498
4180.000000;2.168933
4179.000000;2.179231
4178.000000;2.174070
4177.000000;2.166206
4176.000000;2.175510
4175.000000;2.198900
4174.000000;2.215903
4173.000000;2.221968
4172.000000;2.230163
4171.000000;2.240148
4170.000000;2.239046
4169.000000;2.230591
4168.000000;2.232384
4167.000000;2.247799
4166.000000;2.263403
4165.000000;2.273514
4164.000000;2.284342
4163.000000;2.291517
4162.000000;2.286982
4161.000000;2.283361
4160.000000;2.298633
4159.000000;2.325165
4158.000000;2.338574
4157.000000;2.339772
4156.000000;2.350271
4155.000000;2.370071
4154.000000;2.380767
4153.000000;2.382514
4152.000000;2.390654
4151.000000;2.398335
4150.000000;2.389293
4149.000000;2.377003
4148.000000;2.384988
4147.000000;2.406785
4146.000000;2.414466
4145.000000;2.410754
4144.000000;2.423028
4143.000000;2.448046
4142.000000;2.454925
4141.000000;2.443055
4140.000000;2.443159
4139.000000;2.459739
4138.000000;2.468989
4137.000000;2.467708
4136.000000;2.478278
4135.000000;2.503502
4134.000000;2.514558
4133.000000;2.503004
4132.000000;2.491586
4131.000000;2.480822
4130.000000;2.458201
4129.000000;2.441855
4128.000000;2.459662
4127.000000;2.500862
4126.000000;2.524919
4125.000000;2.522931
4124.000000;2.525118
4123.000000;2.540627
4122.000000;2.550031
4121.000000;2.551057
4120.000000;2.561373
4119.000000;2.572465
4118.000000;2.558783
4117.000000;2.537021
4116.000000;2.541638
4115.000000;2.568460
4114.000000;2.584518
4113.000000;2.585465
4112.000000;2.598692
4111.000000;2.623031
4110.000000;2.632454
4109.000000;2.640620
4108.000000;2.676255
4107.000000;2.721871
4106.000000;2.736808
4105.000000;2.735127
4104.000000;2.748458
4103.000000;2.760731
4102.000000;2.746932
4101.000000;2.724777
4100.000000;2.727662
4099.000000;2.739673
4098.000000;2.710291
4097.000000;2.659253
4096.000000;2.637593
4095.000000;2.642711
4094.000000;2.649597
4093.000000;2.667280
4092.000000;2.723438
4091.000000;2.799740
4090.000000;2.820129
4089.000000;2.782334
4088.000000;2.758851
4087.000000;2.758444
4086.000000;2.750902
4085.000000;2.743337
4084.000000;2.766715
4083.000000;2.802058
4082.000000;2.803058
4081.000000;2.794186
4080.000000;2.824500
4079.000000;2.871584
4078.000000;2.871999
4077.000000;2.836060
4076.000000;2.824142
4075.000000;2.835846
4074.000000;2.818276
4073.000000;2.783653
4072.000000;2.778927
4071.000000;2.792914
4070.000000;2.782556
4069.000000;2.773557
4068.000000;2.821407
4067.000000;2.906455
4066.000000;2.951175
4065.000000;2.954744
4064.000000;2.968142
4063.000000;2.935090
4062.000000;2.818956
4061.000000;2.720784
4060.000000;2.707034
4059.000000;2.749232
4058.000000;2.771324
4057.000000;2.768878
4056.000000;2.793064
4055.000000;2.837060
4054.000000;2.852713
4053.000000;2.830628
4052.000000;2.834157
4051.000000;2.889658
4050.000000;2.943588
4049.000000;2.968052
4048.000000;2.998600
4047.000000;3.016615
4046.000000;2.967049
4045.000000;2.915669
4044.000000;2.929392
4043.000000;2.964592
4042.000000;2.930058
4041.000000;2.870997
4040.000000;2.879746
4039.000000;2.940890
4038.000000;2.969450
4037.000000;2.958456
4036.000000;2.977909
4035.000000;2.999786
4034.000000;2.944555
4033.000000;2.890701
4032.000000;2.907682
4031.000000;2.971251
4030.000000;2.997876
4029.000000;2.993910
4028.000000;3.061053
4027.000000;3.234467
4026.000000;3.357519
4025.000000;3.233038
4024.000000;3.088568
4023.000000;2.993883
4022.000000;2.906998
4021.000000;2.850256
4020.000000;2.862265
4019.000000;2.924053
4018.000000;2.956274
4017.000000;2.967425
4016.000000;3.027629
4015.000000;3.105362
4014.000000;3.101819
4013.000000;3.052345
4012.000000;3.070190
4011.000000;3.145600
4010.000000;3.156854
4009.000000;3.111696
4008.000000;3.100523
4007.000000;3.111066
4006.000000;3.059438
4005.000000;2.975173
4004.000000;2.974666
4003.000000;3.046740
4002.000000;3.076611
4001.000000;3.035722
4000.000000;3.042389
3999.000000;3.107537
3998.000000;3.126958
3997.000000;3.103736
3996.000000;3.156831
3995.000000;3.278275
3994.000000;3.329269
3993.000000;3.319078
3992.000000;3.291137
3991.000000;3.224200
3990.000000;3.113801
3989.000000;3.008120
3988.000000;2.980658
3987.000000;3.013149
3986.000000;3.033242
3985.000000;3.076641
3984.000000;3.197368
3983.000000;3.303097
3982.000000;3.250550
3981.000000;3.132804
3980.000000;3.109786
3979.000000;3.161424
3978.000000;3.190586
3977.000000;3.220224
3976.000000;3.281507
3975.000000;3.328878
3974.000000;3.203062
3973.000000;3.046985
3972.000000;3.025071
3971.000000;3.043390
3970.000000;2.999994
3969.000000;2.930869
3968.000000;2.913810
3967.000000;2.960926
3966.000000;3.033012
3965.000000;3.116795
3964.000000;3.283977
3963.000000;3.334195
3962.000000;3.150314
3961.000000;3.091155
3960.000000;3.216371
3959.000000;3.336324
3958.000000;3.232429
3957.000000;3.107840
3956.000000;3.095020
3955.000000;3.132383
3954.000000;3.095424
3953.000000;3.051335
3952.000000;3.112950
3951.000000;3.246881
3950.000000;3.237483
3949.000000;3.110049
3948.000000;3.041220
3947.000000;3.014326
3946.000000;2.967533
3945.000000;2.911283
3944.000000;2.921959
3943.000000;3.056878
3942.000000;3.239506
3941.000000;3.241447
3940.000000;3.280894
3939.000000;3.492554
3938.000000;3.766242
3937.000000;3.788317
3936.000000;3.570769
3935.000000;3.511923
3934.000000;3.334834
3933.000000;3.181844
3932.000000;3.263381
3931.000000;3.555236
3930.000000;3.493787
3929.000000;3.220155
3928.000000;3.119923
3927.000000;3.150568
3926.000000;3.191673
3925.000000;3.286477
3924.000000;3.479576
3923.000000;3.569117
3922.000000;3.438868
3921.000000;3.225564
3920.000000;3.200532
3919.000000;3.316466
3918.000000;3.358251
3917.000000;3.264184
3916.000000;3.204740
3915.000000;3.215929
3914.000000;3.198539
3913.000000;3.163312
3912.000000;3.221862
3911.000000;3.376396
3910.000000;3.480882
3909.000000;3.476951
3908.000000;3.443749
3907.000000;3.367896
3906.000000;3.358195
3905.000000;3.260078
3904.000000;3.234176
3903.000000;3.283128
3902.000000;3.256358
3901.000000;3.280020
3900.000000;3.621323
3899.000000;3.955948
3898.000000;3.656600
3897.000000;3.630738
3896.000000;3.303925
3895.000000;3.192109
3894.000000;3.228406
3893.000000;3.308592
3892.000000;3.336059
3891.000000;3.381046
3890.000000;3.421006
3889.000000;3.296074
3888.000000;3.185467
3887.000000;3.207983
3886.000000;3.306584
3885.000000;3.388033
3884.000000;3.317796
3883.000000;3.286144
3882.000000;3.329552
3881.000000;3.175473
3880.000000;3.142364
3879.000000;3.226235
3878.000000;3.262709
3877.000000;3.223460
3876.000000;3.338990
3875.000000;3.286721
3874.000000;3.212910
3873.000000;3.338555
3872.000000;3.345376
3871.000000;3.207552
3870.000000;3.179220
3869.000000;3.237475
3868.000000;3.289343
3867.000000;3.155531
3866.000000;2.992993
3865.000000;2.925041
3864.000000;2.964400
3863.000000;3.040437
3862.000000;3.040571
3861.000000;2.947481
3860.000000;2.888917
3859.000000;2.931802
3858.000000;3.020922
3857.000000;3.081599
3856.000000;3.408571
3855.000000;3.296224
3854.000000;3.184867
3853.000000;3.360588
3852.000000;3.383300
3851.000000;3.315483
3850.000000;3.402623
3849.000000;3.298351
3848.000000;3.213488
3847.000000;3.223324
3846.000000;3.496949
3845.000000;3.563026
3844.000000;3.397367
3843.000000;3.272356
3842.000000;3.395414
3841.000000;3.833495
3840.000000;3.582622
3839.000000;3.529024
3838.000000;3.594299
3837.000000;3.657375
3836.000000;3.420908
3835.000000;3.434334
3834.000000;3.335383
3833.000000;3.278844
3832.000000;3.556203
3831.000000;3.973307
3830.000000;3.380822
3829.000000;2.995871
3828.000000;2.845487
3827.000000;2.814943
3826.000000;2.810040
3825.000000;2.832311
3824.000000;3.204570
3823.000000;3.020228
3822.000000;3.078369
3821.000000;2.975920
3820.000000;2.794401
3819.000000;2.771128
3818.000000;2.799238
3817.000000;2.905078
3816.000000;3.164074
3815.000000;3.686687
3814.000000;3.869093
3813.000000;3.456111
3812.000000;3.257833
3811.000000;3.131272
3810.000000;3.177328
3809.000000;3.075055
3808.000000;2.897128
3807.000000;2.898277
3806.000000;3.007241
3805.000000;3.020129
3804.000000;3.368136
3803.000000;3.377176
3802.000000;3.254727
3801.000000;3.627562
3800.000000;3.469310
3799.000000;3.204702
3798.000000;3.209436
3797.000000;3.509233
3796.000000;3.913778
3795.000000;4.336078
3794.000000;3.773165
3793.000000;3.493236
3792.000000;3.607253
3791.000000;3.803339
3790.000000;3.672428
3789.000000;3.499198
3788.000000;3.564123
3787.000000;3.563301
3786.000000;3.528291
3785.000000;3.834137
3784.000000;3.598922
3783.000000;3.317170
3782.000000;3.035752
3781.000000;2.904497
3780.000000;3.019732
3779.000000;3.298670
3778.000000;3.467056
3777.000000;3.441583
3776.000000;3.681633
3775.000000;4.105333
3774.000000;4.104906
3773.000000;3.809599
3772.000000;3.274308
3771.000000;3.148648
3770.000000;3.240253
3769.000000;3.392914
3768.000000;3.706887
3767.000000;3.880337
3766.000000;4.124608
3765.000000;3.378493
3764.000000;3.142334
3763.000000;3.216100
3762.000000;3.266073
3761.000000;2.985469
3760.000000;3.060842
3759.000000;3.267621
3758.000000;3.154864
3757.000000;2.955060
3756.000000;2.889007
3755.000000;2.861423
3754.000000;2.750316
3753.000000;2.703182
3752.000000;2.784079
3751.000000;2.894759
3750.000000;2.929406
3749.000000;2.943548
3748.000000;3.013732
3747.000000;3.128152
3746.000000;3.210082
3745.000000;3.342094
3744.000000;3.549500
3743.000000;3.516632
3742.000000;3.603765
3741.000000;3.629014
3740.000000;3.628073
3739.000000;3.644126
3738.000000;3.569097
3737.000000;3.459641
3736.000000;3.112966
3735.000000;2.930161
3734.000000;3.001143
3733.000000;3.177088
3732.000000;3.220041
3731.000000;3.189820
3730.000000;3.231859
3729.000000;3.345704
3728.000000;3.382731
3727.000000;3.307775
3726.000000;3.214460
3725.000000;3.128538
3724.000000;3.157335
3723.000000;3.329929
3722.000000;3.377179
3721.000000;3.273584
3720.000000;3.257569
3719.000000;3.353218
3718.000000;3.602498
3717.000000;3.604654
3716.000000;3.576972
3715.000000;3.568807
3714.000000;3.225276
3713.000000;3.094732
3712.000000;2.995073
3711.000000;3.050304
3710.000000;3.258083
3709.000000;3.309321
3708.000000;3.276005
3707.000000;3.323103
3706.000000;3.262267
3705.000000;3.014631
3704.000000;2.997340
3703.000000;3.275910
3702.000000;3.514958
3701.000000;3.395259
3700.000000;3.232577
3699.000000;3.066122
3698.000000;3.016150
3697.000000;3.133953
3696.000000;3.434267
3695.000000;3.690871
3694.000000;3.478399
3693.000000;2.957217
3692.000000;2.867549
3691.000000;2.989345
3690.000000;3.070697
3689.000000;3.405509
3688.000000;3.949542
3687.000000;3.589098
3686.000000;3.613757
3685.000000;3.800257
3684.000000;3.440148
3683.000000;3.234684
3682.000000;3.311702
3681.000000;3.647159
3680.000000;3.598436
3679.000000;3.602694
3678.000000;3.451521
3677.000000;3.356459
3676.000000;3.443180
3675.000000;3.621050
3674.000000;3.685404
3673.000000;3.621034
3672.000000;3.674555
3671.000000;3.402142
3670.000000;3.332373
3669.000000;3.404373
3668.000000;3.289620
3667.000000;3.261259
3666.000000;3.263936
3665.000000;3.186381
3664.000000;3.107375
3663.000000;3.103651
3662.000000;3.241965
3661.000000;3.470358
3660.000000;3.515291
3659.000000;3.414807
3658.000000;3.455397
3657.000000;3.523527
3656.000000;3.456049
3655.000000;3.416539
3654.000000;3.330556
3653.000000;3.242250
3652.000000;3.447561
3651.000000;3.395957
3650.000000;3.200268
3649.000000;3.027173
3648.000000;2.998940
3647.000000;3.155919
3646.000000;3.276607
3645.000000;3.374668
3644.000000;3.412312
3643.000000;3.225248
3642.000000;3.284833
3641.000000;3.464033
3640.000000;3.293012
3639.000000;3.300236
3638.000000;3.449105
3637.000000;3.689557
3636.000000;3.559749
3635.000000;3.305876
3634.000000;3.503167
3633.000000;3.671988
3632.000000;3.500223
3631.000000;3.567714
3630.000000;3.549825
3629.000000;3.534895
3628.000000;3.583052
3627.000000;3.560500
3626.000000;3.631628
3625.000000;3.540510
3624.000000;3.389789
3623.000000;3.459156
3622.000000;3.430082
3621.000000;3.254430
3620.000000;3.063956
3619.000000;2.969136
3618.000000;3.006090
3617.000000;3.107779
3616.000000;3.124647
3615.000000;3.206374
3614.000000;3.761087
3613.000000;3.980767
3612.000000;3.838114
3611.000000;4.145382
3610.000000;3.723297
3609.000000;3.687466
3608.000000;3.738383
3607.000000;3.651657
3606.000000;3.965343
3605.000000;3.656960
3604.000000;3.298764
3603.000000;3.125056
3602.000000;3.065278
3601.000000;3.080571
3600.000000;3.130839
3599.000000;3.298654
3598.000000;3.630853
3597.000000;4.406306
3596.000000;3.984624
3595.000000;3.346004
3594.000000;3.233997
3593.000000;3.296821
3592.000000;3.400388
3591.000000;3.371456
3590.000000;3.373415
3589.000000;3.654421
3588.000000;3.669116
3587.000000;3.502686
3586.000000;3.560259
3585.000000;3.583606
3584.000000;3.503510
3583.000000;3.401061
3582.000000;3.528877
3581.000000;4.516960
3580.000000;3.792283
3579.000000;3.708274
3578.000000;4.119515
3577.000000;3.707986
3576.000000;3.756717
3575.000000;4.112443
3574.000000;3.734125
3573.000000;3.424020
3572.000000;3.355262
3571.000000;3.315893
3570.000000;3.171837
3569.000000;3.057891
3568.000000;3.131857
3567.000000;3.705303
3566.000000;3.947720
3565.000000;3.412055
3564.000000;3.471187
3563.000000;3.579662
3562.000000;3.538573
3561.000000;3.416385
3560.000000;3.373987
3559.000000;3.413657
3558.000000;3.510138
3557.000000;3.447007
3556.000000;3.387686
3555.000000;3.534979
3554.000000;3.476589
3553.000000;3.480509
3552.000000;3.725393
3551.000000;3.666505
3550.000000;3.534853
3549.000000;3.652275
3548.000000;3.756190
3547.000000;3.392597
3546.000000;3.316624
3545.000000;3.367932
3544.000000;3.299275
3543.000000;3.241469
3542.000000;3.306838
3541.000000;3.391695
3540.000000;3.375900
3539.000000;3.500093
3538.000000;3.837972
3537.000000;3.938485
3536.000000;3.722684
3535.000000;3.426081
3534.000000;3.235442
3533.000000;3.232549
3532.000000;3.220547
3531.000000;3.253756
3530.000000;3.449514
3529.000000;3.622329
3528.000000;3.692755
3527.000000;3.453157
3526.000000;3.382240
3525.000000;3.390728
3524.000000;3.330026
3523.000000;3.406954
3522.000000;3.655099
3521.000000;3.680366
3520.000000;3.560894
3519.000000;3.532770
3518.000000;3.447845
3517.000000;3.283067
3516.000000;3.157623
3515.000000;3.197320
3514.000000;3.433414
3513.000000;3.790920
3512.000000;3.626398
3511.000000;3.409701
3510.000000;3.472975
3509.000000;3.403768
3508.000000;3.246604
3507.000000;3.233161
3506.000000;3.253622
3505.000000;3.233497
3504.000000;3.168916
3503.000000;3.166003
3502.000000;3.292800
3501.000000;3.469384
3500.000000;3.408214
3499.000000;3.361716
3498.000000;3.635902
3497.000000;3.672570
3496.000000;3.650449
3495.000000;4.224389
3494.000000;4.226219
3493.000000;3.822217
3492.000000;3.860713
3491.000000;3.868748
3490.000000;3.465100
3489.000000;3.208747
3488.000000;3.172891
3487.000000;3.247979
3486.000000;3.343138
3485.000000;3.436783
3484.000000;3.437099
3483.000000;3.572503
3482.000000;3.595912
3481.000000;3.268153
3480.000000;3.144295
3479.000000;3.181768
3478.000000;3.268463
3477.000000;3.291399
3476.000000;3.378239
3475.000000;3.648631
3474.000000;3.558546
3473.000000;3.657448
3472.000000;4.014914
3471.000000;3.471706
3470.000000;3.384834
3469.000000;3.367319
3468.000000;3.236386
3467.000000;3.277219
3466.000000;3.370701
3465.000000;3.347458
3464.000000;3.472332
3463.000000;3.529940
3462.000000;3.442723
3461.000000;3.524831
3460.000000;3.601806
3459.000000;3.811675
3458.000000;3.875036
3457.000000;3.462384
3456.000000;3.296380
3455.000000;3.467700
3454.000000;3.585910
3453.000000;3.490381
3452.000000;3.652702
3451.000000;3.538825
3450.000000;3.517382
3449.000000;3.900011
3448.000000;3.586649
3447.000000;3.247281
3446.000000;3.186272
3445.000000;3.231458
3444.000000;3.205943
3443.000000;3.211343
3442.000000;3.422627
3441.000000;3.536560
3440.000000;3.531903
3439.000000;3.758437
3438.000000;3.581415
3437.000000;3.496658
3436.000000;3.453116
3435.000000;3.224622
3434.000000;3.215226
3433.000000;3.381349
3432.000000;3.374931
3431.000000;3.216820
3430.000000;3.157938
3429.000000;3.200745
3428.000000;3.194282
3427.000000;3.181069
3426.000000;3.317019
3425.000000;3.384782
3424.000000;3.254258
3423.000000;3.189196
3422.000000;3.169368
3421.000000;3.186094
3420.000000;3.162691
3419.000000;3.181840
3418.000000;3.354682
3417.000000;3.260579
3416.000000;3.204462
3415.000000;3.450560
3414.000000;3.387927
3413.000000;3.132632
3412.000000;3.047926
3411.000000;3.029909
3410.000000;3.024058
3409.000000;3.070265
3408.000000;3.233667
3407.000000;3.461290
3406.000000;3.463828
3405.000000;3.374265
3404.000000;3.238321
3403.000000;3.201224
3402.000000;3.598243
3401.000000;3.746933
3400.000000;3.373651
3399.000000;3.418587
3398.000000;3.522414
3397.000000;3.619211
3396.000000;3.572964
3395.000000;3.444774
3394.000000;3.413374
3393.000000;3.554782
3392.000000;3.966836
3391.000000;3.840122
3390.000000;3.662404
3389.000000;3.563826
3388.000000;3.330543
3387.000000;3.191948
3386.000000;3.329818
3385.000000;3.594636
3384.000000;3.544474
3383.000000;3.839408
3382.000000;3.889854
3381.000000;3.657726
3380.000000;3.910602
3379.000000;3.672930
3378.000000;3.580048
3377.000000;3.563401
3376.000000;3.369530
3375.000000;3.465013
3374.000000;3.517629
3373.000000;3.502157
3372.000000;3.929834
3371.000000;3.652372
3370.000000;3.302394
3369.000000;3.278777
3368.000000;3.213976
3367.000000;3.354900
3366.000000;4.234685
3365.000000;3.565563
3364.000000;3.490669
3363.000000;3.897644
3362.000000;3.693628
3361.000000;3.381092
3360.000000;3.232623
3359.000000;3.213586
3358.000000;3.127297
3357.000000;3.046664
3356.000000;3.116537
3355.000000;3.243841
3354.000000;3.259963
3353.000000;3.351854
3352.000000;3.440621
3351.000000;3.408666
3350.000000;3.337213
3349.000000;3.300099
3348.000000;3.547951
3347.000000;3.873407
3346.000000;3.443326
3345.000000;3.217118
3344.000000;3.242638
3343.000000;3.424282
3342.000000;3.503835
3341.000000;3.553720
3340.000000;3.572324
3339.000000;3.341505
3338.000000;3.268172
3337.000000;3.340528
3336.000000;3.450835
3335.000000;3.468037
3334.000000;3.303180
3333.000000;3.185853
3332.000000;3.132936
3331.000000;3.100549
3330.000000;3.112983
3329.000000;3.221132
3328.000000;3.190716
3327.000000;3.081293
3326.000000;3.410808
3325.000000;3.604982
3324.000000;3.136193
3323.000000;3.080635
3322.000000;3.121503
3321.000000;3.172782
3320.000000;3.345427
3319.000000;3.669923
3318.000000;3.889478
3317.000000;3.687988
3316.000000;3.595811
3315.000000;4.013261
3314.000000;3.590512
3313.000000;3.162310
3312.000000;3.088634
3311.000000;3.090342
3310.000000;3.086563
3309.000000;3.145472
3308.000000;3.464841
3307.000000;3.857768
3306.000000;3.466900
3305.000000;3.417884
3304.000000;3.537462
3303.000000;3.476920
3302.000000;3.382334
3301.000000;3.386471
3300.000000;3.542785
3299.000000;4.019223
3298.000000;3.626993
3297.000000;3.246676
3296.000000;3.287868
3295.000000;3.470339
3294.000000;3.636475
3293.000000;3.791008
3292.000000;3.543916
3291.000000;3.522986
3290.000000;4.138146
3289.000000;4.108546
3288.000000;3.644218
3287.000000;3.411088
3286.000000;3.460450
3285.000000;3.822933
3284.000000;4.060498
3283.000000;4.119778
3282.000000;3.476134
3281.000000;3.182184
3280.000000;3.159973
3279.000000;3.278941
3278.000000;3.336092
3277.000000;3.429092
3276.000000;3.584891
3275.000000;3.290025
3274.000000;3.171385
3273.000000;3.253111
3272.000000;3.338619
3271.000000;3.506833
3270.000000;3.538933
3269.000000;3.325226
3268.000000;3.356928
3267.000000;3.670079
3266.000000;3.902909
3265.000000;3.899182
3264.000000;3.418412
3263.000000;3.195431
3262.000000;3.272048
3261.000000;3.264028
3260.000000;3.148798
3259.000000;3.167727
3258.000000;3.193646
3257.000000;3.150213
3256.000000;3.178698
3255.000000;3.472355
3254.000000;3.898828
3253.000000;3.815166
3252.000000;3.768232
3251.000000;3.405766
3250.000000;3.369296
3249.000000;3.602187
3248.000000;3.485676
3247.000000;3.348308
3246.000000;3.375093
3245.000000;3.335481
3244.000000;3.190231
3243.000000;3.124188
3242.000000;3.240190
3241.000000;3.595030
3240.000000;3.633517
3239.000000;3.330970
3238.000000;3.320642
3237.000000;3.528835
3236.000000;3.431488
3235.000000;3.345261
3234.000000;3.360092
3233.000000;3.288976
3232.000000;3.229258
3231.000000;3.368210
3230.000000;3.678221
3229.000000;3.449078
3228.000000;3.405379
3227.000000;3.427608
3226.000000;3.244803
3225.000000;3.178449
3224.000000;3.396526
3223.000000;4.021746
3222.000000;3.908597
3221.000000;3.761360
3220.000000;3.994980
3219.000000;3.978410
3218.000000;3.393474
3217.000000;3.252026
3216.000000;3.469990
3215.000000;3.696498
3214.000000;3.876615
3213.000000;3.805123
3212.000000;3.678548
3211.000000;3.859095
3210.000000;3.949158
3209.000000;4.232898
3208.000000;4.288953
3207.000000;3.719593
3206.000000;3.873852
3205.000000;4.025296
3204.000000;3.661471
3203.000000;3.835507
3202.000000;3.617495
3201.000000;3.362460
3200.000000;3.598047
3199.000000;3.826718
3198.000000;3.923337
3197.000000;4.285887
3196.000000;3.625999
3195.000000;3.431292
3194.000000;3.291056
3193.000000;3.206885
3192.000000;3.254845
3191.000000;3.207338
3190.000000;3.155881
3189.000000;3.251759
3188.000000;3.317120
3187.000000;3.322188
3186.000000;3.477321
3185.000000;3.511116
3184.000000;3.685534
3183.000000;4.088961
3182.000000;3.692471
3181.000000;3.742866
3180.000000;3.772290
3179.000000;3.583002
3178.000000;3.751809
3177.000000;3.978738
3176.000000;3.507515
3175.000000;3.388817
3174.000000;3.762702
3173.000000;3.799081
3172.000000;3.784687
3171.000000;3.857440
3170.000000;3.651259
3169.000000;3.614179
3168.000000;3.542331
3167.000000;3.730049
3166.000000;3.584396
3165.000000;3.297963
3164.000000;3.316184
3163.000000;3.337758
3162.000000;3.212470
3161.000000;3.146355
3160.000000;3.291952
3159.000000;3.686410
3158.000000;3.514089
3157.000000;3.270462
3156.000000;3.261068
3155.000000;3.420666
3154.000000;3.772578
3153.000000;3.585875
3152.000000;3.433738
3151.000000;3.537656
3150.000000;3.703351
3149.000000;3.740588
3148.000000;3.564572
3147.000000;3.470495
3146.000000;3.560443
3145.000000;3.699095
3144.000000;3.489356
3143.000000;3.397674
3142.000000;3.391530
3141.000000;3.241171
3140.000000;3.177091
3139.000000;3.197673
3138.000000;3.158935
3137.000000;3.213151
3136.000000;3.538420
3135.000000;3.482102
3134.000000;3.377697
3133.000000;3.436099
3132.000000;3.249387
3131.000000;3.191678
3130.000000;3.230547
3129.000000;3.241789
3128.000000;3.162758
3127.000000;3.076928
3126.000000;3.126621
3125.000000;3.286201
3124.000000;3.316690
3123.000000;3.351206
3122.000000;3.447839
3121.000000;3.573792
3120.000000;3.635377
3119.000000;3.466661
3118.000000;3.716084
3117.000000;3.734370
3116.000000;3.607199
3115.000000;3.643441
3114.000000;3.603742
3113.000000;3.938016
3112.000000;3.612364
3111.000000;3.366753
3110.000000;3.356892
3109.000000;3.372245
3108.000000;3.495960
3107.000000;3.917169
3106.000000;3.775123
3105.000000;3.482834
3104.000000;3.650456
3103.000000;3.527571
3102.000000;3.437365
3101.000000;3.737897
3100.000000;3.501947
3099.000000;3.439929
3098.000000;3.753390
3097.000000;3.762965
3096.000000;3.858809
3095.000000;3.577633
3094.000000;3.480203
3093.000000;3.580601
3092.000000;3.538757
3091.000000;3.578734
3090.000000;3.606752
3089.000000;3.534051
3088.000000;3.356651
3087.000000;3.409741
3086.000000;3.648106
3085.000000;3.907303
3084.000000;3.833741
3083.000000;3.669652
3082.000000;3.847480
3081.000000;3.473693
3080.000000;3.426913
3079.000000;3.549391
3078.000000;3.405541
3077.000000;3.481286
3076.000000;3.449287
3075.000000;3.302589
3074.000000;3.178328
3073.000000;3.150532
3072.000000;3.239204
3071.000000;3.238170
3070.000000;3.298472
3069.000000;3.357254
3068.000000;3.258884
3067.000000;3.260620
3066.000000;3.315369
3065.000000;3.345322
3064.000000;3.295183
3063.000000;3.239916
3062.000000;3.327379
3061.000000;3.502764
3060.000000;3.408247
3059.000000;3.323886
3058.000000;3.566843
3057.000000;3.615153
3056.000000;3.799408
3055.000000;3.923113
3054.000000;3.477092
3053.000000;3.569141
3052.000000;3.535351
3051.000000;3.458711
3050.000000;3.534017
3049.000000;3.676505
3048.000000;3.576216
3047.000000;3.392510
3046.000000;3.501083
3045.000000;3.663621
3044.000000;3.763227
3043.000000;3.497667
3042.000000;3.408658
3041.000000;3.524540
3040.000000;3.397045
3039.000000;3.319661
3038.000000;3.398926
3037.000000;3.435993
3036.000000;3.296002
3035.000000;3.120745
3034.000000;3.094110
3033.000000;3.204075
3032.000000;3.237958
3031.000000;3.598967
3030.000000;3.937146
3029.000000;3.269974
3028.000000;3.401703
3027.000000;3.857210
3026.000000;3.609607
3025.000000;3.500756
3024.000000;3.425816
3023.000000;3.592912
3022.000000;4.040115
3021.000000;3.917690
3020.000000;3.897861
3019.000000;3.448288
3018.000000;3.339527
3017.000000;3.636443
3016.000000;3.355355
3015.000000;3.125241
3014.000000;3.169611
3013.000000;3.331859
3012.000000;3.470294
3011.000000;3.384612
3010.000000;3.247124
3009.000000;3.256353
3008.000000;3.285108
3007.000000;3.468227
3006.000000;3.622263
3005.000000;3.722807
3004.000000;3.829114
3003.000000;3.200816
3002.000000;3.057581
3001.000000;3.111973
3000.000000;3.140879
2999.000000;3.194505
2998.000000;3.420529
2997.000000;3.961664
2996.000000;4.252958
2995.000000;4.170541
2994.000000;3.809997
2993.000000;3.514967
2992.000000;3.460428
2991.000000;3.712322
2990.000000;3.603250
2989.000000;3.338668
2988.000000;3.475245
2987.000000;4.086028
2986.000000;4.396872
2985.000000;4.331312
2984.000000;3.878762
2983.000000;3.488508
2982.000000;3.566839
2981.000000;4.097003
2980.000000;4.058720
2979.000000;3.640957
2978.000000;3.725070
2977.000000;3.865020
2976.000000;3.547637
2975.000000;3.693527
2974.000000;3.793200
2973.000000;3.273860
2972.000000;3.227191
2971.000000;3.629232
2970.000000;3.677603
2969.000000;3.536870
2968.000000;3.606626
2967.000000;3.619471
2966.000000;3.733953
2965.000000;3.762993
2964.000000;3.882468
2963.000000;3.492268
2962.000000;3.321228
2961.000000;3.478819
2960.000000;3.752906
2959.000000;3.795369
2958.000000;3.377933
2957.000000;3.190469
2956.000000;3.413165
2955.000000;3.701501
2954.000000;3.683054
2953.000000;4.159330
2952.000000;4.101573
2951.000000;4.299970
2950.000000;4.111279
2949.000000;3.927934
2948.000000;3.633226
2947.000000;3.568984
2946.000000;4.021718
2945.000000;3.742393
2944.000000;3.374550
2943.000000;3.320955
2942.000000;3.447459
2941.000000;3.442916
2940.000000;3.424142
2939.000000;3.517126
2938.000000;3.370648
2937.000000;3.255073
2936.000000;3.394847
2935.000000;3.775898
2934.000000;4.020972
2933.000000;3.797467
2932.000000;3.505992
2931.000000;3.256230
2930.000000;3.177233
2929.000000;3.207168
2928.000000;3.168930
2927.000000;3.113284
2926.000000;3.131972
2925.000000;3.199333
2924.000000;3.207685
2923.000000;3.105852
2922.000000;3.104511
2921.000000;3.258391
2920.000000;3.395696
2919.000000;3.440425
2918.000000;3.464359
2917.000000;3.490673
2916.000000;3.341086
2915.000000;3.152570
2914.000000;3.174074
2913.000000;3.433860
2912.000000;3.672611
2911.000000;3.513346
2910.000000;3.308266
2909.000000;3.307461
2908.000000;3.304068
2907.000000;3.347394
2906.000000;3.833937
2905.000000;3.557529
2904.000000;3.358890
2903.000000;3.409663
2902.000000;3.275437
2901.000000;3.152998
2900.000000;3.166405
2899.000000;3.334105
2898.000000;3.555546
2897.000000;3.594863
2896.000000;3.396353
2895.000000;3.250764
2894.000000;3.228558
2893.000000;3.210626
2892.000000;3.096857
2891.000000;3.080967
2890.000000;3.209544
2889.000000;3.263544
2888.000000;3.221668
2887.000000;3.394457
2886.000000;3.769687
2885.000000;3.736373
2884.000000;4.156030
2883.000000;3.795359
2882.000000;3.622887
2881.000000;3.569672
2880.000000;3.334688
2879.000000;3.388215
2878.000000;3.517447
2877.000000;3.377114
2876.000000;3.522472
2875.000000;4.007319
2874.000000;3.824580
2873.000000;3.570726
2872.000000;3.231845
2871.000000;3.134035
2870.000000;3.502601
2869.000000;3.814242
2868.000000;3.328581
2867.000000;3.260407
2866.000000;3.192876
2865.000000;3.191850
2864.000000;3.386711
2863.000000;3.674356
2862.000000;3.521492
2861.000000;3.299875
2860.000000;3.358563
2859.000000;3.525658
2858.000000;3.638922
2857.000000;3.655073
2856.000000;3.409556
2855.000000;3.233407
2854.000000;3.235779
2853.000000;3.289287
2852.000000;3.254123
2851.000000;3.150591
2850.000000;3.091828
2849.000000;3.115797
2848.000000;3.184005
2847.000000;3.175624
2846.000000;3.191028
2845.000000;3.340378
2844.000000;3.474899
2843.000000;3.532086
2842.000000;3.486552
2841.000000;3.433756
2840.000000;3.637764
2839.000000;3.845368
2838.000000;3.931406
2837.000000;3.901790
2836.000000;3.758538
2835.000000;4.241503
2834.000000;3.967593
2833.000000;3.551372
2832.000000;3.528918
2831.000000;3.489006
2830.000000;3.400366
2829.000000;3.540779
2828.000000;4.221806
2827.000000;3.924269
2826.000000;3.679985
2825.000000;3.551214
2824.000000;3.695672
2823.000000;3.848509
2822.000000;3.449846
2821.000000;3.276098
2820.000000;3.266639
2819.000000;3.342168
2818.000000;3.357687
2817.000000;3.367911
2816.000000;3.748369
2815.000000;4.006232
2814.000000;3.418019
2813.000000;3.552808
2812.000000;3.803399
2811.000000;3.515085
2810.000000;3.691607
2809.000000;4.003869
2808.000000;4.078380
2807.000000;3.648645
2806.000000;3.471245
2805.000000;3.690614
2804.000000;3.728317
2803.000000;3.479014
2802.000000;3.329264
2801.000000;3.261235
2800.000000;3.191883
2799.000000;3.083331
2798.000000;3.075394
2797.000000;3.152267
2796.000000;3.157324
2795.000000;3.183829
2794.000000;3.344112
2793.000000;3.384202
2792.000000;3.282508
2791.000000;3.242527
2790.000000;3.342313
2789.000000;3.630027
2788.000000;3.677275
2787.000000;3.411830
2786.000000;3.335546
2785.000000;3.487644
2784.000000;3.603697
2783.000000;3.700979
2782.000000;3.853475
2781.000000;3.581539
2780.000000;3.470982
2779.000000;3.498841
2778.000000;3.453728
2777.000000;3.404079
2776.000000;3.398068
2775.000000;3.414512
2774.000000;3.651139
2773.000000;4.043261
2772.000000;4.153375
2771.000000;3.735538
2770.000000;3.682467
2769.000000;3.525648
2768.000000;3.213322
2767.000000;3.230337
2766.000000;3.378893
2765.000000;3.452148
2764.000000;3.562887
2763.000000;3.396654
2762.000000;3.355018
2761.000000;3.525208
2760.000000;3.566697
2759.000000;3.513089
2758.000000;3.808179
2757.000000;3.831709
2756.000000;3.386083
2755.000000;3.308914
2754.000000;3.344116
2753.000000;3.317176
2752.000000;3.223329
2751.000000;3.196831
2750.000000;3.298518
2749.000000;3.282098
2748.000000;3.294020
2747.000000;3.541724
2746.000000;3.695734
2745.000000;3.374985
2744.000000;3.111544
2743.000000;3.078247
2742.000000;3.272781
2741.000000;3.496967
2740.000000;3.568035
2739.000000;3.763618
2738.000000;3.900806
2737.000000;3.598603
2736.000000;3.506604
2735.000000;3.547783
2734.000000;3.668212
2733.000000;3.883579
2732.000000;3.902372
2731.000000;3.875252
2730.000000;3.514427
2729.000000;3.339198
2728.000000;3.726983
2727.000000;3.873462
2726.000000;3.592856
2725.000000;3.512135
2724.000000;3.188386
2723.000000;3.067520
2722.000000;3.170122
2721.000000;3.291387
2720.000000;3.320448
2719.000000;3.453738
2718.000000;3.575028
2717.000000;3.495317
2716.000000;3.488678
2715.000000;3.537054
2714.000000;3.679832
2713.000000;3.453912
2712.000000;3.452413
2711.000000;3.538847
2710.000000;3.311982
2709.000000;3.234901
2708.000000;3.263510
2707.000000;3.263463
2706.000000;3.312303
2705.000000;3.557627
2704.000000;3.773336
2703.000000;3.742233
2702.000000;3.889970
2701.000000;3.839565
2700.000000;3.411418
2699.000000;3.224178
2698.000000;3.295863
2697.000000;3.510372
2696.000000;3.497466
2695.000000;3.350419
2694.000000;3.293034
2693.000000;3.354246
2692.000000;3.445593
2691.000000;3.303737
2690.000000;3.335416
2689.000000;3.516940
2688.000000;3.346389
2687.000000;3.237652
2686.000000;3.370077
2685.000000;3.637433
2684.000000;3.472413
2683.000000;3.268143
2682.000000;3.221957
2681.000000;3.187694
2680.000000;3.248978
2679.000000;3.440074
2678.000000;3.312990
2677.000000;3.161178
2676.000000;3.291631
2675.000000;3.603542
2674.000000;3.606454
2673.000000;3.432285
2672.000000;3.506129
2671.000000;3.742392
2670.000000;3.606097
2669.000000;3.586226
2668.000000;3.898681
2667.000000;3.589365
2666.000000;3.665064
2665.000000;4.159189
2664.000000;3.646950
2663.000000;3.615481
2662.000000;3.539749
2661.000000;3.313912
2660.000000;3.331279
2659.000000;3.464495
2658.000000;3.436996
2657.000000;3.360851
2656.000000;3.349826
2655.000000;3.612544
2654.000000;3.770575
2653.000000;3.362554
2652.000000;3.561096
2651.000000;4.074061
2650.000000;3.964116
2649.000000;4.231776
2648.000000;3.710128
2647.000000;3.307150
2646.000000;3.157031
2645.000000;3.161484
2644.000000;3.252502
2643.000000;3.323542
2642.000000;3.641706
2641.000000;3.811457
2640.000000;3.667872
2639.000000;3.590818
2638.000000;3.282444
2637.000000;3.180439
2636.000000;3.385933
2635.000000;3.729526
2634.000000;3.484044
2633.000000;3.360011
2632.000000;3.424965
2631.000000;3.512875
2630.000000;3.349750
2629.000000;3.213595
2628.000000;3.364063
2627.000000;3.712001
2626.000000;3.779193
2625.000000;4.099920
2624.000000;3.948925
2623.000000;3.586586
2622.000000;3.358349
2621.000000;3.233020
2620.000000;3.412120
2619.000000;3.662098
2618.000000;3.884440
2617.000000;3.868642
2616.000000;3.589017
2615.000000;3.525362
2614.000000;3.527292
2613.000000;3.300945
2612.000000;3.222525
2611.000000;3.332083
2610.000000;3.208905
2609.000000;3.059366
2608.000000;3.102753
2607.000000;3.202397
2606.000000;3.201502
2605.000000;3.218594
2604.000000;3.325386
2603.000000;3.413178
2602.000000;3.354932
2601.000000;3.283144
2600.000000;3.328150
2599.000000;3.584426
2598.000000;3.793430
2597.000000;3.606274
2596.000000;3.705722
2595.000000;3.844449
2594.000000;3.683807
2593.000000;3.527771
2592.000000;3.327897
2591.000000;3.182203
2590.000000;3.188700
2589.000000;3.530443
2588.000000;3.739603
2587.000000;3.413543
2586.000000;3.428464
2585.000000;3.432929
2584.000000;3.381994
2583.000000;3.357142
2582.000000;3.410569
2581.000000;3.489961
2580.000000;3.398153
2579.000000;3.357150
2578.000000;3.589663
2577.000000;3.621259
2576.000000;3.252745
2575.000000;3.177872
2574.000000;3.354614
2573.000000;3.605413
2572.000000;3.888358
2571.000000;3.900857
2570.000000;3.591264
2569.000000;3.955091
2568.000000;3.941434
2567.000000;3.512750
2566.000000;3.432733
2565.000000;3.280084
2564.000000;3.179875
2563.000000;3.263388
2562.000000;3.453975
2561.000000;3.526904
2560.000000;3.517765
2559.000000;3.486376
2558.000000;3.625198
2557.000000;3.677234
2556.000000;3.468275
2555.000000;3.441436
2554.000000;3.812659
2553.000000;3.705043
2552.000000;3.706187
2551.000000;4.190208
2550.000000;4.224291
2549.000000;3.570327
2548.000000;3.490470
2547.000000;3.655311
2546.000000;3.398905
2545.000000;3.223919
2544.000000;3.362141
2543.000000;3.497197
2542.000000;3.371959
2541.000000;3.287344
2540.000000;3.276115
2539.000000;3.534275
2538.000000;3.666299
2537.000000;3.501467
2536.000000;3.813221
2535.000000;4.016627
2534.000000;3.610095
2533.000000;3.490175
2532.000000;3.800687
2531.000000;3.993647
2530.000000;3.733078
2529.000000;3.450369
2528.000000;3.365497
2527.000000;3.541068
2526.000000;3.937194
2525.000000;3.498268
2524.000000;3.638943
2523.000000;3.910246
2522.000000;3.950641
2521.000000;3.885559
2520.000000;3.568672
2519.000000;3.701866
2518.000000;3.782044
2517.000000;3.710382
2516.000000;3.596868
2515.000000;3.557385
2514.000000;3.578922
2513.000000;3.560201
2512.000000;3.531135
2511.000000;3.399575
2510.000000;3.528446
2509.000000;3.716058
2508.000000;3.589191
2507.000000;3.664445
2506.000000;3.546754
2505.000000;3.378714
2504.000000;3.482705
2503.000000;3.761227
2502.000000;3.676097
2501.000000;3.813078
2500.000000;4.080752
2499.000000;3.613814
2498.000000;3.634874
2497.000000;3.393998
2496.000000;3.508226
2495.000000;3.985506
2494.000000;3.619802
2493.000000;3.338102
2492.000000;3.147954
2491.000000;3.082964
2490.000000;3.167675
2489.000000;3.287433
2488.000000;3.239362
2487.000000;3.201736
2486.000000;3.287032
2485.000000;3.341541
2484.000000;3.237212
2483.000000;3.244950
2482.000000;3.474089
2481.000000;3.269746
2480.000000;3.204018
2479.000000;3.367851
2478.000000;3.379452
2477.000000;3.429825
2476.000000;3.697247
2475.000000;3.688717
2474.000000;3.710983
2473.000000;3.608529
2472.000000;3.855196
2471.000000;3.701383
2470.000000;3.376229
2469.000000;3.419856
2468.000000;3.719076
2467.000000;3.620696
2466.000000;3.503540
2465.000000;3.349078
2464.000000;3.162010
2463.000000;3.167986
2462.000000;3.256816
2461.000000;3.297558
2460.000000;3.347299
2459.000000;3.699426
2458.000000;4.056400
2457.000000;3.900431
2456.000000;4.038487
2455.000000;3.744557
2454.000000;3.545586
2453.000000;3.350311
2452.000000;3.349386
2451.000000;3.577270
2450.000000;3.701895
2449.000000;3.526273
2448.000000;3.703564
2447.000000;3.684289
2446.000000;3.496315
2445.000000;3.605744
2444.000000;3.784907
2443.000000;3.502926
2442.000000;3.589238
2441.000000;3.495507
2440.000000;3.183184
2439.000000;3.101749
2438.000000;3.196187
2437.000000;3.334276
2436.000000;3.339428
2435.000000;3.434298
2434.000000;3.738386
2433.000000;4.096241
2432.000000;3.557293
2431.000000;3.257711
2430.000000;3.312984
2429.000000;3.387861
2428.000000;3.356928
2427.000000;3.657895
2426.000000;3.747678
2425.000000;3.466488
2424.000000;3.676354
2423.000000;4.113107
2422.000000;4.139369
2421.000000;3.862965
2420.000000;3.605955
2419.000000;3.514066
2418.000000;3.705246
2417.000000;3.825766
2416.000000;3.600677
2415.000000;3.595033
2414.000000;3.828326
2413.000000;3.878470
2412.000000;3.541849
2411.000000;3.166030
2410.000000;3.127982
2409.000000;3.307086
2408.000000;3.458542
2407.000000;3.627847
2406.000000;3.542802
2405.000000;3.266592
2404.000000;3.328730
2403.000000;3.633768
2402.000000;3.590764
2401.000000;3.316942
2400.000000;3.292612
2399.000000;3.464991
2398.000000;3.561483
2397.000000;4.238907
2396.000000;3.352086
2395.000000;3.129701
2394.000000;3.233917
2393.000000;3.290741
2392.000000;3.251738
2391.000000;3.392319
2390.000000;3.603832
2389.000000;3.591567
2388.000000;3.795946
2387.000000;4.003439
2386.000000;4.155787
2385.000000;4.243172
2384.000000;3.651730
2383.000000;3.478694
2382.000000;3.778422
2381.000000;4.149900
2380.000000;3.936343
2379.000000;4.006199
2378.000000;3.782955
2377.000000;3.568114
2376.000000;3.416425
2375.000000;3.335909
2374.000000;3.432196
2373.000000;3.713610
2372.000000;3.891070
2371.000000;3.611516
2370.000000;3.605018
2369.000000;3.763016
2368.000000;3.612304
2367.000000;3.632029
2366.000000;3.842209
2365.000000;3.710335
2364.000000;3.670999
2363.000000;3.534442
2362.000000;3.592695
2361.000000;3.782874
2360.000000;3.598016
2359.000000;3.673766
2358.000000;4.005365
2357.000000;3.509727
2356.000000;3.475335
2355.000000;3.603097
2354.000000;3.575626
2353.000000;3.711231
2352.000000;3.890235
2351.000000;3.589855
2350.000000;3.531228
2349.000000;3.811764
2348.000000;3.760059
2347.000000;3.885470
2346.000000;4.074646
2345.000000;3.639473
2344.000000;3.630947
2343.000000;3.561401
2342.000000;3.657564
2341.000000;3.843091
2340.000000;3.462022
2339.000000;3.404069
2338.000000;3.824696
2337.000000;3.482357
2336.000000;3.414967
2335.000000;3.723171
2334.000000;3.883690
2333.000000;3.779517
2332.000000;3.717504
2331.000000;3.565673
2330.000000;3.632488
2329.000000;3.914790
2328.000000;4.361425
2327.000000;4.780919
2326.000000;4.064805
2325.000000;3.710195
2324.000000;3.639270
2323.000000;3.670063
2322.000000;3.953886
2321.000000;3.968709
2320.000000;4.026829
2319.000000;4.002925
2318.000000;4.038673
2317.000000;4.748814
2316.000000;4.106745
2315.000000;3.780208
2314.000000;3.823399
2313.000000;3.879353
2312.000000;3.734737
2311.000000;3.674963
2310.000000;3.724502
2309.000000;3.776705
2308.000000;3.657348
2307.000000;3.587716
2306.000000;3.834539
2305.000000;4.447186
2304.000000;3.928102
2303.000000;3.757497
2302.000000;3.839753
2301.000000;3.899610
2300.000000;3.723201
2299.000000;3.510467
2298.000000;3.445264
2297.000000;3.638372
2296.000000;3.643347
2295.000000;3.544604
2294.000000;3.660291
2293.000000;3.959141
2292.000000;3.840287
2291.000000;3.590500
2290.000000;4.161210
2289.000000;3.631203
2288.000000;3.564335
2287.000000;3.846819
2286.000000;4.068942
2285.000000;3.697451
2284.000000;4.023801
2283.000000;3.919226
2282.000000;4.069248
2281.000000;3.762289
2280.000000;3.534251
2279.000000;3.494950
2278.000000;3.564664
2277.000000;3.734217
2276.000000;3.563077
2275.000000;3.480122
2274.000000;3.762539
2273.000000;4.689814
2272.000000;4.069860
2271.000000;3.634939
2270.000000;3.680794
2269.000000;3.728439
2268.000000;3.763645
2267.000000;3.551365
2266.000000;3.478218
2265.000000;3.371940
2264.000000;3.240684
2263.000000;3.283888
2262.000000;3.510805
2261.000000;3.446085
2260.000000;3.254819
2259.000000;3.142777
2258.000000;3.212347
2257.000000;3.381774
2256.000000;3.462418
2255.000000;3.693614
2254.000000;4.054521
2253.000000;3.941401
2252.000000;4.004050
2251.000000;4.030998
2250.000000;3.919292
2249.000000;3.568696
2248.000000;3.455912
2247.000000;3.340328
2246.000000;3.399064
2245.000000;3.423910
2244.000000;3.328887
2243.000000;3.381357
2242.000000;3.619085
2241.000000;3.734821
2240.000000;3.397402
2239.000000;3.258185
2238.000000;3.408473
2237.000000;3.407165
2236.000000;3.359536
2235.000000;3.409642
2234.000000;3.545280
2233.000000;3.574411
2232.000000;3.400974
2231.000000;3.266375
2230.000000;3.394584
2229.000000;3.821871
2228.000000;3.888596
2227.000000;3.437070
2226.000000;3.304244
2225.000000;3.329194
2224.000000;3.437425
2223.000000;3.348455
2222.000000;3.643889
2221.000000;4.037699
2220.000000;3.541300
2219.000000;3.676946
2218.000000;3.684581
2217.000000;3.552025
2216.000000;3.299536
2215.000000;3.169119
2214.000000;3.280423
2213.000000;3.546433
2212.000000;3.802205
2211.000000;4.054494
2210.000000;3.650480
2209.000000;3.327687
2208.000000;3.265763
2207.000000;3.391704
2206.000000;3.555322
2205.000000;3.404521
2204.000000;3.621229
2203.000000;3.595892
2202.000000;3.540995
2201.000000;3.595294
2200.000000;3.632205
2199.000000;4.014635
2198.000000;4.124063
2197.000000;3.957043
2196.000000;3.458388
2195.000000;3.328878
2194.000000;3.565774
2193.000000;4.034266
2192.000000;3.847992
2191.000000;3.929281
2190.000000;3.759400
2189.000000;3.483501
2188.000000;3.746006
2187.000000;3.810731
2186.000000;3.597994
2185.000000;3.803919
2184.000000;3.570689
2183.000000;3.484053
2182.000000;3.589718
2181.000000;3.398479
2180.000000;3.538964
2179.000000;3.630146
2178.000000;3.731404
2177.000000;4.124104
2176.000000;3.808988
2175.000000;3.842792
2174.000000;3.939149
2173.000000;4.351239
2172.000000;3.753206
2171.000000;3.493786
2170.000000;3.657188
2169.000000;3.891519
2168.000000;3.870664
2167.000000;3.649853
2166.000000;3.926164
2165.000000;3.581202
2164.000000;3.176578
2163.000000;3.102159
2162.000000;3.156046
2161.000000;3.319246
2160.000000;3.442136
2159.000000;3.310964
2158.000000;3.304203
2157.000000;3.571654
2156.000000;3.529035
2155.000000;3.379291
2154.000000;3.334191
2153.000000;3.179538
2152.000000;3.140750
2151.000000;3.170349
2150.000000;3.309492
2149.000000;3.595774
2148.000000;3.653928
2147.000000;3.769149
2146.000000;3.750044
2145.000000;3.514263
2144.000000;3.378296
2143.000000;3.313772
2142.000000;3.440332
2141.000000;3.519361
2140.000000;3.321691
2139.000000;3.255943
2138.000000;3.408851
2137.000000;3.347505
2136.000000;3.231160
2135.000000;3.384092
2134.000000;3.629091
2133.000000;3.607684
2132.000000;3.869715
2131.000000;3.455570
2130.000000;3.273788
2129.000000;3.385089
2128.000000;3.455775
2127.000000;3.335863
2126.000000;3.540769
2125.000000;3.451661
2124.000000;3.325127
2123.000000;3.427384
2122.000000;3.524976
2121.000000;3.402933
2120.000000;3.645897
2119.000000;4.134491
2118.000000;3.627946
2117.000000;3.400359
2116.000000;3.392904
2115.000000;3.625953
2114.000000;3.635448
2113.000000;4.044667
2112.000000;3.762983
2111.000000;3.343142
2110.000000;3.460340
2109.000000;3.481394
2108.000000;3.466461
2107.000000;3.369545
2106.000000;3.411737
2105.000000;3.546950
2104.000000;3.327914
2103.000000;3.201839
2102.000000;3.317495
2101.000000;3.396686
2100.000000;3.295303
2099.000000;3.373264
2098.000000;3.762144
2097.000000;4.302003
2096.000000;3.625519
2095.000000;3.315472
2094.000000;3.355708
2093.000000;3.524837
2092.000000;3.397188
2091.000000;3.346498
2090.000000;3.583952
2089.000000;3.761106
2088.000000;3.716558
2087.000000;3.513929
2086.000000;3.380646
2085.000000;3.419180
2084.000000;3.271565
2083.000000;3.209459
2082.000000;3.496533
2081.000000;4.005671
2080.000000;3.839886
2079.000000;4.200151
2078.000000;3.905585
2077.000000;3.914002
2076.000000;3.486586
2075.000000;3.343332
2074.000000;3.645856
2073.000000;3.516306
2072.000000;3.510561
2071.000000;3.363459
2070.000000;3.325222
2069.000000;3.415992
2068.000000;3.426590
2067.000000;3.347995
2066.000000;3.627998
2065.000000;3.950697
2064.000000;3.407167
2063.000000;3.418091
2062.000000;3.417282
2061.000000;3.452936
2060.000000;3.495858
2059.000000;3.701171
2058.000000;3.657127
2057.000000;3.268490
2056.000000;3.272764
2055.000000;3.543162
2054.000000;3.744005
2053.000000;3.696617
2052.000000;4.104724
2051.000000;3.505695
2050.000000;3.338007
2049.000000;3.436334
2048.000000;3.309126
2047.000000;3.271530
2046.000000;3.636588
2045.000000;3.770161
2044.000000;3.690595
2043.000000;3.863251
2042.000000;4.302187
2041.000000;4.173885
2040.000000;3.683529
2039.000000;3.486829
2038.000000;3.665341
2037.000000;3.616100
2036.000000;3.398675
2035.000000;3.437706
2034.000000;3.522742
2033.000000;3.416923
2032.000000;3.510055
2031.000000;3.611849
2030.000000;3.867771
2029.000000;3.840269
2028.000000;3.418839
2027.000000;3.322665
2026.000000;3.457307
2025.000000;3.535408
2024.000000;3.532501
2023.000000;3.633226
2022.000000;3.762058
2021.000000;3.515513
2020.000000;3.453716
2019.000000;3.333279
2018.000000;3.523951
2017.000000;3.801610
2016.000000;3.374622
2015.000000;3.264560
2014.000000;3.270881
2013.000000;3.376722
2012.000000;3.399018
2011.000000;3.530793
2010.000000;3.656262
2009.000000;3.433981
2008.000000;3.672771
2007.000000;4.216583
2006.000000;3.649880
2005.000000;3.372435
2004.000000;3.500448
2003.000000;3.707683
2002.000000;3.995426
2001.000000;3.641958
2000.000000;3.564611
1999.000000;3.677270
1998.000000;3.628318
1997.000000;3.817879
1996.000000;3.481788
1995.000000;3.279815
1994.000000;3.347740
1993.000000;3.450339
1992.000000;3.425780
1991.000000;3.657087
1990.000000;3.637461
1989.000000;3.348510
1988.000000;3.540685
1987.000000;4.032452
1986.000000;3.614644
1985.000000;3.540769
1984.000000;3.727779
1983.000000;3.765971
1982.000000;3.726665
1981.000000;3.902287
1980.000000;3.680583
1979.000000;3.543403
1978.000000;3.674685
1977.000000;3.655473
1976.000000;3.726446
1975.000000;3.398850
1974.000000;3.204891
1973.000000;3.203348
1972.000000;3.243959
1971.000000;3.302454
1970.000000;3.262283
1969.000000;3.239087
1968.000000;3.360566
1967.000000;3.574831
1966.000000;3.610714
1965.000000;3.453396
1964.000000;3.302566
1963.000000;3.192779
1962.000000;3.329702
1961.000000;3.756820
1960.000000;3.722950
1959.000000;3.467793
1958.000000;3.294158
1957.000000;3.275412
1956.000000;3.426598
1955.000000;3.701137
1954.000000;3.803437
1953.000000;3.616784
1952.000000;3.314360
1951.000000;3.168223
1950.000000;3.279692
1949.000000;3.375338
1948.000000;3.407759
1947.000000;3.605089
1946.000000;3.847590
1945.000000;3.671798
1944.000000;3.806537
1943.000000;3.898672
1942.000000;3.877927
1941.000000;3.800062
1940.000000;3.455650
1939.000000;3.405485
1938.000000;3.920877
1937.000000;3.925721
1936.000000;4.121621
1935.000000;3.994563
1934.000000;3.675154
1933.000000;3.568976
1932.000000;3.919372
1931.000000;4.018965
1930.000000;3.734237
1929.000000;3.391372
1928.000000;3.431200
1927.000000;3.670901
1926.000000;3.914444
1925.000000;4.679618
1924.000000;3.957476
1923.000000;3.513656
1922.000000;3.531136
1921.000000;3.465731
1920.000000;3.272522
1919.000000;3.235123
1918.000000;3.491085
1917.000000;4.042196
1916.000000;3.874605
1915.000000;3.608815
1914.000000;3.570182
1913.000000;3.585767
1912.000000;4.097962
1911.000000;3.717143
1910.000000;3.831700
1909.000000;3.792081
1908.000000;3.770918
1907.000000;3.751167
1906.000000;3.655395
1905.000000;3.500510
1904.000000;3.297395
1903.000000;3.198648
1902.000000;3.324482
1901.000000;3.656221
1900.000000;3.669674
1899.000000;3.543026
1898.000000;3.687407
1897.000000;3.853776
1896.000000;3.506855
1895.000000;3.291783
1894.000000;3.376647
1893.000000;3.511393
1892.000000;3.473562
1891.000000;3.337917
1890.000000;3.372683
1889.000000;3.460625
1888.000000;3.253416
1887.000000;3.211243
1886.000000;3.433457
1885.000000;3.731971
1884.000000;3.730317
1883.000000;3.278287
1882.000000;3.223351
1881.000000;3.297455
1880.000000;3.366129
1879.000000;3.389671
1878.000000;3.697156
1877.000000;4.388260
1876.000000;3.431427
1875.000000;3.266422
1874.000000;3.233319
1873.000000;3.217173
1872.000000;3.302266
1871.000000;3.356644
1870.000000;3.511036
1869.000000;3.607994
1868.000000;3.439520
1867.000000;3.507069
1866.000000;3.443141
1865.000000;3.310426
1864.000000;3.315336
1863.000000;3.376446
1862.000000;3.706607
1861.000000;3.686763
1860.000000;3.692806
1859.000000;3.930887
1858.000000;4.168871
1857.000000;3.612745
1856.000000;3.573479
1855.000000;3.949011
1854.000000;3.768978
1853.000000;3.399182
1852.000000;3.456293
1851.000000;3.683571
1850.000000;3.610906
1849.000000;3.513637
1848.000000;3.670674
1847.000000;3.406103
1846.000000;3.105249
1845.000000;3.061644
1844.000000;3.299966
1843.000000;3.502579
1842.000000;3.634677
1841.000000;3.758480
1840.000000;3.420088
1839.000000;3.438426
1838.000000;3.592078
1837.000000;3.466014
1836.000000;3.566488
1835.000000;3.913963
1834.000000;3.736560
1833.000000;3.562366
1832.000000;3.391789
1831.000000;3.114775
1830.000000;3.120138
1829.000000;3.235555
1828.000000;3.301328
1827.000000;3.595460
1826.000000;3.493018
1825.000000;3.451027
1824.000000;3.530965
1823.000000;3.405662
1822.000000;3.513523
1821.000000;3.364393
1820.000000;3.196940
1819.000000;3.200999
1818.000000;3.376772
1817.000000;3.599502
1816.000000;3.424149
1815.000000;3.227799
1814.000000;3.249504
1813.000000;3.419526
1812.000000;3.381825
1811.000000;3.268752
1810.000000;3.350513
1809.000000;3.331298
1808.000000;3.230973
1807.000000;3.305716
1806.000000;3.725439
1805.000000;3.881126
1804.000000;3.656150
1803.000000;3.566498
1802.000000;3.649422
1801.000000;3.278971
1800.000000;3.262566
1799.000000;3.438598
1798.000000;3.441302
1797.000000;3.310731
1796.000000;3.144096
1795.000000;3.129347
1794.000000;3.464242
1793.000000;3.722365
1792.000000;3.332798
1791.000000;3.185959
1790.000000;3.236567
1789.000000;3.460234
1788.000000;3.551607
1787.000000;3.525561
1786.000000;3.540337
1785.000000;3.734011
1784.000000;3.464442
1783.000000;3.250180
1782.000000;3.285376
1781.000000;3.351765
1780.000000;3.499788
1779.000000;3.641369
1778.000000;3.558236
1777.000000;3.379045
1776.000000;3.397366
1775.000000;3.443300
1774.000000;3.756617
1773.000000;4.224883
1772.000000;3.379917
1771.000000;3.045440
1770.000000;3.037391
1769.000000;3.317326
1768.000000;3.406429
1767.000000;3.151855
1766.000000;3.163850
1765.000000;3.218542
1764.000000;3.214442
1763.000000;3.239237
1762.000000;3.393341
1761.000000;3.251013
1760.000000;3.104086
1759.000000;3.172452
1758.000000;3.371641
1757.000000;3.543745
1756.000000;3.647870
1755.000000;3.601418
1754.000000;4.018179
1753.000000;3.567534
1752.000000;3.274289
1751.000000;3.290390
1750.000000;3.400920
1749.000000;3.438576
1748.000000;3.764093
1747.000000;3.515490
1746.000000;3.385985
1745.000000;3.548437
1744.000000;3.623333
1743.000000;3.330853
1742.000000;3.306716
1741.000000;3.263778
1740.000000;3.142863
1739.000000;3.163294
1738.000000;3.470570
1737.000000;4.447214
1736.000000;3.990788
1735.000000;4.415614
1734.000000;3.658853
1733.000000;3.267502
1732.000000;3.631370
1731.000000;3.839462
1730.000000;3.435754
1729.000000;3.398386
1728.000000;3.502479
1727.000000;3.441918
1726.000000;3.631503
1725.000000;4.089758
1724.000000;3.623566
1723.000000;3.535099
1722.000000;4.045348
1721.000000;3.614836
1720.000000;3.705809
1719.000000;4.098454
1718.000000;3.626369
1717.000000;3.236702
1716.000000;3.053871
1715.000000;3.030043
1714.000000;3.232092
1713.000000;3.604597
1712.000000;3.401670
1711.000000;3.160645
1710.000000;3.133672
1709.000000;3.421619
1708.000000;3.847753
1707.000000;3.557414
1706.000000;3.565754
1705.000000;3.398115
1704.000000;3.289736
1703.000000;3.440438
1702.000000;3.269935
1701.000000;3.122662
1700.000000;3.239222
1699.000000;3.185050
1698.000000;3.251588
1697.000000;3.363156
1696.000000;3.508505
1695.000000;4.218423
1694.000000;3.659258
1693.000000;3.287405
1692.000000;3.206434
1691.000000;3.276531
1690.000000;3.233681
1689.000000;3.221442
1688.000000;3.339781
1687.000000;3.182945
1686.000000;3.010132
1685.000000;3.027656
1684.000000;3.112707
1683.000000;3.136369
1682.000000;3.184165
1681.000000;3.214950
1680.000000;3.269032
1679.000000;3.310957
1678.000000;3.302388
1677.000000;3.394275
1676.000000;3.735192
1675.000000;4.013430
1674.000000;3.796852
1673.000000;3.434212
1672.000000;3.393188
1671.000000;3.433730
1670.000000;3.209517
1669.000000;3.095882
1668.000000;3.259843
1667.000000;3.680849
1666.000000;3.996563
1665.000000;3.502517
1664.000000;3.577612
1663.000000;4.101333
1662.000000;3.892677
1661.000000;3.332479
1660.000000;3.237050
1659.000000;3.247445
1658.000000;3.206668
1657.000000;3.175409
1656.000000;3.133600
1655.000000;3.398673
1654.000000;3.379831
1653.000000;2.929206
1652.000000;2.894941
1651.000000;3.003846
1650.000000;3.071243
1649.000000;3.097009
1648.000000;3.199059
1647.000000;3.378073
1646.000000;3.791808
1645.000000;3.502920
1644.000000;3.358410
1643.000000;3.405273
1642.000000;3.362625
1641.000000;3.339399
1640.000000;3.469497
1639.000000;3.683321
1638.000000;3.412111
1637.000000;3.103250
1636.000000;3.072269
1635.000000;3.083770
1634.000000;3.328862
1633.000000;3.960079
1632.000000;3.562334
1631.000000;3.514606
1630.000000;3.535083
1629.000000;3.349269
1628.000000;3.281135
1627.000000;3.210299
1626.000000;3.176694
1625.000000;3.283613
1624.000000;3.259913
1623.000000;3.230940
1622.000000;3.531782
1621.000000;3.611675
1620.000000;3.863062
1619.000000;3.720076
1618.000000;3.428428
1617.000000;3.355001
1616.000000;3.118502
1615.000000;3.038069
1614.000000;3.227578
1613.000000;3.469803
1612.000000;3.693180
1611.000000;4.065653
1610.000000;3.475137
1609.000000;3.445664
1608.000000;3.679948
1607.000000;3.748664
1606.000000;3.519344
1605.000000;3.640206
1604.000000;3.882633
1603.000000;3.406991
1602.000000;3.366594
1601.000000;3.366482
1600.000000;3.213056
1599.000000;3.157185
1598.000000;3.234011
1597.000000;3.385368
1596.000000;3.373663
1595.000000;3.250021
1594.000000;3.229921
1593.000000;3.313600
1592.000000;3.260268
1591.000000;3.217395
1590.000000;3.465145
1589.000000;4.067153
1588.000000;3.648288
1587.000000;3.397425
1586.000000;3.559342
1585.000000;3.395231
1584.000000;3.176794
1583.000000;3.251032
1582.000000;3.493863
1581.000000;3.445100
1580.000000;3.480181
1579.000000;3.578178
1578.000000;3.236578
1577.000000;3.074499
1576.000000;3.143780
1575.000000;3.222849
1574.000000;3.237014
1573.000000;3.284581
1572.000000;3.356332
1571.000000;3.425081
1570.000000;3.349043
1569.000000;3.537555
1568.000000;3.736244
1567.000000;3.399247
1566.000000;3.463941
1565.000000;4.246485
1564.000000;3.816560
1563.000000;3.771921
1562.000000;3.436121
1561.000000;3.218553
1560.000000;3.770133
1559.000000;3.267558
1558.000000;3.338340
1557.000000;3.385027
1556.000000;3.284317
1555.000000;3.282801
1554.000000;3.109909
1553.000000;3.057375
1552.000000;3.194629
1551.000000;3.386473
1550.000000;3.298890
1549.000000;3.350055
1548.000000;3.683573
1547.000000;3.569272
1546.000000;3.547128
1545.000000;3.671401
1544.000000;3.309070
1543.000000;3.081051
1542.000000;3.146564
1541.000000;3.477329
1540.000000;3.265890
1539.000000;3.330488
1538.000000;3.365752
1537.000000;3.080578
1536.000000;3.139281
1535.000000;3.288306
1534.000000;3.327804
1533.000000;3.369095
1532.000000;3.522411
1531.000000;3.823000
1530.000000;3.509147
1529.000000;3.316838
1528.000000;3.350551
1527.000000;3.552685
1526.000000;3.539461
1525.000000;3.457237
1524.000000;3.629044
1523.000000;3.577622
1522.000000;3.331030
1521.000000;3.067395
1520.000000;3.124973
1519.000000;3.341635
1518.000000;3.175721
1517.000000;3.125721
1516.000000;3.295741
1515.000000;3.462736
1514.000000;3.539017
1513.000000;3.707126
1512.000000;3.954628
1511.000000;3.628694
1510.000000;3.620689
1509.000000;3.729790
1508.000000;3.869618
1507.000000;3.250953
1506.000000;3.258011
1505.000000;3.556663
1504.000000;3.446756
1503.000000;3.423492
1502.000000;3.520744
1501.000000;3.719712
1500.000000;3.320611
1499.000000;3.152839
1498.000000;3.339365
1497.000000;3.415733
1496.000000;3.336161
1495.000000;3.347315
1494.000000;3.495843
1493.000000;3.531511
1492.000000;3.591255
1491.000000;3.776789
1490.000000;3.358440
1489.000000;3.197898
1488.000000;3.400002
1487.000000;4.270547
1486.000000;3.778273
1485.000000;3.499049
1484.000000;3.618980
1483.000000;3.719762
1482.000000;3.675214
1481.000000;3.210215
1480.000000;3.154075
1479.000000;3.525668
1478.000000;3.420366
1477.000000;3.222295
1476.000000;3.220252
1475.000000;3.283626
1474.000000;3.637302
1473.000000;3.284327
1472.000000;3.146688
1471.000000;3.300135
1470.000000;3.322978
1469.000000;3.183381
1468.000000;3.191466
1467.000000;3.393972
1466.000000;3.312408
1465.000000;3.165241
1464.000000;3.064563
1463.000000;2.962028
1462.000000;2.958934
1461.000000;2.996268
1460.000000;2.979834
1459.000000;2.886389
1458.000000;2.888153
1457.000000;2.996280
1456.000000;2.908819
1455.000000;2.829447
1454.000000;2.914755
1453.000000;3.054845
1452.000000;3.093593
1451.000000;3.112420
1450.000000;3.279760
1449.000000;3.524358
1448.000000;3.420133
1447.000000;3.671645
1446.000000;3.843366
1445.000000;3.386358
1444.000000;3.676629
1443.000000;3.567242
1442.000000;3.558632
1441.000000;3.698203
1440.000000;3.436068
1439.000000;3.449594
1438.000000;3.150153
1437.000000;2.899982
1436.000000;2.836129
1435.000000;2.897905
1434.000000;2.968232
1433.000000;3.022631
1432.000000;3.222384
1431.000000;3.538136
1430.000000;3.490588
1429.000000;3.252803
1428.000000;3.206745
1427.000000;3.298085
1426.000000;3.248776
1425.000000;3.074395
1424.000000;3.075968
1423.000000;3.208108
1422.000000;3.170974
1421.000000;3.187401
1420.000000;3.303926
1419.000000;3.224869
1418.000000;3.204313
1417.000000;3.340237
1416.000000;3.471677
1415.000000;3.203430
1414.000000;3.184750
1413.000000;3.702100
1412.000000;3.742786
1411.000000;3.520486
1410.000000;3.610774
1409.000000;3.835135
1408.000000;3.747604
1407.000000;3.410277
1406.000000;3.597537
1405.000000;3.809531
1404.000000;3.281315
1403.000000;3.064592
1402.000000;3.143756
1401.000000;3.467536
1400.000000;3.937263
1399.000000;4.138994
1398.000000;3.366890
1397.000000;3.097445
1396.000000;3.093925
1395.000000;3.075009
1394.000000;2.953927
1393.000000;2.957796
1392.000000;3.023622
1391.000000;2.994960
1390.000000;3.215581
1389.000000;3.625343
1388.000000;3.150899
1387.000000;2.982175
1386.000000;3.081568
1385.000000;3.231197
1384.000000;3.329785
1383.000000;3.572945
1382.000000;3.423611
1381.000000;3.277433
1380.000000;3.622627
1379.000000;3.674060
1378.000000;3.440994
1377.000000;3.304207
1376.000000;3.293599
1375.000000;3.519729
1374.000000;3.303003
1373.000000;3.202137
1372.000000;3.283089
1371.000000;3.166682
1370.000000;3.224439
1369.000000;3.452885
1368.000000;3.381997
1367.000000;3.348403
1366.000000;3.623582
1365.000000;3.416504
1364.000000;3.213315
1363.000000;3.349272
1362.000000;3.754461
1361.000000;4.215624
1360.000000;3.807423
1359.000000;3.606650
1358.000000;3.198519
1357.000000;2.939862
1356.000000;2.927059
1355.000000;3.083665
1354.000000;3.286821
1353.000000;3.431616
1352.000000;3.794636
1351.000000;3.821236
1350.000000;3.238769
1349.000000;3.016558
1348.000000;3.033520
1347.000000;3.102979
1346.000000;3.038645
1345.000000;3.037840
1344.000000;3.178603
1343.000000;3.268240
1342.000000;3.429045
1341.000000;3.495631
1340.000000;3.329252
1339.000000;3.353600
1338.000000;3.323197
1337.000000;3.306563
1336.000000;3.422756
1335.000000;3.388429
1334.000000;3.603687
1333.000000;3.889820
1332.000000;3.361997
1331.000000;3.240506
1330.000000;3.457143
1329.000000;4.038013
1328.000000;3.700562
1327.000000;3.600735
1326.000000;3.735196
1325.000000;3.334614
1324.000000;3.170747
1323.000000;3.242250
1322.000000;3.255262
1321.000000;3.389724
1320.000000;3.978056
1319.000000;3.284843
1318.000000;3.237963
1317.000000;3.538939
1316.000000;3.566990
1315.000000;3.783310
1314.000000;3.536046
1313.000000;3.552197
1312.000000;3.903738
1311.000000;3.709330
1310.000000;3.365546
1309.000000;3.142011
1308.000000;3.282575
1307.000000;3.428546
1306.000000;3.234177
1305.000000;3.231995
1304.000000;3.140934
1303.000000;3.083103
1302.000000;3.270981
1301.000000;3.665333
1300.000000;3.796072
1299.000000;3.698666
1298.000000;3.754855
1297.000000;3.661480
1296.000000;3.336004
1295.000000;3.263616
1294.000000;3.641950
1293.000000;3.549366
1292.000000;3.169984
1291.000000;3.024377
1290.000000;2.902289
1289.000000;2.909317
1288.000000;3.210271
1287.000000;3.424114
1286.000000;3.244020
1285.000000;3.424907
1284.000000;3.620324
1283.000000;3.669775
1282.000000;3.625752
1281.000000;3.488259
1280.000000;3.559905
1279.000000;3.405301
1278.000000;3.302493
1277.000000;3.562151
1276.000000;3.842475
1275.000000;3.543512
1274.000000;3.706111
1273.000000;3.807833
1272.000000;3.257942
1271.000000;2.976037
1270.000000;2.902930
1269.000000;2.955165
1268.000000;2.973848
1267.000000;3.038788
1266.000000;3.071904
1265.000000;2.895629
1264.000000;2.913671
1263.000000;3.122899
1262.000000;3.081282
1261.000000;3.013805
1260.000000;3.131274
1259.000000;3.199913
1258.000000;3.232108
1257.000000;3.317332
1256.000000;3.148301
1255.000000;3.041431
1254.000000;3.213811
1253.000000;3.590728
1252.000000;3.525517
1251.000000;3.274034
1250.000000;3.168671
1249.000000;3.264951
1248.000000;3.369216
1247.000000;3.240344
1246.000000;3.338833
1245.000000;3.536053
1244.000000;3.241427
1243.000000;3.047776
1242.000000;3.145385
1241.000000;3.357514
1240.000000;3.360617
1239.000000;3.396600
1238.000000;3.359701
1237.000000;3.594964
1236.000000;4.107190
1235.000000;3.971940
1234.000000;3.867026
1233.000000;3.490714
1232.000000;3.485205
1231.000000;3.369084
1230.000000;3.434472
1229.000000;3.656129
1228.000000;3.436394
1227.000000;3.273401
1226.000000;3.394263
1225.000000;3.966773
1224.000000;3.889912
1223.000000;3.835457
1222.000000;3.818244
1221.000000;3.574408
1220.000000;3.387625
1219.000000;3.424317
1218.000000;3.303135
1217.000000;3.006084
1216.000000;2.998203
1215.000000;3.181609
1214.000000;3.270874
1213.000000;3.413764
1212.000000;3.489561
1211.000000;3.185479
1210.000000;3.272894
1209.000000;4.005943
1208.000000;3.541840
1207.000000;3.529885
1206.000000;3.788496
1205.000000;3.723447
1204.000000;3.569747
1203.000000;3.119933
1202.000000;3.098509
1201.000000;3.301376
1200.000000;3.507611
