Criado como novo conjunto de dados;"e2410_daniel_v2.spp","63725.4 Secs"
cm-1;Abs
10000.000000;1.257155
9999.000000;1.258633
9998.000000;1.259115
9997.000000;1.258267
9996.000000;1.256584
9995.000000;1.254673
9994.000000;1.253093
9993.000000;1.252249
9992.000000;1.252188
9991.000000;1.252409
9990.000000;1.252384
9989.000000;1.252141
9988.000000;1.252056
9987.000000;1.252198
9986.000000;1.252264
9985.000000;1.252038
9984.000000;1.251526
9983.000000;1.250660
9982.000000;1.249301
9981.000000;1.247575
9980.000000;1.245890
9979.000000;1.244542
9978.000000;1.243555
9977.000000;1.242938
9976.000000;1.242776
9975.000000;1.242953
9974.000000;1.243026
9973.000000;1.242584
9972.000000;1.241649
9971.000000;1.240624
9970.000000;1.239902
9969.000000;1.239609
9968.000000;1.239652
9967.000000;1.239902
9966.000000;1.240232
9965.000000;1.240409
9964.000000;1.240087
9963.000000;1.239094
9962.000000;1.237682
9961.000000;1.236314
9960.000000;1.235202
9959.000000;1.234280
9958.000000;1.233613
9957.000000;1.233488
9956.000000;1.233923
9955.000000;1.234394
9954.000000;1.234289
9953.000000;1.233517
9952.000000;1.232436
9951.000000;1.231318
9950.000000;1.230163
9949.000000;1.228996
9948.000000;1.228103
9947.000000;1.227861
9946.000000;1.228427
9945.000000;1.229538
9944.000000;1.230506
9943.000000;1.230511
9942.000000;1.229147
9941.000000;1.226771
9940.000000;1.224250
9939.000000;1.222355
9938.000000;1.221386
9937.000000;1.221206
9936.000000;1.221441
9935.000000;1.221671
9934.000000;1.221598
9933.000000;1.221203
9932.000000;1.220768
9931.000000;1.220694
9930.000000;1.221151
9929.000000;1.221836
9928.000000;1.222154
9927.000000;1.221811
9926.000000;1.221161
9925.000000;1.220830
9924.000000;1.221001
9923.000000;1.221242
9922.000000;1.221005
9921.000000;1.220121
9920.000000;1.218825
9919.000000;1.217494
9918.000000;1.216408
9917.000000;1.215554
9916.000000;1.214590
9915.000000;1.213156
9914.000000;1.211339
9913.000000;1.209682
9912.000000;1.208656
9911.000000;1.208253
9910.000000;1.208136
9909.000000;1.208062
9908.000000;1.208075
9907.000000;1.208360
9906.000000;1.208955
9905.000000;1.209560
9904.000000;1.209695
9903.000000;1.209161
9902.000000;1.208280
9901.000000;1.207502
9900.000000;1.206856
9899.000000;1.206043
9898.000000;1.205026
9897.000000;1.204213
9896.000000;1.203990
9895.000000;1.204347
9894.000000;1.204950
9893.000000;1.205348
9892.000000;1.205050
9891.000000;1.203775
9890.000000;1.201766
9889.000000;1.199653
9888.000000;1.197892
9887.000000;1.196561
9886.000000;1.195748
9885.000000;1.195763
9884.000000;1.196705
9883.000000;1.198052
9882.000000;1.198961
9881.000000;1.198981
9880.000000;1.198343
9879.000000;1.197635
9878.000000;1.197267
9877.000000;1.197165
9876.000000;1.196891
9875.000000;1.196148
9874.000000;1.195159
9873.000000;1.194358
9872.000000;1.193807
9871.000000;1.193194
9870.000000;1.192408
9869.000000;1.191730
9868.000000;1.191373
9867.000000;1.191212
9866.000000;1.191109
9865.000000;1.191100
9864.000000;1.191002
9863.000000;1.190261
9862.000000;1.188616
9861.000000;1.186701
9860.000000;1.185500
9859.000000;1.185278
9858.000000;1.185371
9857.000000;1.185020
9856.000000;1.184170
9855.000000;1.183420
9854.000000;1.183353
9853.000000;1.183946
9852.000000;1.184531
9851.000000;1.184369
9850.000000;1.183373
9849.000000;1.182156
9848.000000;1.181311
9847.000000;1.180813
9846.000000;1.180254
9845.000000;1.179450
9844.000000;1.178567
9843.000000;1.177776
9842.000000;1.177063
9841.000000;1.176394
9840.000000;1.175827
9839.000000;1.175409
9838.000000;1.175087
9837.000000;1.174787
9836.000000;1.174505
9835.000000;1.174297
9834.000000;1.174209
9833.000000;1.174167
9832.000000;1.173973
9831.000000;1.173509
9830.000000;1.172923
9829.000000;1.172458
9828.000000;1.172073
9827.000000;1.171438
9826.000000;1.170410
9825.000000;1.169331
9824.000000;1.168728
9823.000000;1.168824
9822.000000;1.169371
9821.000000;1.169832
9820.000000;1.169660
9819.000000;1.168633
9818.000000;1.167090
9817.000000;1.165680
9816.000000;1.164757
9815.000000;1.164158
9814.000000;1.163623
9813.000000;1.163178
9812.000000;1.162938
9811.000000;1.162808
9810.000000;1.162650
9809.000000;1.162549
9808.000000;1.162624
9807.000000;1.162665
9806.000000;1.162291
9805.000000;1.161416
9804.000000;1.160312
9803.000000;1.159228
9802.000000;1.158215
9801.000000;1.157321
9800.000000;1.156703
9799.000000;1.156486
9798.000000;1.156647
9797.000000;1.157064
9796.000000;1.157508
9795.000000;1.157600
9794.000000;1.157008
9793.000000;1.155793
9792.000000;1.154454
9791.000000;1.153553
9790.000000;1.153334
9789.000000;1.153630
9788.000000;1.153994
9787.000000;1.153919
9786.000000;1.153169
9785.000000;1.151951
9784.000000;1.150712
9783.000000;1.149781
9782.000000;1.149267
9781.000000;1.149161
9780.000000;1.149327
9779.000000;1.149389
9778.000000;1.148897
9777.000000;1.147775
9776.000000;1.146462
9775.000000;1.145453
9774.000000;1.144799
9773.000000;1.144187
9772.000000;1.143434
9771.000000;1.142734
9770.000000;1.142403
9769.000000;1.142467
9768.000000;1.142608
9767.000000;1.142499
9766.000000;1.142129
9765.000000;1.141763
9764.000000;1.141565
9763.000000;1.141332
9762.000000;1.140691
9761.000000;1.139568
9760.000000;1.138356
9759.000000;1.137528
9758.000000;1.137182
9757.000000;1.137040
9756.000000;1.136809
9755.000000;1.136362
9754.000000;1.135597
9753.000000;1.134434
9752.000000;1.133101
9751.000000;1.132175
9750.000000;1.132024
9749.000000;1.132310
9748.000000;1.132345
9747.000000;1.131956
9746.000000;1.131644
9745.000000;1.131794
9744.000000;1.132088
9743.000000;1.131931
9742.000000;1.131227
9741.000000;1.130396
9740.000000;1.129752
9739.000000;1.129214
9738.000000;1.128624
9737.000000;1.128097
9736.000000;1.127919
9735.000000;1.128212
9734.000000;1.128693
9733.000000;1.128758
9732.000000;1.127912
9731.000000;1.126297
9730.000000;1.124709
9729.000000;1.123934
9728.000000;1.124046
9727.000000;1.124443
9726.000000;1.124492
9725.000000;1.123992
9724.000000;1.123134
9723.000000;1.122247
9722.000000;1.121625
9721.000000;1.121364
9720.000000;1.121252
9719.000000;1.120928
9718.000000;1.120204
9717.000000;1.119188
9716.000000;1.118165
9715.000000;1.117476
9714.000000;1.117412
9713.000000;1.117931
9712.000000;1.118470
9711.000000;1.118280
9710.000000;1.117134
9709.000000;1.115568
9708.000000;1.114339
9707.000000;1.113751
9706.000000;1.113544
9705.000000;1.113280
9704.000000;1.112741
9703.000000;1.112043
9702.000000;1.111455
9701.000000;1.111078
9700.000000;1.110708
9699.000000;1.110098
9698.000000;1.109358
9697.000000;1.108917
9696.000000;1.109033
9695.000000;1.109441
9694.000000;1.109574
9693.000000;1.109101
9692.000000;1.108210
9691.000000;1.107390
9690.000000;1.106984
9689.000000;1.106932
9688.000000;1.106928
9687.000000;1.106732
9686.000000;1.106310
9685.000000;1.105715
9684.000000;1.104987
9683.000000;1.104199
9682.000000;1.103445
9681.000000;1.102701
9680.000000;1.101865
9679.000000;1.101017
9678.000000;1.100450
9677.000000;1.100281
9676.000000;1.100228
9675.000000;1.100000
9674.000000;1.099703
9673.000000;1.099563
9672.000000;1.099396
9671.000000;1.098786
9670.000000;1.097763
9669.000000;1.096915
9668.000000;1.096673
9667.000000;1.096766
9666.000000;1.096545
9665.000000;1.095684
9664.000000;1.094446
9663.000000;1.093392
9662.000000;1.092940
9661.000000;1.093061
9660.000000;1.093303
9659.000000;1.093174
9658.000000;1.092554
9657.000000;1.091698
9656.000000;1.090891
9655.000000;1.090243
9654.000000;1.089788
9653.000000;1.089574
9652.000000;1.089581
9651.000000;1.089670
9650.000000;1.089691
9649.000000;1.089577
9648.000000;1.089359
9647.000000;1.089126
9646.000000;1.088922
9645.000000;1.088622
9644.000000;1.088059
9643.000000;1.087378
9642.000000;1.087074
9641.000000;1.087380
9640.000000;1.087806
9639.000000;1.087608
9638.000000;1.086652
9637.000000;1.085458
9636.000000;1.084441
9635.000000;1.083578
9634.000000;1.082838
9633.000000;1.082444
9632.000000;1.082467
9631.000000;1.082557
9630.000000;1.082389
9629.000000;1.082092
9628.000000;1.081920
9627.000000;1.081709
9626.000000;1.081044
9625.000000;1.079866
9624.000000;1.078583
9623.000000;1.077583
9622.000000;1.076921
9621.000000;1.076491
9620.000000;1.076262
9619.000000;1.076190
9618.000000;1.076058
9617.000000;1.075590
9616.000000;1.074792
9615.000000;1.074059
9614.000000;1.073832
9613.000000;1.074094
9612.000000;1.074325
9611.000000;1.074037
9610.000000;1.073258
9609.000000;1.072356
9608.000000;1.071516
9607.000000;1.070636
9606.000000;1.069683
9605.000000;1.068849
9604.000000;1.068274
9603.000000;1.067878
9602.000000;1.067557
9601.000000;1.067346
9600.000000;1.067259
9599.000000;1.067171
9598.000000;1.067003
9597.000000;1.066842
9596.000000;1.066723
9595.000000;1.066454
9594.000000;1.065878
9593.000000;1.065204
9592.000000;1.064808
9591.000000;1.064727
9590.000000;1.064574
9589.000000;1.064003
9588.000000;1.063115
9587.000000;1.062326
9586.000000;1.061902
9585.000000;1.061709
9584.000000;1.061392
9583.000000;1.060783
9582.000000;1.060107
9581.000000;1.059788
9580.000000;1.060003
9579.000000;1.060465
9578.000000;1.060654
9577.000000;1.060258
9576.000000;1.059358
9575.000000;1.058216
9574.000000;1.056985
9573.000000;1.055718
9572.000000;1.054619
9571.000000;1.054075
9570.000000;1.054266
9569.000000;1.054820
9568.000000;1.055106
9567.000000;1.054905
9566.000000;1.054564
9565.000000;1.054416
9564.000000;1.054334
9563.000000;1.054039
9562.000000;1.053586
9561.000000;1.053240
9560.000000;1.053036
9559.000000;1.052826
9558.000000;1.052656
9557.000000;1.052689
9556.000000;1.052736
9555.000000;1.052226
9554.000000;1.050852
9553.000000;1.049024
9552.000000;1.047523
9551.000000;1.046853
9550.000000;1.046986
9549.000000;1.047498
9548.000000;1.047828
9547.000000;1.047585
9546.000000;1.046830
9545.000000;1.045993
9544.000000;1.045433
9543.000000;1.045131
9542.000000;1.044841
9541.000000;1.044423
9540.000000;1.043946
9539.000000;1.043546
9538.000000;1.043285
9537.000000;1.043088
9536.000000;1.042773
9535.000000;1.042181
9534.000000;1.041339
9533.000000;1.040441
9532.000000;1.039660
9531.000000;1.039054
9530.000000;1.038631
9529.000000;1.038411
9528.000000;1.038369
9527.000000;1.038400
9526.000000;1.038371
9525.000000;1.038194
9524.000000;1.037864
9523.000000;1.037469
9522.000000;1.037134
9521.000000;1.036873
9520.000000;1.036523
9519.000000;1.035906
9518.000000;1.035057
9517.000000;1.034215
9516.000000;1.033583
9515.000000;1.033170
9514.000000;1.032828
9513.000000;1.032391
9512.000000;1.031823
9511.000000;1.031274
9510.000000;1.030899
9509.000000;1.030590
9508.000000;1.030037
9507.000000;1.029213
9506.000000;1.028607
9505.000000;1.028736
9504.000000;1.029488
9503.000000;1.030188
9502.000000;1.030317
9501.000000;1.029918
9500.000000;1.029314
9499.000000;1.028689
9498.000000;1.028048
9497.000000;1.027370
9496.000000;1.026658
9495.000000;1.025937
9494.000000;1.025285
9493.000000;1.024814
9492.000000;1.024596
9491.000000;1.024642
9490.000000;1.024905
9489.000000;1.025188
9488.000000;1.025162
9487.000000;1.024664
9486.000000;1.023955
9485.000000;1.023448
9484.000000;1.023182
9483.000000;1.022754
9482.000000;1.021835
9481.000000;1.020560
9480.000000;1.019357
9479.000000;1.018537
9478.000000;1.018151
9477.000000;1.018081
9476.000000;1.018144
9475.000000;1.018155
9474.000000;1.017953
9473.000000;1.017434
9472.000000;1.016639
9471.000000;1.015864
9470.000000;1.015502
9469.000000;1.015631
9468.000000;1.015844
9467.000000;1.015709
9466.000000;1.015321
9465.000000;1.015151
9464.000000;1.015381
9463.000000;1.015656
9462.000000;1.015526
9461.000000;1.014909
9460.000000;1.014056
9459.000000;1.013261
9458.000000;1.012666
9457.000000;1.012209
9456.000000;1.011702
9455.000000;1.011118
9454.000000;1.010762
9453.000000;1.010955
9452.000000;1.011536
9451.000000;1.011899
9450.000000;1.011610
9449.000000;1.010777
9448.000000;1.009768
9447.000000;1.008826
9446.000000;1.008071
9445.000000;1.007638
9444.000000;1.007594
9443.000000;1.007815
9442.000000;1.008038
9441.000000;1.007998
9440.000000;1.007517
9439.000000;1.006657
9438.000000;1.005794
9437.000000;1.005325
9436.000000;1.005213
9435.000000;1.005015
9434.000000;1.004450
9433.000000;1.003770
9432.000000;1.003425
9431.000000;1.003541
9430.000000;1.003836
9429.000000;1.003925
9428.000000;1.003571
9427.000000;1.002785
9426.000000;1.001846
9425.000000;1.001146
9424.000000;1.000878
9423.000000;1.000891
9422.000000;1.000891
9421.000000;1.000700
9420.000000;1.000270
9419.000000;0.999615
9418.000000;0.998828
9417.000000;0.998085
9416.000000;0.997487
9415.000000;0.996978
9414.000000;0.996486
9413.000000;0.996055
9412.000000;0.995777
9411.000000;0.995670
9410.000000;0.995655
9409.000000;0.995570
9408.000000;0.995204
9407.000000;0.994455
9406.000000;0.993512
9405.000000;0.992740
9404.000000;0.992325
9403.000000;0.992170
9402.000000;0.992165
9401.000000;0.992353
9400.000000;0.992677
9399.000000;0.992797
9398.000000;0.992403
9397.000000;0.991643
9396.000000;0.990999
9395.000000;0.990736
9394.000000;0.990661
9393.000000;0.990438
9392.000000;0.990003
9391.000000;0.989567
9390.000000;0.989280
9389.000000;0.988978
9388.000000;0.988318
9387.000000;0.987216
9386.000000;0.986112
9385.000000;0.985659
9384.000000;0.986049
9383.000000;0.986699
9382.000000;0.986748
9381.000000;0.985880
9380.000000;0.984601
9379.000000;0.983699
9378.000000;0.983527
9377.000000;0.983806
9376.000000;0.984023
9375.000000;0.983920
9374.000000;0.983607
9373.000000;0.983337
9372.000000;0.983269
9371.000000;0.983378
9370.000000;0.983486
9369.000000;0.983331
9368.000000;0.982727
9367.000000;0.981719
9366.000000;0.980537
9365.000000;0.979395
9364.000000;0.978406
9363.000000;0.977702
9362.000000;0.977456
9361.000000;0.977671
9360.000000;0.978072
9359.000000;0.978320
9358.000000;0.978274
9357.000000;0.977950
9356.000000;0.977394
9355.000000;0.976762
9354.000000;0.976394
9353.000000;0.976536
9352.000000;0.976983
9351.000000;0.977201
9350.000000;0.976845
9349.000000;0.976039
9348.000000;0.975149
9347.000000;0.974450
9346.000000;0.974008
9345.000000;0.973742
9344.000000;0.973544
9343.000000;0.973411
9342.000000;0.973438
9341.000000;0.973577
9340.000000;0.973534
9339.000000;0.973072
9338.000000;0.972375
9337.000000;0.971837
9336.000000;0.971544
9335.000000;0.971213
9334.000000;0.970685
9333.000000;0.970187
9332.000000;0.969960
9331.000000;0.969842
9330.000000;0.969396
9329.000000;0.968400
9328.000000;0.967092
9327.000000;0.965992
9326.000000;0.965537
9325.000000;0.965784
9324.000000;0.966347
9323.000000;0.966672
9322.000000;0.966448
9321.000000;0.965781
9320.000000;0.965018
9319.000000;0.964483
9318.000000;0.964361
9317.000000;0.964672
9316.000000;0.965243
9315.000000;0.965765
9314.000000;0.965922
9313.000000;0.965532
9312.000000;0.964647
9311.000000;0.963557
9310.000000;0.962606
9309.000000;0.961935
9308.000000;0.961461
9307.000000;0.961130
9306.000000;0.961013
9305.000000;0.961040
9304.000000;0.960885
9303.000000;0.960375
9302.000000;0.959840
9301.000000;0.959723
9300.000000;0.959944
9299.000000;0.959981
9298.000000;0.959547
9297.000000;0.958853
9296.000000;0.958154
9295.000000;0.957463
9294.000000;0.956825
9293.000000;0.956484
9292.000000;0.956550
9291.000000;0.956747
9290.000000;0.956718
9289.000000;0.956464
9288.000000;0.956278
9287.000000;0.956358
9286.000000;0.956627
9285.000000;0.956825
9284.000000;0.956684
9283.000000;0.956116
9282.000000;0.955327
9281.000000;0.954624
9280.000000;0.954065
9279.000000;0.953485
9278.000000;0.952879
9277.000000;0.952514
9276.000000;0.952528
9275.000000;0.952647
9274.000000;0.952508
9273.000000;0.952088
9272.000000;0.951613
9271.000000;0.951193
9270.000000;0.950751
9269.000000;0.950248
9268.000000;0.949749
9267.000000;0.949330
9266.000000;0.949057
9265.000000;0.949002
9264.000000;0.949121
9263.000000;0.949203
9262.000000;0.949112
9261.000000;0.948997
9260.000000;0.949061
9259.000000;0.949139
9258.000000;0.948742
9257.000000;0.947604
9256.000000;0.946073
9255.000000;0.944855
9254.000000;0.944421
9253.000000;0.944681
9252.000000;0.945165
9251.000000;0.945449
9250.000000;0.945433
9249.000000;0.945226
9248.000000;0.944870
9247.000000;0.944300
9246.000000;0.943559
9245.000000;0.942881
9244.000000;0.942492
9243.000000;0.942423
9242.000000;0.942555
9241.000000;0.942736
9240.000000;0.942787
9239.000000;0.942570
9238.000000;0.942199
9237.000000;0.942036
9236.000000;0.942250
9235.000000;0.942424
9234.000000;0.941883
9233.000000;0.940506
9232.000000;0.939002
9231.000000;0.938237
9230.000000;0.938431
9229.000000;0.939089
9228.000000;0.939608
9227.000000;0.939743
9226.000000;0.939567
9225.000000;0.939240
9224.000000;0.938921
9223.000000;0.938754
9222.000000;0.938741
9221.000000;0.938690
9220.000000;0.938409
9219.000000;0.937928
9218.000000;0.937384
9217.000000;0.936773
9216.000000;0.936008
9215.000000;0.935224
9214.000000;0.934779
9213.000000;0.934838
9212.000000;0.935128
9211.000000;0.935257
9210.000000;0.935147
9209.000000;0.935006
9208.000000;0.934977
9207.000000;0.935000
9206.000000;0.934923
9205.000000;0.934583
9204.000000;0.933864
9203.000000;0.932885
9202.000000;0.932055
9201.000000;0.931730
9200.000000;0.931806
9199.000000;0.931840
9198.000000;0.931575
9197.000000;0.931189
9196.000000;0.930991
9195.000000;0.931054
9194.000000;0.931191
9193.000000;0.931169
9192.000000;0.930896
9191.000000;0.930466
9190.000000;0.930054
9189.000000;0.929707
9188.000000;0.929267
9187.000000;0.928620
9186.000000;0.927926
9185.000000;0.927464
9184.000000;0.927281
9183.000000;0.927164
9182.000000;0.926924
9181.000000;0.926523
9180.000000;0.925952
9179.000000;0.925244
9178.000000;0.924616
9177.000000;0.924366
9176.000000;0.924524
9175.000000;0.924790
9174.000000;0.924906
9173.000000;0.924922
9172.000000;0.925021
9171.000000;0.925218
9170.000000;0.925371
9169.000000;0.925342
9168.000000;0.925076
9167.000000;0.924591
9166.000000;0.923981
9165.000000;0.923365
9164.000000;0.922807
9163.000000;0.922369
9162.000000;0.922212
9161.000000;0.922457
9160.000000;0.922907
9159.000000;0.923094
9158.000000;0.922705
9157.000000;0.921836
9156.000000;0.920809
9155.000000;0.919901
9154.000000;0.919299
9153.000000;0.919097
9152.000000;0.919214
9151.000000;0.919447
9150.000000;0.919699
9149.000000;0.919980
9148.000000;0.920132
9147.000000;0.919827
9146.000000;0.919032
9145.000000;0.918225
9144.000000;0.917901
9143.000000;0.917989
9142.000000;0.917995
9141.000000;0.917630
9140.000000;0.917017
9139.000000;0.916385
9138.000000;0.915827
9137.000000;0.915409
9136.000000;0.915253
9135.000000;0.915400
9134.000000;0.915707
9133.000000;0.915955
9132.000000;0.915990
9131.000000;0.915767
9130.000000;0.915373
9129.000000;0.914998
9128.000000;0.914785
9127.000000;0.914683
9126.000000;0.914536
9125.000000;0.914308
9124.000000;0.914107
9123.000000;0.913986
9122.000000;0.913858
9121.000000;0.913639
9120.000000;0.913349
9119.000000;0.913021
9118.000000;0.912611
9117.000000;0.912094
9116.000000;0.911587
9115.000000;0.911263
9114.000000;0.911210
9113.000000;0.911396
9112.000000;0.911725
9111.000000;0.912036
9110.000000;0.912118
9109.000000;0.911836
9108.000000;0.911263
9107.000000;0.910599
9106.000000;0.909974
9105.000000;0.909415
9104.000000;0.908969
9103.000000;0.908719
9102.000000;0.908618
9101.000000;0.908434
9100.000000;0.907986
9099.000000;0.907371
9098.000000;0.906857
9097.000000;0.906612
9096.000000;0.906651
9095.000000;0.906940
9094.000000;0.907383
9093.000000;0.907706
9092.000000;0.907611
9091.000000;0.907117
9090.000000;0.906600
9089.000000;0.906359
9088.000000;0.906304
9087.000000;0.906167
9086.000000;0.905896
9085.000000;0.905655
9084.000000;0.905514
9083.000000;0.905346
9082.000000;0.905043
9081.000000;0.904672
9080.000000;0.904369
9079.000000;0.904150
9078.000000;0.903896
9077.000000;0.903503
9076.000000;0.903038
9075.000000;0.902703
9074.000000;0.902603
9073.000000;0.902588
9072.000000;0.902394
9071.000000;0.901961
9070.000000;0.901467
9069.000000;0.901037
9068.000000;0.900622
9067.000000;0.900212
9066.000000;0.899961
9065.000000;0.899951
9064.000000;0.900000
9063.000000;0.899943
9062.000000;0.899934
9061.000000;0.900224
9060.000000;0.900717
9059.000000;0.901028
9058.000000;0.900954
9057.000000;0.900670
9056.000000;0.900425
9055.000000;0.900236
9054.000000;0.899930
9053.000000;0.899355
9052.000000;0.898520
9051.000000;0.897649
9050.000000;0.897067
9049.000000;0.896892
9048.000000;0.896897
9047.000000;0.896815
9046.000000;0.896696
9045.000000;0.896739
9044.000000;0.896839
9043.000000;0.896630
9042.000000;0.896012
9041.000000;0.895361
9040.000000;0.895094
9039.000000;0.895226
9038.000000;0.895457
9037.000000;0.895505
9036.000000;0.895252
9035.000000;0.894743
9034.000000;0.894160
9033.000000;0.893712
9032.000000;0.893479
9031.000000;0.893445
9030.000000;0.893637
9029.000000;0.894014
9028.000000;0.894262
9027.000000;0.893987
9026.000000;0.893221
9025.000000;0.892473
9024.000000;0.892157
9023.000000;0.892194
9022.000000;0.892302
9021.000000;0.892405
9020.000000;0.892521
9019.000000;0.892504
9018.000000;0.892199
9017.000000;0.891753
9016.000000;0.891468
9015.000000;0.891433
9014.000000;0.891493
9013.000000;0.891536
9012.000000;0.891559
9011.000000;0.891508
9010.000000;0.891268
9009.000000;0.890845
9008.000000;0.890356
9007.000000;0.889832
9006.000000;0.889220
9005.000000;0.888578
9004.000000;0.888103
9003.000000;0.887890
9002.000000;0.887804
9001.000000;0.887639
9000.000000;0.887336
8999.000000;0.887023
8998.000000;0.886912
8997.000000;0.887128
8996.000000;0.887530
8995.000000;0.887740
8994.000000;0.887514
8993.000000;0.887066
8992.000000;0.886844
8991.000000;0.886942
8990.000000;0.886963
8989.000000;0.886551
8988.000000;0.885896
8987.000000;0.885516
8986.000000;0.885657
8985.000000;0.886095
8984.000000;0.886471
8983.000000;0.886613
8982.000000;0.886511
8981.000000;0.886168
8980.000000;0.885619
8979.000000;0.884992
8978.000000;0.884425
8977.000000;0.883957
8976.000000;0.883582
8975.000000;0.883367
8974.000000;0.883426
8973.000000;0.883745
8972.000000;0.884106
8971.000000;0.884239
8970.000000;0.884008
8969.000000;0.883483
8968.000000;0.882873
8967.000000;0.882418
8966.000000;0.882265
8965.000000;0.882357
8964.000000;0.882443
8963.000000;0.882266
8962.000000;0.881784
8961.000000;0.881209
8960.000000;0.880823
8959.000000;0.880747
8958.000000;0.880862
8957.000000;0.880952
8956.000000;0.880921
8955.000000;0.880867
8954.000000;0.880910
8953.000000;0.881006
8952.000000;0.880992
8951.000000;0.880787
8950.000000;0.880443
8949.000000;0.880001
8948.000000;0.879455
8947.000000;0.878908
8946.000000;0.878611
8945.000000;0.878717
8944.000000;0.879063
8943.000000;0.879346
8942.000000;0.879447
8941.000000;0.879449
8940.000000;0.879359
8939.000000;0.879031
8938.000000;0.878422
8937.000000;0.877754
8936.000000;0.877299
8935.000000;0.877049
8934.000000;0.876741
8933.000000;0.876215
8932.000000;0.875640
8931.000000;0.875325
8930.000000;0.875362
8929.000000;0.875549
8928.000000;0.875668
8927.000000;0.875732
8926.000000;0.875867
8925.000000;0.876016
8924.000000;0.875949
8923.000000;0.875552
8922.000000;0.875003
8921.000000;0.874591
8920.000000;0.874469
8919.000000;0.874603
8918.000000;0.874845
8917.000000;0.874981
8916.000000;0.874855
8915.000000;0.874560
8914.000000;0.874406
8913.000000;0.874559
8912.000000;0.874783
8911.000000;0.874682
8910.000000;0.874170
8909.000000;0.873564
8908.000000;0.873236
8907.000000;0.873277
8906.000000;0.873463
8905.000000;0.873444
8904.000000;0.873003
8903.000000;0.872256
8902.000000;0.871606
8901.000000;0.871399
8900.000000;0.871630
8899.000000;0.872002
8898.000000;0.872219
8897.000000;0.872139
8896.000000;0.871746
8895.000000;0.871178
8894.000000;0.870733
8893.000000;0.870669
8892.000000;0.870943
8891.000000;0.871240
8890.000000;0.871300
8889.000000;0.871127
8888.000000;0.870918
8887.000000;0.870870
8886.000000;0.871044
8885.000000;0.871277
8884.000000;0.871250
8883.000000;0.870806
8882.000000;0.870194
8881.000000;0.869854
8880.000000;0.869930
8879.000000;0.870117
8878.000000;0.870024
8877.000000;0.869557
8876.000000;0.868910
8875.000000;0.868335
8874.000000;0.867989
8873.000000;0.867869
8872.000000;0.867809
8871.000000;0.867650
8870.000000;0.867473
8869.000000;0.867571
8868.000000;0.868099
8867.000000;0.868838
8866.000000;0.869393
8865.000000;0.869544
8864.000000;0.869337
8863.000000;0.868929
8862.000000;0.868464
8861.000000;0.868051
8860.000000;0.867719
8859.000000;0.867391
8858.000000;0.866997
8857.000000;0.866593
8856.000000;0.866324
8855.000000;0.866269
8854.000000;0.866396
8853.000000;0.866640
8852.000000;0.866936
8851.000000;0.867157
8850.000000;0.867150
8849.000000;0.866914
8848.000000;0.866656
8847.000000;0.866578
8846.000000;0.866610
8845.000000;0.866474
8844.000000;0.866058
8843.000000;0.865597
8842.000000;0.865393
8841.000000;0.865432
8840.000000;0.865417
8839.000000;0.865169
8838.000000;0.864812
8837.000000;0.864543
8836.000000;0.864371
8835.000000;0.864194
8834.000000;0.864024
8833.000000;0.863998
8832.000000;0.864191
8831.000000;0.864509
8830.000000;0.864758
8829.000000;0.864798
8828.000000;0.864681
8827.000000;0.864663
8826.000000;0.864973
8825.000000;0.865496
8824.000000;0.865785
8823.000000;0.865504
8822.000000;0.864822
8821.000000;0.864261
8820.000000;0.864209
8819.000000;0.864633
8818.000000;0.865206
8817.000000;0.865594
8816.000000;0.865692
8815.000000;0.865678
8814.000000;0.865794
8813.000000;0.866026
8812.000000;0.866081
8811.000000;0.865770
8810.000000;0.865275
8809.000000;0.864899
8808.000000;0.864667
8807.000000;0.864388
8806.000000;0.864036
8805.000000;0.863835
8804.000000;0.863958
8803.000000;0.864334
8802.000000;0.864758
8801.000000;0.865054
8800.000000;0.865114
8799.000000;0.864954
8798.000000;0.864777
8797.000000;0.864850
8796.000000;0.865228
8795.000000;0.865687
8794.000000;0.865944
8793.000000;0.865883
8792.000000;0.865585
8791.000000;0.865239
8790.000000;0.865008
8789.000000;0.864888
8788.000000;0.864746
8787.000000;0.864578
8786.000000;0.864641
8785.000000;0.865104
8784.000000;0.865673
8783.000000;0.865833
8782.000000;0.865493
8781.000000;0.865111
8780.000000;0.865107
8779.000000;0.865437
8778.000000;0.865855
8777.000000;0.866337
8776.000000;0.866976
8775.000000;0.867647
8774.000000;0.868040
8773.000000;0.868017
8772.000000;0.867723
8771.000000;0.867374
8770.000000;0.867090
8769.000000;0.866936
8768.000000;0.866965
8767.000000;0.867156
8766.000000;0.867371
8765.000000;0.867426
8764.000000;0.867195
8763.000000;0.866691
8762.000000;0.866096
8761.000000;0.865689
8760.000000;0.865694
8759.000000;0.866144
8758.000000;0.866863
8757.000000;0.867518
8756.000000;0.867769
8755.000000;0.867503
8754.000000;0.866979
8753.000000;0.866634
8752.000000;0.866678
8751.000000;0.866940
8750.000000;0.867141
8749.000000;0.867206
8748.000000;0.867238
8747.000000;0.867307
8746.000000;0.867433
8745.000000;0.867713
8744.000000;0.868274
8743.000000;0.869035
8742.000000;0.869654
8741.000000;0.869821
8740.000000;0.869566
8739.000000;0.869216
8738.000000;0.869050
8737.000000;0.869064
8736.000000;0.869092
8735.000000;0.869066
8734.000000;0.869108
8733.000000;0.869367
8732.000000;0.869833
8731.000000;0.870341
8730.000000;0.870700
8729.000000;0.870823
8728.000000;0.870779
8727.000000;0.870764
8726.000000;0.870967
8725.000000;0.871376
8724.000000;0.871760
8723.000000;0.871881
8722.000000;0.871728
8721.000000;0.871495
8720.000000;0.871370
8719.000000;0.871403
8718.000000;0.871528
8717.000000;0.871617
8716.000000;0.871546
8715.000000;0.871302
8714.000000;0.871059
8713.000000;0.871053
8712.000000;0.871359
8711.000000;0.871820
8710.000000;0.872216
8709.000000;0.872430
8708.000000;0.872491
8707.000000;0.872509
8706.000000;0.872594
8705.000000;0.872764
8704.000000;0.872910
8703.000000;0.872888
8702.000000;0.872671
8701.000000;0.872398
8700.000000;0.872257
8699.000000;0.872325
8698.000000;0.872518
8697.000000;0.872674
8696.000000;0.872707
8695.000000;0.872700
8694.000000;0.872814
8693.000000;0.873093
8692.000000;0.873415
8691.000000;0.873636
8690.000000;0.873692
8689.000000;0.873558
8688.000000;0.873245
8687.000000;0.872910
8686.000000;0.872808
8685.000000;0.873016
8684.000000;0.873288
8683.000000;0.873339
8682.000000;0.873179
8681.000000;0.873021
8680.000000;0.872972
8679.000000;0.873009
8678.000000;0.873173
8677.000000;0.873508
8676.000000;0.873849
8675.000000;0.873910
8674.000000;0.873667
8673.000000;0.873398
8672.000000;0.873288
8671.000000;0.873193
8670.000000;0.872919
8669.000000;0.872540
8668.000000;0.872260
8667.000000;0.872112
8666.000000;0.871973
8665.000000;0.871816
8664.000000;0.871754
8663.000000;0.871871
8662.000000;0.872118
8661.000000;0.872369
8660.000000;0.872498
8659.000000;0.872409
8658.000000;0.872101
8657.000000;0.871709
8656.000000;0.871414
8655.000000;0.871274
8654.000000;0.871169
8653.000000;0.870954
8652.000000;0.870658
8651.000000;0.870519
8650.000000;0.870776
8649.000000;0.871398
8648.000000;0.872065
8647.000000;0.872453
8646.000000;0.872500
8645.000000;0.872321
8644.000000;0.871953
8643.000000;0.871352
8642.000000;0.870616
8641.000000;0.870037
8640.000000;0.869818
8639.000000;0.869866
8638.000000;0.869931
8637.000000;0.869874
8636.000000;0.869729
8635.000000;0.869585
8634.000000;0.869508
8633.000000;0.869544
8632.000000;0.869677
8631.000000;0.869808
8630.000000;0.869822
8629.000000;0.869683
8628.000000;0.869430
8627.000000;0.869113
8626.000000;0.868778
8625.000000;0.868471
8624.000000;0.868212
8623.000000;0.867965
8622.000000;0.867695
8621.000000;0.867451
8620.000000;0.867348
8619.000000;0.867440
8618.000000;0.867652
8617.000000;0.867837
8616.000000;0.867896
8615.000000;0.867811
8614.000000;0.867591
8613.000000;0.867243
8612.000000;0.866824
8611.000000;0.866469
8610.000000;0.866267
8609.000000;0.866119
8608.000000;0.865827
8607.000000;0.865372
8606.000000;0.865004
8605.000000;0.864981
8604.000000;0.865256
8603.000000;0.865524
8602.000000;0.865565
8601.000000;0.865431
8600.000000;0.865294
8599.000000;0.865217
8598.000000;0.865128
8597.000000;0.864963
8596.000000;0.864764
8595.000000;0.864613
8594.000000;0.864505
8593.000000;0.864331
8592.000000;0.864048
8591.000000;0.863804
8590.000000;0.863786
8589.000000;0.863927
8588.000000;0.863876
8587.000000;0.863373
8586.000000;0.862588
8585.000000;0.861977
8584.000000;0.861850
8583.000000;0.862141
8582.000000;0.862533
8581.000000;0.862714
8580.000000;0.862566
8579.000000;0.862244
8578.000000;0.862071
8577.000000;0.862229
8576.000000;0.862527
8575.000000;0.862547
8574.000000;0.862051
8573.000000;0.861216
8572.000000;0.860471
8571.000000;0.860167
8570.000000;0.860344
8569.000000;0.860720
8568.000000;0.860922
8567.000000;0.860790
8566.000000;0.860463
8565.000000;0.860148
8564.000000;0.859888
8563.000000;0.859621
8562.000000;0.859362
8561.000000;0.859177
8560.000000;0.859026
8559.000000;0.858814
8558.000000;0.858575
8557.000000;0.858473
8556.000000;0.858584
8555.000000;0.858815
8554.000000;0.859005
8553.000000;0.859010
8552.000000;0.858719
8551.000000;0.858164
8550.000000;0.857599
8549.000000;0.857272
8548.000000;0.857102
8547.000000;0.856787
8546.000000;0.856264
8545.000000;0.855824
8544.000000;0.855690
8543.000000;0.855703
8542.000000;0.855611
8541.000000;0.855451
8540.000000;0.855427
8539.000000;0.855531
8538.000000;0.855547
8537.000000;0.855381
8536.000000;0.855145
8535.000000;0.854930
8534.000000;0.854701
8533.000000;0.854450
8532.000000;0.854251
8531.000000;0.854084
8530.000000;0.853776
8529.000000;0.853232
8528.000000;0.852626
8527.000000;0.852239
8526.000000;0.852174
8525.000000;0.852328
8524.000000;0.852585
8523.000000;0.852904
8522.000000;0.853234
8521.000000;0.853458
8520.000000;0.853477
8519.000000;0.853287
8518.000000;0.852951
8517.000000;0.852541
8516.000000;0.852156
8515.000000;0.851902
8514.000000;0.851774
8513.000000;0.851604
8512.000000;0.851229
8511.000000;0.850729
8510.000000;0.850397
8509.000000;0.850431
8508.000000;0.850703
8507.000000;0.850887
8506.000000;0.850759
8505.000000;0.850338
8504.000000;0.849792
8503.000000;0.849304
8502.000000;0.848999
8501.000000;0.848902
8500.000000;0.848908
8499.000000;0.848825
8498.000000;0.848511
8497.000000;0.847997
8496.000000;0.847500
8495.000000;0.847266
8494.000000;0.847369
8493.000000;0.847627
8492.000000;0.847764
8491.000000;0.847684
8490.000000;0.847512
8489.000000;0.847373
8488.000000;0.847218
8487.000000;0.846964
8486.000000;0.846703
8485.000000;0.846629
8484.000000;0.846777
8483.000000;0.846928
8482.000000;0.846831
8481.000000;0.846420
8480.000000;0.845809
8479.000000;0.845171
8478.000000;0.844680
8477.000000;0.844501
8476.000000;0.844687
8475.000000;0.845081
8474.000000;0.845365
8473.000000;0.845287
8472.000000;0.844858
8471.000000;0.844325
8470.000000;0.843954
8469.000000;0.843842
8468.000000;0.843912
8467.000000;0.844024
8466.000000;0.844032
8465.000000;0.843809
8464.000000;0.843340
8463.000000;0.842817
8462.000000;0.842520
8461.000000;0.842555
8460.000000;0.842763
8459.000000;0.842929
8458.000000;0.842990
8457.000000;0.842972
8456.000000;0.842844
8455.000000;0.842560
8454.000000;0.842195
8453.000000;0.841904
8452.000000;0.841756
8451.000000;0.841719
8450.000000;0.841776
8449.000000;0.841925
8448.000000;0.842052
8447.000000;0.841970
8446.000000;0.841644
8445.000000;0.841270
8444.000000;0.841053
8443.000000;0.840960
8442.000000;0.840792
8441.000000;0.840439
8440.000000;0.839985
8439.000000;0.839574
8438.000000;0.839249
8437.000000;0.838961
8436.000000;0.838676
8435.000000;0.838423
8434.000000;0.838258
8433.000000;0.838188
8432.000000;0.838167
8431.000000;0.838150
8430.000000;0.838150
8429.000000;0.838214
8428.000000;0.838348
8427.000000;0.838439
8426.000000;0.838296
8425.000000;0.837808
8424.000000;0.837098
8423.000000;0.836480
8422.000000;0.836204
8421.000000;0.836248
8420.000000;0.836393
8419.000000;0.836468
8418.000000;0.836469
8417.000000;0.836429
8416.000000;0.836307
8415.000000;0.836050
8414.000000;0.835726
8413.000000;0.835495
8412.000000;0.835471
8411.000000;0.835614
8410.000000;0.835764
8409.000000;0.835763
8408.000000;0.835590
8407.000000;0.835359
8406.000000;0.835162
8405.000000;0.834945
8404.000000;0.834608
8403.000000;0.834210
8402.000000;0.833916
8401.000000;0.833765
8400.000000;0.833630
8399.000000;0.833443
8398.000000;0.833304
8397.000000;0.833264
8396.000000;0.833171
8395.000000;0.832871
8394.000000;0.832464
8393.000000;0.832197
8392.000000;0.832167
8391.000000;0.832273
8390.000000;0.832407
8389.000000;0.832533
8388.000000;0.832569
8387.000000;0.832391
8386.000000;0.831994
8385.000000;0.831547
8384.000000;0.831243
8383.000000;0.831159
8382.000000;0.831274
8381.000000;0.831520
8380.000000;0.831776
8379.000000;0.831869
8378.000000;0.831653
8377.000000;0.831094
8376.000000;0.830318
8375.000000;0.829588
8374.000000;0.829177
8373.000000;0.829156
8372.000000;0.829305
8371.000000;0.829323
8370.000000;0.829153
8369.000000;0.829029
8368.000000;0.829176
8367.000000;0.829522
8366.000000;0.829746
8365.000000;0.829584
8364.000000;0.829050
8363.000000;0.828398
8362.000000;0.827912
8361.000000;0.827712
8360.000000;0.827732
8359.000000;0.827818
8358.000000;0.827826
8357.000000;0.827655
8356.000000;0.827274
8355.000000;0.826748
8354.000000;0.826224
8353.000000;0.825837
8352.000000;0.825626
8351.000000;0.825549
8350.000000;0.825524
8349.000000;0.825469
8348.000000;0.825350
8347.000000;0.825196
8346.000000;0.825045
8345.000000;0.824874
8344.000000;0.824651
8343.000000;0.824449
8342.000000;0.824399
8341.000000;0.824524
8340.000000;0.824696
8339.000000;0.824810
8338.000000;0.824858
8337.000000;0.824817
8336.000000;0.824599
8335.000000;0.824218
8334.000000;0.823856
8333.000000;0.823622
8332.000000;0.823370
8331.000000;0.822918
8330.000000;0.822364
8329.000000;0.821975
8328.000000;0.821812
8327.000000;0.821687
8326.000000;0.821490
8325.000000;0.821348
8324.000000;0.821383
8323.000000;0.821498
8322.000000;0.821511
8321.000000;0.821380
8320.000000;0.821173
8319.000000;0.820921
8318.000000;0.820621
8317.000000;0.820331
8316.000000;0.820136
8315.000000;0.820002
8314.000000;0.819791
8313.000000;0.819447
8312.000000;0.819095
8311.000000;0.818904
8310.000000;0.818894
8309.000000;0.818927
8308.000000;0.818844
8307.000000;0.818555
8306.000000;0.818030
8305.000000;0.817307
8304.000000;0.816543
8303.000000;0.815990
8302.000000;0.815815
8301.000000;0.815959
8300.000000;0.816215
8299.000000;0.816403
8298.000000;0.816425
8297.000000;0.816232
8296.000000;0.815863
8295.000000;0.815501
8294.000000;0.815330
8293.000000;0.815331
8292.000000;0.815317
8291.000000;0.815190
8290.000000;0.815050
8289.000000;0.815000
8288.000000;0.815006
8287.000000;0.814980
8286.000000;0.814907
8285.000000;0.814784
8284.000000;0.814568
8283.000000;0.814255
8282.000000;0.813944
8281.000000;0.813700
8280.000000;0.813478
8279.000000;0.813258
8278.000000;0.813140
8277.000000;0.813176
8276.000000;0.813205
8275.000000;0.813002
8274.000000;0.812549
8273.000000;0.812024
8272.000000;0.811573
8271.000000;0.811227
8270.000000;0.810996
8269.000000;0.810889
8268.000000;0.810825
8267.000000;0.810682
8266.000000;0.810444
8265.000000;0.810197
8264.000000;0.809967
8263.000000;0.809687
8262.000000;0.809344
8261.000000;0.809061
8260.000000;0.808959
8259.000000;0.809017
8258.000000;0.809099
8257.000000;0.809084
8256.000000;0.808921
8255.000000;0.808616
8254.000000;0.808220
8253.000000;0.807818
8252.000000;0.807507
8251.000000;0.807332
8250.000000;0.807251
8249.000000;0.807172
8248.000000;0.807061
8247.000000;0.806993
8246.000000;0.807023
8245.000000;0.807036
8244.000000;0.806834
8243.000000;0.806371
8242.000000;0.805815
8241.000000;0.805325
8240.000000;0.804885
8239.000000;0.804456
8238.000000;0.804145
8237.000000;0.804119
8236.000000;0.804358
8235.000000;0.804625
8234.000000;0.804655
8233.000000;0.804339
8232.000000;0.803783
8231.000000;0.803250
8230.000000;0.802991
8229.000000;0.803020
8228.000000;0.803102
8227.000000;0.803010
8226.000000;0.802746
8225.000000;0.802460
8224.000000;0.802225
8223.000000;0.802015
8222.000000;0.801832
8221.000000;0.801719
8220.000000;0.801688
8219.000000;0.801709
8218.000000;0.801760
8217.000000;0.801805
8216.000000;0.801768
8215.000000;0.801611
8214.000000;0.801392
8213.000000;0.801165
8212.000000;0.800876
8211.000000;0.800454
8210.000000;0.799943
8209.000000;0.799467
8208.000000;0.799114
8207.000000;0.798948
8206.000000;0.799036
8205.000000;0.799322
8204.000000;0.799547
8203.000000;0.799449
8202.000000;0.799036
8201.000000;0.798546
8200.000000;0.798161
8199.000000;0.797899
8198.000000;0.797728
8197.000000;0.797631
8196.000000;0.797548
8195.000000;0.797390
8194.000000;0.797136
8193.000000;0.796844
8192.000000;0.796549
8191.000000;0.796257
8190.000000;0.796001
8189.000000;0.795802
8188.000000;0.795598
8187.000000;0.795309
8186.000000;0.794972
8185.000000;0.794690
8184.000000;0.794485
8183.000000;0.794312
8182.000000;0.794198
8181.000000;0.794207
8180.000000;0.794299
8179.000000;0.794352
8178.000000;0.794334
8177.000000;0.794294
8176.000000;0.794198
8175.000000;0.793959
8174.000000;0.793647
8173.000000;0.793465
8172.000000;0.793442
8171.000000;0.793329
8170.000000;0.792925
8169.000000;0.792358
8168.000000;0.791927
8167.000000;0.791762
8166.000000;0.791770
8165.000000;0.791807
8164.000000;0.791766
8163.000000;0.791562
8162.000000;0.791197
8161.000000;0.790815
8160.000000;0.790573
8159.000000;0.790458
8158.000000;0.790341
8157.000000;0.790191
8156.000000;0.790117
8155.000000;0.790161
8154.000000;0.790165
8153.000000;0.789940
8152.000000;0.789501
8151.000000;0.789055
8150.000000;0.788756
8149.000000;0.788559
8148.000000;0.788343
8147.000000;0.788085
8146.000000;0.787849
8145.000000;0.787657
8144.000000;0.787470
8143.000000;0.787275
8142.000000;0.787105
8141.000000;0.786958
8140.000000;0.786777
8139.000000;0.786547
8138.000000;0.786309
8137.000000;0.786078
8136.000000;0.785810
8135.000000;0.785516
8134.000000;0.785289
8133.000000;0.785179
8132.000000;0.785119
8131.000000;0.785056
8130.000000;0.785038
8129.000000;0.785097
8128.000000;0.785114
8127.000000;0.784930
8126.000000;0.784534
8125.000000;0.784046
8124.000000;0.783576
8123.000000;0.783207
8122.000000;0.783021
8121.000000;0.783001
8120.000000;0.782964
8119.000000;0.782749
8118.000000;0.782443
8117.000000;0.782264
8116.000000;0.782243
8115.000000;0.782190
8114.000000;0.781958
8113.000000;0.781588
8112.000000;0.781166
8111.000000;0.780720
8110.000000;0.780299
8109.000000;0.780004
8108.000000;0.779854
8107.000000;0.779742
8106.000000;0.779593
8105.000000;0.779473
8104.000000;0.779445
8103.000000;0.779444
8102.000000;0.779357
8101.000000;0.779171
8100.000000;0.778946
8099.000000;0.778699
8098.000000;0.778401
8097.000000;0.778058
8096.000000;0.777723
8095.000000;0.777458
8094.000000;0.777306
8093.000000;0.777279
8092.000000;0.777311
8091.000000;0.777258
8090.000000;0.777016
8089.000000;0.776632
8088.000000;0.776278
8087.000000;0.776108
8086.000000;0.776140
8085.000000;0.776245
8084.000000;0.776248
8083.000000;0.776082
8082.000000;0.775838
8081.000000;0.775647
8080.000000;0.775529
8079.000000;0.775386
8078.000000;0.775136
8077.000000;0.774778
8076.000000;0.774345
8075.000000;0.773864
8074.000000;0.773387
8073.000000;0.773009
8072.000000;0.772795
8071.000000;0.772716
8070.000000;0.772676
8069.000000;0.772568
8068.000000;0.772348
8067.000000;0.772063
8066.000000;0.771820
8065.000000;0.771665
8064.000000;0.771527
8063.000000;0.771297
8062.000000;0.770976
8061.000000;0.770666
8060.000000;0.770446
8059.000000;0.770307
8058.000000;0.770221
8057.000000;0.770190
8056.000000;0.770202
8055.000000;0.770192
8054.000000;0.770102
8053.000000;0.769934
8052.000000;0.769717
8051.000000;0.769442
8050.000000;0.769071
8049.000000;0.768595
8048.000000;0.768092
8047.000000;0.767688
8046.000000;0.767462
8045.000000;0.767375
8044.000000;0.767317
8043.000000;0.767224
8042.000000;0.767092
8041.000000;0.766891
8040.000000;0.766547
8039.000000;0.766061
8038.000000;0.765587
8037.000000;0.765284
8036.000000;0.765153
8035.000000;0.765085
8034.000000;0.765025
8033.000000;0.764998
8032.000000;0.764988
8031.000000;0.764887
8030.000000;0.764605
8029.000000;0.764166
8028.000000;0.763701
8027.000000;0.763363
8026.000000;0.763244
8025.000000;0.763294
8024.000000;0.763343
8023.000000;0.763251
8022.000000;0.763044
8021.000000;0.762845
8020.000000;0.762710
8019.000000;0.762586
8018.000000;0.762406
8017.000000;0.762149
8016.000000;0.761833
8015.000000;0.761505
8014.000000;0.761220
8013.000000;0.760982
8012.000000;0.760732
8011.000000;0.760457
8010.000000;0.760240
8009.000000;0.760121
8008.000000;0.759972
8007.000000;0.759641
8006.000000;0.759195
8005.000000;0.758869
8004.000000;0.758771
8003.000000;0.758785
8002.000000;0.758761
8001.000000;0.758660
8000.000000;0.758479
7999.000000;0.758197
7998.000000;0.757858
7997.000000;0.757584
7996.000000;0.757419
7995.000000;0.757269
7994.000000;0.757055
7993.000000;0.756847
7992.000000;0.756736
7991.000000;0.756675
7990.000000;0.756543
7989.000000;0.756317
7988.000000;0.756074
7987.000000;0.755858
7986.000000;0.755648
7985.000000;0.755426
7984.000000;0.755194
7983.000000;0.754944
7982.000000;0.754677
7981.000000;0.754437
7980.000000;0.754250
7979.000000;0.754070
7978.000000;0.753832
7977.000000;0.753565
7976.000000;0.753375
7975.000000;0.753311
7974.000000;0.753327
7973.000000;0.753371
7972.000000;0.753437
7971.000000;0.753496
7970.000000;0.753439
7969.000000;0.753174
7968.000000;0.752746
7967.000000;0.752324
7966.000000;0.752038
7965.000000;0.751857
7964.000000;0.751662
7963.000000;0.751396
7962.000000;0.751119
7961.000000;0.750907
7960.000000;0.750748
7959.000000;0.750563
7958.000000;0.750302
7957.000000;0.749987
7956.000000;0.749656
7955.000000;0.749316
7954.000000;0.748941
7953.000000;0.748512
7952.000000;0.748047
7951.000000;0.747607
7950.000000;0.747271
7949.000000;0.747067
7948.000000;0.746929
7947.000000;0.746752
7946.000000;0.746497
7945.000000;0.746232
7944.000000;0.746069
7943.000000;0.746066
7942.000000;0.746197
7941.000000;0.746376
7940.000000;0.746498
7939.000000;0.746465
7938.000000;0.746217
7937.000000;0.745756
7936.000000;0.745170
7935.000000;0.744607
7934.000000;0.744206
7933.000000;0.744025
7932.000000;0.744012
7931.000000;0.744043
7930.000000;0.743999
7929.000000;0.743829
7928.000000;0.743581
7927.000000;0.743352
7926.000000;0.743193
7925.000000;0.743066
7924.000000;0.742919
7923.000000;0.742764
7922.000000;0.742620
7921.000000;0.742435
7920.000000;0.742145
7919.000000;0.741808
7918.000000;0.741582
7917.000000;0.741527
7916.000000;0.741524
7915.000000;0.741428
7914.000000;0.741228
7913.000000;0.740988
7912.000000;0.740721
7911.000000;0.740393
7910.000000;0.740024
7909.000000;0.739676
7908.000000;0.739378
7907.000000;0.739133
7906.000000;0.738981
7905.000000;0.738952
7904.000000;0.738974
7903.000000;0.738904
7902.000000;0.738668
7901.000000;0.738342
7900.000000;0.738056
7899.000000;0.737863
7898.000000;0.737705
7897.000000;0.737479
7896.000000;0.737157
7895.000000;0.736835
7894.000000;0.736651
7893.000000;0.736628
7892.000000;0.736633
7891.000000;0.736521
7890.000000;0.736274
7889.000000;0.735971
7888.000000;0.735664
7887.000000;0.735359
7886.000000;0.735073
7885.000000;0.734841
7884.000000;0.734683
7883.000000;0.734604
7882.000000;0.734606
7881.000000;0.734640
7880.000000;0.734579
7879.000000;0.734322
7878.000000;0.733927
7877.000000;0.733569
7876.000000;0.733359
7875.000000;0.733246
7874.000000;0.733105
7873.000000;0.732873
7872.000000;0.732608
7871.000000;0.732432
7870.000000;0.732414
7869.000000;0.732467
7868.000000;0.732388
7867.000000;0.732059
7866.000000;0.731594
7865.000000;0.731221
7864.000000;0.731025
7863.000000;0.730886
7862.000000;0.730675
7861.000000;0.730420
7860.000000;0.730239
7859.000000;0.730154
7858.000000;0.730039
7857.000000;0.729771
7856.000000;0.729396
7855.000000;0.729119
7854.000000;0.729101
7853.000000;0.729272
7852.000000;0.729383
7851.000000;0.729257
7850.000000;0.728949
7849.000000;0.728640
7848.000000;0.728450
7847.000000;0.728376
7846.000000;0.728344
7845.000000;0.728258
7844.000000;0.728030
7843.000000;0.727659
7842.000000;0.727250
7841.000000;0.726899
7840.000000;0.726597
7839.000000;0.726274
7838.000000;0.725941
7837.000000;0.725697
7836.000000;0.725622
7835.000000;0.725711
7834.000000;0.725899
7833.000000;0.726087
7832.000000;0.726158
7831.000000;0.726024
7830.000000;0.725692
7829.000000;0.725258
7828.000000;0.724846
7827.000000;0.724547
7826.000000;0.724366
7825.000000;0.724194
7824.000000;0.723906
7823.000000;0.723528
7822.000000;0.723265
7821.000000;0.723260
7820.000000;0.723386
7819.000000;0.723393
7818.000000;0.723224
7817.000000;0.723056
7816.000000;0.723035
7815.000000;0.723086
7814.000000;0.723041
7813.000000;0.722830
7812.000000;0.722504
7811.000000;0.722140
7810.000000;0.721801
7809.000000;0.721539
7808.000000;0.721367
7807.000000;0.721256
7806.000000;0.721184
7805.000000;0.721154
7804.000000;0.721142
7803.000000;0.721086
7802.000000;0.720962
7801.000000;0.720829
7800.000000;0.720756
7799.000000;0.720720
7798.000000;0.720643
7797.000000;0.720479
7796.000000;0.720252
7795.000000;0.719993
7794.000000;0.719718
7793.000000;0.719463
7792.000000;0.719294
7791.000000;0.719248
7790.000000;0.719271
7789.000000;0.719252
7788.000000;0.719131
7787.000000;0.718934
7786.000000;0.718709
7785.000000;0.718458
7784.000000;0.718170
7783.000000;0.717878
7782.000000;0.717643
7781.000000;0.717475
7780.000000;0.717319
7779.000000;0.717120
7778.000000;0.716862
7777.000000;0.716559
7776.000000;0.716255
7775.000000;0.716042
7774.000000;0.716000
7773.000000;0.716099
7772.000000;0.716212
7771.000000;0.716244
7770.000000;0.716182
7769.000000;0.716022
7768.000000;0.715754
7767.000000;0.715455
7766.000000;0.715290
7765.000000;0.715320
7764.000000;0.715390
7763.000000;0.715315
7762.000000;0.715113
7761.000000;0.714939
7760.000000;0.714848
7759.000000;0.714754
7758.000000;0.714598
7757.000000;0.714443
7756.000000;0.714373
7755.000000;0.714384
7754.000000;0.714422
7753.000000;0.714422
7752.000000;0.714311
7751.000000;0.714056
7750.000000;0.713732
7749.000000;0.713494
7748.000000;0.713414
7747.000000;0.713403
7746.000000;0.713331
7745.000000;0.713189
7744.000000;0.713089
7743.000000;0.713122
7742.000000;0.713253
7741.000000;0.713341
7740.000000;0.713237
7739.000000;0.712894
7738.000000;0.712396
7737.000000;0.711907
7736.000000;0.711567
7735.000000;0.711424
7734.000000;0.711430
7733.000000;0.711487
7732.000000;0.711491
7731.000000;0.711382
7730.000000;0.711147
7729.000000;0.710827
7728.000000;0.710527
7727.000000;0.710405
7726.000000;0.710556
7725.000000;0.710876
7724.000000;0.711089
7723.000000;0.710985
7722.000000;0.710624
7721.000000;0.710266
7720.000000;0.710102
7719.000000;0.710100
7718.000000;0.710098
7717.000000;0.709980
7716.000000;0.709777
7715.000000;0.709601
7714.000000;0.709527
7713.000000;0.709520
7712.000000;0.709490
7711.000000;0.709395
7710.000000;0.709267
7709.000000;0.709147
7708.000000;0.709048
7707.000000;0.708986
7706.000000;0.708985
7705.000000;0.709023
7704.000000;0.709015
7703.000000;0.708893
7702.000000;0.708675
7701.000000;0.708448
7700.000000;0.708292
7699.000000;0.708254
7698.000000;0.708314
7697.000000;0.708363
7696.000000;0.708260
7695.000000;0.707951
7694.000000;0.707516
7693.000000;0.707084
7692.000000;0.706753
7691.000000;0.706598
7690.000000;0.706647
7689.000000;0.706803
7688.000000;0.706882
7687.000000;0.706814
7686.000000;0.706729
7685.000000;0.706775
7684.000000;0.706901
7683.000000;0.706935
7682.000000;0.706807
7681.000000;0.706607
7680.000000;0.706449
7679.000000;0.706385
7678.000000;0.706418
7677.000000;0.706523
7676.000000;0.706632
7675.000000;0.706674
7674.000000;0.706637
7673.000000;0.706535
7672.000000;0.706369
7671.000000;0.706171
7670.000000;0.706043
7669.000000;0.706070
7668.000000;0.706198
7667.000000;0.706285
7666.000000;0.706254
7665.000000;0.706122
7664.000000;0.705917
7663.000000;0.705655
7662.000000;0.705406
7661.000000;0.705267
7660.000000;0.705253
7659.000000;0.705283
7658.000000;0.705285
7657.000000;0.705252
7656.000000;0.705206
7655.000000;0.705174
7654.000000;0.705204
7653.000000;0.705323
7652.000000;0.705473
7651.000000;0.705551
7650.000000;0.705527
7649.000000;0.705460
7648.000000;0.705392
7647.000000;0.705303
7646.000000;0.705201
7645.000000;0.705154
7644.000000;0.705194
7643.000000;0.705255
7642.000000;0.705251
7641.000000;0.705176
7640.000000;0.705092
7639.000000;0.705041
7638.000000;0.705028
7637.000000;0.705045
7636.000000;0.705104
7635.000000;0.705217
7634.000000;0.705363
7633.000000;0.705458
7632.000000;0.705404
7631.000000;0.705205
7630.000000;0.705008
7629.000000;0.704962
7628.000000;0.705039
7627.000000;0.705076
7626.000000;0.705004
7625.000000;0.704934
7624.000000;0.704984
7623.000000;0.705117
7622.000000;0.705214
7621.000000;0.705257
7620.000000;0.705333
7619.000000;0.705487
7618.000000;0.705663
7617.000000;0.705787
7616.000000;0.705850
7615.000000;0.705869
7614.000000;0.705833
7613.000000;0.705730
7612.000000;0.705602
7611.000000;0.705508
7610.000000;0.705453
7609.000000;0.705401
7608.000000;0.705359
7607.000000;0.705386
7606.000000;0.705482
7605.000000;0.705563
7604.000000;0.705579
7603.000000;0.705620
7602.000000;0.705797
7601.000000;0.706054
7600.000000;0.706206
7599.000000;0.706169
7598.000000;0.706068
7597.000000;0.706068
7596.000000;0.706180
7595.000000;0.706297
7594.000000;0.706342
7593.000000;0.706337
7592.000000;0.706337
7591.000000;0.706387
7590.000000;0.706508
7589.000000;0.706691
7588.000000;0.706890
7587.000000;0.707057
7586.000000;0.707175
7585.000000;0.707240
7584.000000;0.707231
7583.000000;0.707145
7582.000000;0.707031
7581.000000;0.706965
7580.000000;0.706981
7579.000000;0.707051
7578.000000;0.707110
7577.000000;0.707115
7576.000000;0.707097
7575.000000;0.707156
7574.000000;0.707363
7573.000000;0.707664
7572.000000;0.707907
7571.000000;0.707988
7570.000000;0.707957
7569.000000;0.707962
7568.000000;0.708126
7567.000000;0.708455
7566.000000;0.708828
7565.000000;0.709078
7564.000000;0.709114
7563.000000;0.708987
7562.000000;0.708824
7561.000000;0.708730
7560.000000;0.708777
7559.000000;0.709026
7558.000000;0.709462
7557.000000;0.709920
7556.000000;0.710197
7555.000000;0.710259
7554.000000;0.710247
7553.000000;0.710287
7552.000000;0.710386
7551.000000;0.710520
7550.000000;0.710694
7549.000000;0.710882
7548.000000;0.711008
7547.000000;0.711057
7546.000000;0.711106
7545.000000;0.711203
7544.000000;0.711309
7543.000000;0.711398
7542.000000;0.711511
7541.000000;0.711659
7540.000000;0.711768
7539.000000;0.711808
7538.000000;0.711868
7537.000000;0.712029
7536.000000;0.712258
7535.000000;0.712481
7534.000000;0.712685
7533.000000;0.712856
7532.000000;0.712951
7531.000000;0.713000
7530.000000;0.713150
7529.000000;0.713472
7528.000000;0.713834
7527.000000;0.714060
7526.000000;0.714163
7525.000000;0.714278
7524.000000;0.714446
7523.000000;0.714607
7522.000000;0.714737
7521.000000;0.714877
7520.000000;0.715038
7519.000000;0.715199
7518.000000;0.715362
7517.000000;0.715523
7516.000000;0.715624
7515.000000;0.715644
7514.000000;0.715673
7513.000000;0.715808
7512.000000;0.716015
7511.000000;0.716204
7510.000000;0.716392
7509.000000;0.716654
7508.000000;0.716962
7507.000000;0.717212
7506.000000;0.717384
7505.000000;0.717562
7504.000000;0.717795
7503.000000;0.718053
7502.000000;0.718316
7501.000000;0.718584
7500.000000;0.718800
7499.000000;0.718899
7498.000000;0.718937
7497.000000;0.719057
7496.000000;0.719292
7495.000000;0.719516
7494.000000;0.719617
7493.000000;0.719639
7492.000000;0.719700
7491.000000;0.719851
7490.000000;0.720070
7489.000000;0.720342
7488.000000;0.720678
7487.000000;0.721060
7486.000000;0.721415
7485.000000;0.721645
7484.000000;0.721711
7483.000000;0.721694
7482.000000;0.721734
7481.000000;0.721899
7480.000000;0.722140
7479.000000;0.722394
7478.000000;0.722672
7477.000000;0.722988
7476.000000;0.723282
7475.000000;0.723471
7474.000000;0.723563
7473.000000;0.723647
7472.000000;0.723803
7471.000000;0.724058
7470.000000;0.724401
7469.000000;0.724770
7468.000000;0.725055
7467.000000;0.725205
7466.000000;0.725280
7465.000000;0.725379
7464.000000;0.725523
7463.000000;0.725680
7462.000000;0.725850
7461.000000;0.726081
7460.000000;0.726410
7459.000000;0.726838
7458.000000;0.727308
7457.000000;0.727703
7456.000000;0.727917
7455.000000;0.727986
7454.000000;0.728060
7453.000000;0.728212
7452.000000;0.728379
7451.000000;0.728513
7450.000000;0.728699
7449.000000;0.729021
7448.000000;0.729412
7447.000000;0.729742
7446.000000;0.729972
7445.000000;0.730138
7444.000000;0.730259
7443.000000;0.730360
7442.000000;0.730524
7441.000000;0.730788
7440.000000;0.731043
7439.000000;0.731157
7438.000000;0.731153
7437.000000;0.731178
7436.000000;0.731326
7435.000000;0.731593
7434.000000;0.731932
7433.000000;0.732269
7432.000000;0.732521
7431.000000;0.732685
7430.000000;0.732871
7429.000000;0.733151
7428.000000;0.733453
7427.000000;0.733681
7426.000000;0.733854
7425.000000;0.734055
7424.000000;0.734300
7423.000000;0.734566
7422.000000;0.734867
7421.000000;0.735223
7420.000000;0.735566
7419.000000;0.735785
7418.000000;0.735850
7417.000000;0.735831
7416.000000;0.735834
7415.000000;0.735967
7414.000000;0.736272
7413.000000;0.736637
7412.000000;0.736851
7411.000000;0.736860
7410.000000;0.736859
7409.000000;0.737016
7408.000000;0.737247
7407.000000;0.737394
7406.000000;0.737493
7405.000000;0.737702
7404.000000;0.738020
7403.000000;0.738290
7402.000000;0.738475
7401.000000;0.738712
7400.000000;0.739062
7399.000000;0.739443
7398.000000;0.739775
7397.000000;0.739993
7396.000000;0.740027
7395.000000;0.739936
7394.000000;0.739904
7393.000000;0.739973
7392.000000;0.739940
7391.000000;0.739700
7390.000000;0.739537
7389.000000;0.739792
7388.000000;0.740421
7387.000000;0.741129
7386.000000;0.741766
7385.000000;0.742321
7384.000000;0.742723
7383.000000;0.742905
7382.000000;0.742980
7381.000000;0.743151
7380.000000;0.743415
7379.000000;0.743555
7378.000000;0.743459
7377.000000;0.743289
7376.000000;0.743341
7375.000000;0.743787
7374.000000;0.744536
7373.000000;0.745307
7372.000000;0.745786
7371.000000;0.745817
7370.000000;0.745545
7369.000000;0.745252
7368.000000;0.745099
7367.000000;0.745193
7366.000000;0.745628
7365.000000;0.746218
7364.000000;0.746537
7363.000000;0.746460
7362.000000;0.746363
7361.000000;0.746706
7360.000000;0.747481
7359.000000;0.748205
7358.000000;0.748450
7357.000000;0.748265
7356.000000;0.748074
7355.000000;0.748259
7354.000000;0.748903
7353.000000;0.749748
7352.000000;0.750364
7351.000000;0.750453
7350.000000;0.750151
7349.000000;0.749943
7348.000000;0.750185
7347.000000;0.750739
7346.000000;0.751181
7345.000000;0.751333
7344.000000;0.751443
7343.000000;0.751906
7342.000000;0.752826
7341.000000;0.753898
7340.000000;0.754668
7339.000000;0.754907
7338.000000;0.754756
7337.000000;0.754470
7336.000000;0.754221
7335.000000;0.754144
7334.000000;0.754378
7333.000000;0.754969
7332.000000;0.755732
7331.000000;0.756263
7330.000000;0.756303
7329.000000;0.756157
7328.000000;0.756460
7327.000000;0.757316
7326.000000;0.758104
7325.000000;0.758339
7324.000000;0.758173
7323.000000;0.758058
7322.000000;0.758258
7321.000000;0.758765
7320.000000;0.759415
7319.000000;0.760055
7318.000000;0.760742
7317.000000;0.761636
7316.000000;0.762638
7315.000000;0.763349
7314.000000;0.763502
7313.000000;0.763489
7312.000000;0.764126
7311.000000;0.765621
7310.000000;0.767143
7309.000000;0.767747
7308.000000;0.767462
7307.000000;0.767109
7306.000000;0.767305
7305.000000;0.768070
7304.000000;0.769113
7303.000000;0.769988
7302.000000;0.770326
7301.000000;0.770190
7300.000000;0.770180
7299.000000;0.770932
7298.000000;0.772368
7297.000000;0.773715
7296.000000;0.774375
7295.000000;0.774675
7294.000000;0.775431
7293.000000;0.776892
7292.000000;0.778563
7291.000000;0.779892
7290.000000;0.780801
7289.000000;0.781629
7288.000000;0.782710
7287.000000;0.783980
7286.000000;0.785039
7285.000000;0.785684
7284.000000;0.786176
7283.000000;0.786875
7282.000000;0.787880
7281.000000;0.789029
7280.000000;0.790161
7279.000000;0.791277
7278.000000;0.792395
7277.000000;0.793460
7276.000000;0.794486
7275.000000;0.795605
7274.000000;0.796922
7273.000000;0.798420
7272.000000;0.799955
7271.000000;0.801317
7270.000000;0.802407
7269.000000;0.803397
7268.000000;0.804613
7267.000000;0.806180
7266.000000;0.807893
7265.000000;0.809535
7264.000000;0.811186
7263.000000;0.813011
7262.000000;0.814881
7261.000000;0.816482
7260.000000;0.817754
7259.000000;0.819011
7258.000000;0.820556
7257.000000;0.822365
7256.000000;0.824193
7255.000000;0.825921
7254.000000;0.827722
7253.000000;0.829762
7252.000000;0.831863
7251.000000;0.833751
7250.000000;0.835407
7249.000000;0.837066
7248.000000;0.839057
7247.000000;0.841499
7246.000000;0.844100
7245.000000;0.846434
7244.000000;0.848485
7243.000000;0.850680
7242.000000;0.853262
7241.000000;0.855912
7240.000000;0.858186
7239.000000;0.860023
7238.000000;0.861774
7237.000000;0.863902
7236.000000;0.866534
7235.000000;0.869372
7234.000000;0.872151
7233.000000;0.874923
7232.000000;0.877786
7231.000000;0.880694
7230.000000;0.883461
7229.000000;0.885947
7228.000000;0.888321
7227.000000;0.890913
7226.000000;0.893792
7225.000000;0.896731
7224.000000;0.899578
7223.000000;0.902391
7222.000000;0.905207
7221.000000;0.908015
7220.000000;0.910909
7219.000000;0.913998
7218.000000;0.917232
7217.000000;0.920489
7216.000000;0.923721
7215.000000;0.926924
7214.000000;0.930104
7213.000000;0.933314
7212.000000;0.936659
7211.000000;0.940264
7210.000000;0.944148
7209.000000;0.948186
7208.000000;0.952243
7207.000000;0.956281
7206.000000;0.960335
7205.000000;0.964437
7204.000000;0.968505
7203.000000;0.972321
7202.000000;0.975770
7201.000000;0.979120
7200.000000;0.982855
7199.000000;0.987127
7198.000000;0.991598
7197.000000;0.995908
7196.000000;1.000118
7195.000000;1.004557
7194.000000;1.009366
7193.000000;1.014376
7192.000000;1.019327
7191.000000;1.024071
7190.000000;1.028604
7189.000000;1.033067
7188.000000;1.037647
7187.000000;1.042401
7186.000000;1.047205
7185.000000;1.051782
7184.000000;1.055901
7183.000000;1.059690
7182.000000;1.063768
7181.000000;1.068826
7180.000000;1.074968
7179.000000;1.081495
7178.000000;1.087464
7177.000000;1.092521
7176.000000;1.097090
7175.000000;1.101721
7174.000000;1.106556
7173.000000;1.111503
7172.000000;1.116594
7171.000000;1.121972
7170.000000;1.127616
7169.000000;1.133357
7168.000000;1.138992
7167.000000;1.144446
7166.000000;1.149892
7165.000000;1.155428
7164.000000;1.160742
7163.000000;1.165411
7162.000000;1.169586
7161.000000;1.174038
7160.000000;1.179344
7159.000000;1.185286
7158.000000;1.191208
7157.000000;1.196838
7156.000000;1.202518
7155.000000;1.208639
7154.000000;1.215140
7153.000000;1.221599
7152.000000;1.227503
7151.000000;1.232661
7150.000000;1.237451
7149.000000;1.242453
7148.000000;1.247798
7147.000000;1.253189
7146.000000;1.258463
7145.000000;1.263823
7144.000000;1.269473
7143.000000;1.275250
7142.000000;1.280844
7141.000000;1.286224
7140.000000;1.291648
7139.000000;1.297265
7138.000000;1.302865
7137.000000;1.308106
7136.000000;1.312892
7135.000000;1.317499
7134.000000;1.322335
7133.000000;1.327542
7132.000000;1.332815
7131.000000;1.337850
7130.000000;1.342859
7129.000000;1.348267
7128.000000;1.353935
7127.000000;1.359146
7126.000000;1.363541
7125.000000;1.367725
7124.000000;1.372599
7123.000000;1.378388
7122.000000;1.384493
7121.000000;1.390066
7120.000000;1.394626
7119.000000;1.398410
7118.000000;1.402291
7117.000000;1.407034
7116.000000;1.412397
7115.000000;1.417296
7114.000000;1.421099
7113.000000;1.424401
7112.000000;1.428275
7111.000000;1.433065
7110.000000;1.438258
7109.000000;1.443287
7108.000000;1.447876
7107.000000;1.451824
7106.000000;1.455251
7105.000000;1.458887
7104.000000;1.463407
7103.000000;1.468591
7102.000000;1.473507
7101.000000;1.477544
7100.000000;1.480972
7099.000000;1.484335
7098.000000;1.487678
7097.000000;1.490644
7096.000000;1.493123
7095.000000;1.495531
7094.000000;1.498431
7093.000000;1.502009
7092.000000;1.505979
7091.000000;1.509970
7090.000000;1.513927
7089.000000;1.517983
7088.000000;1.521975
7087.000000;1.525377
7086.000000;1.527940
7085.000000;1.530093
7084.000000;1.532468
7083.000000;1.535350
7082.000000;1.538775
7081.000000;1.542745
7080.000000;1.547001
7079.000000;1.550837
7078.000000;1.553654
7077.000000;1.555736
7076.000000;1.557963
7075.000000;1.560678
7074.000000;1.563345
7073.000000;1.565415
7072.000000;1.567007
7071.000000;1.568499
7070.000000;1.569894
7069.000000;1.571005
7068.000000;1.571988
7067.000000;1.573305
7066.000000;1.575260
7065.000000;1.577738
7064.000000;1.580287
7063.000000;1.582440
7062.000000;1.584057
7061.000000;1.585376
7060.000000;1.586736
7059.000000;1.588288
7058.000000;1.589922
7057.000000;1.591456
7056.000000;1.592757
7055.000000;1.593793
7054.000000;1.594802
7053.000000;1.596321
7052.000000;1.598640
7051.000000;1.601297
7050.000000;1.603479
7049.000000;1.604959
7048.000000;1.606285
7047.000000;1.607998
7046.000000;1.609999
7045.000000;1.611799
7044.000000;1.613061
7043.000000;1.613773
7042.000000;1.614184
7041.000000;1.614738
7040.000000;1.615888
7039.000000;1.617803
7038.000000;1.620248
7037.000000;1.622743
7036.000000;1.624721
7035.000000;1.625772
7034.000000;1.626020
7033.000000;1.626171
7032.000000;1.626837
7031.000000;1.627815
7030.000000;1.628369
7029.000000;1.628220
7028.000000;1.627869
7027.000000;1.627886
7026.000000;1.628319
7025.000000;1.628972
7024.000000;1.629904
7023.000000;1.631356
7022.000000;1.633431
7021.000000;1.635926
7020.000000;1.638248
7019.000000;1.639506
7018.000000;1.639195
7017.000000;1.637968
7016.000000;1.637251
7015.000000;1.637757
7014.000000;1.638784
7013.000000;1.639272
7012.000000;1.639231
7011.000000;1.639591
7010.000000;1.640809
7009.000000;1.642206
7008.000000;1.642832
7007.000000;1.642604
7006.000000;1.642375
7005.000000;1.643008
7004.000000;1.644554
7003.000000;1.646325
7002.000000;1.647626
7001.000000;1.648268
7000.000000;1.648379
6999.000000;1.647971
6998.000000;1.647057
6997.000000;1.646067
6996.000000;1.645594
6995.000000;1.645557
6994.000000;1.645130
6993.000000;1.643864
6992.000000;1.642506
6991.000000;1.642184
6990.000000;1.643081
6989.000000;1.644443
6988.000000;1.645724
6987.000000;1.647034
6986.000000;1.648339
6985.000000;1.648900
6984.000000;1.648064
6983.000000;1.646268
6982.000000;1.644673
6981.000000;1.643961
6980.000000;1.643896
6979.000000;1.643973
6978.000000;1.643964
6977.000000;1.643732
6976.000000;1.643028
6975.000000;1.641949
6974.000000;1.641289
6973.000000;1.641906
6972.000000;1.643677
6971.000000;1.645390
6970.000000;1.645870
6969.000000;1.645071
6968.000000;1.643870
6967.000000;1.643008
6966.000000;1.642541
6965.000000;1.642176
6964.000000;1.641810
6963.000000;1.641638
6962.000000;1.641859
6961.000000;1.642437
6960.000000;1.643167
6959.000000;1.643861
6958.000000;1.644320
6957.000000;1.644217
6956.000000;1.643255
6955.000000;1.641613
6954.000000;1.640032
6953.000000;1.639133
6952.000000;1.638715
6951.000000;1.638008
6950.000000;1.636739
6949.000000;1.635610
6948.000000;1.635494
6947.000000;1.636387
6946.000000;1.637435
6945.000000;1.637818
6944.000000;1.637348
6943.000000;1.636329
6942.000000;1.635219
6941.000000;1.634423
6940.000000;1.634076
6939.000000;1.633897
6938.000000;1.633419
6937.000000;1.632399
6936.000000;1.630998
6935.000000;1.629673
6934.000000;1.629003
6933.000000;1.629392
6932.000000;1.630575
6931.000000;1.631550
6930.000000;1.631453
6929.000000;1.630507
6928.000000;1.629653
6927.000000;1.629221
6926.000000;1.628510
6925.000000;1.626866
6924.000000;1.624642
6923.000000;1.622746
6922.000000;1.621619
6921.000000;1.621016
6920.000000;1.620503
6919.000000;1.619848
6918.000000;1.619091
6917.000000;1.618527
6916.000000;1.618513
6915.000000;1.619035
6914.000000;1.619559
6913.000000;1.619572
6912.000000;1.619129
6911.000000;1.618515
6910.000000;1.617592
6909.000000;1.616018
6908.000000;1.614096
6907.000000;1.612801
6906.000000;1.612730
6905.000000;1.613409
6904.000000;1.613917
6903.000000;1.613890
6902.000000;1.613566
6901.000000;1.613022
6900.000000;1.611902
6899.000000;1.610057
6898.000000;1.608030
6897.000000;1.606617
6896.000000;1.606080
6895.000000;1.606017
6894.000000;1.605957
6893.000000;1.605849
6892.000000;1.605874
6891.000000;1.605951
6890.000000;1.605639
6889.000000;1.604632
6888.000000;1.603242
6887.000000;1.602195
6886.000000;1.601858
6885.000000;1.601798
6884.000000;1.601263
6883.000000;1.600047
6882.000000;1.598677
6881.000000;1.597634
6880.000000;1.596678
6879.000000;1.595228
6878.000000;1.593342
6877.000000;1.591945
6876.000000;1.591836
6875.000000;1.592642
6874.000000;1.593099
6873.000000;1.592438
6872.000000;1.591153
6871.000000;1.590267
6870.000000;1.590106
6869.000000;1.590082
6868.000000;1.589577
6867.000000;1.588668
6866.000000;1.587842
6865.000000;1.587314
6864.000000;1.586857
6863.000000;1.586167
6862.000000;1.585143
6861.000000;1.583839
6860.000000;1.582415
6859.000000;1.581195
6858.000000;1.580503
6857.000000;1.580216
6856.000000;1.579698
6855.000000;1.578431
6854.000000;1.576689
6853.000000;1.575263
6852.000000;1.574446
6851.000000;1.573615
6850.000000;1.572102
6849.000000;1.570269
6848.000000;1.569267
6847.000000;1.569601
6846.000000;1.570340
6845.000000;1.570036
6844.000000;1.568287
6843.000000;1.566026
6842.000000;1.564292
6841.000000;1.563117
6840.000000;1.561767
6839.000000;1.559772
6838.000000;1.557413
6837.000000;1.555259
6836.000000;1.553574
6835.000000;1.552251
6834.000000;1.551124
6833.000000;1.550179
6832.000000;1.549486
6831.000000;1.548992
6830.000000;1.548363
6829.000000;1.547037
6828.000000;1.544594
6827.000000;1.541201
6826.000000;1.537647
6825.000000;1.534784
6824.000000;1.532951
6823.000000;1.531958
6822.000000;1.531473
6821.000000;1.531168
6820.000000;1.530566
6819.000000;1.529140
6818.000000;1.526855
6817.000000;1.524386
6816.000000;1.522465
6815.000000;1.521013
6814.000000;1.519229
6813.000000;1.516642
6812.000000;1.513796
6811.000000;1.511641
6810.000000;1.510490
6809.000000;1.509767
6808.000000;1.508653
6807.000000;1.506731
6806.000000;1.504061
6805.000000;1.500922
6804.000000;1.497696
6803.000000;1.494826
6802.000000;1.492647
6801.000000;1.491111
6800.000000;1.489766
6799.000000;1.488131
6798.000000;1.486194
6797.000000;1.484467
6796.000000;1.483356
6795.000000;1.482437
6794.000000;1.480586
6793.000000;1.477095
6792.000000;1.472567
6791.000000;1.468461
6790.000000;1.465733
6789.000000;1.464068
6788.000000;1.462407
6787.000000;1.460031
6786.000000;1.457087
6785.000000;1.454273
6784.000000;1.452171
6783.000000;1.450808
6782.000000;1.449684
6781.000000;1.448218
6780.000000;1.446258
6779.000000;1.444104
6778.000000;1.442064
6777.000000;1.440121
6776.000000;1.438068
6775.000000;1.435780
6774.000000;1.433215
6773.000000;1.430312
6772.000000;1.427121
6771.000000;1.423985
6770.000000;1.421320
6769.000000;1.419173
6768.000000;1.417174
6767.000000;1.415000
6766.000000;1.412720
6765.000000;1.410574
6764.000000;1.408527
6763.000000;1.406211
6762.000000;1.403304
6761.000000;1.399933
6760.000000;1.396660
6759.000000;1.394065
6758.000000;1.392285
6757.000000;1.390902
6756.000000;1.389271
6755.000000;1.386998
6754.000000;1.384168
6753.000000;1.381185
6752.000000;1.378464
6751.000000;1.376157
6750.000000;1.374080
6749.000000;1.371886
6748.000000;1.369401
6747.000000;1.366771
6746.000000;1.364229
6745.000000;1.361805
6744.000000;1.359336
6743.000000;1.356737
6742.000000;1.354091
6741.000000;1.351479
6740.000000;1.348863
6739.000000;1.346183
6738.000000;1.343476
6737.000000;1.340855
6736.000000;1.338402
6735.000000;1.336119
6734.000000;1.333936
6733.000000;1.331760
6732.000000;1.329554
6731.000000;1.327367
6730.000000;1.325221
6729.000000;1.323019
6728.000000;1.320658
6727.000000;1.318208
6726.000000;1.315889
6725.000000;1.313811
6724.000000;1.311819
6723.000000;1.309609
6722.000000;1.306985
6721.000000;1.304003
6720.000000;1.300909
6719.000000;1.297929
6718.000000;1.295056
6717.000000;1.292158
6716.000000;1.289277
6715.000000;1.286769
6714.000000;1.284852
6713.000000;1.283179
6712.000000;1.281138
6711.000000;1.278568
6710.000000;1.275906
6709.000000;1.273622
6708.000000;1.271575
6707.000000;1.269267
6706.000000;1.266561
6705.000000;1.263742
6704.000000;1.261131
6703.000000;1.258778
6702.000000;1.256555
6701.000000;1.254343
6700.000000;1.252107
6699.000000;1.249867
6698.000000;1.247631
6697.000000;1.245324
6696.000000;1.242838
6695.000000;1.240204
6694.000000;1.237644
6693.000000;1.235331
6692.000000;1.233148
6691.000000;1.230789
6690.000000;1.228092
6689.000000;1.225199
6688.000000;1.222387
6687.000000;1.219841
6686.000000;1.217545
6685.000000;1.215359
6684.000000;1.213175
6683.000000;1.211022
6682.000000;1.208975
6681.000000;1.206947
6680.000000;1.204716
6679.000000;1.202215
6678.000000;1.199681
6677.000000;1.197375
6676.000000;1.195205
6675.000000;1.192812
6674.000000;1.190021
6673.000000;1.187073
6672.000000;1.184376
6671.000000;1.182131
6670.000000;1.180226
6669.000000;1.178375
6668.000000;1.176308
6667.000000;1.173926
6666.000000;1.171384
6665.000000;1.168988
6664.000000;1.166922
6663.000000;1.165044
6662.000000;1.162997
6661.000000;1.160593
6660.000000;1.158036
6659.000000;1.155716
6658.000000;1.153772
6657.000000;1.151934
6656.000000;1.149862
6655.000000;1.147556
6654.000000;1.145319
6653.000000;1.143323
6652.000000;1.141400
6651.000000;1.139284
6650.000000;1.136950
6649.000000;1.134602
6648.000000;1.132417
6647.000000;1.130395
6646.000000;1.128402
6645.000000;1.126277
6644.000000;1.123960
6643.000000;1.121576
6642.000000;1.119325
6641.000000;1.117218
6640.000000;1.115009
6639.000000;1.112481
6638.000000;1.109762
6637.000000;1.107211
6636.000000;1.105051
6635.000000;1.103198
6634.000000;1.101427
6633.000000;1.099572
6632.000000;1.097558
6631.000000;1.095394
6630.000000;1.093174
6629.000000;1.091026
6628.000000;1.088992
6627.000000;1.087006
6626.000000;1.084987
6625.000000;1.082909
6624.000000;1.080771
6623.000000;1.078587
6622.000000;1.076425
6621.000000;1.074367
6620.000000;1.072417
6619.000000;1.070475
6618.000000;1.068437
6617.000000;1.066279
6616.000000;1.064047
6615.000000;1.061785
6614.000000;1.059518
6613.000000;1.057272
6612.000000;1.055092
6611.000000;1.053023
6610.000000;1.051056
6609.000000;1.049092
6608.000000;1.047040
6607.000000;1.044960
6606.000000;1.043035
6605.000000;1.041328
6604.000000;1.039643
6603.000000;1.037713
6602.000000;1.035500
6601.000000;1.033200
6600.000000;1.031003
6599.000000;1.028956
6598.000000;1.027028
6597.000000;1.025186
6596.000000;1.023383
6595.000000;1.021565
6594.000000;1.019723
6593.000000;1.017844
6592.000000;1.015847
6591.000000;1.013679
6590.000000;1.011486
6589.000000;1.009531
6588.000000;1.007898
6587.000000;1.006385
6586.000000;1.004750
6585.000000;1.002954
6584.000000;1.001082
6583.000000;0.999146
6582.000000;0.997115
6581.000000;0.995046
6580.000000;0.993054
6579.000000;0.991166
6578.000000;0.989321
6577.000000;0.987480
6576.000000;0.985646
6575.000000;0.983791
6574.000000;0.981877
6573.000000;0.979964
6572.000000;0.978167
6571.000000;0.976496
6570.000000;0.974827
6569.000000;0.973076
6568.000000;0.971310
6567.000000;0.969607
6566.000000;0.967902
6565.000000;0.966062
6564.000000;0.964072
6563.000000;0.962051
6562.000000;0.960115
6561.000000;0.958301
6560.000000;0.956606
6559.000000;0.955019
6558.000000;0.953478
6557.000000;0.951875
6556.000000;0.950156
6555.000000;0.948366
6554.000000;0.946575
6553.000000;0.944803
6552.000000;0.943057
6551.000000;0.941400
6550.000000;0.939890
6549.000000;0.938466
6548.000000;0.936975
6547.000000;0.935314
6546.000000;0.933524
6545.000000;0.931707
6544.000000;0.929917
6543.000000;0.928147
6542.000000;0.926376
6541.000000;0.924617
6540.000000;0.922896
6539.000000;0.921216
6538.000000;0.919530
6537.000000;0.917778
6536.000000;0.915981
6535.000000;0.914265
6534.000000;0.912740
6533.000000;0.911355
6532.000000;0.909951
6531.000000;0.908450
6530.000000;0.906928
6529.000000;0.905480
6528.000000;0.904094
6527.000000;0.902687
6526.000000;0.901198
6525.000000;0.899588
6524.000000;0.897825
6523.000000;0.895944
6522.000000;0.894068
6521.000000;0.892312
6520.000000;0.890685
6519.000000;0.889136
6518.000000;0.887658
6517.000000;0.886270
6516.000000;0.884951
6515.000000;0.883657
6514.000000;0.882381
6513.000000;0.881103
6512.000000;0.879718
6511.000000;0.878113
6510.000000;0.876317
6509.000000;0.874485
6508.000000;0.872727
6507.000000;0.871036
6506.000000;0.869411
6505.000000;0.867928
6504.000000;0.866611
6503.000000;0.865318
6502.000000;0.863859
6501.000000;0.862232
6500.000000;0.860640
6499.000000;0.859275
6498.000000;0.858108
6497.000000;0.856933
6496.000000;0.855578
6495.000000;0.854049
6494.000000;0.852476
6493.000000;0.850958
6492.000000;0.849506
6491.000000;0.848107
6490.000000;0.846772
6489.000000;0.845509
6488.000000;0.844279
6487.000000;0.843028
6486.000000;0.841726
6485.000000;0.840346
6484.000000;0.838867
6483.000000;0.837341
6482.000000;0.835896
6481.000000;0.834610
6480.000000;0.833385
6479.000000;0.832061
6478.000000;0.830633
6477.000000;0.829251
6476.000000;0.827997
6475.000000;0.826763
6474.000000;0.825403
6473.000000;0.823929
6472.000000;0.822462
6471.000000;0.821065
6470.000000;0.819683
6469.000000;0.818267
6468.000000;0.816858
6467.000000;0.815544
6466.000000;0.814353
6465.000000;0.813226
6464.000000;0.812071
6463.000000;0.810859
6462.000000;0.809634
6461.000000;0.808441
6460.000000;0.807253
6459.000000;0.806006
6458.000000;0.804696
6457.000000;0.803391
6456.000000;0.802144
6455.000000;0.800941
6454.000000;0.799754
6453.000000;0.798578
6452.000000;0.797391
6451.000000;0.796122
6450.000000;0.794716
6449.000000;0.793221
6448.000000;0.791763
6447.000000;0.790444
6446.000000;0.789284
6445.000000;0.788230
6444.000000;0.787178
6443.000000;0.786019
6442.000000;0.784725
6441.000000;0.783394
6440.000000;0.782179
6439.000000;0.781147
6438.000000;0.780218
6437.000000;0.779239
6436.000000;0.778089
6435.000000;0.776741
6434.000000;0.775277
6433.000000;0.773845
6432.000000;0.772575
6431.000000;0.771482
6430.000000;0.770471
6429.000000;0.769434
6428.000000;0.768348
6427.000000;0.767243
6426.000000;0.766127
6425.000000;0.764976
6424.000000;0.763799
6423.000000;0.762655
6422.000000;0.761582
6421.000000;0.760537
6420.000000;0.759447
6419.000000;0.758294
6418.000000;0.757126
6417.000000;0.755965
6416.000000;0.754777
6415.000000;0.753551
6414.000000;0.752352
6413.000000;0.751262
6412.000000;0.750273
6411.000000;0.749297
6410.000000;0.748259
6409.000000;0.747152
6408.000000;0.746020
6407.000000;0.744931
6406.000000;0.743943
6405.000000;0.743027
6404.000000;0.742040
6403.000000;0.740857
6402.000000;0.739544
6401.000000;0.738320
6400.000000;0.737313
6399.000000;0.736411
6398.000000;0.735410
6397.000000;0.734271
6396.000000;0.733146
6395.000000;0.732174
6394.000000;0.731324
6393.000000;0.730446
6392.000000;0.729444
6391.000000;0.728364
6390.000000;0.727336
6389.000000;0.726444
6388.000000;0.725640
6387.000000;0.724783
6386.000000;0.723781
6385.000000;0.722684
6384.000000;0.721626
6383.000000;0.720672
6382.000000;0.719757
6381.000000;0.718777
6380.000000;0.717706
6379.000000;0.716611
6378.000000;0.715564
6377.000000;0.714575
6376.000000;0.713614
6375.000000;0.712676
6374.000000;0.711785
6373.000000;0.710948
6372.000000;0.710124
6371.000000;0.709271
6370.000000;0.708395
6369.000000;0.707542
6368.000000;0.706716
6367.000000;0.705863
6366.000000;0.704919
6365.000000;0.703882
6364.000000;0.702825
6363.000000;0.701835
6362.000000;0.700960
6361.000000;0.700169
6360.000000;0.699365
6359.000000;0.698464
6358.000000;0.697478
6357.000000;0.696486
6356.000000;0.695534
6355.000000;0.694583
6354.000000;0.693597
6353.000000;0.692621
6352.000000;0.691733
6351.000000;0.690930
6350.000000;0.690114
6349.000000;0.689213
6348.000000;0.688264
6347.000000;0.687357
6346.000000;0.686526
6345.000000;0.685734
6344.000000;0.684937
6343.000000;0.684135
6342.000000;0.683350
6341.000000;0.682579
6340.000000;0.681813
6339.000000;0.681065
6338.000000;0.680359
6337.000000;0.679658
6336.000000;0.678864
6335.000000;0.677914
6334.000000;0.676877
6333.000000;0.675889
6332.000000;0.675005
6331.000000;0.674154
6330.000000;0.673255
6329.000000;0.672314
6328.000000;0.671384
6327.000000;0.670485
6326.000000;0.669613
6325.000000;0.668800
6324.000000;0.668109
6323.000000;0.667546
6322.000000;0.667026
6321.000000;0.666422
6320.000000;0.665645
6319.000000;0.664693
6318.000000;0.663664
6317.000000;0.662712
6316.000000;0.661957
6315.000000;0.661397
6314.000000;0.660927
6313.000000;0.660420
6312.000000;0.659802
6311.000000;0.659056
6310.000000;0.658215
6309.000000;0.657357
6308.000000;0.656556
6307.000000;0.655819
6306.000000;0.655089
6305.000000;0.654328
6304.000000;0.653563
6303.000000;0.652843
6302.000000;0.652161
6301.000000;0.651453
6300.000000;0.650668
6299.000000;0.649821
6298.000000;0.648977
6297.000000;0.648191
6296.000000;0.647465
6295.000000;0.646752
6294.000000;0.646020
6293.000000;0.645293
6292.000000;0.644615
6291.000000;0.643963
6290.000000;0.643242
6289.000000;0.642400
6288.000000;0.641515
6287.000000;0.640726
6286.000000;0.640082
6285.000000;0.639500
6284.000000;0.638873
6283.000000;0.638191
6282.000000;0.637523
6281.000000;0.636920
6280.000000;0.636360
6279.000000;0.635777
6278.000000;0.635124
6277.000000;0.634403
6276.000000;0.633658
6275.000000;0.632939
6274.000000;0.632259
6273.000000;0.631582
6272.000000;0.630881
6271.000000;0.630182
6270.000000;0.629537
6269.000000;0.628941
6268.000000;0.628317
6267.000000;0.627601
6266.000000;0.626826
6265.000000;0.626083
6264.000000;0.625423
6263.000000;0.624821
6262.000000;0.624235
6261.000000;0.623652
6260.000000;0.623057
6259.000000;0.622408
6258.000000;0.621684
6257.000000;0.620934
6256.000000;0.620241
6255.000000;0.619656
6254.000000;0.619165
6253.000000;0.618714
6252.000000;0.618224
6251.000000;0.617612
6250.000000;0.616846
6249.000000;0.615999
6248.000000;0.615203
6247.000000;0.614534
6246.000000;0.613959
6245.000000;0.613409
6244.000000;0.612860
6243.000000;0.612338
6242.000000;0.611859
6241.000000;0.611399
6240.000000;0.610911
6239.000000;0.610338
6238.000000;0.609639
6237.000000;0.608837
6236.000000;0.608036
6235.000000;0.607349
6234.000000;0.606800
6233.000000;0.606307
6232.000000;0.605785
6231.000000;0.605216
6230.000000;0.604613
6229.000000;0.603970
6228.000000;0.603282
6227.000000;0.602602
6226.000000;0.601999
6225.000000;0.601465
6224.000000;0.600900
6223.000000;0.600236
6222.000000;0.599528
6221.000000;0.598896
6220.000000;0.598388
6219.000000;0.597942
6218.000000;0.597463
6217.000000;0.596915
6216.000000;0.596320
6215.000000;0.595727
6214.000000;0.595170
6213.000000;0.594657
6212.000000;0.594161
6211.000000;0.593655
6210.000000;0.593151
6209.000000;0.592679
6208.000000;0.592221
6207.000000;0.591706
6206.000000;0.591102
6205.000000;0.590475
6204.000000;0.589922
6203.000000;0.589458
6202.000000;0.589006
6201.000000;0.588486
6200.000000;0.587882
6199.000000;0.587237
6198.000000;0.586603
6197.000000;0.586028
6196.000000;0.585525
6195.000000;0.585059
6194.000000;0.584581
6193.000000;0.584078
6192.000000;0.583575
6191.000000;0.583086
6190.000000;0.582581
6189.000000;0.582031
6188.000000;0.581447
6187.000000;0.580870
6186.000000;0.580319
6185.000000;0.579783
6184.000000;0.579249
6183.000000;0.578711
6182.000000;0.578183
6181.000000;0.577697
6180.000000;0.577284
6179.000000;0.576927
6178.000000;0.576549
6177.000000;0.576079
6176.000000;0.575528
6175.000000;0.574978
6174.000000;0.574494
6173.000000;0.574056
6172.000000;0.573599
6171.000000;0.573084
6170.000000;0.572533
6169.000000;0.571992
6168.000000;0.571473
6167.000000;0.570957
6166.000000;0.570420
6165.000000;0.569870
6164.000000;0.569331
6163.000000;0.568816
6162.000000;0.568329
6161.000000;0.567889
6160.000000;0.567519
6159.000000;0.567206
6158.000000;0.566891
6157.000000;0.566507
6156.000000;0.566034
6155.000000;0.565505
6154.000000;0.564970
6153.000000;0.564453
6152.000000;0.563943
6151.000000;0.563409
6150.000000;0.562841
6149.000000;0.562271
6148.000000;0.561749
6147.000000;0.561302
6146.000000;0.560917
6145.000000;0.560561
6144.000000;0.560190
6143.000000;0.559753
6142.000000;0.559231
6141.000000;0.558671
6140.000000;0.558170
6139.000000;0.557786
6138.000000;0.557485
6137.000000;0.557181
6136.000000;0.556824
6135.000000;0.556421
6134.000000;0.556010
6133.000000;0.555621
6132.000000;0.555248
6131.000000;0.554833
6130.000000;0.554316
6129.000000;0.553712
6128.000000;0.553130
6127.000000;0.552670
6126.000000;0.552322
6125.000000;0.551991
6124.000000;0.551610
6123.000000;0.551187
6122.000000;0.550753
6121.000000;0.550315
6120.000000;0.549872
6119.000000;0.549424
6118.000000;0.548958
6117.000000;0.548448
6116.000000;0.547897
6115.000000;0.547347
6114.000000;0.546846
6113.000000;0.546409
6112.000000;0.546022
6111.000000;0.545665
6110.000000;0.545321
6109.000000;0.544978
6108.000000;0.544624
6107.000000;0.544248
6106.000000;0.543838
6105.000000;0.543415
6104.000000;0.543044
6103.000000;0.542786
6102.000000;0.542621
6101.000000;0.542455
6100.000000;0.542205
6099.000000;0.541855
6098.000000;0.541424
6097.000000;0.540921
6096.000000;0.540370
6095.000000;0.539841
6094.000000;0.539394
6093.000000;0.539012
6092.000000;0.538626
6091.000000;0.538204
6090.000000;0.537780
6089.000000;0.537399
6088.000000;0.537065
6087.000000;0.536759
6086.000000;0.536464
6085.000000;0.536162
6084.000000;0.535822
6083.000000;0.535422
6082.000000;0.534985
6081.000000;0.534560
6080.000000;0.534173
6079.000000;0.533808
6078.000000;0.533439
6077.000000;0.533069
6076.000000;0.532720
6075.000000;0.532397
6074.000000;0.532071
6073.000000;0.531718
6072.000000;0.531342
6071.000000;0.530964
6070.000000;0.530592
6069.000000;0.530221
6068.000000;0.529848
6067.000000;0.529479
6066.000000;0.529107
6065.000000;0.528718
6064.000000;0.528323
6063.000000;0.527959
6062.000000;0.527649
6061.000000;0.527373
6060.000000;0.527089
6059.000000;0.526781
6058.000000;0.526458
6057.000000;0.526122
6056.000000;0.525770
6055.000000;0.525405
6054.000000;0.525051
6053.000000;0.524719
6052.000000;0.524403
6051.000000;0.524091
6050.000000;0.523790
6049.000000;0.523512
6048.000000;0.523245
6047.000000;0.522963
6046.000000;0.522658
6045.000000;0.522358
6044.000000;0.522104
6043.000000;0.521884
6042.000000;0.521616
6041.000000;0.521214
6040.000000;0.520688
6039.000000;0.520160
6038.000000;0.519757
6037.000000;0.519488
6036.000000;0.519254
6035.000000;0.518970
6034.000000;0.518656
6033.000000;0.518388
6032.000000;0.518185
6031.000000;0.517976
6030.000000;0.517682
6029.000000;0.517308
6028.000000;0.516940
6027.000000;0.516642
6026.000000;0.516390
6025.000000;0.516115
6024.000000;0.515794
6023.000000;0.515478
6022.000000;0.515236
6021.000000;0.515064
6020.000000;0.514893
6019.000000;0.514662
6018.000000;0.514377
6017.000000;0.514090
6016.000000;0.513831
6015.000000;0.513576
6014.000000;0.513286
6013.000000;0.512959
6012.000000;0.512630
6011.000000;0.512332
6010.000000;0.512065
6009.000000;0.511817
6008.000000;0.511592
6007.000000;0.511401
6006.000000;0.511234
6005.000000;0.511046
6004.000000;0.510791
6003.000000;0.510469
6002.000000;0.510130
6001.000000;0.509830
6000.000000;0.509584
5999.000000;0.509366
5998.000000;0.509149
5997.000000;0.508948
5996.000000;0.508794
5995.000000;0.508678
5994.000000;0.508528
5993.000000;0.508276
5992.000000;0.507926
5991.000000;0.507564
5990.000000;0.507280
5989.000000;0.507102
5988.000000;0.506987
5987.000000;0.506861
5986.000000;0.506680
5985.000000;0.506440
5984.000000;0.506166
5983.000000;0.505881
5982.000000;0.505592
5981.000000;0.505299
5980.000000;0.505013
5979.000000;0.504747
5978.000000;0.504515
5977.000000;0.504329
5976.000000;0.504183
5975.000000;0.504037
5974.000000;0.503834
5973.000000;0.503559
5972.000000;0.503268
5971.000000;0.503027
5970.000000;0.502839
5969.000000;0.502639
5968.000000;0.502378
5967.000000;0.502072
5966.000000;0.501784
5965.000000;0.501569
5964.000000;0.501450
5963.000000;0.501401
5962.000000;0.501360
5961.000000;0.501267
5960.000000;0.501128
5959.000000;0.500996
5958.000000;0.500897
5957.000000;0.500783
5956.000000;0.500602
5955.000000;0.500375
5954.000000;0.500179
5953.000000;0.500064
5952.000000;0.500011
5951.000000;0.499984
5950.000000;0.499946
5949.000000;0.499862
5948.000000;0.499700
5947.000000;0.499485
5946.000000;0.499289
5945.000000;0.499144
5944.000000;0.498993
5943.000000;0.498765
5942.000000;0.498483
5941.000000;0.498263
5940.000000;0.498185
5939.000000;0.498198
5938.000000;0.498175
5937.000000;0.498028
5936.000000;0.497786
5935.000000;0.497548
5934.000000;0.497395
5933.000000;0.497326
5932.000000;0.497280
5931.000000;0.497187
5930.000000;0.497029
5929.000000;0.496841
5928.000000;0.496669
5927.000000;0.496534
5926.000000;0.496431
5925.000000;0.496353
5924.000000;0.496288
5923.000000;0.496220
5922.000000;0.496124
5921.000000;0.495993
5920.000000;0.495841
5919.000000;0.495703
5918.000000;0.495612
5917.000000;0.495569
5916.000000;0.495528
5915.000000;0.495417
5914.000000;0.495215
5913.000000;0.494985
5912.000000;0.494816
5911.000000;0.494736
5910.000000;0.494697
5909.000000;0.494657
5908.000000;0.494623
5907.000000;0.494606
5906.000000;0.494566
5905.000000;0.494463
5904.000000;0.494314
5903.000000;0.494185
5902.000000;0.494096
5901.000000;0.493996
5900.000000;0.493831
5899.000000;0.493622
5898.000000;0.493437
5897.000000;0.493319
5896.000000;0.493248
5895.000000;0.493183
5894.000000;0.493108
5893.000000;0.493048
5892.000000;0.493028
5891.000000;0.493037
5890.000000;0.493036
5889.000000;0.493002
5888.000000;0.492951
5887.000000;0.492911
5886.000000;0.492890
5885.000000;0.492881
5884.000000;0.492880
5883.000000;0.492872
5882.000000;0.492823
5881.000000;0.492703
5880.000000;0.492534
5879.000000;0.492377
5878.000000;0.492268
5877.000000;0.492201
5876.000000;0.492170
5875.000000;0.492203
5874.000000;0.492310
5873.000000;0.492438
5872.000000;0.492510
5871.000000;0.492494
5870.000000;0.492422
5869.000000;0.492333
5868.000000;0.492255
5867.000000;0.492214
5866.000000;0.492225
5865.000000;0.492261
5864.000000;0.492267
5863.000000;0.492234
5862.000000;0.492220
5861.000000;0.492272
5860.000000;0.492360
5859.000000;0.492406
5858.000000;0.492396
5857.000000;0.492385
5856.000000;0.492417
5855.000000;0.492474
5854.000000;0.492526
5853.000000;0.492581
5852.000000;0.492661
5851.000000;0.492744
5850.000000;0.492784
5849.000000;0.492781
5848.000000;0.492793
5847.000000;0.492874
5846.000000;0.493026
5845.000000;0.493208
5844.000000;0.493366
5843.000000;0.493443
5842.000000;0.493411
5841.000000;0.493294
5840.000000;0.493161
5839.000000;0.493081
5838.000000;0.493089
5837.000000;0.493174
5836.000000;0.493299
5835.000000;0.493410
5834.000000;0.493488
5833.000000;0.493592
5832.000000;0.493806
5831.000000;0.494139
5830.000000;0.494478
5829.000000;0.494683
5828.000000;0.494701
5827.000000;0.494593
5826.000000;0.494475
5825.000000;0.494449
5824.000000;0.494562
5823.000000;0.494790
5822.000000;0.495052
5821.000000;0.495276
5820.000000;0.495454
5819.000000;0.495620
5818.000000;0.495799
5817.000000;0.495989
5816.000000;0.496181
5815.000000;0.496378
5814.000000;0.496577
5813.000000;0.496762
5812.000000;0.496927
5811.000000;0.497085
5810.000000;0.497260
5809.000000;0.497455
5808.000000;0.497650
5807.000000;0.497814
5806.000000;0.497946
5805.000000;0.498079
5804.000000;0.498236
5803.000000;0.498385
5802.000000;0.498475
5801.000000;0.498511
5800.000000;0.498575
5799.000000;0.498733
5798.000000;0.498976
5797.000000;0.499246
5796.000000;0.499507
5795.000000;0.499740
5794.000000;0.499935
5793.000000;0.500111
5792.000000;0.500339
5791.000000;0.500668
5790.000000;0.501055
5789.000000;0.501402
5788.000000;0.501672
5787.000000;0.501917
5786.000000;0.502185
5785.000000;0.502459
5784.000000;0.502695
5783.000000;0.502890
5782.000000;0.503082
5781.000000;0.503308
5780.000000;0.503593
5779.000000;0.503934
5778.000000;0.504294
5777.000000;0.504625
5776.000000;0.504912
5775.000000;0.505187
5774.000000;0.505485
5773.000000;0.505802
5772.000000;0.506120
5771.000000;0.506448
5770.000000;0.506817
5769.000000;0.507231
5768.000000;0.507651
5767.000000;0.508024
5766.000000;0.508322
5765.000000;0.508551
5764.000000;0.508731
5763.000000;0.508891
5762.000000;0.509078
5761.000000;0.509356
5760.000000;0.509756
5759.000000;0.510232
5758.000000;0.510697
5757.000000;0.511104
5756.000000;0.511472
5755.000000;0.511821
5754.000000;0.512133
5753.000000;0.512390
5752.000000;0.512646
5751.000000;0.512985
5750.000000;0.513436
5749.000000;0.513942
5748.000000;0.514429
5747.000000;0.514872
5746.000000;0.515287
5745.000000;0.515692
5744.000000;0.516082
5743.000000;0.516448
5742.000000;0.516801
5741.000000;0.517196
5740.000000;0.517695
5739.000000;0.518304
5738.000000;0.518943
5737.000000;0.519518
5736.000000;0.520002
5735.000000;0.520429
5734.000000;0.520840
5733.000000;0.521255
5732.000000;0.521693
5731.000000;0.522160
5730.000000;0.522639
5729.000000;0.523121
5728.000000;0.523636
5727.000000;0.524214
5726.000000;0.524816
5725.000000;0.525355
5724.000000;0.525789
5723.000000;0.526161
5722.000000;0.526537
5721.000000;0.526945
5720.000000;0.527379
5719.000000;0.527829
5718.000000;0.528292
5717.000000;0.528782
5716.000000;0.529331
5715.000000;0.529956
5714.000000;0.530629
5713.000000;0.531308
5712.000000;0.531983
5711.000000;0.532653
5710.000000;0.533276
5709.000000;0.533798
5708.000000;0.534238
5707.000000;0.534685
5706.000000;0.535192
5705.000000;0.535717
5704.000000;0.536214
5703.000000;0.536704
5702.000000;0.537236
5701.000000;0.537811
5700.000000;0.538399
5699.000000;0.539019
5698.000000;0.539718
5697.000000;0.540488
5696.000000;0.541244
5695.000000;0.541913
5694.000000;0.542496
5693.000000;0.543058
5692.000000;0.543658
5691.000000;0.544307
5690.000000;0.544969
5689.000000;0.545593
5688.000000;0.546149
5687.000000;0.546654
5686.000000;0.547163
5685.000000;0.547724
5684.000000;0.548351
5683.000000;0.549013
5682.000000;0.549657
5681.000000;0.550252
5680.000000;0.550816
5679.000000;0.551400
5678.000000;0.552033
5677.000000;0.552706
5676.000000;0.553388
5675.000000;0.554054
5674.000000;0.554691
5673.000000;0.555293
5672.000000;0.555863
5671.000000;0.556428
5670.000000;0.557020
5669.000000;0.557660
5668.000000;0.558343
5667.000000;0.559052
5666.000000;0.559753
5665.000000;0.560401
5664.000000;0.560955
5663.000000;0.561418
5662.000000;0.561850
5661.000000;0.562329
5660.000000;0.562875
5659.000000;0.563427
5658.000000;0.563913
5657.000000;0.564346
5656.000000;0.564811
5655.000000;0.565369
5654.000000;0.565997
5653.000000;0.566645
5652.000000;0.567302
5651.000000;0.567978
5650.000000;0.568649
5649.000000;0.569277
5648.000000;0.569847
5647.000000;0.570367
5646.000000;0.570834
5645.000000;0.571253
5644.000000;0.571677
5643.000000;0.572179
5642.000000;0.572780
5641.000000;0.573446
5640.000000;0.574113
5639.000000;0.574710
5638.000000;0.575175
5637.000000;0.575510
5636.000000;0.575818
5635.000000;0.576229
5634.000000;0.576777
5633.000000;0.577380
5632.000000;0.577945
5631.000000;0.578438
5630.000000;0.578862
5629.000000;0.579218
5628.000000;0.579521
5627.000000;0.579815
5626.000000;0.580137
5625.000000;0.580497
5624.000000;0.580879
5623.000000;0.581256
5622.000000;0.581594
5621.000000;0.581876
5620.000000;0.582137
5619.000000;0.582435
5618.000000;0.582783
5617.000000;0.583138
5616.000000;0.583462
5615.000000;0.583755
5614.000000;0.584035
5613.000000;0.584297
5612.000000;0.584541
5611.000000;0.584786
5610.000000;0.585049
5609.000000;0.585314
5608.000000;0.585554
5607.000000;0.585768
5606.000000;0.585989
5605.000000;0.586265
5604.000000;0.586626
5603.000000;0.587057
5602.000000;0.587477
5601.000000;0.587796
5600.000000;0.587976
5599.000000;0.588047
5598.000000;0.588059
5597.000000;0.588063
5596.000000;0.588114
5595.000000;0.588244
5594.000000;0.588424
5593.000000;0.588575
5592.000000;0.588641
5591.000000;0.588647
5590.000000;0.588667
5589.000000;0.588760
5588.000000;0.588931
5587.000000;0.589124
5586.000000;0.589252
5585.000000;0.589270
5584.000000;0.589223
5583.000000;0.589206
5582.000000;0.589271
5581.000000;0.589396
5580.000000;0.589523
5579.000000;0.589596
5578.000000;0.589584
5577.000000;0.589502
5576.000000;0.589409
5575.000000;0.589358
5574.000000;0.589353
5573.000000;0.589392
5572.000000;0.589497
5571.000000;0.589649
5570.000000;0.589744
5569.000000;0.589687
5568.000000;0.589528
5567.000000;0.589416
5566.000000;0.589423
5565.000000;0.589465
5564.000000;0.589431
5563.000000;0.589311
5562.000000;0.589182
5561.000000;0.589112
5560.000000;0.589103
5559.000000;0.589098
5558.000000;0.589019
5557.000000;0.588862
5556.000000;0.588715
5555.000000;0.588650
5554.000000;0.588619
5553.000000;0.588530
5552.000000;0.588403
5551.000000;0.588342
5550.000000;0.588384
5549.000000;0.588455
5548.000000;0.588471
5547.000000;0.588403
5546.000000;0.588249
5545.000000;0.588028
5544.000000;0.587830
5543.000000;0.587742
5542.000000;0.587723
5541.000000;0.587634
5540.000000;0.587419
5539.000000;0.587162
5538.000000;0.586963
5537.000000;0.586845
5536.000000;0.586782
5535.000000;0.586761
5534.000000;0.586773
5533.000000;0.586794
5532.000000;0.586800
5531.000000;0.586761
5530.000000;0.586656
5529.000000;0.586500
5528.000000;0.586347
5527.000000;0.586255
5526.000000;0.586239
5525.000000;0.586273
5524.000000;0.586335
5523.000000;0.586371
5522.000000;0.586274
5521.000000;0.586004
5520.000000;0.585674
5519.000000;0.585470
5518.000000;0.585471
5517.000000;0.585583
5516.000000;0.585654
5515.000000;0.585582
5514.000000;0.585358
5513.000000;0.585089
5512.000000;0.584944
5511.000000;0.584989
5510.000000;0.585105
5509.000000;0.585154
5508.000000;0.585148
5507.000000;0.585177
5506.000000;0.585229
5505.000000;0.585200
5504.000000;0.585094
5503.000000;0.585006
5502.000000;0.584941
5501.000000;0.584832
5500.000000;0.584661
5499.000000;0.584514
5498.000000;0.584545
5497.000000;0.584811
5496.000000;0.585212
5495.000000;0.585561
5494.000000;0.585770
5493.000000;0.585919
5492.000000;0.586096
5491.000000;0.586271
5490.000000;0.586340
5489.000000;0.586262
5488.000000;0.586096
5487.000000;0.585916
5486.000000;0.585771
5485.000000;0.585690
5484.000000;0.585707
5483.000000;0.585826
5482.000000;0.585939
5481.000000;0.586048
5480.000000;0.586355
5479.000000;0.586922
5478.000000;0.587520
5477.000000;0.587930
5476.000000;0.588259
5475.000000;0.588666
5474.000000;0.589001
5473.000000;0.589087
5472.000000;0.589057
5471.000000;0.589126
5470.000000;0.589281
5469.000000;0.589469
5468.000000;0.589758
5467.000000;0.590164
5466.000000;0.590597
5465.000000;0.591051
5464.000000;0.591659
5463.000000;0.592405
5462.000000;0.592989
5461.000000;0.593282
5460.000000;0.593544
5459.000000;0.593902
5458.000000;0.594125
5457.000000;0.594137
5456.000000;0.594260
5455.000000;0.594732
5454.000000;0.595436
5453.000000;0.596189
5452.000000;0.597005
5451.000000;0.597939
5450.000000;0.598895
5449.000000;0.599813
5448.000000;0.600669
5447.000000;0.601346
5446.000000;0.601868
5445.000000;0.602449
5444.000000;0.603157
5443.000000;0.603813
5442.000000;0.604296
5441.000000;0.604795
5440.000000;0.605579
5439.000000;0.606610
5438.000000;0.607620
5437.000000;0.608524
5436.000000;0.609488
5435.000000;0.610583
5434.000000;0.611729
5433.000000;0.612913
5432.000000;0.614110
5431.000000;0.615163
5430.000000;0.616106
5429.000000;0.617211
5428.000000;0.618473
5427.000000;0.619548
5426.000000;0.620298
5425.000000;0.620979
5424.000000;0.621902
5423.000000;0.623123
5422.000000;0.624529
5421.000000;0.626010
5420.000000;0.627601
5419.000000;0.629496
5418.000000;0.631758
5417.000000;0.634178
5416.000000;0.636476
5415.000000;0.638591
5414.000000;0.640663
5413.000000;0.642689
5412.000000;0.644538
5411.000000;0.646195
5410.000000;0.647780
5409.000000;0.649396
5408.000000;0.651090
5407.000000;0.652911
5406.000000;0.654873
5405.000000;0.656987
5404.000000;0.659281
5403.000000;0.661716
5402.000000;0.664361
5401.000000;0.667289
5400.000000;0.670364
5399.000000;0.673522
5398.000000;0.676788
5397.000000;0.680071
5396.000000;0.683243
5395.000000;0.686370
5394.000000;0.689684
5393.000000;0.693164
5392.000000;0.696568
5391.000000;0.699911
5390.000000;0.703397
5389.000000;0.707044
5388.000000;0.710727
5387.000000;0.714508
5386.000000;0.718559
5385.000000;0.722886
5384.000000;0.727262
5383.000000;0.731589
5382.000000;0.736184
5381.000000;0.741239
5380.000000;0.746408
5379.000000;0.751370
5378.000000;0.756352
5377.000000;0.761707
5376.000000;0.767307
5375.000000;0.772839
5374.000000;0.778391
5373.000000;0.784167
5372.000000;0.790088
5371.000000;0.796059
5370.000000;0.802219
5369.000000;0.808733
5368.000000;0.815567
5367.000000;0.822645
5366.000000;0.829980
5365.000000;0.837612
5364.000000;0.845436
5363.000000;0.853373
5362.000000;0.861571
5361.000000;0.870063
5360.000000;0.878658
5359.000000;0.887394
5358.000000;0.896614
5357.000000;0.906380
5356.000000;0.916261
5355.000000;0.926046
5354.000000;0.936102
5353.000000;0.946674
5352.000000;0.957312
5351.000000;0.967578
5350.000000;0.977890
5349.000000;0.988960
5348.000000;1.000784
5347.000000;1.012922
5346.000000;1.025371
5345.000000;1.038425
5344.000000;1.051863
5343.000000;1.065126
5342.000000;1.078211
5341.000000;1.091432
5340.000000;1.104871
5339.000000;1.118657
5338.000000;1.133051
5337.000000;1.148013
5336.000000;1.163045
5335.000000;1.177747
5334.000000;1.192315
5333.000000;1.207347
5332.000000;1.223106
5331.000000;1.239320
5330.000000;1.255823
5329.000000;1.272731
5328.000000;1.290044
5327.000000;1.307600
5326.000000;1.325218
5325.000000;1.342609
5324.000000;1.359458
5323.000000;1.375823
5322.000000;1.392212
5321.000000;1.408947
5320.000000;1.425811
5319.000000;1.442724
5318.000000;1.460218
5317.000000;1.478517
5316.000000;1.496625
5315.000000;1.513222
5314.000000;1.528132
5313.000000;1.542311
5312.000000;1.556608
5311.000000;1.571247
5310.000000;1.586280
5309.000000;1.601622
5308.000000;1.616621
5307.000000;1.630336
5306.000000;1.642425
5305.000000;1.653202
5304.000000;1.662953
5303.000000;1.671965
5302.000000;1.680858
5301.000000;1.690009
5300.000000;1.698920
5299.000000;1.706955
5298.000000;1.714224
5297.000000;1.720915
5296.000000;1.726552
5295.000000;1.730859
5294.000000;1.734577
5293.000000;1.738598
5292.000000;1.742758
5291.000000;1.746277
5290.000000;1.748871
5289.000000;1.750637
5288.000000;1.751615
5287.000000;1.752339
5286.000000;1.754186
5285.000000;1.758001
5284.000000;1.762615
5283.000000;1.765878
5282.000000;1.767043
5281.000000;1.767068
5280.000000;1.766961
5279.000000;1.767023
5278.000000;1.767382
5277.000000;1.768082
5276.000000;1.768742
5275.000000;1.769032
5274.000000;1.769385
5273.000000;1.770556
5272.000000;1.772577
5271.000000;1.774507
5270.000000;1.775336
5269.000000;1.774878
5268.000000;1.773886
5267.000000;1.773568
5266.000000;1.774581
5265.000000;1.776202
5264.000000;1.776823
5263.000000;1.775832
5262.000000;1.774440
5261.000000;1.774204
5260.000000;1.775548
5259.000000;1.777992
5258.000000;1.780793
5257.000000;1.782947
5256.000000;1.783480
5255.000000;1.782432
5254.000000;1.781117
5253.000000;1.780772
5252.000000;1.781411
5251.000000;1.782183
5250.000000;1.782538
5249.000000;1.782559
5248.000000;1.782314
5247.000000;1.781822
5246.000000;1.781226
5245.000000;1.780306
5244.000000;1.778575
5243.000000;1.776490
5242.000000;1.775579
5241.000000;1.776626
5240.000000;1.778601
5239.000000;1.780026
5238.000000;1.780604
5237.000000;1.780892
5236.000000;1.781053
5235.000000;1.780845
5234.000000;1.780494
5233.000000;1.780499
5232.000000;1.780679
5231.000000;1.780472
5230.000000;1.780067
5229.000000;1.780228
5228.000000;1.781096
5227.000000;1.782244
5226.000000;1.783650
5225.000000;1.785444
5224.000000;1.786956
5223.000000;1.787169
5222.000000;1.786132
5221.000000;1.784986
5220.000000;1.784563
5219.000000;1.784617
5218.000000;1.784498
5217.000000;1.784065
5216.000000;1.783689
5215.000000;1.783819
5214.000000;1.784660
5213.000000;1.785779
5212.000000;1.786303
5211.000000;1.785964
5210.000000;1.785507
5209.000000;1.785624
5208.000000;1.785937
5207.000000;1.785561
5206.000000;1.784327
5205.000000;1.782931
5204.000000;1.782112
5203.000000;1.782179
5202.000000;1.783109
5201.000000;1.784575
5200.000000;1.785973
5199.000000;1.786781
5198.000000;1.786837
5197.000000;1.786213
5196.000000;1.785150
5195.000000;1.784368
5194.000000;1.784785
5193.000000;1.786330
5192.000000;1.787655
5191.000000;1.787569
5190.000000;1.786289
5189.000000;1.784871
5188.000000;1.783992
5187.000000;1.783749
5186.000000;1.784033
5185.000000;1.784512
5184.000000;1.784682
5183.000000;1.784467
5182.000000;1.784214
5181.000000;1.783685
5180.000000;1.782021
5179.000000;1.779276
5178.000000;1.776988
5177.000000;1.776450
5176.000000;1.777264
5175.000000;1.778420
5174.000000;1.780008
5173.000000;1.782790
5172.000000;1.786528
5171.000000;1.789891
5170.000000;1.791870
5169.000000;1.792393
5168.000000;1.791856
5167.000000;1.790937
5166.000000;1.790490
5165.000000;1.790703
5164.000000;1.790587
5163.000000;1.789218
5162.000000;1.787320
5161.000000;1.786683
5160.000000;1.788055
5159.000000;1.790290
5158.000000;1.791450
5157.000000;1.790350
5156.000000;1.787389
5155.000000;1.784372
5154.000000;1.783210
5153.000000;1.784250
5152.000000;1.786140
5151.000000;1.787495
5150.000000;1.788189
5149.000000;1.788494
5148.000000;1.787848
5147.000000;1.785724
5146.000000;1.783049
5145.000000;1.781436
5144.000000;1.781252
5143.000000;1.781661
5142.000000;1.782290
5141.000000;1.783596
5140.000000;1.785492
5139.000000;1.786909
5138.000000;1.787150
5137.000000;1.786782
5136.000000;1.786797
5135.000000;1.787588
5134.000000;1.789041
5133.000000;1.790886
5132.000000;1.792543
5131.000000;1.793187
5130.000000;1.792457
5129.000000;1.790827
5128.000000;1.789132
5127.000000;1.788101
5126.000000;1.788322
5125.000000;1.790090
5124.000000;1.792932
5123.000000;1.795508
5122.000000;1.796297
5121.000000;1.794563
5120.000000;1.790964
5119.000000;1.787364
5118.000000;1.785581
5117.000000;1.785770
5116.000000;1.786295
5115.000000;1.785742
5114.000000;1.784795
5113.000000;1.785330
5112.000000;1.787909
5111.000000;1.791081
5110.000000;1.793154
5109.000000;1.793768
5108.000000;1.793463
5107.000000;1.792612
5106.000000;1.791325
5105.000000;1.789815
5104.000000;1.788301
5103.000000;1.786889
5102.000000;1.785951
5101.000000;1.786248
5100.000000;1.788104
5099.000000;1.790633
5098.000000;1.792278
5097.000000;1.792269
5096.000000;1.791410
5095.000000;1.791287
5094.000000;1.792726
5093.000000;1.794940
5092.000000;1.796168
5091.000000;1.795320
5090.000000;1.792981
5089.000000;1.790693
5088.000000;1.789444
5087.000000;1.789123
5086.000000;1.789214
5085.000000;1.789464
5084.000000;1.789807
5083.000000;1.790034
5082.000000;1.789913
5081.000000;1.789556
5080.000000;1.789488
5079.000000;1.790249
5078.000000;1.791848
5077.000000;1.793473
5076.000000;1.794002
5075.000000;1.793006
5074.000000;1.791143
5073.000000;1.789492
5072.000000;1.788746
5071.000000;1.789117
5070.000000;1.790566
5069.000000;1.792599
5068.000000;1.794135
5067.000000;1.794270
5066.000000;1.793251
5065.000000;1.792192
5064.000000;1.791825
5063.000000;1.791944
5062.000000;1.791983
5061.000000;1.791603
5060.000000;1.790595
5059.000000;1.788896
5058.000000;1.787159
5057.000000;1.786689
5056.000000;1.788162
5055.000000;1.790579
5054.000000;1.791988
5053.000000;1.791331
5052.000000;1.789284
5051.000000;1.787356
5050.000000;1.786651
5049.000000;1.787444
5048.000000;1.789286
5047.000000;1.791212
5046.000000;1.792272
5045.000000;1.792290
5044.000000;1.791940
5043.000000;1.791814
5042.000000;1.791696
5041.000000;1.791032
5040.000000;1.789819
5039.000000;1.788571
5038.000000;1.787580
5037.000000;1.786765
5036.000000;1.786333
5035.000000;1.786856
5034.000000;1.788270
5033.000000;1.789303
5032.000000;1.788645
5031.000000;1.786596
5030.000000;1.784814
5029.000000;1.784384
5028.000000;1.784760
5027.000000;1.784798
5026.000000;1.784291
5025.000000;1.783980
5024.000000;1.784333
5023.000000;1.784960
5022.000000;1.785245
5021.000000;1.785043
5020.000000;1.784547
5019.000000;1.783784
5018.000000;1.782636
5017.000000;1.781225
5016.000000;1.779914
5015.000000;1.778829
5014.000000;1.777652
5013.000000;1.776031
5012.000000;1.774136
5011.000000;1.772610
5010.000000;1.772021
5009.000000;1.772505
5008.000000;1.773807
5007.000000;1.775358
5006.000000;1.776330
5005.000000;1.776103
5004.000000;1.774786
5003.000000;1.773077
5002.000000;1.771521
5001.000000;1.770094
5000.000000;1.768849
4999.000000;1.768296
4998.000000;1.768685
4997.000000;1.769241
4996.000000;1.768757
4995.000000;1.766907
4994.000000;1.764501
4993.000000;1.762483
4992.000000;1.761233
4991.000000;1.760805
4990.000000;1.761136
4989.000000;1.761739
4988.000000;1.761712
4987.000000;1.760544
4986.000000;1.758677
4985.000000;1.756951
4984.000000;1.755776
4983.000000;1.755111
4982.000000;1.754909
4981.000000;1.755134
4980.000000;1.755477
4979.000000;1.755480
4978.000000;1.754936
4977.000000;1.753855
4976.000000;1.752096
4975.000000;1.749444
4974.000000;1.746204
4973.000000;1.743361
4972.000000;1.741854
4971.000000;1.741692
4970.000000;1.741914
4969.000000;1.741536
4968.000000;1.740452
4967.000000;1.739320
4966.000000;1.738774
4965.000000;1.738851
4964.000000;1.739058
4963.000000;1.738820
4962.000000;1.737822
4961.000000;1.736105
4960.000000;1.733894
4959.000000;1.731314
4958.000000;1.728316
4957.000000;1.724991
4956.000000;1.721864
4955.000000;1.719627
4954.000000;1.718460
4953.000000;1.717804
4952.000000;1.716951
4951.000000;1.715689
4950.000000;1.714266
4949.000000;1.712923
4948.000000;1.711630
4947.000000;1.710154
4946.000000;1.708206
4945.000000;1.705661
4944.000000;1.702794
4943.000000;1.700207
4942.000000;1.698395
4941.000000;1.697478
4940.000000;1.697296
4939.000000;1.697462
4938.000000;1.697212
4937.000000;1.695664
4936.000000;1.692694
4935.000000;1.689304
4934.000000;1.686682
4933.000000;1.685028
4932.000000;1.683631
4931.000000;1.681926
4930.000000;1.680015
4929.000000;1.678239
4928.000000;1.676716
4927.000000;1.675375
4926.000000;1.674048
4925.000000;1.672361
4924.000000;1.669886
4923.000000;1.666673
4922.000000;1.663431
4921.000000;1.661007
4920.000000;1.659748
4919.000000;1.659334
4918.000000;1.659040
4917.000000;1.658111
4916.000000;1.656107
4915.000000;1.653059
4914.000000;1.649341
4913.000000;1.645417
4912.000000;1.641779
4911.000000;1.638917
4910.000000;1.637020
4909.000000;1.635701
4908.000000;1.634283
4907.000000;1.632476
4906.000000;1.630544
4905.000000;1.628745
4904.000000;1.626840
4903.000000;1.624344
4902.000000;1.621190
4901.000000;1.617894
4900.000000;1.615043
4899.000000;1.612734
4898.000000;1.610605
4897.000000;1.608375
4896.000000;1.606182
4895.000000;1.604201
4894.000000;1.602119
4893.000000;1.599371
4892.000000;1.595987
4891.000000;1.592793
4890.000000;1.590493
4889.000000;1.588865
4888.000000;1.587144
4887.000000;1.584962
4886.000000;1.582547
4885.000000;1.580200
4884.000000;1.577995
4883.000000;1.575941
4882.000000;1.573986
4881.000000;1.571837
4880.000000;1.569148
4879.000000;1.565985
4878.000000;1.562799
4877.000000;1.559866
4876.000000;1.556989
4875.000000;1.553842
4874.000000;1.550390
4873.000000;1.546901
4872.000000;1.543768
4871.000000;1.541354
4870.000000;1.539698
4869.000000;1.538285
4868.000000;1.536379
4867.000000;1.533722
4866.000000;1.530740
4865.000000;1.527993
4864.000000;1.525653
4863.000000;1.523508
4862.000000;1.521150
4861.000000;1.518084
4860.000000;1.514087
4859.000000;1.509671
4858.000000;1.505900
4857.000000;1.503438
4856.000000;1.501961
4855.000000;1.500682
4854.000000;1.499175
4853.000000;1.497390
4852.000000;1.495154
4851.000000;1.492195
4850.000000;1.488672
4849.000000;1.485225
4848.000000;1.482332
4847.000000;1.479895
4846.000000;1.477580
4845.000000;1.475273
4844.000000;1.473012
4843.000000;1.470657
4842.000000;1.467962
4841.000000;1.464938
4840.000000;1.461909
4839.000000;1.459160
4838.000000;1.456670
4837.000000;1.454227
4836.000000;1.451698
4835.000000;1.449081
4834.000000;1.446384
4833.000000;1.443565
4832.000000;1.440581
4831.000000;1.437444
4830.000000;1.434221
4829.000000;1.431040
4828.000000;1.428044
4827.000000;1.425307
4826.000000;1.422802
4825.000000;1.420484
4824.000000;1.418371
4823.000000;1.416443
4822.000000;1.414534
4821.000000;1.412431
4820.000000;1.410086
4819.000000;1.407612
4818.000000;1.405062
4817.000000;1.402352
4816.000000;1.399442
4815.000000;1.396460
4814.000000;1.393588
4813.000000;1.390925
4812.000000;1.388544
4811.000000;1.386544
4810.000000;1.384861
4809.000000;1.383119
4808.000000;1.380830
4807.000000;1.377843
4806.000000;1.374510
4805.000000;1.371384
4804.000000;1.368770
4803.000000;1.366546
4802.000000;1.364324
4801.000000;1.361772
4800.000000;1.358877
4799.000000;1.355916
4798.000000;1.353210
4797.000000;1.350882
4796.000000;1.348802
4795.000000;1.346673
4794.000000;1.344202
4793.000000;1.341297
4792.000000;1.338133
4791.000000;1.334965
4790.000000;1.331899
4789.000000;1.328910
4788.000000;1.326041
4787.000000;1.323396
4786.000000;1.320925
4785.000000;1.318429
4784.000000;1.315877
4783.000000;1.313538
4782.000000;1.311592
4781.000000;1.309771
4780.000000;1.307584
4779.000000;1.304891
4778.000000;1.302065
4777.000000;1.299571
4776.000000;1.297486
4775.000000;1.295482
4774.000000;1.293169
4773.000000;1.290478
4772.000000;1.287727
4771.000000;1.285317
4770.000000;1.283302
4769.000000;1.281312
4768.000000;1.278936
4767.000000;1.276161
4766.000000;1.273393
4765.000000;1.271081
4764.000000;1.269341
4763.000000;1.267863
4762.000000;1.266118
4761.000000;1.263751
4760.000000;1.260845
4759.000000;1.257787
4758.000000;1.254887
4757.000000;1.252248
4756.000000;1.249978
4755.000000;1.248259
4754.000000;1.247018
4753.000000;1.245735
4752.000000;1.243841
4751.000000;1.241318
4750.000000;1.238688
4749.000000;1.236400
4748.000000;1.234401
4747.000000;1.232336
4746.000000;1.229985
4745.000000;1.227417
4744.000000;1.224814
4743.000000;1.222286
4742.000000;1.219870
4741.000000;1.217647
4740.000000;1.215760
4739.000000;1.214248
4738.000000;1.212866
4737.000000;1.211215
4736.000000;1.209118
4735.000000;1.206793
4734.000000;1.204565
4733.000000;1.202523
4732.000000;1.200552
4731.000000;1.198594
4730.000000;1.196704
4729.000000;1.194895
4728.000000;1.193113
4727.000000;1.191347
4726.000000;1.189636
4725.000000;1.187941
4724.000000;1.186140
4723.000000;1.184164
4722.000000;1.182088
4721.000000;1.180054
4720.000000;1.178204
4719.000000;1.176656
4718.000000;1.175429
4717.000000;1.174356
4716.000000;1.173141
4715.000000;1.171553
4714.000000;1.169548
4713.000000;1.167257
4712.000000;1.164893
4711.000000;1.162657
4710.000000;1.160638
4709.000000;1.158808
4708.000000;1.157135
4707.000000;1.155637
4706.000000;1.154266
4705.000000;1.152824
4704.000000;1.151130
4703.000000;1.149247
4702.000000;1.147443
4701.000000;1.145908
4700.000000;1.144607
4699.000000;1.143357
4698.000000;1.141984
4697.000000;1.140414
4696.000000;1.138719
4695.000000;1.137082
4694.000000;1.135637
4693.000000;1.134351
4692.000000;1.133099
4691.000000;1.131848
4690.000000;1.130651
4689.000000;1.129512
4688.000000;1.128359
4687.000000;1.127166
4686.000000;1.125990
4685.000000;1.124863
4684.000000;1.123720
4683.000000;1.122470
4682.000000;1.121082
4681.000000;1.119601
4680.000000;1.118142
4679.000000;1.116860
4678.000000;1.115827
4677.000000;1.114932
4676.000000;1.113945
4675.000000;1.112699
4674.000000;1.111218
4673.000000;1.109677
4672.000000;1.108309
4671.000000;1.107266
4670.000000;1.106493
4669.000000;1.105786
4668.000000;1.105019
4667.000000;1.104266
4666.000000;1.103578
4665.000000;1.102752
4664.000000;1.101507
4663.000000;1.099873
4662.000000;1.098198
4661.000000;1.096751
4660.000000;1.095509
4659.000000;1.094371
4658.000000;1.093383
4657.000000;1.092614
4656.000000;1.091969
4655.000000;1.091290
4654.000000;1.090554
4653.000000;1.089862
4652.000000;1.089283
4651.000000;1.088835
4650.000000;1.088544
4649.000000;1.088345
4648.000000;1.087967
4647.000000;1.087106
4646.000000;1.085775
4645.000000;1.084357
4644.000000;1.083234
4643.000000;1.082434
4642.000000;1.081699
4641.000000;1.080832
4640.000000;1.079887
4639.000000;1.079044
4638.000000;1.078410
4637.000000;1.077947
4636.000000;1.077507
4635.000000;1.076903
4634.000000;1.076019
4633.000000;1.074927
4632.000000;1.073901
4631.000000;1.073233
4630.000000;1.072987
4629.000000;1.072946
4628.000000;1.072818
4627.000000;1.072468
4626.000000;1.071957
4625.000000;1.071369
4624.000000;1.070681
4623.000000;1.069837
4622.000000;1.068905
4621.000000;1.068105
4620.000000;1.067601
4619.000000;1.067303
4618.000000;1.066948
4617.000000;1.066392
4616.000000;1.065767
4615.000000;1.065301
4614.000000;1.065047
4613.000000;1.064875
4612.000000;1.064656
4611.000000;1.064373
4610.000000;1.064036
4609.000000;1.063621
4608.000000;1.063139
4607.000000;1.062697
4606.000000;1.062422
4605.000000;1.062344
4604.000000;1.062367
4603.000000;1.062368
4602.000000;1.062322
4601.000000;1.062327
4600.000000;1.062468
4599.000000;1.062631
4598.000000;1.062544
4597.000000;1.062088
4596.000000;1.061473
4595.000000;1.061027
4594.000000;1.060842
4593.000000;1.060782
4592.000000;1.060755
4591.000000;1.060795
4590.000000;1.060890
4589.000000;1.060957
4588.000000;1.061032
4587.000000;1.061262
4586.000000;1.061635
4585.000000;1.061886
4584.000000;1.061821
4583.000000;1.061580
4582.000000;1.061432
4581.000000;1.061464
4580.000000;1.061614
4579.000000;1.061891
4578.000000;1.062329
4577.000000;1.062780
4576.000000;1.062965
4575.000000;1.062786
4574.000000;1.062460
4573.000000;1.062339
4572.000000;1.062644
4571.000000;1.063328
4570.000000;1.064097
4569.000000;1.064608
4568.000000;1.064767
4567.000000;1.064815
4566.000000;1.065076
4565.000000;1.065639
4564.000000;1.066359
4563.000000;1.067080
4562.000000;1.067752
4561.000000;1.068387
4560.000000;1.069011
4559.000000;1.069659
4558.000000;1.070316
4557.000000;1.070902
4556.000000;1.071391
4555.000000;1.071893
4554.000000;1.072540
4553.000000;1.073316
4552.000000;1.074074
4551.000000;1.074691
4550.000000;1.075160
4549.000000;1.075593
4548.000000;1.076208
4547.000000;1.077189
4546.000000;1.078471
4545.000000;1.079742
4544.000000;1.080790
4543.000000;1.081715
4542.000000;1.082688
4541.000000;1.083641
4540.000000;1.084422
4539.000000;1.085121
4538.000000;1.085974
4537.000000;1.086954
4536.000000;1.087748
4535.000000;1.088202
4534.000000;1.088547
4533.000000;1.089108
4532.000000;1.089972
4531.000000;1.091037
4530.000000;1.092193
4529.000000;1.093352
4528.000000;1.094418
4527.000000;1.095354
4526.000000;1.096221
4525.000000;1.097080
4524.000000;1.097941
4523.000000;1.098818
4522.000000;1.099742
4521.000000;1.100664
4520.000000;1.101485
4519.000000;1.102212
4518.000000;1.103002
4517.000000;1.103950
4516.000000;1.104974
4515.000000;1.105978
4514.000000;1.107017
4513.000000;1.108192
4512.000000;1.109450
4511.000000;1.110619
4510.000000;1.111597
4509.000000;1.112385
4508.000000;1.112985
4507.000000;1.113404
4506.000000;1.113791
4505.000000;1.114438
4504.000000;1.115539
4503.000000;1.116964
4502.000000;1.118334
4501.000000;1.119359
4500.000000;1.120082
4499.000000;1.120794
4498.000000;1.121753
4497.000000;1.123011
4496.000000;1.124478
4495.000000;1.126041
4494.000000;1.127557
4493.000000;1.128855
4492.000000;1.129842
4491.000000;1.130614
4490.000000;1.131401
4489.000000;1.132373
4488.000000;1.133540
4487.000000;1.134816
4486.000000;1.136116
4485.000000;1.137421
4484.000000;1.138766
4483.000000;1.140172
4482.000000;1.141601
4481.000000;1.143002
4480.000000;1.144409
4479.000000;1.145870
4478.000000;1.147305
4477.000000;1.148569
4476.000000;1.149739
4475.000000;1.151171
4474.000000;1.153120
4473.000000;1.155382
4472.000000;1.157506
4471.000000;1.159296
4470.000000;1.160935
4469.000000;1.162649
4468.000000;1.164449
4467.000000;1.166247
4466.000000;1.168045
4465.000000;1.169917
4464.000000;1.171877
4463.000000;1.173846
4462.000000;1.175716
4461.000000;1.177436
4460.000000;1.179083
4459.000000;1.180821
4458.000000;1.182722
4457.000000;1.184667
4456.000000;1.186487
4455.000000;1.188167
4454.000000;1.189792
4453.000000;1.191347
4452.000000;1.192756
4451.000000;1.194124
4450.000000;1.195772
4449.000000;1.197978
4448.000000;1.200755
4447.000000;1.203894
4446.000000;1.207088
4445.000000;1.209998
4444.000000;1.212376
4443.000000;1.214241
4442.000000;1.215871
4441.000000;1.217561
4440.000000;1.219436
4439.000000;1.221496
4438.000000;1.223729
4437.000000;1.226115
4436.000000;1.228632
4435.000000;1.231294
4434.000000;1.234112
4433.000000;1.236961
4432.000000;1.239570
4431.000000;1.241727
4430.000000;1.243496
4429.000000;1.245203
4428.000000;1.247231
4427.000000;1.249810
4426.000000;1.252864
4425.000000;1.256030
4424.000000;1.258938
4423.000000;1.261543
4422.000000;1.264141
4421.000000;1.266997
4420.000000;1.270016
4419.000000;1.272857
4418.000000;1.275308
4417.000000;1.277506
4416.000000;1.279796
4415.000000;1.282448
4414.000000;1.285478
4413.000000;1.288672
4412.000000;1.291709
4411.000000;1.294332
4410.000000;1.296495
4409.000000;1.298418
4408.000000;1.300469
4407.000000;1.302911
4406.000000;1.305747
4405.000000;1.308853
4404.000000;1.312175
4403.000000;1.315679
4402.000000;1.319140
4401.000000;1.322242
4400.000000;1.324994
4399.000000;1.327844
4398.000000;1.331198
4397.000000;1.334920
4396.000000;1.338472
4395.000000;1.341499
4394.000000;1.344122
4393.000000;1.346725
4392.000000;1.349640
4391.000000;1.353035
4390.000000;1.356876
4389.000000;1.360864
4388.000000;1.364548
4387.000000;1.367641
4386.000000;1.370302
4385.000000;1.373083
4384.000000;1.376488
4383.000000;1.380431
4382.000000;1.384198
4381.000000;1.387104
4380.000000;1.389236
4379.000000;1.391377
4378.000000;1.394198
4377.000000;1.397728
4376.000000;1.401673
4375.000000;1.405905
4374.000000;1.410376
4373.000000;1.414793
4372.000000;1.418727
4371.000000;1.422007
4370.000000;1.424803
4369.000000;1.427382
4368.000000;1.430005
4367.000000;1.432933
4366.000000;1.436297
4365.000000;1.439966
4364.000000;1.443729
4363.000000;1.447553
4362.000000;1.451533
4361.000000;1.455708
4360.000000;1.460077
4359.000000;1.464680
4358.000000;1.469429
4357.000000;1.473999
4356.000000;1.478068
4355.000000;1.481562
4354.000000;1.484530
4353.000000;1.487062
4352.000000;1.489634
4351.000000;1.493140
4350.000000;1.498033
4349.000000;1.503557
4348.000000;1.508380
4347.000000;1.512014
4346.000000;1.515094
4345.000000;1.518288
4344.000000;1.521643
4343.000000;1.525132
4342.000000;1.529150
4341.000000;1.534040
4340.000000;1.539545
4339.000000;1.545090
4338.000000;1.550323
4337.000000;1.555178
4336.000000;1.559693
4335.000000;1.564041
4334.000000;1.568434
4333.000000;1.572740
4332.000000;1.576567
4331.000000;1.580021
4330.000000;1.583938
4329.000000;1.588898
4328.000000;1.594272
4327.000000;1.598831
4326.000000;1.602241
4325.000000;1.605435
4324.000000;1.609453
4323.000000;1.614418
4322.000000;1.619811
4321.000000;1.625269
4320.000000;1.630748
4319.000000;1.636088
4318.000000;1.640912
4317.000000;1.645104
4316.000000;1.649148
4315.000000;1.653711
4314.000000;1.658878
4313.000000;1.664029
4312.000000;1.668591
4311.000000;1.672733
4310.000000;1.677122
4309.000000;1.682112
4308.000000;1.687423
4307.000000;1.692578
4306.000000;1.697357
4305.000000;1.701735
4304.000000;1.705678
4303.000000;1.709342
4302.000000;1.713318
4301.000000;1.718323
4300.000000;1.724557
4299.000000;1.731421
4298.000000;1.737914
4297.000000;1.743348
4296.000000;1.747798
4295.000000;1.751891
4294.000000;1.756223
4293.000000;1.761040
4292.000000;1.766434
4291.000000;1.772600
4290.000000;1.779548
4289.000000;1.786621
4288.000000;1.792750
4287.000000;1.797320
4286.000000;1.800631
4285.000000;1.803421
4284.000000;1.806160
4283.000000;1.808977
4282.000000;1.812092
4281.000000;1.816061
4280.000000;1.821416
4279.000000;1.828022
4278.000000;1.835001
4277.000000;1.841540
4276.000000;1.847756
4275.000000;1.854389
4274.000000;1.861483
4273.000000;1.867816
4272.000000;1.872154
4271.000000;1.874881
4270.000000;1.877678
4269.000000;1.881500
4268.000000;1.885563
4267.000000;1.888775
4266.000000;1.891707
4265.000000;1.896391
4264.000000;1.904178
4263.000000;1.914191
4262.000000;1.924073
4261.000000;1.932154
4260.000000;1.938533
4259.000000;1.943942
4258.000000;1.948175
4257.000000;1.950494
4256.000000;1.951399
4255.000000;1.952946
4254.000000;1.956970
4253.000000;1.963604
4252.000000;1.971845
4251.000000;1.980933
4250.000000;1.990495
4249.000000;1.999931
4248.000000;2.008081
4247.000000;2.014193
4246.000000;2.018606
4245.000000;2.022656
4244.000000;2.028008
4243.000000;2.035846
4242.000000;2.045917
4241.000000;2.055977
4240.000000;2.062964
4239.000000;2.065435
4238.000000;2.064732
4237.000000;2.063439
4236.000000;2.063263
4235.000000;2.064640
4234.000000;2.067644
4233.000000;2.072630
4232.000000;2.079554
4231.000000;2.086922
4230.000000;2.092324
4229.000000;2.094581
4228.000000;2.095274
4227.000000;2.096818
4226.000000;2.099504
4225.000000;2.101990
4224.000000;2.104146
4223.000000;2.108345
4222.000000;2.117007
4221.000000;2.129717
4220.000000;2.143507
4219.000000;2.155153
4218.000000;2.163151
4217.000000;2.168376
4216.000000;2.173361
4215.000000;2.180273
4214.000000;2.189028
4213.000000;2.197813
4212.000000;2.205475
4211.000000;2.212180
4210.000000;2.217507
4209.000000;2.220171
4208.000000;2.220718
4207.000000;2.222246
4206.000000;2.226630
4205.000000;2.231672
4204.000000;2.234328
4203.000000;2.235575
4202.000000;2.239300
4201.000000;2.247352
4200.000000;2.257604
4199.000000;2.266125
4198.000000;2.269978
4197.000000;2.268645
4196.000000;2.265213
4195.000000;2.265518
4194.000000;2.273098
4193.000000;2.285248
4192.000000;2.295845
4191.000000;2.301998
4190.000000;2.306152
4189.000000;2.311888
4188.000000;2.320741
4187.000000;2.333003
4186.000000;2.347736
4185.000000;2.360773
4184.000000;2.366444
4183.000000;2.363710
4182.000000;2.358014
4181.000000;2.355461
4180.000000;2.357543
4179.000000;2.362508
4178.000000;2.368329
4177.000000;2.372710
4176.000000;2.373717
4175.000000;2.372598
4174.000000;2.373783
4173.000000;2.380133
4172.000000;2.390198
4171.000000;2.401253
4170.000000;2.412688
4169.000000;2.424723
4168.000000;2.434670
4167.000000;2.438395
4166.000000;2.435854
4165.000000;2.430838
4164.000000;2.426329
4163.000000;2.424019
4162.000000;2.427142
4161.000000;2.439844
4160.000000;2.462094
4159.000000;2.486637
4158.000000;2.503321
4157.000000;2.508476
4156.000000;2.508811
4155.000000;2.512215
4154.000000;2.518413
4153.000000;2.522138
4152.000000;2.519947
4151.000000;2.512453
4150.000000;2.503714
4149.000000;2.498212
4148.000000;2.497490
4147.000000;2.501240
4146.000000;2.510265
4145.000000;2.525408
4144.000000;2.543040
4143.000000;2.554901
4142.000000;2.556690
4141.000000;2.555414
4140.000000;2.563092
4139.000000;2.582868
4138.000000;2.603466
4137.000000;2.609133
4136.000000;2.597515
4135.000000;2.581679
4134.000000;2.574295
4133.000000;2.578685
4132.000000;2.591542
4131.000000;2.605075
4130.000000;2.609265
4129.000000;2.601531
4128.000000;2.592514
4127.000000;2.596281
4126.000000;2.614348
4125.000000;2.633905
4124.000000;2.644380
4123.000000;2.649306
4122.000000;2.657653
4121.000000;2.669580
4120.000000;2.675806
4119.000000;2.670077
4118.000000;2.657811
4117.000000;2.649742
4116.000000;2.651187
4115.000000;2.660914
4114.000000;2.674847
4113.000000;2.688188
4112.000000;2.697523
4111.000000;2.702709
4110.000000;2.705747
4109.000000;2.706355
4108.000000;2.702192
4107.000000;2.694365
4106.000000;2.687425
4105.000000;2.684482
4104.000000;2.685977
4103.000000;2.694204
4102.000000;2.711134
4101.000000;2.730848
4100.000000;2.742532
4099.000000;2.743803
4098.000000;2.743864
4097.000000;2.748412
4096.000000;2.757223
4095.000000;2.771893
4094.000000;2.788442
4093.000000;2.794183
4092.000000;2.779755
4091.000000;2.754564
4090.000000;2.739374
4089.000000;2.745504
4088.000000;2.765173
4087.000000;2.781690
4086.000000;2.788500
4085.000000;2.790671
4084.000000;2.791451
4083.000000;2.787429
4082.000000;2.779578
4081.000000;2.773806
4080.000000;2.770112
4079.000000;2.764149
4078.000000;2.757852
4077.000000;2.759412
4076.000000;2.772571
4075.000000;2.791508
4074.000000;2.810806
4073.000000;2.833098
4072.000000;2.856316
4071.000000;2.866091
4070.000000;2.852094
4069.000000;2.827546
4068.000000;2.813092
4067.000000;2.813412
4066.000000;2.817169
4065.000000;2.814489
4064.000000;2.814188
4063.000000;2.832512
4062.000000;2.872050
4061.000000;2.916897
4060.000000;2.946544
4059.000000;2.949160
4058.000000;2.921863
4057.000000;2.880429
4056.000000;2.845869
4055.000000;2.826357
4054.000000;2.818949
4053.000000;2.818003
4052.000000;2.823551
4051.000000;2.837307
4050.000000;2.856248
4049.000000;2.871050
4048.000000;2.874671
4047.000000;2.872715
4046.000000;2.875577
4045.000000;2.883666
4044.000000;2.888810
4043.000000;2.888633
4042.000000;2.888592
4041.000000;2.892730
4040.000000;2.903451
4039.000000;2.925098
4038.000000;2.957103
4037.000000;2.989167
4036.000000;3.007358
4035.000000;3.003551
4034.000000;2.986537
4033.000000;2.974838
4032.000000;2.976612
4031.000000;2.981323
4030.000000;2.971359
4029.000000;2.943260
4028.000000;2.912999
4027.000000;2.901824
4026.000000;2.919079
4025.000000;2.951337
4024.000000;2.965815
4023.000000;2.945019
4022.000000;2.912297
4021.000000;2.898192
4020.000000;2.912085
4019.000000;2.946363
4018.000000;2.988278
4017.000000;3.023875
4016.000000;3.036554
4015.000000;3.020552
4014.000000;2.998851
4013.000000;3.002570
4012.000000;3.038046
4011.000000;3.076101
4010.000000;3.077854
4009.000000;3.048839
4008.000000;3.026488
4007.000000;3.029176
4006.000000;3.043468
4005.000000;3.040706
4004.000000;3.006081
4003.000000;2.952031
4002.000000;2.902396
4001.000000;2.877853
4000.000000;2.892433
3999.000000;2.947467
3998.000000;3.022791
3997.000000;3.077948
3996.000000;3.085811
3995.000000;3.071954
3994.000000;3.069890
3993.000000;3.078346
3992.000000;3.083044
3991.000000;3.078104
3990.000000;3.070478
3989.000000;3.075770
3988.000000;3.100157
3987.000000;3.123374
3986.000000;3.122382
3985.000000;3.113650
3984.000000;3.119790
3983.000000;3.143605
3982.000000;3.171008
3981.000000;3.174956
3980.000000;3.146975
3979.000000;3.100591
3978.000000;3.053626
3977.000000;3.016875
3976.000000;2.990914
3975.000000;2.982557
3974.000000;3.009973
3973.000000;3.081407
3972.000000;3.181217
3971.000000;3.279340
3970.000000;3.342358
3969.000000;3.352631
3968.000000;3.324360
3967.000000;3.270817
3966.000000;3.203165
3965.000000;3.139692
3964.000000;3.095609
3963.000000;3.076898
3962.000000;3.079404
3961.000000;3.094881
3960.000000;3.118170
3959.000000;3.144824
3958.000000;3.163159
3957.000000;3.150281
3956.000000;3.103946
3955.000000;3.057705
3954.000000;3.034781
3953.000000;3.034640
3952.000000;3.043345
3951.000000;3.052015
3950.000000;3.079185
3949.000000;3.139223
3948.000000;3.203515
3947.000000;3.227251
3946.000000;3.201941
3945.000000;3.164500
3944.000000;3.162693
3943.000000;3.216036
3942.000000;3.309379
3941.000000;3.413310
3940.000000;3.494251
3939.000000;3.509061
3938.000000;3.458064
3937.000000;3.387265
3936.000000;3.335560
3935.000000;3.307466
3934.000000;3.274181
3933.000000;3.239469
3932.000000;3.227131
3931.000000;3.227230
3930.000000;3.225157
3929.000000;3.215345
3928.000000;3.189514
3927.000000;3.157742
3926.000000;3.156598
3925.000000;3.215161
3924.000000;3.328928
3923.000000;3.464917
3922.000000;3.528364
3921.000000;3.464503
3920.000000;3.415277
3919.000000;3.468827
3918.000000;3.595282
3917.000000;3.604922
3916.000000;3.503243
3915.000000;3.462933
3914.000000;3.520772
3913.000000;3.689277
3912.000000;3.905680
3911.000000;3.895334
3910.000000;3.830399
3909.000000;3.898827
3908.000000;4.012339
3907.000000;4.062134
3906.000000;4.046240
3905.000000;3.986356
3904.000000;3.897350
3903.000000;3.817421
3902.000000;3.774022
3901.000000;3.810524
3900.000000;3.974346
3899.000000;4.325802
3898.000000;4.730514
3897.000000;4.019404
3896.000000;3.654874
3895.000000;3.493517
3894.000000;3.435983
3893.000000;3.428029
3892.000000;3.462327
3891.000000;3.560106
3890.000000;3.768792
3889.000000;4.159120
3888.000000;4.026881
3887.000000;3.698466
3886.000000;3.653333
3885.000000;3.716337
3884.000000;3.635764
3883.000000;3.483848
3882.000000;3.471668
3881.000000;3.555541
3880.000000;3.627237
3879.000000;3.630061
3878.000000;3.630685
3877.000000;3.707686
3876.000000;3.874638
3875.000000;4.016152
3874.000000;3.944146
3873.000000;3.822330
3872.000000;3.779284
3871.000000;3.863482
3870.000000;4.030907
3869.000000;4.088566
3868.000000;4.117150
3867.000000;4.219557
3866.000000;3.965270
3865.000000;3.764890
3864.000000;3.745270
3863.000000;3.812268
3862.000000;3.932240
3861.000000;4.089878
3860.000000;4.072097
3859.000000;4.035779
3858.000000;4.218323
3857.000000;4.486375
3856.000000;4.560974
3855.000000;4.395510
3854.000000;4.177425
3853.000000;4.034523
3852.000000;4.030975
3851.000000;4.244712
3850.000000;4.408273
3849.000000;4.051339
3848.000000;3.932536
3847.000000;3.983271
3846.000000;4.246875
3845.000000;4.356252
3844.000000;3.846355
3843.000000;3.789542
3842.000000;3.854531
3841.000000;3.821277
3840.000000;3.863910
3839.000000;4.082194
3838.000000;4.381659
3837.000000;4.776873
3836.000000;4.682201
3835.000000;4.332959
3834.000000;4.230067
3833.000000;4.033395
3832.000000;3.851127
3831.000000;3.751363
3830.000000;3.876131
3829.000000;3.849534
3828.000000;3.559686
3827.000000;3.568206
3826.000000;3.755390
3825.000000;3.854711
3824.000000;3.833474
3823.000000;3.735718
3822.000000;3.723777
3821.000000;3.958479
3820.000000;4.021407
3819.000000;3.676808
3818.000000;3.543561
3817.000000;3.539175
3816.000000;3.571012
3815.000000;3.608652
3814.000000;3.724514
3813.000000;3.940567
3812.000000;4.124914
3811.000000;4.163867
3810.000000;4.116894
3809.000000;4.235283
3808.000000;4.474479
3807.000000;4.040294
3806.000000;3.822155
3805.000000;3.843146
3804.000000;3.859104
3803.000000;3.720719
3802.000000;3.605728
3801.000000;3.545013
3800.000000;3.506984
3799.000000;3.547157
3798.000000;3.691507
3797.000000;3.878661
3796.000000;4.197971
3795.000000;4.689127
3794.000000;3.972476
3793.000000;3.675750
3792.000000;3.582350
3791.000000;3.717770
3790.000000;3.861817
3789.000000;3.518598
3788.000000;3.341363
3787.000000;3.307085
3786.000000;3.399072
3785.000000;3.600451
3784.000000;3.747613
3783.000000;3.759122
3782.000000;3.910433
3781.000000;3.921760
3780.000000;3.659161
3779.000000;3.612690
3778.000000;3.737706
3777.000000;3.994995
3776.000000;4.227966
3775.000000;4.071238
3774.000000;3.818723
3773.000000;3.640264
3772.000000;3.550789
3771.000000;3.569815
3770.000000;3.688319
3769.000000;3.818572
3768.000000;3.838783
3767.000000;3.912850
3766.000000;4.036256
3765.000000;3.932379
3764.000000;3.929481
3763.000000;4.061106
3762.000000;4.225273
3761.000000;4.333434
3760.000000;4.468731
3759.000000;4.378929
3758.000000;4.079059
3757.000000;3.977111
3756.000000;3.971813
3755.000000;4.043783
3754.000000;4.112644
3753.000000;4.086648
3752.000000;4.051970
3751.000000;4.129660
3750.000000;4.568550
3749.000000;4.646842
3748.000000;4.405759
3747.000000;4.402472
3746.000000;4.391267
3745.000000;4.385517
3744.000000;4.430207
3743.000000;4.318224
3742.000000;3.910101
3741.000000;3.741259
3740.000000;3.754046
3739.000000;3.745387
3738.000000;3.681932
3737.000000;3.598415
3736.000000;3.523855
3735.000000;3.529053
3734.000000;3.594262
3733.000000;3.671112
3732.000000;3.724123
3731.000000;3.680245
3730.000000;3.546664
3729.000000;3.440555
3728.000000;3.438001
3727.000000;3.569348
3726.000000;3.628251
3725.000000;3.508574
3724.000000;3.485518
3723.000000;3.585245
3722.000000;3.728030
3721.000000;3.849385
3720.000000;4.052178
3719.000000;4.307709
3718.000000;4.698404
3717.000000;4.419521
3716.000000;4.027585
3715.000000;3.907299
3714.000000;3.867069
3713.000000;3.876630
3712.000000;3.974217
3711.000000;4.133490
3710.000000;4.166037
3709.000000;4.000235
3708.000000;3.877865
3707.000000;3.932846
3706.000000;4.193309
3705.000000;4.229986
3704.000000;3.911636
3703.000000;3.677385
3702.000000;3.527782
3701.000000;3.461823
3700.000000;3.448604
3699.000000;3.474890
3698.000000;3.512142
3697.000000;3.508357
3696.000000;3.501420
3695.000000;3.523948
3694.000000;3.568286
3693.000000;3.636720
3692.000000;3.698917
3691.000000;3.729329
3690.000000;3.795488
3689.000000;3.871577
3688.000000;3.793652
3687.000000;3.607398
3686.000000;3.478700
3685.000000;3.475933
3684.000000;3.640154
3683.000000;4.058067
3682.000000;4.225810
3681.000000;3.860191
3680.000000;3.740964
3679.000000;3.764406
3678.000000;3.799344
3677.000000;3.843332
3676.000000;4.048384
3675.000000;4.387876
3674.000000;4.560189
3673.000000;4.540155
3672.000000;4.321898
3671.000000;4.237829
3670.000000;3.963643
3669.000000;3.734901
3668.000000;3.678457
3667.000000;3.771435
3666.000000;3.967047
3665.000000;4.204177
3664.000000;4.481897
3663.000000;4.417877
3662.000000;4.251621
3661.000000;3.786177
3660.000000;3.642360
3659.000000;3.704373
3658.000000;3.909977
3657.000000;4.282171
3656.000000;4.133726
3655.000000;4.032097
3654.000000;4.236944
3653.000000;4.621137
3652.000000;4.280954
3651.000000;4.238007
3650.000000;4.452652
3649.000000;3.962140
3648.000000;3.748915
3647.000000;3.728325
3646.000000;3.947930
3645.000000;4.385914
3644.000000;4.091890
3643.000000;3.799729
3642.000000;3.648066
3641.000000;3.563560
3640.000000;3.601292
3639.000000;3.756816
3638.000000;3.720914
3637.000000;3.712867
3636.000000;3.851147
3635.000000;3.859474
3634.000000;3.894062
3633.000000;4.043847
3632.000000;4.250422
3631.000000;4.438872
3630.000000;4.560484
3629.000000;4.679103
3628.000000;4.086809
3627.000000;3.740520
3626.000000;3.580562
3625.000000;3.544952
3624.000000;3.606597
3623.000000;3.811196
3622.000000;4.003559
3621.000000;3.678445
3620.000000;3.446051
3619.000000;3.431937
3618.000000;3.621352
3617.000000;3.739088
3616.000000;3.683236
3615.000000;3.695204
3614.000000;3.656476
3613.000000;3.692697
3612.000000;3.811784
3611.000000;3.926472
3610.000000;4.052525
3609.000000;4.194963
3608.000000;4.619528
3607.000000;4.280982
3606.000000;3.817922
3605.000000;3.533699
3604.000000;3.337818
3603.000000;3.240268
3602.000000;3.215673
3601.000000;3.262197
3600.000000;3.383548
3599.000000;3.479419
3598.000000;3.624673
3597.000000;3.835588
3596.000000;3.450322
3595.000000;3.161566
3594.000000;3.099462
3593.000000;3.190964
3592.000000;3.399804
3591.000000;3.734377
3590.000000;4.267114
3589.000000;3.820313
3588.000000;3.536607
3587.000000;3.539357
3586.000000;3.684864
3585.000000;3.906765
3584.000000;3.799118
3583.000000;3.627681
3582.000000;3.521836
3581.000000;3.449186
3580.000000;3.483400
3579.000000;3.652478
3578.000000;3.659566
3577.000000;3.572723
3576.000000;3.563904
3575.000000;3.481174
3574.000000;3.442512
3573.000000;3.605175
3572.000000;3.931428
3571.000000;3.762176
3570.000000;3.481056
3569.000000;3.521657
3568.000000;3.895565
3567.000000;3.750803
3566.000000;3.584870
3565.000000;3.536809
3564.000000;3.456507
3563.000000;3.471439
3562.000000;3.514888
3561.000000;3.552400
3560.000000;3.569184
3559.000000;3.515939
3558.000000;3.459948
3557.000000;3.508070
3556.000000;3.680561
3555.000000;3.850512
3554.000000;3.780334
3553.000000;3.924590
3552.000000;4.363572
3551.000000;3.813725
3550.000000;3.665278
3549.000000;3.781013
3548.000000;3.560911
3547.000000;3.269515
3546.000000;3.204805
3545.000000;3.301805
3544.000000;3.601315
3543.000000;4.142084
3542.000000;3.875079
3541.000000;3.695595
3540.000000;3.824937
3539.000000;4.294195
3538.000000;4.227666
3537.000000;3.913014
3536.000000;3.841833
3535.000000;3.712537
3534.000000;3.610056
3533.000000;3.482734
3532.000000;3.319665
3531.000000;3.236765
3530.000000;3.283891
3529.000000;3.459464
3528.000000;3.594129
3527.000000;3.475644
3526.000000;3.337292
3525.000000;3.327717
3524.000000;3.457039
3523.000000;3.786664
3522.000000;4.232727
3521.000000;4.539350
3520.000000;4.746532
3519.000000;3.859203
3518.000000;3.636169
3517.000000;3.852235
3516.000000;4.100549
3515.000000;3.653653
3514.000000;3.510779
3513.000000;3.498372
3512.000000;3.519902
3511.000000;3.592637
3510.000000;3.742641
3509.000000;4.078155
3508.000000;4.149540
3507.000000;3.843498
3506.000000;3.649489
3505.000000;3.588059
3504.000000;3.622201
3503.000000;3.665632
3502.000000;3.818462
3501.000000;3.904846
3500.000000;3.562166
3499.000000;3.370082
3498.000000;3.349263
3497.000000;3.494049
3496.000000;3.943302
3495.000000;4.218647
3494.000000;3.908216
3493.000000;3.923910
3492.000000;3.938945
3491.000000;3.848070
3490.000000;3.743666
3489.000000;3.635255
3488.000000;3.558820
3487.000000;3.460335
3486.000000;3.342589
3485.000000;3.288788
3484.000000;3.334385
3483.000000;3.477660
3482.000000;3.629545
3481.000000;3.580396
3480.000000;3.438749
3479.000000;3.356222
3478.000000;3.347465
3477.000000;3.401037
3476.000000;3.519914
3475.000000;3.719573
3474.000000;3.994911
3473.000000;4.090503
3472.000000;3.806320
3471.000000;3.578395
3470.000000;3.500283
3469.000000;3.552301
3468.000000;3.786689
3467.000000;4.038592
3466.000000;3.820052
3465.000000;3.734965
3464.000000;3.758531
3463.000000;4.045557
3462.000000;4.393883
3461.000000;3.832260
3460.000000;3.695058
3459.000000;3.740165
3458.000000;3.780895
3457.000000;3.709933
3456.000000;3.697261
3455.000000;3.655991
3454.000000;3.467841
3453.000000;3.373735
3452.000000;3.384281
3451.000000;3.380482
3450.000000;3.343373
3449.000000;3.372491
3448.000000;3.555257
3447.000000;4.039655
3446.000000;4.158809
3445.000000;4.028378
3444.000000;4.425872
3443.000000;4.069746
3442.000000;3.774327
3441.000000;3.701500
3440.000000;3.692504
3439.000000;3.665392
3438.000000;3.572812
3437.000000;3.516892
3436.000000;3.577181
3435.000000;3.808469
3434.000000;3.819615
3433.000000;3.605832
3432.000000;3.558635
3431.000000;3.564625
3430.000000;3.557265
3429.000000;3.550472
3428.000000;3.560577
3427.000000;3.573959
3426.000000;3.532943
3425.000000;3.452953
3424.000000;3.407432
3423.000000;3.472814
3422.000000;3.744922
3421.000000;4.089449
3420.000000;4.088612
3419.000000;4.165333
3418.000000;4.069477
3417.000000;4.029085
3416.000000;4.227945
3415.000000;3.987139
3414.000000;3.736883
3413.000000;3.721724
3412.000000;3.713321
3411.000000;3.611826
3410.000000;3.560852
3409.000000;3.627160
3408.000000;3.826725
3407.000000;3.776870
3406.000000;3.537207
3405.000000;3.419926
3404.000000;3.400579
3403.000000;3.529942
3402.000000;3.824454
3401.000000;4.036633
3400.000000;3.895191
3399.000000;3.705980
3398.000000;3.636953
3397.000000;3.670056
3396.000000;3.664154
3395.000000;3.549813
3394.000000;3.456239
3393.000000;3.440580
3392.000000;3.446543
3391.000000;3.465724
3390.000000;3.528054
3389.000000;3.752322
3388.000000;4.302796
3387.000000;4.116988
3386.000000;3.823357
3385.000000;3.670513
3384.000000;3.573233
3383.000000;3.548222
3382.000000;3.827336
3381.000000;4.302499
3380.000000;3.781567
3379.000000;3.669355
3378.000000;3.630607
3377.000000;3.558437
3376.000000;3.596117
3375.000000;3.924185
3374.000000;4.322610
3373.000000;3.916247
3372.000000;3.807865
3371.000000;3.724292
3370.000000;3.603206
3369.000000;3.555702
3368.000000;3.566736
3367.000000;3.522491
3366.000000;3.446642
3365.000000;3.481098
3364.000000;3.674024
3363.000000;4.104170
3362.000000;4.422542
3361.000000;4.123634
3360.000000;3.991408
3359.000000;3.742260
3358.000000;3.509306
3357.000000;3.417346
3356.000000;3.416712
3355.000000;3.414977
3354.000000;3.441429
3353.000000;3.591259
3352.000000;3.745837
3351.000000;3.896107
3350.000000;3.985984
3349.000000;3.702794
3348.000000;3.548558
3347.000000;3.691983
3346.000000;3.803643
3345.000000;3.475523
3344.000000;3.264325
3343.000000;3.219515
3342.000000;3.278307
3341.000000;3.474277
3340.000000;3.928372
3339.000000;3.816383
3338.000000;3.532129
3337.000000;3.514722
3336.000000;3.710064
3335.000000;4.106560
3334.000000;3.919879
3333.000000;3.752146
3332.000000;3.752752
3331.000000;3.772112
3330.000000;3.945236
3329.000000;4.197460
3328.000000;3.937891
3327.000000;3.757827
3326.000000;3.612471
3325.000000;3.488808
3324.000000;3.488351
3323.000000;3.641835
3322.000000;4.001172
3321.000000;3.844626
3320.000000;3.590822
3319.000000;3.576931
3318.000000;3.664650
3317.000000;3.800407
3316.000000;3.865067
3315.000000;3.819614
3314.000000;3.943603
3313.000000;4.414794
3312.000000;4.422437
3311.000000;4.257141
3310.000000;4.115218
3309.000000;4.245281
3308.000000;4.514493
3307.000000;4.004661
3306.000000;3.710967
3305.000000;3.507556
3304.000000;3.409182
3303.000000;3.425990
3302.000000;3.548277
3301.000000;3.696550
3300.000000;3.614843
3299.000000;3.486463
3298.000000;3.492813
3297.000000;3.650546
3296.000000;3.978363
3295.000000;4.259687
3294.000000;3.931804
3293.000000;3.737992
3292.000000;3.687184
3291.000000;3.734364
3290.000000;4.089784
3289.000000;4.188519
3288.000000;3.759875
3287.000000;3.774858
3286.000000;4.056480
3285.000000;3.789216
3284.000000;3.572672
3283.000000;3.523772
3282.000000;3.535537
3281.000000;3.578202
3280.000000;3.556512
3279.000000;3.471683
3278.000000;3.360594
3277.000000;3.286796
3276.000000;3.278162
3275.000000;3.409267
3274.000000;3.715248
3273.000000;3.713104
3272.000000;3.533659
3271.000000;3.619939
3270.000000;3.989272
3269.000000;4.043038
3268.000000;4.020280
3267.000000;4.082162
3266.000000;3.756860
3265.000000;3.771301
3264.000000;4.016406
3263.000000;3.936077
3262.000000;3.812451
3261.000000;3.770452
3260.000000;3.758276
3259.000000;3.904764
3258.000000;4.157894
3257.000000;4.139290
3256.000000;4.005438
3255.000000;4.172881
3254.000000;4.555691
3253.000000;3.787418
3252.000000;3.465636
3251.000000;3.360913
3250.000000;3.372185
3249.000000;3.483299
3248.000000;3.683026
3247.000000;4.045396
3246.000000;4.086684
3245.000000;3.850004
3244.000000;3.692809
3243.000000;3.530697
3242.000000;3.455742
3241.000000;3.532072
3240.000000;3.854906
3239.000000;4.287744
3238.000000;3.904093
3237.000000;3.699728
3236.000000;3.643893
3235.000000;3.800976
3234.000000;4.063392
3233.000000;3.816317
3232.000000;3.615595
3231.000000;3.692000
3230.000000;4.090922
3229.000000;3.867827
3228.000000;3.568767
3227.000000;3.698414
3226.000000;4.236294
3225.000000;3.916262
3224.000000;3.664841
3223.000000;3.607379
3222.000000;3.583498
3221.000000;3.727277
3220.000000;3.870519
3219.000000;3.805179
3218.000000;3.812337
3217.000000;3.942726
3216.000000;3.938567
3215.000000;3.738489
3214.000000;3.586103
3213.000000;3.597658
3212.000000;3.687573
3211.000000;3.587364
3210.000000;3.462132
3209.000000;3.468874
3208.000000;3.612756
3207.000000;4.004859
3206.000000;4.138368
3205.000000;3.974814
3204.000000;3.890669
3203.000000;4.003324
3202.000000;4.688437
3201.000000;4.126846
3200.000000;3.924155
3199.000000;4.151116
3198.000000;4.465897
3197.000000;4.325071
3196.000000;4.161536
3195.000000;3.992782
3194.000000;3.824632
3193.000000;3.743759
3192.000000;3.645017
3191.000000;3.535088
3190.000000;3.478096
3189.000000;3.523905
3188.000000;3.690305
3187.000000;3.957109
3186.000000;4.168237
3185.000000;4.171438
3184.000000;3.999712
3183.000000;3.804735
3182.000000;3.727598
3181.000000;3.803395
3180.000000;3.865363
3179.000000;3.811980
3178.000000;3.834812
3177.000000;3.898762
3176.000000;3.815307
3175.000000;3.613793
3174.000000;3.437769
3173.000000;3.358802
3172.000000;3.388713
3171.000000;3.458195
3170.000000;3.508623
3169.000000;3.584305
3168.000000;3.589915
3167.000000;3.519915
3166.000000;3.508600
3165.000000;3.540601
3164.000000;3.563379
3163.000000;3.592122
3162.000000;3.672599
3161.000000;3.753186
3160.000000;3.642433
3159.000000;3.540135
3158.000000;3.537998
3157.000000;3.674874
3156.000000;4.211126
3155.000000;4.225223
3154.000000;3.781124
3153.000000;3.670532
3152.000000;3.629683
3151.000000;3.826860
3150.000000;4.232818
3149.000000;3.882543
3148.000000;3.886407
3147.000000;4.388674
3146.000000;4.647451
3145.000000;4.197649
3144.000000;3.950700
3143.000000;3.833172
3142.000000;3.663493
3141.000000;3.565990
3140.000000;3.562236
3139.000000;3.604838
3138.000000;3.613659
3137.000000;3.567487
3136.000000;3.558031
3135.000000;3.621207
3134.000000;3.739187
3133.000000;3.797893
3132.000000;3.724469
3131.000000;3.608631
3130.000000;3.498077
3129.000000;3.403099
3128.000000;3.337698
3127.000000;3.333665
3126.000000;3.389477
3125.000000;3.483117
3124.000000;3.519992
3123.000000;3.506316
3122.000000;3.524725
3121.000000;3.718147
3120.000000;4.275693
3119.000000;3.925330
3118.000000;3.579294
3117.000000;3.492541
3116.000000;3.529073
3115.000000;3.727848
3114.000000;3.955720
3113.000000;3.829673
3112.000000;3.733879
3111.000000;3.771336
3110.000000;3.779076
3109.000000;3.748014
3108.000000;3.727063
3107.000000;3.723685
3106.000000;3.727148
3105.000000;3.712951
3104.000000;3.574626
3103.000000;3.431629
3102.000000;3.391290
3101.000000;3.440407
3100.000000;3.540112
3099.000000;3.632137
3098.000000;3.655508
3097.000000;3.701089
3096.000000;3.827583
3095.000000;4.052643
3094.000000;4.549532
3093.000000;4.280590
3092.000000;3.890748
3091.000000;3.748536
3090.000000;3.682268
3089.000000;3.609359
3088.000000;3.475679
3087.000000;3.331730
3086.000000;3.251258
3085.000000;3.256961
3084.000000;3.345593
3083.000000;3.567703
3082.000000;3.787803
3081.000000;3.703591
3080.000000;3.704922
3079.000000;4.018470
3078.000000;4.389087
3077.000000;3.976144
3076.000000;3.803547
3075.000000;3.886718
3074.000000;4.142373
3073.000000;4.160860
3072.000000;4.139397
3071.000000;4.265616
3070.000000;3.919909
3069.000000;3.700968
3068.000000;3.737403
3067.000000;3.763513
3066.000000;3.609015
3065.000000;3.604919
3064.000000;3.758628
3063.000000;3.882265
3062.000000;3.873873
3061.000000;3.725327
3060.000000;3.699697
3059.000000;3.907270
3058.000000;3.961227
3057.000000;3.762462
3056.000000;3.662829
3055.000000;3.577066
3054.000000;3.536180
3053.000000;3.512693
3052.000000;3.476926
3051.000000;3.478523
3050.000000;3.578479
3049.000000;3.727638
3048.000000;3.830306
3047.000000;3.873867
3046.000000;3.915794
3045.000000;4.208478
3044.000000;3.900773
3043.000000;3.629907
3042.000000;3.651030
3041.000000;3.923014
3040.000000;4.376071
3039.000000;3.778820
3038.000000;3.470924
3037.000000;3.362944
3036.000000;3.329292
3035.000000;3.323010
3034.000000;3.321433
3033.000000;3.368115
3032.000000;3.473169
3031.000000;3.547796
3030.000000;3.587600
3029.000000;3.746957
3028.000000;4.045943
3027.000000;4.382509
3026.000000;4.181745
3025.000000;3.761852
3024.000000;3.565770
3023.000000;3.559669
3022.000000;3.712640
3021.000000;4.063520
3020.000000;4.562193
3019.000000;4.248071
3018.000000;3.892788
3017.000000;3.772724
3016.000000;3.833047
3015.000000;4.044258
3014.000000;4.217457
3013.000000;4.293457
3012.000000;4.542120
3011.000000;4.166792
3010.000000;3.755256
3009.000000;3.631045
3008.000000;3.667827
3007.000000;3.811544
3006.000000;4.108511
3005.000000;4.310058
3004.000000;4.468095
3003.000000;4.204912
3002.000000;3.743069
3001.000000;3.612281
3000.000000;3.566696
2999.000000;3.502452
2998.000000;3.500638
2997.000000;3.596147
2996.000000;3.774515
2995.000000;3.874785
2994.000000;3.805212
2993.000000;3.714077
2992.000000;3.752788
2991.000000;3.812324
2990.000000;3.673897
2989.000000;3.591060
2988.000000;3.637505
2987.000000;3.727201
2986.000000;3.812302
2985.000000;3.904185
2984.000000;3.852187
2983.000000;3.671039
2982.000000;3.616624
2981.000000;3.716221
2980.000000;3.744736
2979.000000;3.671673
2978.000000;3.699956
2977.000000;3.784083
2976.000000;3.845560
2975.000000;3.854946
2974.000000;3.989218
2973.000000;4.027249
2972.000000;3.673210
2971.000000;3.497482
2970.000000;3.494359
2969.000000;3.521846
2968.000000;3.514527
2967.000000;3.607900
2966.000000;3.798368
2965.000000;3.699236
2964.000000;3.521259
2963.000000;3.499907
2962.000000;3.612172
2961.000000;3.659264
2960.000000;3.556272
2959.000000;3.474393
2958.000000;3.421372
2957.000000;3.365957
2956.000000;3.312609
2955.000000;3.297170
2954.000000;3.324563
2953.000000;3.355973
2952.000000;3.373780
2951.000000;3.406024
2950.000000;3.480698
2949.000000;3.595556
2948.000000;3.775384
2947.000000;3.880358
2946.000000;3.776152
2945.000000;3.724992
2944.000000;3.821431
2943.000000;4.147540
2942.000000;4.157801
2941.000000;3.845728
2940.000000;3.739060
2939.000000;3.668629
2938.000000;3.613012
2937.000000;3.635426
2936.000000;3.795900
2935.000000;3.931058
2934.000000;3.730305
2933.000000;3.654287
2932.000000;3.739599
2931.000000;4.037138
2930.000000;4.298651
2929.000000;3.807376
2928.000000;3.681106
2927.000000;3.722216
2926.000000;3.706813
2925.000000;3.681102
2924.000000;3.712845
2923.000000;3.822853
2922.000000;3.961335
2921.000000;3.889806
2920.000000;3.659678
2919.000000;3.463475
2918.000000;3.353074
2917.000000;3.409400
2916.000000;3.729953
2915.000000;4.263551
2914.000000;3.950461
2913.000000;3.920928
2912.000000;4.301168
2911.000000;3.752006
2910.000000;3.463445
2909.000000;3.431653
2908.000000;3.561268
2907.000000;3.859601
2906.000000;3.917583
2905.000000;3.733091
2904.000000;3.658188
2903.000000;3.647514
2902.000000;3.634858
2901.000000;3.591356
2900.000000;3.510978
2899.000000;3.438021
2898.000000;3.442451
2897.000000;3.520062
2896.000000;3.551192
2895.000000;3.522157
2894.000000;3.554327
2893.000000;3.797633
2892.000000;3.935257
2891.000000;3.612459
2890.000000;3.531554
2889.000000;3.699654
2888.000000;3.981274
2887.000000;4.064073
2886.000000;3.943871
2885.000000;3.883019
2884.000000;3.846938
2883.000000;3.805869
2882.000000;3.745973
2881.000000;3.577365
2880.000000;3.471197
2879.000000;3.527385
2878.000000;3.837020
2877.000000;4.285017
2876.000000;4.292292
2875.000000;4.479024
2874.000000;3.909582
2873.000000;3.654442
2872.000000;3.702312
2871.000000;4.015269
2870.000000;4.390701
2869.000000;4.056017
2868.000000;3.756705
2867.000000;3.762512
2866.000000;3.825235
2865.000000;3.571868
2864.000000;3.415282
2863.000000;3.367189
2862.000000;3.383655
2861.000000;3.434122
2860.000000;3.472229
2859.000000;3.503795
2858.000000;3.641037
2857.000000;4.173649
2856.000000;4.144422
2855.000000;3.793052
2854.000000;3.706657
2853.000000;3.608685
2852.000000;3.548864
2851.000000;3.557442
2850.000000;3.727189
2849.000000;4.084073
2848.000000;3.918809
2847.000000;3.676875
2846.000000;3.569422
2845.000000;3.510165
2844.000000;3.540808
2843.000000;3.715551
2842.000000;3.995437
2841.000000;3.987042
2840.000000;3.821409
2839.000000;3.813813
2838.000000;4.023900
2837.000000;4.335573
2836.000000;3.955466
2835.000000;3.634561
2834.000000;3.519881
2833.000000;3.576580
2832.000000;3.832396
2831.000000;3.843271
2830.000000;3.620181
2829.000000;3.536419
2828.000000;3.552730
2827.000000;3.536262
2826.000000;3.405076
2825.000000;3.323837
2824.000000;3.342510
2823.000000;3.425840
2822.000000;3.556582
2821.000000;3.706358
2820.000000;3.907442
2819.000000;4.192515
2818.000000;4.055691
2817.000000;3.848629
2816.000000;3.797357
2815.000000;3.781071
2814.000000;3.803153
2813.000000;3.875714
2812.000000;3.864931
2811.000000;3.701102
2810.000000;3.535914
2809.000000;3.430955
2808.000000;3.362212
2807.000000;3.350352
2806.000000;3.420033
2805.000000;3.595567
2804.000000;3.894614
2803.000000;3.890544
2802.000000;3.715585
2801.000000;3.644410
2800.000000;3.626700
2799.000000;3.674412
2798.000000;3.801068
2797.000000;4.031208
2796.000000;3.953202
2795.000000;3.709543
2794.000000;3.633764
2793.000000;3.668971
2792.000000;3.698853
2791.000000;3.611137
2790.000000;3.574578
2789.000000;3.697674
2788.000000;3.987582
2787.000000;4.483123
2786.000000;4.137291
2785.000000;3.795606
2784.000000;3.706850
2783.000000;3.726199
2782.000000;3.935213
2781.000000;3.894469
2780.000000;3.652064
2779.000000;3.613685
2778.000000;3.664182
2777.000000;3.684983
2776.000000;3.690250
2775.000000;3.727597
2774.000000;3.838385
2773.000000;3.965114
2772.000000;3.985404
2771.000000;3.976044
2770.000000;4.222681
2769.000000;4.842158
2768.000000;4.272938
2767.000000;4.244956
2766.000000;3.989835
2765.000000;3.730939
2764.000000;3.698765
2763.000000;3.856275
2762.000000;4.204276
2761.000000;4.141076
2760.000000;3.853350
2759.000000;3.653393
2758.000000;3.518979
2757.000000;3.487971
2756.000000;3.530731
2755.000000;3.614201
2754.000000;3.735665
2753.000000;3.850073
2752.000000;3.809213
2751.000000;3.667120
2750.000000;3.615503
2749.000000;3.732372
2748.000000;4.086878
2747.000000;4.012062
2746.000000;3.931970
2745.000000;4.351291
2744.000000;3.989030
2743.000000;3.723685
2742.000000;3.744458
2741.000000;3.837909
2740.000000;3.833837
2739.000000;3.920186
2738.000000;4.184520
2737.000000;4.256713
2736.000000;4.162835
2735.000000;3.959297
2734.000000;3.737880
2733.000000;3.601204
2732.000000;3.578951
2731.000000;3.643798
2730.000000;3.818951
2729.000000;4.056829
2728.000000;4.065941
2727.000000;4.416996
2726.000000;4.422446
2725.000000;3.996142
2724.000000;3.852576
2723.000000;3.719599
2722.000000;3.620737
2721.000000;3.562473
2720.000000;3.561260
2719.000000;3.677101
2718.000000;3.870528
2717.000000;3.720075
2716.000000;3.473354
2715.000000;3.324777
2714.000000;3.245208
2713.000000;3.238499
2712.000000;3.318298
2711.000000;3.485382
2710.000000;3.716431
2709.000000;3.989459
2708.000000;3.928293
2707.000000;3.640986
2706.000000;3.502850
2705.000000;3.472313
2704.000000;3.481284
2703.000000;3.461539
2702.000000;3.451169
2701.000000;3.479618
2700.000000;3.473395
2699.000000;3.442694
2698.000000;3.435328
2697.000000;3.434415
2696.000000;3.468997
2695.000000;3.530482
2694.000000;3.494551
2693.000000;3.464135
2692.000000;3.529920
2691.000000;3.639592
2690.000000;3.804932
2689.000000;3.929682
2688.000000;3.841475
2687.000000;3.821469
2686.000000;3.909315
2685.000000;3.973410
2684.000000;3.925317
2683.000000;3.803299
2682.000000;3.659673
2681.000000;3.543795
2680.000000;3.516500
2679.000000;3.598772
2678.000000;3.670952
2677.000000;3.649417
2676.000000;3.654584
2675.000000;3.714617
2674.000000;3.776910
2673.000000;3.811150
2672.000000;3.873743
2671.000000;4.080229
2670.000000;4.519153
2669.000000;4.165206
2668.000000;4.005135
2667.000000;4.099714
2666.000000;3.988933
2665.000000;3.968685
2664.000000;4.138726
2663.000000;4.125303
2662.000000;3.962864
2661.000000;3.866849
2660.000000;3.826968
2659.000000;3.812609
2658.000000;3.922714
2657.000000;4.235932
2656.000000;3.947606
2655.000000;3.600957
2654.000000;3.484326
2653.000000;3.489806
2652.000000;3.599741
2651.000000;3.820452
2650.000000;4.085744
2649.000000;4.503876
2648.000000;4.596879
2647.000000;4.380831
2646.000000;4.439310
2645.000000;4.232116
2644.000000;4.006384
2643.000000;3.804905
2642.000000;3.656246
2641.000000;3.620841
2640.000000;3.684577
2639.000000;3.837125
2638.000000;4.049241
2637.000000;4.275056
2636.000000;4.681908
2635.000000;4.063392
2634.000000;3.638786
2633.000000;3.458829
2632.000000;3.449217
2631.000000;3.542489
2630.000000;3.587038
2629.000000;3.658408
2628.000000;3.969299
2627.000000;4.333933
2626.000000;3.930626
2625.000000;3.630806
2624.000000;3.490404
2623.000000;3.469241
2622.000000;3.509656
2621.000000;3.549659
2620.000000;3.603089
2619.000000;3.723747
2618.000000;4.031713
2617.000000;4.171800
2616.000000;3.820468
2615.000000;3.602660
2614.000000;3.525323
2613.000000;3.546453
2612.000000;3.619240
2611.000000;3.725505
2610.000000;3.779655
2609.000000;3.719747
2608.000000;3.769617
2607.000000;4.136009
2606.000000;4.206806
2605.000000;3.832130
2604.000000;3.664127
2603.000000;3.528926
2602.000000;3.479467
2601.000000;3.530700
2600.000000;3.606357
2599.000000;3.572044
2598.000000;3.511343
2597.000000;3.557209
2596.000000;3.797787
2595.000000;4.190059
2594.000000;3.960963
2593.000000;3.744514
2592.000000;3.724441
2591.000000;3.836647
2590.000000;4.166883
2589.000000;4.876335
2588.000000;4.503153
2587.000000;4.214150
2586.000000;4.027686
2585.000000;3.992350
2584.000000;4.071907
2583.000000;4.130498
2582.000000;4.174383
2581.000000;4.041884
2580.000000;3.877435
2579.000000;3.730978
2578.000000;3.547098
2577.000000;3.420134
2576.000000;3.373709
2575.000000;3.397419
2574.000000;3.470521
2573.000000;3.602096
2572.000000;3.811057
2571.000000;3.837623
2570.000000;3.721547
2569.000000;3.711387
2568.000000;3.802826
2567.000000;3.879782
2566.000000;3.898837
2565.000000;4.219454
2564.000000;4.000726
2563.000000;3.695509
2562.000000;3.655937
2561.000000;3.734784
2560.000000;3.954081
2559.000000;4.355528
2558.000000;4.277638
2557.000000;4.093380
2556.000000;3.829185
2555.000000;3.636250
2554.000000;3.606908
2553.000000;3.685759
2552.000000;3.698040
2551.000000;3.625248
2550.000000;3.650792
2549.000000;3.765218
2548.000000;3.755678
2547.000000;3.694935
2546.000000;3.807051
2545.000000;4.284520
2544.000000;4.161665
2543.000000;3.786445
2542.000000;3.742939
2541.000000;3.790786
2540.000000;3.835417
2539.000000;3.714515
2538.000000;3.570159
2537.000000;3.519131
2536.000000;3.603169
2535.000000;3.925652
2534.000000;4.295117
2533.000000;3.975932
2532.000000;3.880610
2531.000000;3.888496
2530.000000;4.007230
2529.000000;4.147459
2528.000000;4.129537
2527.000000;4.137314
2526.000000;3.732718
2525.000000;3.635046
2524.000000;3.672845
2523.000000;3.669238
2522.000000;3.619379
2521.000000;3.584852
2520.000000;3.562922
2519.000000;3.551173
2518.000000;3.612692
2517.000000;3.716480
2516.000000;3.685473
2515.000000;3.658581
2514.000000;3.790713
2513.000000;3.753190
2512.000000;3.597737
2511.000000;3.549605
2510.000000;3.557560
2509.000000;3.600724
2508.000000;3.687389
2507.000000;3.869316
2506.000000;3.779796
2505.000000;3.506016
2504.000000;3.381828
2503.000000;3.379056
2502.000000;3.443158
2501.000000;3.535205
2500.000000;3.629739
2499.000000;3.669151
2498.000000;3.685868
2497.000000;3.815031
2496.000000;3.956638
2495.000000;3.821192
2494.000000;3.681487
2493.000000;3.609232
2492.000000;3.638481
2491.000000;3.891512
2490.000000;4.053306
2489.000000;3.749735
2488.000000;3.561486
2487.000000;3.462243
2486.000000;3.474765
2485.000000;3.629867
2484.000000;3.897976
2483.000000;3.952003
2482.000000;3.838347
2481.000000;3.846255
2480.000000;4.040904
2479.000000;3.782839
2478.000000;3.558100
2477.000000;3.557331
2476.000000;3.678314
2475.000000;3.930072
2474.000000;4.203747
2473.000000;3.752053
2472.000000;3.606656
2471.000000;3.584727
2470.000000;3.594289
2469.000000;3.625056
2468.000000;3.697995
2467.000000;4.102225
2466.000000;4.564937
2465.000000;4.359264
2464.000000;4.473012
2463.000000;3.838117
2462.000000;3.714555
2461.000000;3.796015
2460.000000;3.898506
2459.000000;3.814359
2458.000000;3.926539
2457.000000;4.037447
2456.000000;3.845322
2455.000000;3.934091
2454.000000;4.365238
2453.000000;4.382962
2452.000000;4.249916
2451.000000;3.952949
2450.000000;3.918551
2449.000000;3.916426
2448.000000;3.708542
2447.000000;3.637226
2446.000000;3.697691
2445.000000;3.812927
2444.000000;3.932774
2443.000000;3.950959
2442.000000;3.771860
2441.000000;3.617768
2440.000000;3.707974
2439.000000;4.002097
2438.000000;3.688984
2437.000000;3.480975
2436.000000;3.504418
2435.000000;3.621160
2434.000000;3.675400
2433.000000;3.541438
2432.000000;3.418922
2431.000000;3.407901
2430.000000;3.493168
2429.000000;3.634095
2428.000000;3.785453
2427.000000;3.835643
2426.000000;3.747721
2425.000000;3.658720
2424.000000;3.691065
2423.000000;3.812167
2422.000000;3.742907
2421.000000;3.771104
2420.000000;3.993237
2419.000000;3.945541
2418.000000;3.885806
2417.000000;3.965758
2416.000000;4.031877
2415.000000;3.817716
2414.000000;3.643908
2413.000000;3.774343
2412.000000;4.206634
2411.000000;3.984788
2410.000000;3.749249
2409.000000;3.648960
2408.000000;3.578909
2407.000000;3.650567
2406.000000;3.912259
2405.000000;4.338886
2404.000000;4.477364
2403.000000;3.838719
2402.000000;3.544446
2401.000000;3.502438
2400.000000;3.646953
2399.000000;3.805419
2398.000000;3.746678
2397.000000;3.691428
2396.000000;3.714836
2395.000000;3.851889
2394.000000;3.892135
2393.000000;3.676460
2392.000000;3.549300
2391.000000;3.560287
2390.000000;3.778079
2389.000000;4.324971
2388.000000;4.199257
2387.000000;4.281532
2386.000000;3.974907
2385.000000;3.632974
2384.000000;3.559017
2383.000000;3.556926
2382.000000;3.674307
2381.000000;3.886642
2380.000000;3.644544
2379.000000;3.438258
2378.000000;3.607845
2377.000000;3.868943
2376.000000;3.579841
2375.000000;3.550444
2374.000000;3.918088
2373.000000;4.001869
2372.000000;3.876755
2371.000000;3.887204
2370.000000;3.546093
2369.000000;3.386525
2368.000000;3.389020
2367.000000;3.518052
2366.000000;3.738711
2365.000000;3.758368
2364.000000;3.664810
2363.000000;3.568414
2362.000000;3.504149
2361.000000;3.464526
2360.000000;3.438557
2359.000000;3.513614
2358.000000;3.769697
2357.000000;3.978294
2356.000000;3.685688
2355.000000;3.564256
2354.000000;3.550153
2353.000000;4.080145
2352.000000;3.768968
2351.000000;3.222978
2350.000000;3.235877
2349.000000;3.458049
2348.000000;3.598780
2347.000000;3.488871
2346.000000;3.650638
2345.000000;3.891841
2344.000000;3.439039
2343.000000;3.386059
2342.000000;3.461370
2341.000000;3.434050
2340.000000;3.424344
2339.000000;3.479971
2338.000000;3.543171
2337.000000;3.586268
2336.000000;3.867757
2335.000000;3.981130
2334.000000;3.394472
2333.000000;3.341354
2332.000000;3.478978
2331.000000;3.827923
2330.000000;4.130614
2329.000000;4.180253
2328.000000;3.895847
2327.000000;3.517988
2326.000000;3.270781
2325.000000;3.113152
2324.000000;3.042812
2323.000000;3.066762
2322.000000;3.208870
2321.000000;3.472201
2320.000000;3.696360
2319.000000;3.625995
2318.000000;3.584847
2317.000000;3.908925
2316.000000;4.022195
2315.000000;4.044922
2314.000000;4.742921
2313.000000;3.962747
2312.000000;3.612260
2311.000000;3.621503
2310.000000;3.917669
2309.000000;3.811582
2308.000000;3.431405
2307.000000;3.208785
2306.000000;3.134672
2305.000000;3.217815
2304.000000;3.348278
2303.000000;3.360824
2302.000000;3.332900
2301.000000;3.323663
2300.000000;3.353429
2299.000000;3.480671
2298.000000;3.792449
2297.000000;4.249885
2296.000000;4.170626
2295.000000;3.999216
2294.000000;3.899035
2293.000000;3.818417
2292.000000;3.737599
2291.000000;3.691120
2290.000000;3.726090
2289.000000;3.891880
2288.000000;4.348418
2287.000000;4.239805
2286.000000;3.898439
2285.000000;3.685247
2284.000000;3.587863
2283.000000;3.602218
2282.000000;3.632675
2281.000000;3.623564
2280.000000;3.627421
2279.000000;3.636119
2278.000000;3.677119
2277.000000;3.800409
2276.000000;3.926419
2275.000000;3.876312
2274.000000;3.755728
2273.000000;3.720904
2272.000000;3.745179
2271.000000;3.713504
2270.000000;3.642183
2269.000000;3.636480
2268.000000;3.758347
2267.000000;4.033484
2266.000000;3.971900
2265.000000;3.761796
2264.000000;3.677917
2263.000000;3.747117
2262.000000;3.942885
2261.000000;3.917593
2260.000000;3.765386
2259.000000;3.715182
2258.000000;3.895430
2257.000000;4.287677
2256.000000;3.655360
2255.000000;3.607791
2254.000000;3.819048
2253.000000;3.869870
2252.000000;3.690177
2251.000000;3.800525
2250.000000;4.209883
2249.000000;4.108488
2248.000000;3.824645
2247.000000;3.816677
2246.000000;3.762770
2245.000000;3.724881
2244.000000;3.592115
2243.000000;3.423359
2242.000000;3.362448
2241.000000;3.448415
2240.000000;3.717635
2239.000000;3.849188
2238.000000;3.692576
2237.000000;3.662125
2236.000000;3.814163
2235.000000;4.420232
2234.000000;4.270819
2233.000000;3.967146
2232.000000;3.715653
2231.000000;3.648024
2230.000000;3.622030
2229.000000;3.522824
2228.000000;3.466300
2227.000000;3.476799
2226.000000;3.552749
2225.000000;3.691945
2224.000000;3.816156
2223.000000;3.947521
2222.000000;4.355265
2221.000000;4.381808
2220.000000;4.111242
2219.000000;4.301191
2218.000000;4.478933
2217.000000;4.375608
2216.000000;3.970673
2215.000000;3.730742
2214.000000;3.689542
2213.000000;4.063803
2212.000000;4.282091
2211.000000;4.281726
2210.000000;4.270476
2209.000000;3.817096
2208.000000;3.768288
2207.000000;3.971294
2206.000000;4.890065
2205.000000;4.108150
2204.000000;3.954710
2203.000000;3.924900
2202.000000;3.805398
2201.000000;3.741536
2200.000000;3.857592
2199.000000;4.129742
2198.000000;3.880095
2197.000000;3.649103
2196.000000;3.595054
2195.000000;3.587714
2194.000000;3.574556
2193.000000;3.537292
2192.000000;3.484304
2191.000000;3.444181
2190.000000;3.482726
2189.000000;3.669905
2188.000000;4.066187
2187.000000;4.078710
2186.000000;3.853047
2185.000000;3.692793
2184.000000;3.643526
2183.000000;3.726322
2182.000000;3.861024
2181.000000;3.946357
2180.000000;3.878566
2179.000000;3.685932
2178.000000;3.558266
2177.000000;3.512642
2176.000000;3.495461
2175.000000;3.488722
2174.000000;3.507252
2173.000000;3.520959
2172.000000;3.488319
2171.000000;3.476569
2170.000000;3.534950
2169.000000;3.657585
2168.000000;3.824695
2167.000000;3.930461
2166.000000;3.925564
2165.000000;4.465498
2164.000000;4.148778
2163.000000;3.756017
2162.000000;3.779463
2161.000000;3.937005
2160.000000;4.254587
2159.000000;3.880038
2158.000000;3.609954
2157.000000;3.523160
2156.000000;3.530438
2155.000000;3.536505
2154.000000;3.574280
2153.000000;3.841755
2152.000000;4.193296
2151.000000;3.898449
2150.000000;3.974697
2149.000000;3.880704
2148.000000;3.682717
2147.000000;3.587406
2146.000000;3.617373
2145.000000;3.805437
2144.000000;4.099571
2143.000000;4.171736
2142.000000;4.146305
2141.000000;4.151939
2140.000000;3.910882
2139.000000;3.691477
2138.000000;3.601069
2137.000000;3.578269
2136.000000;3.608996
2135.000000;3.666139
2134.000000;3.741183
2133.000000;3.845620
2132.000000;3.914834
2131.000000;3.890727
2130.000000;3.858603
2129.000000;3.942115
2128.000000;4.252824
2127.000000;4.193552
2126.000000;4.089571
2125.000000;4.410296
2124.000000;4.175005
2123.000000;3.787821
2122.000000;3.616721
2121.000000;3.532565
2120.000000;3.531697
2119.000000;3.629568
2118.000000;3.758440
2117.000000;3.757547
2116.000000;3.676582
2115.000000;3.619668
2114.000000;3.541217
2113.000000;3.456295
2112.000000;3.416621
2111.000000;3.433620
2110.000000;3.517571
2109.000000;3.639724
2108.000000;3.619807
2107.000000;3.536236
2106.000000;3.544269
2105.000000;3.622868
2104.000000;3.649010
2103.000000;3.636133
2102.000000;3.674887
2101.000000;4.150489
2100.000000;3.850247
2099.000000;3.519777
2098.000000;3.442331
2097.000000;3.492335
2096.000000;3.619377
2095.000000;3.686602
2094.000000;3.657799
2093.000000;3.629301
2092.000000;3.583093
2091.000000;3.585129
2090.000000;3.698267
2089.000000;3.964567
2088.000000;4.058859
2087.000000;3.907425
2086.000000;4.194211
2085.000000;4.370832
2084.000000;4.093792
2083.000000;4.138897
2082.000000;4.040032
2081.000000;3.962758
2080.000000;4.406514
2079.000000;3.989430
2078.000000;3.726786
2077.000000;3.710170
2076.000000;3.736364
2075.000000;4.055247
2074.000000;4.052238
2073.000000;3.800337
2072.000000;3.827333
2071.000000;3.978925
2070.000000;4.245802
2069.000000;4.149151
2068.000000;3.855567
2067.000000;3.757827
2066.000000;3.773402
2065.000000;3.924647
2064.000000;4.070549
2063.000000;4.014725
2062.000000;3.901099
2061.000000;3.772603
2060.000000;3.695105
2059.000000;3.595823
2058.000000;3.490579
2057.000000;3.445806
2056.000000;3.440522
2055.000000;3.431799
2054.000000;3.465445
2053.000000;3.601369
2052.000000;3.977100
2051.000000;3.966337
2050.000000;3.774936
2049.000000;3.823705
2048.000000;4.167172
2047.000000;4.391587
2046.000000;4.124228
2045.000000;4.163373
2044.000000;4.233736
2043.000000;4.423340
2042.000000;4.231358
2041.000000;4.073396
2040.000000;3.950693
2039.000000;3.802645
2038.000000;3.746970
2037.000000;3.871685
2036.000000;4.208608
2035.000000;4.501710
2034.000000;4.269681
2033.000000;4.058271
2032.000000;4.017100
2031.000000;4.036501
2030.000000;3.967787
2029.000000;3.790168
2028.000000;3.671047
2027.000000;3.683016
2026.000000;3.749800
2025.000000;3.761251
2024.000000;3.734679
2023.000000;3.757735
2022.000000;3.847349
2021.000000;4.056645
2020.000000;4.127724
2019.000000;3.771544
2018.000000;3.649523
2017.000000;3.682310
2016.000000;3.742876
2015.000000;3.802108
2014.000000;4.010335
2013.000000;4.124938
2012.000000;3.838292
2011.000000;3.920898
2010.000000;4.184365
2009.000000;3.970462
2008.000000;3.662340
2007.000000;3.469902
2006.000000;3.398610
2005.000000;3.452220
2004.000000;3.598213
2003.000000;3.654867
2002.000000;3.612791
2001.000000;3.681233
2000.000000;3.934446
1999.000000;4.372623
1998.000000;4.143805
1997.000000;3.913901
1996.000000;3.779226
1995.000000;3.657950
1994.000000;3.605269
1993.000000;3.587685
1992.000000;3.581793
1991.000000;3.683664
1990.000000;3.927962
1989.000000;4.079672
1988.000000;3.989252
1987.000000;4.200737
1986.000000;4.429231
1985.000000;3.828866
1984.000000;3.760700
1983.000000;3.772309
1982.000000;3.680513
1981.000000;3.527587
1980.000000;3.473616
1979.000000;3.519157
1978.000000;3.617903
1977.000000;3.692137
1976.000000;3.750666
1975.000000;3.864749
1974.000000;4.117668
1973.000000;4.348066
1972.000000;4.008481
1971.000000;3.787702
1970.000000;3.687800
1969.000000;3.610033
1968.000000;3.574412
1967.000000;3.573318
1966.000000;3.526676
1965.000000;3.431327
1964.000000;3.372622
1963.000000;3.405639
1962.000000;3.535314
1961.000000;3.789822
1960.000000;4.249996
1959.000000;3.911684
1958.000000;3.780968
1957.000000;3.916611
1956.000000;4.135837
1955.000000;4.012930
1954.000000;4.141903
1953.000000;4.438899
1952.000000;3.905504
1951.000000;3.802629
1950.000000;3.875228
1949.000000;3.901864
1948.000000;3.951164
1947.000000;4.138456
1946.000000;4.016241
1945.000000;3.812711
1944.000000;3.825128
1943.000000;3.700412
1942.000000;3.532134
1941.000000;3.562192
1940.000000;3.795708
1939.000000;3.904219
1938.000000;3.861954
1937.000000;3.939869
1936.000000;4.066103
1935.000000;4.124304
1934.000000;4.034306
1933.000000;3.897114
1932.000000;3.848617
1931.000000;3.899413
1930.000000;4.135844
1929.000000;4.218322
1928.000000;3.718948
1927.000000;3.505071
1926.000000;3.464772
1925.000000;3.580963
1924.000000;3.802293
1923.000000;3.964325
1922.000000;4.027131
1921.000000;3.939913
1920.000000;3.856064
1919.000000;3.991021
1918.000000;4.013077
1917.000000;3.874009
1916.000000;3.753412
1915.000000;3.644384
1914.000000;3.598286
1913.000000;3.650804
1912.000000;3.865429
1911.000000;4.384766
1910.000000;4.346588
1909.000000;3.833739
1908.000000;3.633540
1907.000000;3.637194
1906.000000;3.707506
1905.000000;3.677869
1904.000000;3.620522
1903.000000;3.674386
1902.000000;3.896774
1901.000000;4.363862
1900.000000;4.128695
1899.000000;3.770158
1898.000000;3.958914
1897.000000;3.991730
1896.000000;3.638229
1895.000000;3.616252
1894.000000;3.838562
1893.000000;3.859585
1892.000000;3.649916
1891.000000;3.561149
1890.000000;3.564847
1889.000000;3.631967
1888.000000;3.693367
1887.000000;3.713596
1886.000000;3.759589
1885.000000;3.890768
1884.000000;3.994409
1883.000000;3.963566
1882.000000;3.922347
1881.000000;3.897584
1880.000000;3.863453
1879.000000;3.833628
1878.000000;3.782795
1877.000000;3.820118
1876.000000;3.899158
1875.000000;3.840939
1874.000000;3.713842
1873.000000;3.707402
1872.000000;3.870318
1871.000000;4.279782
1870.000000;4.066841
1869.000000;3.708996
1868.000000;3.630518
1867.000000;3.782843
1866.000000;3.995884
1865.000000;3.836526
1864.000000;3.751345
1863.000000;3.716307
1862.000000;3.685207
1861.000000;3.720978
1860.000000;3.807738
1859.000000;3.852387
1858.000000;3.793052
1857.000000;3.754713
1856.000000;3.772514
1855.000000;3.766837
1854.000000;3.779708
1853.000000;3.898225
1852.000000;4.020591
1851.000000;3.995411
1850.000000;3.843219
1849.000000;3.748426
1848.000000;3.760729
1847.000000;3.962614
1846.000000;4.335712
1845.000000;4.321254
1844.000000;4.142278
1843.000000;3.648443
1842.000000;3.440286
1841.000000;3.405689
1840.000000;3.438708
1839.000000;3.545442
1838.000000;3.777481
1837.000000;4.219140
1836.000000;3.959927
1835.000000;3.718924
1834.000000;3.680482
1833.000000;3.724616
1832.000000;3.776655
1831.000000;3.720079
1830.000000;3.616628
1829.000000;3.607051
1828.000000;3.719438
1827.000000;4.069441
1826.000000;4.180984
1825.000000;3.748523
1824.000000;3.709139
1823.000000;3.863363
1822.000000;4.043092
1821.000000;3.834686
1820.000000;3.707635
1819.000000;3.732957
1818.000000;3.823708
1817.000000;3.848013
1816.000000;3.817632
1815.000000;3.814740
1814.000000;3.767337
1813.000000;3.672196
1812.000000;3.597600
1811.000000;3.558699
1810.000000;3.571329
1809.000000;3.639188
1808.000000;3.748110
1807.000000;3.783122
1806.000000;3.713372
1805.000000;3.750286
1804.000000;3.910937
1803.000000;3.901057
1802.000000;3.737428
1801.000000;3.619742
1800.000000;3.579398
1799.000000;3.629042
1798.000000;3.777861
1797.000000;3.982209
1796.000000;4.086642
1795.000000;4.014292
1794.000000;3.903541
1793.000000;3.807479
1792.000000;3.766454
1791.000000;3.830981
1790.000000;3.923713
1789.000000;3.934049
1788.000000;3.920130
1787.000000;3.956213
1786.000000;4.042736
1785.000000;4.017497
1784.000000;3.986797
1783.000000;4.053144
1782.000000;4.241756
1781.000000;4.085626
1780.000000;3.912842
1779.000000;4.117947
1778.000000;4.364980
1777.000000;4.096178
1776.000000;4.068565
1775.000000;4.022752
1774.000000;3.891090
1773.000000;3.816347
1772.000000;3.772339
1771.000000;3.722241
1770.000000;3.702083
1769.000000;3.908386
1768.000000;4.274758
1767.000000;4.025308
1766.000000;4.001573
1765.000000;4.174628
1764.000000;4.371162
1763.000000;3.951054
1762.000000;3.707333
1761.000000;3.689825
1760.000000;3.772473
1759.000000;3.747862
1758.000000;3.645660
1757.000000;3.648482
1756.000000;3.735738
1755.000000;3.795039
1754.000000;3.786395
1753.000000;3.761623
1752.000000;3.719620
1751.000000;3.673566
1750.000000;3.603274
1749.000000;3.541383
1748.000000;3.560853
1747.000000;3.706836
1746.000000;4.076944
1745.000000;4.940575
1744.000000;4.295870
1743.000000;4.115964
1742.000000;4.067389
1741.000000;4.188942
1740.000000;3.955631
1739.000000;3.715987
1738.000000;3.605968
1737.000000;3.473726
1736.000000;3.368388
1735.000000;3.421808
1734.000000;3.690681
1733.000000;3.820187
1732.000000;3.772565
1731.000000;3.742040
1730.000000;3.697886
1729.000000;3.722083
1728.000000;3.769303
1727.000000;3.777364
1726.000000;3.964954
1725.000000;4.242422
1724.000000;3.755827
1723.000000;3.625113
1722.000000;3.657077
1721.000000;3.703656
1720.000000;3.738666
1719.000000;3.759743
1718.000000;3.802545
1717.000000;3.936985
1716.000000;4.157290
1715.000000;4.156774
1714.000000;4.062404
1713.000000;4.046383
1712.000000;4.077627
1711.000000;4.170952
1710.000000;4.468967
1709.000000;4.506421
1708.000000;4.124189
1707.000000;4.011085
1706.000000;4.187298
1705.000000;4.343224
1704.000000;3.933263
1703.000000;3.643795
1702.000000;3.560117
1701.000000;3.778098
1700.000000;3.830842
1699.000000;3.862972
1698.000000;4.256140
1697.000000;3.844077
1696.000000;3.561856
1695.000000;3.597319
1694.000000;3.837731
1693.000000;4.319408
1692.000000;4.288318
1691.000000;3.851531
1690.000000;3.753705
1689.000000;3.772321
1688.000000;3.801068
1687.000000;3.779998
1686.000000;3.692757
1685.000000;3.611339
1684.000000;3.633770
1683.000000;3.762963
1682.000000;3.864654
1681.000000;3.827628
1680.000000;3.764972
1679.000000;3.758348
1678.000000;3.776824
1677.000000;3.821159
1676.000000;3.973775
1675.000000;4.235343
1674.000000;4.302825
1673.000000;4.116006
1672.000000;3.916014
1671.000000;3.784347
1670.000000;3.731087
1669.000000;3.715466
1668.000000;3.680856
1667.000000;3.707118
1666.000000;3.853780
1665.000000;3.813654
1664.000000;3.680089
1663.000000;3.629966
1662.000000;3.551702
1661.000000;3.526525
1660.000000;3.566053
1659.000000;3.626938
1658.000000;3.732255
1657.000000;3.876280
1656.000000;3.907112
1655.000000;3.869096
1654.000000;4.066488
1653.000000;4.494558
1652.000000;4.419719
1651.000000;4.228421
1650.000000;4.215652
1649.000000;4.266063
1648.000000;4.206470
1647.000000;4.440180
1646.000000;4.277322
1645.000000;3.898515
1644.000000;3.988640
1643.000000;4.020870
1642.000000;3.837647
1641.000000;3.898509
1640.000000;4.085824
1639.000000;4.234510
1638.000000;4.382664
1637.000000;4.129862
1636.000000;4.014868
1635.000000;4.296009
1634.000000;4.008585
1633.000000;3.734484
1632.000000;3.632149
1631.000000;3.597075
1630.000000;3.581717
1629.000000;3.535616
1628.000000;3.505308
1627.000000;3.524437
1626.000000;3.645192
1625.000000;4.041936
1624.000000;4.286571
1623.000000;4.171721
1622.000000;4.522395
1621.000000;4.896486
1620.000000;5.044073
1619.000000;4.194998
1618.000000;3.792429
1617.000000;3.680572
1616.000000;3.765497
1615.000000;3.945185
1614.000000;3.966395
1613.000000;3.928739
1612.000000;3.912101
1611.000000;3.830945
1610.000000;3.777046
1609.000000;3.796810
1608.000000;3.879813
1607.000000;3.976200
1606.000000;4.058489
1605.000000;4.379164
1604.000000;4.642552
1603.000000;4.205468
1602.000000;3.845018
1601.000000;3.633910
1600.000000;3.595773
1599.000000;3.737872
1598.000000;4.360171
1597.000000;4.373543
1596.000000;4.092144
1595.000000;4.064670
1594.000000;3.865214
1593.000000;3.792888
1592.000000;3.780891
1591.000000;3.830852
1590.000000;4.026203
1589.000000;4.265808
1588.000000;4.221041
1587.000000;4.026957
1586.000000;4.095483
1585.000000;4.620275
1584.000000;4.125600
1583.000000;3.868712
1582.000000;3.759903
1581.000000;3.679608
1580.000000;3.731932
1579.000000;3.943135
1578.000000;3.760053
1577.000000;3.539009
1576.000000;3.606907
1575.000000;3.917611
1574.000000;4.406290
1573.000000;4.169362
1572.000000;3.992019
1571.000000;4.183591
1570.000000;4.664148
1569.000000;4.643499
1568.000000;4.212437
1567.000000;3.976304
1566.000000;3.855478
1565.000000;3.877892
1564.000000;4.139154
1563.000000;4.453137
1562.000000;3.938580
1561.000000;3.815564
1560.000000;3.866109
1559.000000;3.896835
1558.000000;3.922531
1557.000000;3.931291
1556.000000;3.958179
1555.000000;3.945420
1554.000000;3.900029
1553.000000;3.923408
1552.000000;3.840208
1551.000000;3.631364
1550.000000;3.505176
1549.000000;3.531098
1548.000000;3.681692
1547.000000;3.918984
1546.000000;3.968131
1545.000000;3.938449
1544.000000;4.220506
1543.000000;4.376424
1542.000000;4.094291
1541.000000;3.984796
1540.000000;4.324721
1539.000000;3.893451
1538.000000;3.633034
1537.000000;3.700153
1536.000000;3.885517
1535.000000;4.182811
1534.000000;4.376727
1533.000000;4.081116
1532.000000;3.902509
1531.000000;3.907208
1530.000000;4.002355
1529.000000;4.161420
1528.000000;4.271385
1527.000000;4.029557
1526.000000;3.909462
1525.000000;4.059022
1524.000000;4.447262
1523.000000;4.200526
1522.000000;3.820182
1521.000000;3.680647
1520.000000;3.655144
1519.000000;3.698903
1518.000000;3.753650
1517.000000;3.780907
1516.000000;3.790509
1515.000000;3.852222
1514.000000;4.100265
1513.000000;4.487619
1512.000000;4.025367
1511.000000;3.775455
1510.000000;3.702056
1509.000000;3.703895
1508.000000;3.743790
1507.000000;3.851976
1506.000000;3.976389
1505.000000;3.703525
1504.000000;3.655835
1503.000000;3.806603
1502.000000;4.058369
1501.000000;4.278815
1500.000000;4.096028
1499.000000;4.115042
1498.000000;4.489297
1497.000000;4.298839
1496.000000;3.929325
1495.000000;3.846581
1494.000000;3.760275
1493.000000;3.646427
1492.000000;3.598081
1491.000000;3.644027
1490.000000;3.739712
1489.000000;3.772772
1488.000000;3.769558
1487.000000;3.782835
1486.000000;3.757607
1485.000000;3.746050
1484.000000;3.743753
1483.000000;3.727214
1482.000000;3.737185
1481.000000;3.767939
1480.000000;3.837407
1479.000000;3.995606
1478.000000;4.185942
1477.000000;4.331147
1476.000000;4.218564
1475.000000;3.874498
1474.000000;3.702121
1473.000000;3.729069
1472.000000;3.848552
1471.000000;3.798489
1470.000000;3.717478
1469.000000;3.698157
1468.000000;3.672841
1467.000000;3.710471
1466.000000;4.048938
1465.000000;4.341634
1464.000000;3.911833
1463.000000;3.830887
1462.000000;3.880249
1461.000000;3.866328
1460.000000;3.844097
1459.000000;4.110705
1458.000000;4.192574
1457.000000;3.743548
1456.000000;3.617450
1455.000000;3.626973
1454.000000;3.697909
1453.000000;3.891426
1452.000000;4.094603
1451.000000;4.042594
1450.000000;3.902083
1449.000000;4.068472
1448.000000;4.445601
1447.000000;4.000840
1446.000000;3.867618
1445.000000;3.893913
1444.000000;4.011167
1443.000000;3.967911
1442.000000;3.807481
1441.000000;3.868035
1440.000000;3.889213
1439.000000;3.695015
1438.000000;3.502526
1437.000000;3.368955
1436.000000;3.309148
1435.000000;3.359512
1434.000000;3.465959
1433.000000;3.642601
1432.000000;3.992523
1431.000000;3.749768
1430.000000;3.533198
1429.000000;3.574410
1428.000000;3.751557
1427.000000;3.931030
1426.000000;4.019810
1425.000000;4.174100
1424.000000;4.111018
1423.000000;3.970521
1422.000000;3.836345
1421.000000;4.053118
1420.000000;4.653149
1419.000000;3.910273
1418.000000;3.807679
1417.000000;3.803132
1416.000000;3.776734
1415.000000;3.769643
1414.000000;3.693972
1413.000000;3.678079
1412.000000;3.784987
1411.000000;3.962416
1410.000000;4.051636
1409.000000;4.156955
1408.000000;4.318328
1407.000000;4.285287
1406.000000;3.990136
1405.000000;3.844194
1404.000000;3.948609
1403.000000;4.171635
1402.000000;4.102993
1401.000000;3.926463
1400.000000;3.939944
1399.000000;4.026990
1398.000000;3.812039
1397.000000;3.772780
1396.000000;3.930211
1395.000000;3.762114
1394.000000;3.700039
1393.000000;4.105153
1392.000000;4.335711
1391.000000;3.814971
1390.000000;3.634883
1389.000000;3.564029
1388.000000;3.868892
1387.000000;3.925599
1386.000000;3.570532
1385.000000;3.557354
1384.000000;3.603943
1383.000000;3.727870
1382.000000;3.978842
1381.000000;4.043895
1380.000000;3.864322
1379.000000;3.753036
1378.000000;3.767600
1377.000000;3.852390
1376.000000;4.064446
1375.000000;4.522699
1374.000000;4.500544
1373.000000;4.118490
1372.000000;3.896669
1371.000000;3.912795
1370.000000;4.119841
1369.000000;4.254208
1368.000000;4.285231
1367.000000;4.391103
1366.000000;4.632851
1365.000000;4.356348
1364.000000;4.000296
1363.000000;4.103282
1362.000000;4.027087
1361.000000;3.639262
1360.000000;3.467027
1359.000000;3.404749
1358.000000;3.422306
1357.000000;3.532937
1356.000000;3.748983
1355.000000;3.926703
1354.000000;3.878839
1353.000000;3.774663
1352.000000;3.635388
1351.000000;3.535843
1350.000000;3.585291
1349.000000;3.760352
1348.000000;3.750542
1347.000000;3.560437
1346.000000;3.449612
1345.000000;3.478685
1344.000000;3.604717
1343.000000;3.700659
1342.000000;3.750969
1341.000000;3.728721
1340.000000;3.639830
1339.000000;3.680574
1338.000000;3.809263
1337.000000;3.850153
1336.000000;3.876778
1335.000000;4.024635
1334.000000;4.111603
1333.000000;4.014803
1332.000000;3.955559
1331.000000;3.954525
1330.000000;4.179377
1329.000000;4.422651
1328.000000;4.454915
1327.000000;4.064725
1326.000000;3.712880
1325.000000;3.591584
1324.000000;3.609860
1323.000000;3.619704
1322.000000;3.662789
1321.000000;3.830597
1320.000000;3.611222
1319.000000;3.373961
1318.000000;3.345072
1317.000000;3.417512
1316.000000;3.693620
1315.000000;4.131922
1314.000000;3.766479
1313.000000;3.740152
1312.000000;3.934070
1311.000000;3.866982
1310.000000;3.720640
1309.000000;3.721969
1308.000000;3.780722
1307.000000;3.718095
1306.000000;3.651360
1305.000000;3.600291
1304.000000;3.589167
1303.000000;3.632723
1302.000000;3.630354
1301.000000;3.521417
1300.000000;3.441769
1299.000000;3.474140
1298.000000;3.597144
1297.000000;3.758121
1296.000000;3.983439
1295.000000;4.114691
1294.000000;3.982707
1293.000000;3.857477
1292.000000;3.744250
1291.000000;3.651556
1290.000000;3.636603
1289.000000;3.740409
1288.000000;4.094024
1287.000000;4.440661
1286.000000;4.290408
1285.000000;4.476253
1284.000000;4.406247
1283.000000;4.099236
1282.000000;3.915647
1281.000000;3.987479
1280.000000;4.138830
1279.000000;3.909712
1278.000000;3.755384
1277.000000;3.762571
1276.000000;3.989341
1275.000000;4.336628
1274.000000;4.163492
1273.000000;3.965893
1272.000000;4.058167
1271.000000;4.426473
1270.000000;3.972720
1269.000000;3.761383
1268.000000;3.788193
1267.000000;3.948911
1266.000000;3.968027
1265.000000;3.583296
1264.000000;3.395453
1263.000000;3.361436
1262.000000;3.400049
1261.000000;3.486110
1260.000000;3.629287
1259.000000;3.762583
1258.000000;3.864997
1257.000000;3.872403
1256.000000;3.753778
1255.000000;3.727264
1254.000000;3.829645
1253.000000;4.079112
1252.000000;3.831223
1251.000000;3.657166
1250.000000;3.829758
1249.000000;4.080854
1248.000000;4.193433
1247.000000;4.195642
1246.000000;4.160313
1245.000000;4.175271
1244.000000;4.059934
1243.000000;3.938530
1242.000000;3.967042
1241.000000;4.048421
1240.000000;4.027285
1239.000000;3.806024
1238.000000;3.648886
1237.000000;3.577217
1236.000000;3.509557
1235.000000;3.537212
1234.000000;3.619047
1233.000000;3.612927
1232.000000;3.551585
1231.000000;3.474885
1230.000000;3.404659
1229.000000;3.361321
1228.000000;3.360881
1227.000000;3.420631
1226.000000;3.611257
1225.000000;3.753029
1224.000000;3.741826
1223.000000;3.910217
1222.000000;3.761457
1221.000000;3.555849
1220.000000;3.574911
1219.000000;3.631333
1218.000000;3.585870
1217.000000;3.534023
1216.000000;3.565764
1215.000000;3.630106
1214.000000;3.742606
1213.000000;3.908616
1212.000000;3.983856
1211.000000;4.173080
1210.000000;4.291112
1209.000000;4.116381
1208.000000;4.168763
1207.000000;4.216431
1206.000000;4.056198
1205.000000;3.812767
1204.000000;3.599147
1203.000000;3.466805
1202.000000;3.464163
1201.000000;3.652447
1200.000000;4.150879
