Criado como novo conjunto de dados;"e2410_daniel_v2.spp","97386.9 Secs"
cm-1;Abs
10000.000000;0.128999
9999.000000;0.129494
9998.000000;0.129987
9997.000000;0.130486
9996.000000;0.130957
9995.000000;0.131400
9994.000000;0.131895
9993.000000;0.132528
9992.000000;0.133313
9991.000000;0.134165
9990.000000;0.134963
9989.000000;0.135617
9988.000000;0.136106
9987.000000;0.136472
9986.000000;0.136791
9985.000000;0.137122
9984.000000;0.137514
9983.000000;0.138027
9982.000000;0.138726
9981.000000;0.139604
9980.000000;0.140544
9979.000000;0.141390
9978.000000;0.142083
9977.000000;0.142707
9976.000000;0.143388
9975.000000;0.144142
9974.000000;0.144861
9973.000000;0.145445
9972.000000;0.145918
9971.000000;0.146374
9970.000000;0.146870
9969.000000;0.147426
9968.000000;0.148098
9967.000000;0.148930
9966.000000;0.149833
9965.000000;0.150616
9964.000000;0.151196
9963.000000;0.151679
9962.000000;0.152195
9961.000000;0.152766
9960.000000;0.153417
9959.000000;0.154270
9958.000000;0.155382
9957.000000;0.156539
9956.000000;0.157403
9955.000000;0.157881
9954.000000;0.158215
9953.000000;0.158673
9952.000000;0.159298
9951.000000;0.159993
9950.000000;0.160727
9949.000000;0.161542
9948.000000;0.162422
9947.000000;0.163263
9946.000000;0.163969
9945.000000;0.164503
9944.000000;0.164885
9943.000000;0.165182
9942.000000;0.165517
9941.000000;0.166010
9940.000000;0.166694
9939.000000;0.167495
9938.000000;0.168323
9937.000000;0.169166
9936.000000;0.170072
9935.000000;0.171034
9934.000000;0.171933
9933.000000;0.172620
9932.000000;0.173080
9931.000000;0.173481
9930.000000;0.174031
9929.000000;0.174785
9928.000000;0.175604
9927.000000;0.176314
9926.000000;0.176893
9925.000000;0.177497
9924.000000;0.178292
9923.000000;0.179254
9922.000000;0.180174
9921.000000;0.180880
9920.000000;0.181425
9919.000000;0.182003
9918.000000;0.182740
9917.000000;0.183634
9916.000000;0.184637
9915.000000;0.185670
9914.000000;0.186561
9913.000000;0.187143
9912.000000;0.187478
9911.000000;0.187841
9910.000000;0.188425
9909.000000;0.189172
9908.000000;0.189979
9907.000000;0.190885
9906.000000;0.191920
9905.000000;0.192905
9904.000000;0.193614
9903.000000;0.194090
9902.000000;0.194591
9901.000000;0.195267
9900.000000;0.196058
9899.000000;0.196882
9898.000000;0.197736
9897.000000;0.198588
9896.000000;0.199348
9895.000000;0.199997
9894.000000;0.200594
9893.000000;0.201125
9892.000000;0.201507
9891.000000;0.201789
9890.000000;0.202180
9889.000000;0.202798
9888.000000;0.203542
9887.000000;0.204281
9886.000000;0.205048
9885.000000;0.205941
9884.000000;0.206942
9883.000000;0.207971
9882.000000;0.209000
9881.000000;0.210009
9880.000000;0.210921
9879.000000;0.211717
9878.000000;0.212554
9877.000000;0.213590
9876.000000;0.214721
9875.000000;0.215645
9874.000000;0.216232
9873.000000;0.216703
9872.000000;0.217385
9871.000000;0.218359
9870.000000;0.219421
9869.000000;0.220336
9868.000000;0.221064
9867.000000;0.221725
9866.000000;0.222409
9865.000000;0.223104
9864.000000;0.223782
9863.000000;0.224465
9862.000000;0.225149
9861.000000;0.225746
9860.000000;0.226192
9859.000000;0.226586
9858.000000;0.227107
9857.000000;0.227801
9856.000000;0.228567
9855.000000;0.229347
9854.000000;0.230228
9853.000000;0.231290
9852.000000;0.232464
9851.000000;0.233589
9850.000000;0.234545
9849.000000;0.235297
9848.000000;0.235884
9847.000000;0.236447
9846.000000;0.237155
9845.000000;0.238059
9844.000000;0.239057
9843.000000;0.240044
9842.000000;0.241004
9841.000000;0.241925
9840.000000;0.242737
9839.000000;0.243422
9838.000000;0.244092
9837.000000;0.244856
9836.000000;0.245674
9835.000000;0.246435
9834.000000;0.247119
9833.000000;0.247763
9832.000000;0.248365
9831.000000;0.248932
9830.000000;0.249579
9829.000000;0.250421
9828.000000;0.251400
9827.000000;0.252349
9826.000000;0.253214
9825.000000;0.254070
9824.000000;0.254909
9823.000000;0.255590
9822.000000;0.256072
9821.000000;0.256577
9820.000000;0.257389
9819.000000;0.258530
9818.000000;0.259725
9817.000000;0.260686
9816.000000;0.261382
9815.000000;0.262036
9814.000000;0.262892
9813.000000;0.263999
9812.000000;0.265226
9811.000000;0.266439
9810.000000;0.267607
9809.000000;0.268717
9808.000000;0.269670
9807.000000;0.270352
9806.000000;0.270807
9805.000000;0.271228
9804.000000;0.271766
9803.000000;0.272421
9802.000000;0.273142
9801.000000;0.273962
9800.000000;0.274977
9799.000000;0.276199
9798.000000;0.277458
9797.000000;0.278472
9796.000000;0.279069
9795.000000;0.279402
9794.000000;0.279908
9793.000000;0.280964
9792.000000;0.282518
9791.000000;0.284093
9790.000000;0.285173
9789.000000;0.285620
9788.000000;0.285725
9787.000000;0.285914
9786.000000;0.286410
9785.000000;0.287139
9784.000000;0.287926
9783.000000;0.288731
9782.000000;0.289657
9781.000000;0.290735
9780.000000;0.291808
9779.000000;0.292709
9778.000000;0.293504
9777.000000;0.294409
9776.000000;0.295490
9775.000000;0.296556
9774.000000;0.297415
9773.000000;0.298133
9772.000000;0.298956
9771.000000;0.300013
9770.000000;0.301179
9769.000000;0.302208
9768.000000;0.302956
9767.000000;0.303506
9766.000000;0.304111
9765.000000;0.304996
9764.000000;0.306142
9763.000000;0.307259
9762.000000;0.308028
9761.000000;0.308423
9760.000000;0.308793
9759.000000;0.309569
9758.000000;0.310873
9757.000000;0.312395
9756.000000;0.313675
9755.000000;0.314512
9754.000000;0.315077
9753.000000;0.315686
9752.000000;0.316530
9751.000000;0.317642
9750.000000;0.318946
9749.000000;0.320238
9748.000000;0.321191
9747.000000;0.321587
9746.000000;0.321575
9745.000000;0.321583
9744.000000;0.321956
9743.000000;0.322753
9742.000000;0.323868
9741.000000;0.325175
9740.000000;0.326503
9739.000000;0.327636
9738.000000;0.328489
9737.000000;0.329224
9736.000000;0.330064
9735.000000;0.331077
9734.000000;0.332203
9733.000000;0.333387
9732.000000;0.334546
9731.000000;0.335538
9730.000000;0.336330
9729.000000;0.337162
9728.000000;0.338302
9727.000000;0.339652
9726.000000;0.340825
9725.000000;0.341641
9724.000000;0.342320
9723.000000;0.343096
9722.000000;0.343875
9721.000000;0.344480
9720.000000;0.345049
9719.000000;0.345913
9718.000000;0.347144
9717.000000;0.348426
9716.000000;0.349421
9715.000000;0.350090
9714.000000;0.350653
9713.000000;0.351375
9712.000000;0.352447
9711.000000;0.353904
9710.000000;0.355538
9709.000000;0.356958
9708.000000;0.357843
9707.000000;0.358191
9706.000000;0.358323
9705.000000;0.358638
9704.000000;0.359315
9703.000000;0.360163
9702.000000;0.360810
9701.000000;0.361132
9700.000000;0.361493
9699.000000;0.362425
9698.000000;0.364045
9697.000000;0.365897
9696.000000;0.367395
9695.000000;0.368315
9694.000000;0.368827
9693.000000;0.369217
9692.000000;0.369718
9691.000000;0.370495
9690.000000;0.371566
9689.000000;0.372758
9688.000000;0.373839
9687.000000;0.374740
9686.000000;0.375557
9685.000000;0.376383
9684.000000;0.377235
9683.000000;0.378134
9682.000000;0.379108
9681.000000;0.380098
9680.000000;0.380965
9679.000000;0.381662
9678.000000;0.382315
9677.000000;0.383083
9676.000000;0.383971
9675.000000;0.384847
9674.000000;0.385595
9673.000000;0.386215
9672.000000;0.386793
9671.000000;0.387426
9670.000000;0.388184
9669.000000;0.389109
9668.000000;0.390237
9667.000000;0.391546
9666.000000;0.392872
9665.000000;0.393938
9664.000000;0.394570
9663.000000;0.394872
9662.000000;0.395142
9661.000000;0.395612
9660.000000;0.396341
9659.000000;0.397320
9658.000000;0.398548
9657.000000;0.399975
9656.000000;0.401478
9655.000000;0.402933
9654.000000;0.404240
9653.000000;0.405259
9652.000000;0.405870
9651.000000;0.406194
9650.000000;0.406605
9649.000000;0.407391
9648.000000;0.408446
9647.000000;0.409429
9646.000000;0.410174
9645.000000;0.410773
9644.000000;0.411303
9643.000000;0.411711
9642.000000;0.412058
9641.000000;0.412661
9640.000000;0.413803
9639.000000;0.415292
9638.000000;0.416506
9637.000000;0.416961
9636.000000;0.416801
9635.000000;0.416684
9634.000000;0.417197
9633.000000;0.418395
9632.000000;0.419898
9631.000000;0.421340
9630.000000;0.422648
9629.000000;0.423919
9628.000000;0.425184
9627.000000;0.426371
9626.000000;0.427427
9625.000000;0.428347
9624.000000;0.429110
9623.000000;0.429689
9622.000000;0.430125
9621.000000;0.430531
9620.000000;0.431021
9619.000000;0.431686
9618.000000;0.432581
9617.000000;0.433611
9616.000000;0.434452
9615.000000;0.434784
9614.000000;0.434709
9613.000000;0.434819
9612.000000;0.435689
9611.000000;0.437312
9610.000000;0.439078
9609.000000;0.440305
9608.000000;0.440777
9607.000000;0.440829
9606.000000;0.440995
9605.000000;0.441542
9604.000000;0.442306
9603.000000;0.442948
9602.000000;0.443374
9601.000000;0.443853
9600.000000;0.444691
9599.000000;0.445874
9598.000000;0.447082
9597.000000;0.448010
9596.000000;0.448618
9595.000000;0.449109
9594.000000;0.449746
9593.000000;0.450696
9592.000000;0.451941
9591.000000;0.453288
9590.000000;0.454452
9589.000000;0.455197
9588.000000;0.455474
9587.000000;0.455506
9586.000000;0.455674
9585.000000;0.456188
9584.000000;0.456843
9583.000000;0.457262
9582.000000;0.457419
9581.000000;0.457766
9580.000000;0.458720
9579.000000;0.460168
9578.000000;0.461591
9577.000000;0.462565
9576.000000;0.463007
9575.000000;0.463079
9574.000000;0.463065
9573.000000;0.463310
9572.000000;0.464032
9571.000000;0.465132
9570.000000;0.466289
9569.000000;0.467243
9568.000000;0.467913
9567.000000;0.468320
9566.000000;0.468544
9565.000000;0.468711
9564.000000;0.468865
9563.000000;0.468914
9562.000000;0.468839
9561.000000;0.468881
9560.000000;0.469294
9559.000000;0.469978
9558.000000;0.470632
9557.000000;0.471247
9556.000000;0.472142
9555.000000;0.473419
9554.000000;0.474686
9553.000000;0.475505
9552.000000;0.475944
9551.000000;0.476448
9550.000000;0.477244
9549.000000;0.478070
9548.000000;0.478490
9547.000000;0.478400
9546.000000;0.478198
9545.000000;0.478409
9544.000000;0.479111
9543.000000;0.479841
9542.000000;0.480200
9541.000000;0.480386
9540.000000;0.480869
9539.000000;0.481609
9538.000000;0.482056
9537.000000;0.481994
9536.000000;0.481972
9535.000000;0.482606
9534.000000;0.483777
9533.000000;0.484838
9532.000000;0.485394
9531.000000;0.485525
9530.000000;0.485382
9529.000000;0.484989
9528.000000;0.484490
9527.000000;0.484283
9526.000000;0.484716
9525.000000;0.485715
9524.000000;0.486772
9523.000000;0.487301
9522.000000;0.487089
9521.000000;0.486509
9520.000000;0.486234
9519.000000;0.486683
9518.000000;0.487726
9517.000000;0.488896
9516.000000;0.489763
9515.000000;0.490110
9514.000000;0.490011
9513.000000;0.489855
9512.000000;0.490087
9511.000000;0.490735
9510.000000;0.491344
9509.000000;0.491515
9508.000000;0.491333
9507.000000;0.491107
9506.000000;0.490934
9505.000000;0.490809
9504.000000;0.490924
9503.000000;0.491481
9502.000000;0.492298
9501.000000;0.492948
9500.000000;0.493287
9499.000000;0.493529
9498.000000;0.493813
9497.000000;0.493996
9496.000000;0.493954
9495.000000;0.493811
9494.000000;0.493797
9493.000000;0.494046
9492.000000;0.494541
9491.000000;0.495098
9490.000000;0.495431
9489.000000;0.495473
9488.000000;0.495584
9487.000000;0.496148
9486.000000;0.496950
9485.000000;0.497288
9484.000000;0.496831
9483.000000;0.496074
9482.000000;0.495749
9481.000000;0.496004
9480.000000;0.496369
9479.000000;0.496366
9478.000000;0.495923
9477.000000;0.495285
9476.000000;0.494773
9475.000000;0.494649
9474.000000;0.495041
9473.000000;0.495826
9472.000000;0.496628
9471.000000;0.497023
9470.000000;0.496889
9469.000000;0.496545
9468.000000;0.496440
9467.000000;0.496647
9466.000000;0.496774
9465.000000;0.496457
9464.000000;0.495819
9463.000000;0.495270
9462.000000;0.494976
9461.000000;0.494737
9460.000000;0.494384
9459.000000;0.494065
9458.000000;0.494058
9457.000000;0.494461
9456.000000;0.495091
9455.000000;0.495598
9454.000000;0.495686
9453.000000;0.495378
9452.000000;0.495101
9451.000000;0.495327
9450.000000;0.496042
9449.000000;0.496643
9448.000000;0.496481
9447.000000;0.495495
9446.000000;0.494281
9445.000000;0.493559
9444.000000;0.493559
9443.000000;0.493878
9442.000000;0.493940
9441.000000;0.493610
9440.000000;0.493257
9439.000000;0.493199
9438.000000;0.493273
9437.000000;0.493107
9436.000000;0.492652
9435.000000;0.492206
9434.000000;0.491975
9433.000000;0.491833
9432.000000;0.491551
9431.000000;0.491062
9430.000000;0.490488
9429.000000;0.490060
9428.000000;0.489995
9427.000000;0.490274
9426.000000;0.490534
9425.000000;0.490360
9424.000000;0.489724
9423.000000;0.488997
9422.000000;0.488569
9421.000000;0.488579
9420.000000;0.488926
9419.000000;0.489289
9418.000000;0.489196
9417.000000;0.488404
9416.000000;0.487281
9415.000000;0.486507
9414.000000;0.486325
9413.000000;0.486313
9412.000000;0.485974
9411.000000;0.485282
9410.000000;0.484502
9409.000000;0.483764
9408.000000;0.483057
9407.000000;0.482459
9406.000000;0.482091
9405.000000;0.481910
9404.000000;0.481735
9403.000000;0.481455
9402.000000;0.481064
9401.000000;0.480600
9400.000000;0.480159
9399.000000;0.479875
9398.000000;0.479722
9397.000000;0.479424
9396.000000;0.478768
9395.000000;0.477947
9394.000000;0.477416
9393.000000;0.477394
9392.000000;0.477637
9391.000000;0.477713
9390.000000;0.477413
9389.000000;0.476848
9388.000000;0.476260
9387.000000;0.475808
9386.000000;0.475478
9385.000000;0.475143
9384.000000;0.474735
9383.000000;0.474367
9382.000000;0.474262
9381.000000;0.474490
9380.000000;0.474767
9379.000000;0.474583
9378.000000;0.473624
9377.000000;0.472091
9376.000000;0.470556
9375.000000;0.469474
9374.000000;0.468880
9373.000000;0.468563
9372.000000;0.468386
9371.000000;0.468321
9370.000000;0.468249
9369.000000;0.467950
9368.000000;0.467366
9367.000000;0.466718
9366.000000;0.466255
9365.000000;0.465929
9364.000000;0.465417
9363.000000;0.464501
9362.000000;0.463354
9361.000000;0.462426
9360.000000;0.462042
9359.000000;0.462157
9358.000000;0.462473
9357.000000;0.462714
9356.000000;0.462714
9355.000000;0.462359
9354.000000;0.461657
9353.000000;0.460868
9352.000000;0.460346
9351.000000;0.460117
9350.000000;0.459784
9349.000000;0.458969
9348.000000;0.457750
9347.000000;0.456547
9346.000000;0.455676
9345.000000;0.455115
9344.000000;0.454588
9343.000000;0.453749
9342.000000;0.452470
9341.000000;0.451089
9340.000000;0.450224
9339.000000;0.450137
9338.000000;0.450408
9337.000000;0.450399
9336.000000;0.449898
9335.000000;0.449103
9334.000000;0.448202
9333.000000;0.447311
9332.000000;0.446663
9331.000000;0.446424
9330.000000;0.446364
9329.000000;0.446048
9328.000000;0.445339
9327.000000;0.444403
9326.000000;0.443297
9325.000000;0.442018
9324.000000;0.440923
9323.000000;0.440559
9322.000000;0.440882
9321.000000;0.441140
9320.000000;0.440776
9319.000000;0.440090
9318.000000;0.439688
9317.000000;0.439651
9316.000000;0.439630
9315.000000;0.439447
9314.000000;0.439179
9313.000000;0.438806
9312.000000;0.438204
9311.000000;0.437428
9310.000000;0.436657
9309.000000;0.435896
9308.000000;0.435027
9307.000000;0.434125
9306.000000;0.433397
9305.000000;0.432786
9304.000000;0.431947
9303.000000;0.430733
9302.000000;0.429483
9301.000000;0.428702
9300.000000;0.428566
9299.000000;0.428820
9298.000000;0.429028
9297.000000;0.428850
9296.000000;0.428160
9295.000000;0.427049
9294.000000;0.425741
9293.000000;0.424505
9292.000000;0.423574
9291.000000;0.423066
9290.000000;0.422895
9289.000000;0.422791
9288.000000;0.422453
9287.000000;0.421713
9286.000000;0.420594
9285.000000;0.419309
9284.000000;0.418185
9283.000000;0.417445
9282.000000;0.416980
9281.000000;0.416471
9280.000000;0.415788
9279.000000;0.415145
9278.000000;0.414771
9277.000000;0.414566
9276.000000;0.414232
9275.000000;0.413659
9274.000000;0.413011
9273.000000;0.412471
9272.000000;0.412047
9271.000000;0.411604
9270.000000;0.410970
9269.000000;0.410023
9268.000000;0.408804
9267.000000;0.407568
9266.000000;0.406615
9265.000000;0.406027
9264.000000;0.405597
9263.000000;0.405023
9262.000000;0.404163
9261.000000;0.403125
9260.000000;0.402148
9259.000000;0.401405
9258.000000;0.400896
9257.000000;0.400526
9256.000000;0.400224
9255.000000;0.399917
9254.000000;0.399453
9253.000000;0.398747
9252.000000;0.398002
9251.000000;0.397569
9250.000000;0.397482
9249.000000;0.397293
9248.000000;0.396529
9247.000000;0.395231
9246.000000;0.393905
9245.000000;0.393000
9244.000000;0.392565
9243.000000;0.392301
9242.000000;0.391834
9241.000000;0.391002
9240.000000;0.390005
9239.000000;0.389249
9238.000000;0.388933
9237.000000;0.388861
9236.000000;0.388708
9235.000000;0.388356
9234.000000;0.387879
9233.000000;0.387332
9232.000000;0.386736
9231.000000;0.386190
9230.000000;0.385771
9229.000000;0.385340
9228.000000;0.384637
9227.000000;0.383601
9226.000000;0.382471
9225.000000;0.381543
9224.000000;0.380951
9223.000000;0.380669
9222.000000;0.380595
9221.000000;0.380571
9220.000000;0.380406
9219.000000;0.379940
9218.000000;0.379081
9217.000000;0.377865
9216.000000;0.376517
9215.000000;0.375365
9214.000000;0.374578
9213.000000;0.374045
9212.000000;0.373602
9211.000000;0.373249
9210.000000;0.373011
9209.000000;0.372668
9208.000000;0.371886
9207.000000;0.370632
9206.000000;0.369256
9205.000000;0.368148
9204.000000;0.367462
9203.000000;0.367156
9202.000000;0.367067
9201.000000;0.366880
9200.000000;0.366278
9199.000000;0.365314
9198.000000;0.364474
9197.000000;0.364161
9196.000000;0.364179
9195.000000;0.363936
9194.000000;0.363162
9193.000000;0.362252
9192.000000;0.361818
9191.000000;0.361996
9190.000000;0.362293
9189.000000;0.362079
9188.000000;0.361131
9187.000000;0.359692
9186.000000;0.358153
9185.000000;0.356829
9184.000000;0.355945
9183.000000;0.355615
9182.000000;0.355705
9181.000000;0.355847
9180.000000;0.355735
9179.000000;0.355391
9178.000000;0.355036
9177.000000;0.354750
9176.000000;0.354368
9175.000000;0.353697
9174.000000;0.352731
9173.000000;0.351656
9172.000000;0.350710
9171.000000;0.350002
9170.000000;0.349419
9169.000000;0.348733
9168.000000;0.347905
9167.000000;0.347217
9166.000000;0.346984
9165.000000;0.347157
9164.000000;0.347304
9163.000000;0.347002
9162.000000;0.346153
9161.000000;0.344952
9160.000000;0.343646
9159.000000;0.342387
9158.000000;0.341243
9157.000000;0.340308
9156.000000;0.339754
9155.000000;0.339674
9154.000000;0.339848
9153.000000;0.339824
9152.000000;0.339377
9151.000000;0.338783
9150.000000;0.338452
9149.000000;0.338369
9148.000000;0.338100
9147.000000;0.337341
9146.000000;0.336243
9145.000000;0.335179
9144.000000;0.334395
9143.000000;0.333943
9142.000000;0.333758
9141.000000;0.333691
9140.000000;0.333551
9139.000000;0.333213
9138.000000;0.332649
9137.000000;0.331889
9136.000000;0.331034
9135.000000;0.330263
9134.000000;0.329683
9133.000000;0.329171
9132.000000;0.328527
9131.000000;0.327787
9130.000000;0.327216
9129.000000;0.326961
9128.000000;0.326896
9127.000000;0.326812
9126.000000;0.326562
9125.000000;0.326015
9124.000000;0.325125
9123.000000;0.324136
9122.000000;0.323462
9121.000000;0.323202
9120.000000;0.322960
9119.000000;0.322333
9118.000000;0.321390
9117.000000;0.320485
9116.000000;0.319782
9115.000000;0.319197
9114.000000;0.318672
9113.000000;0.318245
9112.000000;0.317900
9111.000000;0.317579
9110.000000;0.317319
9109.000000;0.317187
9108.000000;0.317082
9107.000000;0.316765
9106.000000;0.316113
9105.000000;0.315210
9104.000000;0.314234
9103.000000;0.313368
9102.000000;0.312753
9101.000000;0.312377
9100.000000;0.312017
9099.000000;0.311474
9098.000000;0.310826
9097.000000;0.310296
9096.000000;0.309883
9095.000000;0.309348
9094.000000;0.308576
9093.000000;0.307782
9092.000000;0.307258
9091.000000;0.307054
9090.000000;0.306978
9089.000000;0.306795
9088.000000;0.306365
9087.000000;0.305678
9086.000000;0.304854
9085.000000;0.304073
9084.000000;0.303464
9083.000000;0.303053
9082.000000;0.302781
9081.000000;0.302523
9080.000000;0.302137
9079.000000;0.301613
9078.000000;0.301118
9077.000000;0.300794
9076.000000;0.300536
9075.000000;0.300123
9074.000000;0.299546
9073.000000;0.299018
9072.000000;0.298629
9071.000000;0.298193
9070.000000;0.297547
9069.000000;0.296817
9068.000000;0.296253
9067.000000;0.295875
9066.000000;0.295465
9065.000000;0.294892
9064.000000;0.294316
9063.000000;0.294034
9062.000000;0.294168
9061.000000;0.294502
9060.000000;0.294619
9059.000000;0.294223
9058.000000;0.293361
9057.000000;0.292319
9056.000000;0.291353
9055.000000;0.290564
9054.000000;0.289974
9053.000000;0.289587
9052.000000;0.289351
9051.000000;0.289169
9050.000000;0.288990
9049.000000;0.288783
9048.000000;0.288431
9047.000000;0.287796
9046.000000;0.286953
9045.000000;0.286211
9044.000000;0.285789
9043.000000;0.285581
9042.000000;0.285351
9041.000000;0.285048
9040.000000;0.284787
9039.000000;0.284596
9038.000000;0.284343
9037.000000;0.283895
9036.000000;0.283241
9035.000000;0.282480
9034.000000;0.281780
9033.000000;0.281328
9032.000000;0.281171
9031.000000;0.281116
9030.000000;0.280886
9029.000000;0.280370
9028.000000;0.279695
9027.000000;0.279055
9026.000000;0.278588
9025.000000;0.278341
9024.000000;0.278201
9023.000000;0.277883
9022.000000;0.277171
9021.000000;0.276216
9020.000000;0.275442
9019.000000;0.275074
9018.000000;0.274918
9017.000000;0.274675
9016.000000;0.274323
9015.000000;0.274059
9014.000000;0.273957
9013.000000;0.273880
9012.000000;0.273693
9011.000000;0.273390
9010.000000;0.272984
9009.000000;0.272432
9008.000000;0.271741
9007.000000;0.271059
9006.000000;0.270554
9005.000000;0.270243
9004.000000;0.269992
9003.000000;0.269662
9002.000000;0.269222
9001.000000;0.268739
9000.000000;0.268296
8999.000000;0.267937
8998.000000;0.267660
8997.000000;0.267463
8996.000000;0.267376
8995.000000;0.267392
8994.000000;0.267377
8993.000000;0.267126
8992.000000;0.266583
8991.000000;0.265953
8990.000000;0.265496
8989.000000;0.265212
8988.000000;0.264835
8987.000000;0.264165
8986.000000;0.263333
8985.000000;0.262675
8984.000000;0.262372
8983.000000;0.262280
8982.000000;0.262099
8981.000000;0.261672
8980.000000;0.261112
8979.000000;0.260673
8978.000000;0.260487
8977.000000;0.260433
8976.000000;0.260289
8975.000000;0.259985
8974.000000;0.259646
8973.000000;0.259374
8972.000000;0.259088
8971.000000;0.258669
8970.000000;0.258170
8969.000000;0.257773
8968.000000;0.257560
8967.000000;0.257448
8966.000000;0.257355
8965.000000;0.257291
8964.000000;0.257221
8963.000000;0.256978
8962.000000;0.256416
8961.000000;0.255620
8960.000000;0.254875
8959.000000;0.254416
8958.000000;0.254257
8957.000000;0.254221
8956.000000;0.254096
8955.000000;0.253778
8954.000000;0.253322
8953.000000;0.252860
8952.000000;0.252464
8951.000000;0.252101
8950.000000;0.251741
8949.000000;0.251436
8948.000000;0.251237
8947.000000;0.251075
8946.000000;0.250800
8945.000000;0.250368
8944.000000;0.249913
8943.000000;0.249600
8942.000000;0.249448
8941.000000;0.249319
8940.000000;0.249068
8939.000000;0.248683
8938.000000;0.248269
8937.000000;0.247923
8936.000000;0.247660
8935.000000;0.247458
8934.000000;0.247321
8933.000000;0.247242
8932.000000;0.247130
8931.000000;0.246860
8930.000000;0.246417
8929.000000;0.245915
8928.000000;0.245468
8927.000000;0.245093
8926.000000;0.244764
8925.000000;0.244485
8924.000000;0.244248
8923.000000;0.244009
8922.000000;0.243754
8921.000000;0.243555
8920.000000;0.243460
8919.000000;0.243364
8918.000000;0.243072
8917.000000;0.242505
8916.000000;0.241798
8915.000000;0.241231
8914.000000;0.241046
8913.000000;0.241284
8912.000000;0.241709
8911.000000;0.241931
8910.000000;0.241715
8909.000000;0.241145
8908.000000;0.240463
8907.000000;0.239801
8906.000000;0.239178
8905.000000;0.238674
8904.000000;0.238430
8903.000000;0.238445
8902.000000;0.238517
8901.000000;0.238450
8900.000000;0.238231
8899.000000;0.237943
8898.000000;0.237602
8897.000000;0.237171
8896.000000;0.236661
8895.000000;0.236130
8894.000000;0.235603
8893.000000;0.235052
8892.000000;0.234473
8891.000000;0.233927
8890.000000;0.233537
8889.000000;0.233430
8888.000000;0.233643
8887.000000;0.234053
8886.000000;0.234414
8885.000000;0.234510
8884.000000;0.234274
8883.000000;0.233792
8882.000000;0.233233
8881.000000;0.232751
8880.000000;0.232369
8879.000000;0.231938
8878.000000;0.231296
8877.000000;0.230490
8876.000000;0.229775
8875.000000;0.229367
8874.000000;0.229271
8873.000000;0.229350
8872.000000;0.229485
8871.000000;0.229600
8870.000000;0.229648
8869.000000;0.229666
8868.000000;0.229773
8867.000000;0.230002
8866.000000;0.230171
8865.000000;0.230036
8864.000000;0.229550
8863.000000;0.228896
8862.000000;0.228277
8861.000000;0.227768
8860.000000;0.227367
8859.000000;0.227081
8858.000000;0.226907
8857.000000;0.226785
8856.000000;0.226627
8855.000000;0.226381
8854.000000;0.226093
8853.000000;0.225878
8852.000000;0.225831
8851.000000;0.225911
8850.000000;0.225943
8849.000000;0.225773
8848.000000;0.225391
8847.000000;0.224901
8846.000000;0.224404
8845.000000;0.223983
8844.000000;0.223724
8843.000000;0.223649
8842.000000;0.223635
8841.000000;0.223504
8840.000000;0.223210
8839.000000;0.222864
8838.000000;0.222577
8837.000000;0.222342
8836.000000;0.222086
8835.000000;0.221765
8834.000000;0.221386
8833.000000;0.220976
8832.000000;0.220562
8831.000000;0.220150
8830.000000;0.219737
8829.000000;0.219368
8828.000000;0.219147
8827.000000;0.219120
8826.000000;0.219182
8825.000000;0.219204
8824.000000;0.219234
8823.000000;0.219423
8822.000000;0.219740
8821.000000;0.219896
8820.000000;0.219663
8819.000000;0.219145
8818.000000;0.218642
8817.000000;0.218325
8816.000000;0.218170
8815.000000;0.218147
8814.000000;0.218290
8813.000000;0.218574
8812.000000;0.218850
8811.000000;0.218951
8810.000000;0.218801
8809.000000;0.218392
8808.000000;0.217736
8807.000000;0.216925
8806.000000;0.216179
8805.000000;0.215747
8804.000000;0.215714
8803.000000;0.215905
8802.000000;0.215999
8801.000000;0.215761
8800.000000;0.215189
8799.000000;0.214468
8798.000000;0.213804
8797.000000;0.213332
8796.000000;0.213119
8795.000000;0.213174
8794.000000;0.213402
8793.000000;0.213616
8792.000000;0.213663
8791.000000;0.213516
8790.000000;0.213227
8789.000000;0.212840
8788.000000;0.212408
8787.000000;0.212048
8786.000000;0.211872
8785.000000;0.211868
8784.000000;0.211914
8783.000000;0.211930
8782.000000;0.211939
8781.000000;0.211953
8780.000000;0.211892
8779.000000;0.211658
8778.000000;0.211270
8777.000000;0.210855
8776.000000;0.210526
8775.000000;0.210273
8774.000000;0.209996
8773.000000;0.209647
8772.000000;0.209331
8771.000000;0.209238
8770.000000;0.209433
8769.000000;0.209748
8768.000000;0.209910
8767.000000;0.209776
8766.000000;0.209405
8765.000000;0.208949
8764.000000;0.208549
8763.000000;0.208314
8762.000000;0.208276
8761.000000;0.208303
8760.000000;0.208172
8759.000000;0.207805
8758.000000;0.207383
8757.000000;0.207157
8756.000000;0.207173
8755.000000;0.207264
8754.000000;0.207242
8753.000000;0.207036
8752.000000;0.206679
8751.000000;0.206269
8750.000000;0.205930
8749.000000;0.205719
8748.000000;0.205541
8747.000000;0.205232
8746.000000;0.204773
8745.000000;0.204339
8744.000000;0.204109
8743.000000;0.204091
8742.000000;0.204188
8741.000000;0.204354
8740.000000;0.204583
8739.000000;0.204789
8738.000000;0.204818
8737.000000;0.204632
8736.000000;0.204377
8735.000000;0.204218
8734.000000;0.204143
8733.000000;0.203999
8732.000000;0.203712
8731.000000;0.203414
8730.000000;0.203292
8729.000000;0.203362
8728.000000;0.203430
8727.000000;0.203292
8726.000000;0.202948
8725.000000;0.202601
8724.000000;0.202445
8723.000000;0.202476
8722.000000;0.202501
8721.000000;0.202314
8720.000000;0.201878
8719.000000;0.201337
8718.000000;0.200916
8717.000000;0.200771
8716.000000;0.200914
8715.000000;0.201196
8714.000000;0.201373
8713.000000;0.201246
8712.000000;0.200791
8711.000000;0.200190
8710.000000;0.199707
8709.000000;0.199509
8708.000000;0.199584
8707.000000;0.199793
8706.000000;0.199985
8705.000000;0.200074
8704.000000;0.200049
8703.000000;0.199937
8702.000000;0.199753
8701.000000;0.199505
8700.000000;0.199216
8699.000000;0.198943
8698.000000;0.198732
8697.000000;0.198555
8696.000000;0.198318
8695.000000;0.197958
8694.000000;0.197530
8693.000000;0.197197
8692.000000;0.197115
8691.000000;0.197302
8690.000000;0.197592
8689.000000;0.197758
8688.000000;0.197701
8687.000000;0.197524
8686.000000;0.197370
8685.000000;0.197223
8684.000000;0.196959
8683.000000;0.196588
8682.000000;0.196313
8681.000000;0.196276
8680.000000;0.196354
8679.000000;0.196322
8678.000000;0.196154
8677.000000;0.196011
8676.000000;0.195950
8675.000000;0.195821
8674.000000;0.195519
8673.000000;0.195171
8672.000000;0.194959
8671.000000;0.194837
8670.000000;0.194574
8669.000000;0.194065
8668.000000;0.193495
8667.000000;0.193164
8666.000000;0.193226
8665.000000;0.193611
8664.000000;0.194136
8663.000000;0.194622
8662.000000;0.194946
8661.000000;0.195034
8660.000000;0.194886
8659.000000;0.194598
8658.000000;0.194323
8657.000000;0.194162
8656.000000;0.194076
8655.000000;0.193952
8654.000000;0.193726
8653.000000;0.193411
8652.000000;0.193016
8651.000000;0.192537
8650.000000;0.192048
8649.000000;0.191710
8648.000000;0.191604
8647.000000;0.191621
8646.000000;0.191573
8645.000000;0.191379
8644.000000;0.191092
8643.000000;0.190802
8642.000000;0.190610
8641.000000;0.190627
8640.000000;0.190875
8639.000000;0.191201
8638.000000;0.191387
8637.000000;0.191362
8636.000000;0.191201
8635.000000;0.190974
8634.000000;0.190691
8633.000000;0.190419
8632.000000;0.190291
8631.000000;0.190337
8630.000000;0.190417
8629.000000;0.190361
8628.000000;0.190125
8627.000000;0.189786
8626.000000;0.189478
8625.000000;0.189364
8624.000000;0.189538
8623.000000;0.189874
8622.000000;0.190080
8621.000000;0.189999
8620.000000;0.189759
8619.000000;0.189550
8618.000000;0.189352
8617.000000;0.189022
8616.000000;0.188561
8615.000000;0.188151
8614.000000;0.187927
8613.000000;0.187872
8612.000000;0.187901
8611.000000;0.187934
8610.000000;0.187881
8609.000000;0.187678
8608.000000;0.187391
8607.000000;0.187167
8606.000000;0.187068
8605.000000;0.187026
8604.000000;0.186987
8603.000000;0.186979
8602.000000;0.187018
8601.000000;0.187032
8600.000000;0.186960
8599.000000;0.186835
8598.000000;0.186726
8597.000000;0.186629
8596.000000;0.186510
8595.000000;0.186373
8594.000000;0.186243
8593.000000;0.186102
8592.000000;0.185909
8591.000000;0.185659
8590.000000;0.185397
8589.000000;0.185205
8588.000000;0.185184
8587.000000;0.185406
8586.000000;0.185823
8585.000000;0.186237
8584.000000;0.186435
8583.000000;0.186347
8582.000000;0.186073
8581.000000;0.185772
8580.000000;0.185560
8579.000000;0.185464
8578.000000;0.185414
8577.000000;0.185290
8576.000000;0.185015
8575.000000;0.184628
8574.000000;0.184247
8573.000000;0.183967
8572.000000;0.183802
8571.000000;0.183716
8570.000000;0.183671
8569.000000;0.183645
8568.000000;0.183628
8567.000000;0.183609
8566.000000;0.183577
8565.000000;0.183538
8564.000000;0.183518
8563.000000;0.183514
8562.000000;0.183448
8561.000000;0.183237
8560.000000;0.182923
8559.000000;0.182701
8558.000000;0.182740
8557.000000;0.182981
8556.000000;0.183139
8555.000000;0.182941
8554.000000;0.182377
8553.000000;0.181724
8552.000000;0.181317
8551.000000;0.181261
8550.000000;0.181372
8549.000000;0.181415
8548.000000;0.181365
8547.000000;0.181376
8546.000000;0.181503
8545.000000;0.181590
8544.000000;0.181485
8543.000000;0.181286
8542.000000;0.181239
8541.000000;0.181428
8540.000000;0.181667
8539.000000;0.181741
8538.000000;0.181629
8537.000000;0.181463
8536.000000;0.181310
8535.000000;0.181088
8534.000000;0.180693
8533.000000;0.180165
8532.000000;0.179695
8531.000000;0.179487
8530.000000;0.179580
8529.000000;0.179819
8528.000000;0.180003
8527.000000;0.180060
8526.000000;0.180069
8525.000000;0.180124
8524.000000;0.180197
8523.000000;0.180159
8522.000000;0.179922
8521.000000;0.179544
8520.000000;0.179188
8519.000000;0.178990
8518.000000;0.178967
8517.000000;0.179033
8516.000000;0.179077
8515.000000;0.179023
8514.000000;0.178855
8513.000000;0.178629
8512.000000;0.178440
8511.000000;0.178340
8510.000000;0.178280
8509.000000;0.178170
8508.000000;0.178008
8507.000000;0.177910
8506.000000;0.177986
8505.000000;0.178224
8504.000000;0.178494
8503.000000;0.178656
8502.000000;0.178619
8501.000000;0.178368
8500.000000;0.177968
8499.000000;0.177540
8498.000000;0.177196
8497.000000;0.176966
8496.000000;0.176807
8495.000000;0.176667
8494.000000;0.176527
8493.000000;0.176391
8492.000000;0.176277
8491.000000;0.176217
8490.000000;0.176227
8489.000000;0.176273
8488.000000;0.176288
8487.000000;0.176226
8486.000000;0.176082
8485.000000;0.175886
8484.000000;0.175705
8483.000000;0.175645
8482.000000;0.175781
8481.000000;0.176055
8480.000000;0.176253
8479.000000;0.176153
8478.000000;0.175722
8477.000000;0.175165
8476.000000;0.174758
8475.000000;0.174618
8474.000000;0.174634
8473.000000;0.174624
8472.000000;0.174537
8471.000000;0.174489
8470.000000;0.174595
8469.000000;0.174816
8468.000000;0.174994
8467.000000;0.175006
8466.000000;0.174849
8465.000000;0.174606
8464.000000;0.174365
8463.000000;0.174187
8462.000000;0.174092
8461.000000;0.174047
8460.000000;0.173980
8459.000000;0.173830
8458.000000;0.173590
8457.000000;0.173313
8456.000000;0.173058
8455.000000;0.172854
8454.000000;0.172690
8453.000000;0.172573
8452.000000;0.172541
8451.000000;0.172600
8450.000000;0.172636
8449.000000;0.172488
8448.000000;0.172146
8447.000000;0.171828
8446.000000;0.171765
8445.000000;0.171926
8444.000000;0.172037
8443.000000;0.171883
8442.000000;0.171523
8441.000000;0.171184
8440.000000;0.171002
8439.000000;0.170939
8438.000000;0.170890
8437.000000;0.170813
8436.000000;0.170748
8435.000000;0.170768
8434.000000;0.170895
8433.000000;0.171054
8432.000000;0.171090
8431.000000;0.170883
8430.000000;0.170444
8429.000000;0.169920
8428.000000;0.169502
8427.000000;0.169337
8426.000000;0.169467
8425.000000;0.169788
8424.000000;0.170086
8423.000000;0.170197
8422.000000;0.170128
8421.000000;0.170007
8420.000000;0.169911
8419.000000;0.169810
8418.000000;0.169659
8417.000000;0.169456
8416.000000;0.169199
8415.000000;0.168873
8414.000000;0.168549
8413.000000;0.168387
8412.000000;0.168460
8411.000000;0.168623
8410.000000;0.168665
8409.000000;0.168576
8408.000000;0.168521
8407.000000;0.168563
8406.000000;0.168554
8405.000000;0.168358
8404.000000;0.168062
8403.000000;0.167850
8402.000000;0.167749
8401.000000;0.167618
8400.000000;0.167364
8399.000000;0.167064
8398.000000;0.166858
8397.000000;0.166813
8396.000000;0.166895
8395.000000;0.167019
8394.000000;0.167076
8393.000000;0.166978
8392.000000;0.166724
8391.000000;0.166407
8390.000000;0.166129
8389.000000;0.165915
8388.000000;0.165724
8387.000000;0.165535
8386.000000;0.165383
8385.000000;0.165315
8384.000000;0.165326
8383.000000;0.165358
8382.000000;0.165364
8381.000000;0.165344
8380.000000;0.165288
8379.000000;0.165119
8378.000000;0.164769
8377.000000;0.164321
8376.000000;0.163998
8375.000000;0.163948
8374.000000;0.164100
8373.000000;0.164270
8372.000000;0.164370
8371.000000;0.164420
8370.000000;0.164406
8369.000000;0.164257
8368.000000;0.163992
8367.000000;0.163757
8366.000000;0.163668
8365.000000;0.163673
8364.000000;0.163625
8363.000000;0.163441
8362.000000;0.163145
8361.000000;0.162800
8360.000000;0.162461
8359.000000;0.162182
8358.000000;0.162011
8357.000000;0.161961
8356.000000;0.162012
8355.000000;0.162117
8354.000000;0.162210
8353.000000;0.162219
8352.000000;0.162123
8351.000000;0.161970
8350.000000;0.161833
8349.000000;0.161734
8348.000000;0.161642
8347.000000;0.161536
8346.000000;0.161455
8345.000000;0.161472
8344.000000;0.161588
8343.000000;0.161677
8342.000000;0.161566
8341.000000;0.161196
8340.000000;0.160697
8339.000000;0.160282
8338.000000;0.160078
8337.000000;0.160076
8336.000000;0.160196
8335.000000;0.160339
8334.000000;0.160403
8333.000000;0.160303
8332.000000;0.160032
8331.000000;0.159650
8330.000000;0.159236
8329.000000;0.158858
8328.000000;0.158570
8327.000000;0.158400
8326.000000;0.158326
8325.000000;0.158309
8324.000000;0.158314
8323.000000;0.158296
8322.000000;0.158191
8321.000000;0.157986
8320.000000;0.157785
8319.000000;0.157721
8318.000000;0.157814
8317.000000;0.157976
8316.000000;0.158107
8315.000000;0.158129
8314.000000;0.157960
8313.000000;0.157593
8312.000000;0.157191
8311.000000;0.156958
8310.000000;0.156897
8309.000000;0.156806
8308.000000;0.156567
8307.000000;0.156289
8306.000000;0.156108
8305.000000;0.155984
8304.000000;0.155796
8303.000000;0.155559
8302.000000;0.155396
8301.000000;0.155370
8300.000000;0.155439
8299.000000;0.155554
8298.000000;0.155677
8297.000000;0.155739
8296.000000;0.155679
8295.000000;0.155515
8294.000000;0.155325
8293.000000;0.155146
8292.000000;0.154962
8291.000000;0.154762
8290.000000;0.154549
8289.000000;0.154343
8288.000000;0.154191
8287.000000;0.154138
8286.000000;0.154120
8285.000000;0.153963
8284.000000;0.153589
8283.000000;0.153158
8282.000000;0.152898
8281.000000;0.152837
8280.000000;0.152811
8279.000000;0.152716
8278.000000;0.152616
8277.000000;0.152601
8276.000000;0.152669
8275.000000;0.152743
8274.000000;0.152742
8273.000000;0.152595
8272.000000;0.152287
8271.000000;0.151919
8270.000000;0.151622
8269.000000;0.151396
8268.000000;0.151112
8267.000000;0.150720
8266.000000;0.150355
8265.000000;0.150195
8264.000000;0.150257
8263.000000;0.150416
8262.000000;0.150553
8261.000000;0.150634
8260.000000;0.150638
8259.000000;0.150518
8258.000000;0.150248
8257.000000;0.149891
8256.000000;0.149586
8255.000000;0.149418
8254.000000;0.149329
8253.000000;0.149188
8252.000000;0.148971
8251.000000;0.148812
8250.000000;0.148829
8249.000000;0.148955
8248.000000;0.149002
8247.000000;0.148875
8246.000000;0.148637
8245.000000;0.148398
8244.000000;0.148197
8243.000000;0.148010
8242.000000;0.147766
8241.000000;0.147396
8240.000000;0.146925
8239.000000;0.146524
8238.000000;0.146378
8237.000000;0.146478
8236.000000;0.146624
8235.000000;0.146637
8234.000000;0.146494
8233.000000;0.146263
8232.000000;0.146003
8231.000000;0.145783
8230.000000;0.145683
8229.000000;0.145706
8228.000000;0.145733
8227.000000;0.145625
8226.000000;0.145336
8225.000000;0.144915
8224.000000;0.144452
8223.000000;0.144065
8222.000000;0.143865
8221.000000;0.143856
8220.000000;0.143896
8219.000000;0.143832
8218.000000;0.143653
8217.000000;0.143463
8216.000000;0.143340
8215.000000;0.143261
8214.000000;0.143155
8213.000000;0.142969
8212.000000;0.142705
8211.000000;0.142406
8210.000000;0.142133
8209.000000;0.141918
8208.000000;0.141763
8207.000000;0.141671
8206.000000;0.141635
8205.000000;0.141591
8204.000000;0.141447
8203.000000;0.141188
8202.000000;0.140931
8201.000000;0.140806
8200.000000;0.140814
8199.000000;0.140823
8198.000000;0.140698
8197.000000;0.140422
8196.000000;0.140103
8195.000000;0.139886
8194.000000;0.139824
8193.000000;0.139812
8192.000000;0.139697
8191.000000;0.139465
8190.000000;0.139274
8189.000000;0.139241
8188.000000;0.139286
8187.000000;0.139219
8186.000000;0.138950
8185.000000;0.138544
8184.000000;0.138098
8183.000000;0.137681
8182.000000;0.137352
8181.000000;0.137147
8180.000000;0.137030
8179.000000;0.136920
8178.000000;0.136791
8177.000000;0.136673
8176.000000;0.136553
8175.000000;0.136379
8174.000000;0.136157
8173.000000;0.135977
8172.000000;0.135876
8171.000000;0.135751
8170.000000;0.135484
8169.000000;0.135102
8168.000000;0.134747
8167.000000;0.134530
8166.000000;0.134473
8165.000000;0.134561
8164.000000;0.134742
8163.000000;0.134889
8162.000000;0.134857
8161.000000;0.134606
8160.000000;0.134226
8159.000000;0.133827
8158.000000;0.133466
8157.000000;0.133191
8156.000000;0.133061
8155.000000;0.133063
8154.000000;0.133064
8153.000000;0.132927
8152.000000;0.132641
8151.000000;0.132309
8150.000000;0.132012
8149.000000;0.131775
8148.000000;0.131611
8147.000000;0.131518
8146.000000;0.131421
8145.000000;0.131217
8144.000000;0.130896
8143.000000;0.130580
8142.000000;0.130376
8141.000000;0.130264
8140.000000;0.130140
8139.000000;0.129946
8138.000000;0.129699
8137.000000;0.129444
8136.000000;0.129229
8135.000000;0.129086
8134.000000;0.128983
8133.000000;0.128815
8132.000000;0.128510
8131.000000;0.128144
8130.000000;0.127878
8129.000000;0.127783
8128.000000;0.127772
8127.000000;0.127731
8126.000000;0.127646
8125.000000;0.127555
8124.000000;0.127448
8123.000000;0.127262
8122.000000;0.126989
8121.000000;0.126701
8120.000000;0.126462
8119.000000;0.126265
8118.000000;0.126070
8117.000000;0.125880
8116.000000;0.125727
8115.000000;0.125600
8114.000000;0.125418
8113.000000;0.125091
8112.000000;0.124603
8111.000000;0.124041
8110.000000;0.123569
8109.000000;0.123335
8108.000000;0.123368
8107.000000;0.123530
8106.000000;0.123601
8105.000000;0.123446
8104.000000;0.123108
8103.000000;0.122726
8102.000000;0.122402
8101.000000;0.122152
8100.000000;0.121953
8099.000000;0.121795
8098.000000;0.121681
8097.000000;0.121606
8096.000000;0.121538
8095.000000;0.121404
8094.000000;0.121139
8093.000000;0.120761
8092.000000;0.120384
8091.000000;0.120102
8090.000000;0.119905
8089.000000;0.119736
8088.000000;0.119585
8087.000000;0.119469
8086.000000;0.119347
8085.000000;0.119127
8084.000000;0.118787
8083.000000;0.118399
8082.000000;0.118035
8081.000000;0.117712
8080.000000;0.117444
8079.000000;0.117257
8078.000000;0.117138
8077.000000;0.117027
8076.000000;0.116894
8075.000000;0.116755
8074.000000;0.116586
8073.000000;0.116312
8072.000000;0.115933
8071.000000;0.115594
8070.000000;0.115442
8069.000000;0.115470
8068.000000;0.115550
8067.000000;0.115569
8066.000000;0.115459
8065.000000;0.115163
8064.000000;0.114674
8063.000000;0.114098
8062.000000;0.113578
8061.000000;0.113163
8060.000000;0.112816
8059.000000;0.112543
8058.000000;0.112422
8057.000000;0.112468
8056.000000;0.112533
8055.000000;0.112414
8054.000000;0.112036
8053.000000;0.111512
8052.000000;0.111036
8051.000000;0.110715
8050.000000;0.110525
8049.000000;0.110381
8048.000000;0.110263
8047.000000;0.110205
8046.000000;0.110188
8045.000000;0.110118
8044.000000;0.109942
8043.000000;0.109748
8042.000000;0.109662
8041.000000;0.109674
8040.000000;0.109638
8039.000000;0.109443
8038.000000;0.109116
8037.000000;0.108761
8036.000000;0.108451
8035.000000;0.108206
8034.000000;0.108016
8033.000000;0.107852
8032.000000;0.107680
8031.000000;0.107472
8030.000000;0.107192
8029.000000;0.106792
8028.000000;0.106271
8027.000000;0.105731
8026.000000;0.105318
8025.000000;0.105097
8024.000000;0.104998
8023.000000;0.104905
8022.000000;0.104755
8021.000000;0.104538
8020.000000;0.104265
8019.000000;0.103962
8018.000000;0.103680
8017.000000;0.103464
8016.000000;0.103313
8015.000000;0.103199
8014.000000;0.103107
8013.000000;0.103043
8012.000000;0.102988
8011.000000;0.102871
8010.000000;0.102617
8009.000000;0.102231
8008.000000;0.101810
8007.000000;0.101441
8006.000000;0.101104
8005.000000;0.100714
8004.000000;0.100246
8003.000000;0.099793
8002.000000;0.099469
8001.000000;0.099291
8000.000000;0.099189
7999.000000;0.099081
7998.000000;0.098928
7997.000000;0.098727
7996.000000;0.098509
7995.000000;0.098320
7994.000000;0.098178
7993.000000;0.098035
7992.000000;0.097798
7991.000000;0.097405
7990.000000;0.096891
7989.000000;0.096401
7988.000000;0.096121
7987.000000;0.096130
7986.000000;0.096319
7985.000000;0.096461
7984.000000;0.096374
7983.000000;0.096015
7982.000000;0.095457
7981.000000;0.094845
7980.000000;0.094354
7979.000000;0.094077
7978.000000;0.093927
7977.000000;0.093722
7976.000000;0.093406
7975.000000;0.093107
7974.000000;0.092947
7973.000000;0.092862
7972.000000;0.092685
7971.000000;0.092344
7970.000000;0.091906
7969.000000;0.091488
7968.000000;0.091188
7967.000000;0.091031
7966.000000;0.090925
7965.000000;0.090700
7964.000000;0.090288
7963.000000;0.089818
7962.000000;0.089471
7961.000000;0.089290
7960.000000;0.089200
7959.000000;0.089133
7958.000000;0.089037
7957.000000;0.088822
7956.000000;0.088433
7955.000000;0.087983
7954.000000;0.087682
7953.000000;0.087605
7952.000000;0.087611
7951.000000;0.087517
7950.000000;0.087267
7949.000000;0.086926
7948.000000;0.086579
7947.000000;0.086274
7946.000000;0.085993
7945.000000;0.085671
7944.000000;0.085253
7943.000000;0.084775
7942.000000;0.084330
7941.000000;0.083993
7940.000000;0.083780
7939.000000;0.083664
7938.000000;0.083570
7937.000000;0.083399
7936.000000;0.083135
7935.000000;0.082876
7934.000000;0.082695
7933.000000;0.082505
7932.000000;0.082174
7931.000000;0.081736
7930.000000;0.081370
7929.000000;0.081167
7928.000000;0.081044
7927.000000;0.080876
7926.000000;0.080621
7925.000000;0.080274
7924.000000;0.079837
7923.000000;0.079376
7922.000000;0.079009
7921.000000;0.078767
7920.000000;0.078548
7919.000000;0.078251
7918.000000;0.077884
7917.000000;0.077501
7916.000000;0.077116
7915.000000;0.076735
7914.000000;0.076410
7913.000000;0.076184
7912.000000;0.076026
7911.000000;0.075885
7910.000000;0.075759
7909.000000;0.075668
7908.000000;0.075588
7907.000000;0.075465
7906.000000;0.075250
7905.000000;0.074912
7904.000000;0.074460
7903.000000;0.073996
7902.000000;0.073665
7901.000000;0.073497
7900.000000;0.073347
7899.000000;0.073062
7898.000000;0.072658
7897.000000;0.072274
7896.000000;0.071995
7895.000000;0.071785
7894.000000;0.071559
7893.000000;0.071256
7892.000000;0.070854
7891.000000;0.070397
7890.000000;0.070001
7889.000000;0.069770
7888.000000;0.069679
7887.000000;0.069590
7886.000000;0.069395
7885.000000;0.069122
7884.000000;0.068867
7883.000000;0.068654
7882.000000;0.068413
7881.000000;0.068077
7880.000000;0.067680
7879.000000;0.067320
7878.000000;0.067035
7877.000000;0.066768
7876.000000;0.066455
7875.000000;0.066114
7874.000000;0.065796
7873.000000;0.065505
7872.000000;0.065213
7871.000000;0.064936
7870.000000;0.064705
7869.000000;0.064489
7868.000000;0.064207
7867.000000;0.063855
7866.000000;0.063531
7865.000000;0.063301
7864.000000;0.063109
7863.000000;0.062842
7862.000000;0.062469
7861.000000;0.062064
7860.000000;0.061727
7859.000000;0.061499
7858.000000;0.061327
7857.000000;0.061109
7856.000000;0.060815
7855.000000;0.060531
7854.000000;0.060347
7853.000000;0.060210
7852.000000;0.059963
7851.000000;0.059552
7850.000000;0.059105
7849.000000;0.058767
7848.000000;0.058539
7847.000000;0.058338
7846.000000;0.058133
7845.000000;0.057949
7844.000000;0.057774
7843.000000;0.057554
7842.000000;0.057262
7841.000000;0.056924
7840.000000;0.056574
7839.000000;0.056248
7838.000000;0.056003
7837.000000;0.055864
7836.000000;0.055763
7835.000000;0.055570
7834.000000;0.055229
7833.000000;0.054816
7832.000000;0.054454
7831.000000;0.054193
7830.000000;0.053979
7829.000000;0.053732
7828.000000;0.053418
7827.000000;0.053071
7826.000000;0.052749
7825.000000;0.052479
7824.000000;0.052244
7823.000000;0.051997
7822.000000;0.051694
7821.000000;0.051327
7820.000000;0.050934
7819.000000;0.050584
7818.000000;0.050311
7817.000000;0.050084
7816.000000;0.049849
7815.000000;0.049603
7814.000000;0.049379
7813.000000;0.049171
7812.000000;0.048921
7811.000000;0.048571
7810.000000;0.048125
7809.000000;0.047631
7808.000000;0.047150
7807.000000;0.046747
7806.000000;0.046464
7805.000000;0.046287
7804.000000;0.046152
7803.000000;0.045988
7802.000000;0.045755
7801.000000;0.045452
7800.000000;0.045129
7799.000000;0.044884
7798.000000;0.044782
7797.000000;0.044761
7796.000000;0.044666
7795.000000;0.044406
7794.000000;0.044053
7793.000000;0.043758
7792.000000;0.043604
7791.000000;0.043549
7790.000000;0.043475
7789.000000;0.043271
7788.000000;0.042901
7787.000000;0.042415
7786.000000;0.041895
7785.000000;0.041390
7784.000000;0.040915
7783.000000;0.040498
7782.000000;0.040185
7781.000000;0.039986
7780.000000;0.039858
7779.000000;0.039746
7778.000000;0.039608
7777.000000;0.039397
7776.000000;0.039083
7775.000000;0.038724
7774.000000;0.038434
7773.000000;0.038257
7772.000000;0.038104
7771.000000;0.037844
7770.000000;0.037453
7769.000000;0.037018
7768.000000;0.036644
7767.000000;0.036384
7766.000000;0.036227
7765.000000;0.036107
7764.000000;0.035942
7763.000000;0.035696
7762.000000;0.035396
7761.000000;0.035086
7760.000000;0.034778
7759.000000;0.034464
7758.000000;0.034158
7757.000000;0.033882
7756.000000;0.033635
7755.000000;0.033389
7754.000000;0.033120
7753.000000;0.032830
7752.000000;0.032543
7751.000000;0.032286
7750.000000;0.032066
7749.000000;0.031854
7748.000000;0.031603
7747.000000;0.031290
7746.000000;0.030939
7745.000000;0.030597
7744.000000;0.030305
7743.000000;0.030085
7742.000000;0.029923
7741.000000;0.029765
7740.000000;0.029550
7739.000000;0.029255
7738.000000;0.028897
7737.000000;0.028518
7736.000000;0.028176
7735.000000;0.027945
7734.000000;0.027863
7733.000000;0.027876
7732.000000;0.027876
7731.000000;0.027778
7730.000000;0.027548
7729.000000;0.027166
7728.000000;0.026655
7727.000000;0.026116
7726.000000;0.025688
7725.000000;0.025422
7724.000000;0.025244
7723.000000;0.025046
7722.000000;0.024790
7721.000000;0.024498
7720.000000;0.024214
7719.000000;0.023974
7718.000000;0.023800
7717.000000;0.023669
7716.000000;0.023526
7715.000000;0.023339
7714.000000;0.023110
7713.000000;0.022840
7712.000000;0.022537
7711.000000;0.022260
7710.000000;0.022080
7709.000000;0.021976
7708.000000;0.021831
7707.000000;0.021567
7706.000000;0.021230
7705.000000;0.020894
7704.000000;0.020556
7703.000000;0.020181
7702.000000;0.019801
7701.000000;0.019502
7700.000000;0.019305
7699.000000;0.019139
7698.000000;0.018914
7697.000000;0.018593
7696.000000;0.018192
7695.000000;0.017760
7694.000000;0.017383
7693.000000;0.017151
7692.000000;0.017082
7691.000000;0.017072
7690.000000;0.016946
7689.000000;0.016589
7688.000000;0.016061
7687.000000;0.015557
7686.000000;0.015231
7685.000000;0.015078
7684.000000;0.015005
7683.000000;0.014972
7682.000000;0.014991
7681.000000;0.015009
7680.000000;0.014893
7679.000000;0.014561
7678.000000;0.014089
7677.000000;0.013622
7676.000000;0.013237
7675.000000;0.012929
7674.000000;0.012671
7673.000000;0.012450
7672.000000;0.012238
7671.000000;0.012012
7670.000000;0.011775
7669.000000;0.011547
7668.000000;0.011333
7667.000000;0.011114
7666.000000;0.010874
7665.000000;0.010602
7664.000000;0.010305
7663.000000;0.010016
7662.000000;0.009778
7661.000000;0.009596
7660.000000;0.009407
7659.000000;0.009136
7658.000000;0.008781
7657.000000;0.008431
7656.000000;0.008201
7655.000000;0.008129
7654.000000;0.008134
7653.000000;0.008073
7652.000000;0.007863
7651.000000;0.007546
7650.000000;0.007222
7649.000000;0.006948
7648.000000;0.006714
7647.000000;0.006485
7646.000000;0.006240
7645.000000;0.005965
7644.000000;0.005651
7643.000000;0.005318
7642.000000;0.004997
7641.000000;0.004705
7640.000000;0.004440
7639.000000;0.004203
7638.000000;0.003989
7637.000000;0.003785
7636.000000;0.003596
7635.000000;0.003460
7634.000000;0.003365
7633.000000;0.003203
7632.000000;0.002872
7631.000000;0.002425
7630.000000;0.002023
7629.000000;0.001748
7628.000000;0.001528
7627.000000;0.001277
7626.000000;0.001007
7625.000000;0.000778
7624.000000;0.000608
7623.000000;0.000478
7622.000000;0.000374
7621.000000;0.000270
7620.000000;0.000117
7619.000000;-0.000115
7618.000000;-0.000392
7617.000000;-0.000665
7616.000000;-0.000920
7615.000000;-0.001165
7614.000000;-0.001396
7613.000000;-0.001602
7612.000000;-0.001781
7611.000000;-0.001948
7610.000000;-0.002139
7609.000000;-0.002407
7608.000000;-0.002768
7607.000000;-0.003149
7606.000000;-0.003445
7605.000000;-0.003647
7604.000000;-0.003837
7603.000000;-0.004057
7602.000000;-0.004245
7601.000000;-0.004340
7600.000000;-0.004394
7599.000000;-0.004534
7598.000000;-0.004843
7597.000000;-0.005308
7596.000000;-0.005844
7595.000000;-0.006328
7594.000000;-0.006657
7593.000000;-0.006817
7592.000000;-0.006899
7591.000000;-0.007017
7590.000000;-0.007218
7589.000000;-0.007481
7588.000000;-0.007750
7587.000000;-0.007965
7586.000000;-0.008106
7585.000000;-0.008212
7584.000000;-0.008350
7583.000000;-0.008547
7582.000000;-0.008772
7581.000000;-0.009003
7580.000000;-0.009249
7579.000000;-0.009522
7578.000000;-0.009815
7577.000000;-0.010124
7576.000000;-0.010437
7575.000000;-0.010712
7574.000000;-0.010904
7573.000000;-0.011038
7572.000000;-0.011204
7571.000000;-0.011441
7570.000000;-0.011684
7569.000000;-0.011853
7568.000000;-0.011940
7567.000000;-0.012008
7566.000000;-0.012145
7565.000000;-0.012412
7564.000000;-0.012792
7563.000000;-0.013172
7562.000000;-0.013434
7561.000000;-0.013577
7560.000000;-0.013711
7559.000000;-0.013919
7558.000000;-0.014188
7557.000000;-0.014480
7556.000000;-0.014789
7555.000000;-0.015099
7554.000000;-0.015370
7553.000000;-0.015596
7552.000000;-0.015815
7551.000000;-0.016031
7550.000000;-0.016190
7549.000000;-0.016283
7548.000000;-0.016391
7547.000000;-0.016598
7546.000000;-0.016880
7545.000000;-0.017140
7544.000000;-0.017304
7543.000000;-0.017366
7542.000000;-0.017397
7541.000000;-0.017512
7540.000000;-0.017772
7539.000000;-0.018109
7538.000000;-0.018390
7537.000000;-0.018578
7536.000000;-0.018769
7535.000000;-0.019046
7534.000000;-0.019379
7533.000000;-0.019699
7532.000000;-0.019995
7531.000000;-0.020281
7530.000000;-0.020543
7529.000000;-0.020753
7528.000000;-0.020908
7527.000000;-0.021010
7526.000000;-0.021052
7525.000000;-0.021068
7524.000000;-0.021143
7523.000000;-0.021341
7522.000000;-0.021647
7521.000000;-0.022001
7520.000000;-0.022342
7519.000000;-0.022620
7518.000000;-0.022819
7517.000000;-0.022991
7516.000000;-0.023193
7515.000000;-0.023386
7514.000000;-0.023481
7513.000000;-0.023498
7512.000000;-0.023575
7511.000000;-0.023808
7510.000000;-0.024140
7509.000000;-0.024464
7508.000000;-0.024733
7507.000000;-0.024944
7506.000000;-0.025103
7505.000000;-0.025259
7504.000000;-0.025477
7503.000000;-0.025749
7502.000000;-0.025987
7501.000000;-0.026168
7500.000000;-0.026393
7499.000000;-0.026725
7498.000000;-0.027104
7497.000000;-0.027413
7496.000000;-0.027685
7495.000000;-0.027972
7494.000000;-0.028154
7493.000000;-0.028296
7492.000000;-0.028400
7491.000000;-0.028533
7490.000000;-0.028714
7489.000000;-0.028940
7488.000000;-0.029190
7487.000000;-0.029409
7486.000000;-0.029550
7485.000000;-0.029663
7484.000000;-0.029863
7483.000000;-0.030169
7482.000000;-0.030469
7481.000000;-0.030691
7480.000000;-0.030907
7479.000000;-0.031204
7478.000000;-0.031536
7477.000000;-0.031792
7476.000000;-0.031937
7475.000000;-0.032008
7474.000000;-0.032052
7473.000000;-0.032132
7472.000000;-0.032324
7471.000000;-0.032623
7470.000000;-0.032922
7469.000000;-0.033129
7468.000000;-0.033259
7467.000000;-0.033374
7466.000000;-0.033505
7465.000000;-0.033677
7464.000000;-0.033923
7463.000000;-0.034213
7462.000000;-0.034450
7461.000000;-0.034599
7460.000000;-0.034752
7459.000000;-0.034990
7458.000000;-0.035272
7457.000000;-0.035513
7456.000000;-0.035706
7455.000000;-0.035890
7454.000000;-0.036074
7453.000000;-0.036268
7452.000000;-0.036524
7451.000000;-0.036861
7450.000000;-0.037204
7449.000000;-0.037455
7448.000000;-0.037590
7447.000000;-0.037653
7446.000000;-0.037706
7445.000000;-0.037825
7444.000000;-0.038062
7443.000000;-0.038375
7442.000000;-0.038667
7441.000000;-0.038924
7440.000000;-0.039215
7439.000000;-0.039541
7438.000000;-0.039815
7437.000000;-0.040006
7436.000000;-0.040192
7435.000000;-0.040402
7434.000000;-0.040550
7433.000000;-0.040593
7432.000000;-0.040636
7431.000000;-0.040794
7430.000000;-0.041050
7429.000000;-0.041318
7428.000000;-0.041553
7427.000000;-0.041731
7426.000000;-0.041847
7425.000000;-0.041997
7424.000000;-0.042301
7423.000000;-0.042665
7422.000000;-0.042780
7421.000000;-0.042510
7420.000000;-0.042137
7419.000000;-0.042053
7418.000000;-0.042316
7417.000000;-0.042701
7416.000000;-0.043053
7415.000000;-0.043400
7414.000000;-0.043781
7413.000000;-0.044144
7412.000000;-0.044425
7411.000000;-0.044646
7410.000000;-0.044901
7409.000000;-0.045249
7408.000000;-0.045596
7407.000000;-0.045726
7406.000000;-0.045576
7405.000000;-0.045422
7404.000000;-0.045616
7403.000000;-0.046143
7402.000000;-0.046617
7401.000000;-0.046705
7400.000000;-0.046397
7399.000000;-0.045965
7398.000000;-0.045768
7397.000000;-0.045993
7396.000000;-0.046453
7395.000000;-0.046785
7394.000000;-0.046972
7393.000000;-0.047424
7392.000000;-0.048346
7391.000000;-0.049317
7390.000000;-0.049797
7389.000000;-0.049812
7388.000000;-0.049736
7387.000000;-0.049623
7386.000000;-0.049292
7385.000000;-0.048931
7384.000000;-0.048928
7383.000000;-0.049064
7382.000000;-0.048689
7381.000000;-0.047943
7380.000000;-0.047929
7379.000000;-0.049080
7378.000000;-0.050182
7377.000000;-0.049867
7376.000000;-0.048494
7375.000000;-0.047718
7374.000000;-0.048476
7373.000000;-0.050135
7372.000000;-0.051511
7371.000000;-0.051954
7370.000000;-0.051541
7369.000000;-0.050914
7368.000000;-0.050854
7367.000000;-0.051521
7366.000000;-0.052256
7365.000000;-0.052528
7364.000000;-0.052641
7363.000000;-0.053013
7362.000000;-0.053356
7361.000000;-0.053295
7360.000000;-0.053314
7359.000000;-0.053962
7358.000000;-0.054562
7357.000000;-0.054024
7356.000000;-0.052658
7355.000000;-0.051995
7354.000000;-0.052745
7353.000000;-0.054111
7352.000000;-0.055122
7351.000000;-0.055440
7350.000000;-0.054924
7349.000000;-0.053749
7348.000000;-0.052947
7347.000000;-0.053435
7346.000000;-0.054531
7345.000000;-0.054808
7344.000000;-0.054212
7343.000000;-0.053717
7342.000000;-0.053128
7341.000000;-0.051308
7340.000000;-0.048941
7339.000000;-0.048779
7338.000000;-0.051882
7337.000000;-0.055834
7336.000000;-0.057952
7335.000000;-0.058221
7334.000000;-0.058093
7333.000000;-0.058229
7332.000000;-0.058566
7331.000000;-0.059011
7330.000000;-0.058886
7329.000000;-0.057213
7328.000000;-0.054727
7327.000000;-0.053973
7326.000000;-0.055960
7325.000000;-0.058453
7324.000000;-0.059155
7323.000000;-0.058768
7322.000000;-0.059353
7321.000000;-0.061064
7320.000000;-0.062256
7319.000000;-0.062133
7318.000000;-0.061384
7317.000000;-0.060672
7316.000000;-0.060208
7315.000000;-0.060346
7314.000000;-0.061021
7313.000000;-0.061045
7312.000000;-0.059656
7311.000000;-0.058238
7310.000000;-0.058602
7309.000000;-0.060089
7308.000000;-0.060519
7307.000000;-0.059632
7306.000000;-0.059483
7305.000000;-0.061175
7304.000000;-0.063309
7303.000000;-0.064368
7302.000000;-0.064512
7301.000000;-0.064381
7300.000000;-0.063998
7299.000000;-0.063683
7298.000000;-0.064371
7297.000000;-0.065815
7296.000000;-0.066126
7295.000000;-0.064352
7294.000000;-0.062264
7293.000000;-0.062211
7292.000000;-0.063911
7291.000000;-0.065065
7290.000000;-0.064493
7289.000000;-0.063089
7288.000000;-0.062247
7287.000000;-0.062509
7286.000000;-0.063640
7285.000000;-0.065095
7284.000000;-0.066196
7283.000000;-0.066536
7282.000000;-0.066390
7281.000000;-0.066385
7280.000000;-0.066720
7279.000000;-0.067073
7278.000000;-0.067204
7277.000000;-0.067167
7276.000000;-0.066992
7275.000000;-0.066610
7274.000000;-0.066121
7273.000000;-0.065882
7272.000000;-0.066169
7271.000000;-0.066849
7270.000000;-0.067435
7269.000000;-0.067498
7268.000000;-0.067088
7267.000000;-0.066750
7266.000000;-0.066902
7265.000000;-0.067202
7264.000000;-0.066884
7263.000000;-0.065835
7262.000000;-0.064964
7261.000000;-0.065184
7260.000000;-0.066311
7259.000000;-0.067393
7258.000000;-0.067868
7257.000000;-0.067891
7256.000000;-0.067615
7255.000000;-0.066847
7254.000000;-0.065633
7253.000000;-0.064622
7252.000000;-0.064556
7251.000000;-0.065477
7250.000000;-0.066595
7249.000000;-0.067057
7248.000000;-0.066831
7247.000000;-0.066627
7246.000000;-0.066640
7245.000000;-0.065855
7244.000000;-0.063346
7243.000000;-0.060128
7242.000000;-0.058735
7241.000000;-0.060353
7240.000000;-0.063293
7239.000000;-0.065117
7238.000000;-0.065348
7237.000000;-0.065309
7236.000000;-0.065830
7235.000000;-0.065973
7234.000000;-0.064328
7233.000000;-0.061107
7232.000000;-0.058625
7231.000000;-0.059230
7230.000000;-0.062625
7229.000000;-0.066012
7228.000000;-0.067054
7227.000000;-0.066051
7226.000000;-0.065095
7225.000000;-0.065705
7224.000000;-0.067591
7223.000000;-0.069367
7222.000000;-0.069955
7221.000000;-0.069332
7220.000000;-0.068427
7219.000000;-0.068334
7218.000000;-0.069303
7217.000000;-0.070545
7216.000000;-0.071189
7215.000000;-0.071234
7214.000000;-0.071377
7213.000000;-0.071977
7212.000000;-0.072635
7211.000000;-0.072910
7210.000000;-0.072948
7209.000000;-0.073067
7208.000000;-0.073069
7207.000000;-0.072442
7206.000000;-0.071094
7205.000000;-0.069647
7204.000000;-0.069026
7203.000000;-0.069719
7202.000000;-0.071353
7201.000000;-0.072997
7200.000000;-0.073987
7199.000000;-0.074456
7198.000000;-0.074932
7197.000000;-0.075524
7196.000000;-0.075842
7195.000000;-0.075789
7194.000000;-0.075928
7193.000000;-0.076660
7192.000000;-0.077541
7191.000000;-0.077909
7190.000000;-0.077850
7189.000000;-0.077885
7188.000000;-0.078016
7187.000000;-0.077921
7186.000000;-0.077845
7185.000000;-0.078332
7184.000000;-0.079021
7183.000000;-0.078808
7182.000000;-0.077551
7181.000000;-0.076659
7180.000000;-0.077339
7179.000000;-0.078984
7178.000000;-0.080147
7177.000000;-0.080385
7176.000000;-0.080307
7175.000000;-0.080423
7174.000000;-0.080736
7173.000000;-0.081132
7172.000000;-0.081409
7171.000000;-0.081046
7170.000000;-0.079772
7169.000000;-0.078210
7168.000000;-0.077327
7167.000000;-0.077449
7166.000000;-0.078336
7165.000000;-0.079827
7164.000000;-0.081562
7163.000000;-0.082613
7162.000000;-0.082387
7161.000000;-0.081716
7160.000000;-0.082075
7159.000000;-0.083561
7158.000000;-0.084756
7157.000000;-0.084801
7156.000000;-0.084466
7155.000000;-0.084806
7154.000000;-0.085741
7153.000000;-0.086482
7152.000000;-0.086704
7151.000000;-0.086713
7150.000000;-0.086853
7149.000000;-0.087165
7148.000000;-0.087458
7147.000000;-0.087447
7146.000000;-0.086928
7145.000000;-0.086115
7144.000000;-0.085647
7143.000000;-0.085888
7142.000000;-0.086273
7141.000000;-0.085927
7140.000000;-0.084978
7139.000000;-0.084671
7138.000000;-0.085783
7137.000000;-0.087487
7136.000000;-0.088437
7135.000000;-0.088487
7134.000000;-0.088622
7133.000000;-0.089438
7132.000000;-0.090444
7131.000000;-0.091000
7130.000000;-0.091194
7129.000000;-0.091437
7128.000000;-0.091739
7127.000000;-0.091929
7126.000000;-0.092137
7125.000000;-0.092453
7124.000000;-0.092511
7123.000000;-0.092059
7122.000000;-0.091649
7121.000000;-0.091976
7120.000000;-0.092642
7119.000000;-0.092511
7118.000000;-0.091435
7117.000000;-0.090787
7116.000000;-0.091669
7115.000000;-0.093358
7114.000000;-0.094384
7113.000000;-0.094444
7112.000000;-0.094385
7111.000000;-0.094739
7110.000000;-0.095145
7109.000000;-0.095167
7108.000000;-0.094901
7107.000000;-0.094648
7106.000000;-0.094598
7105.000000;-0.094948
7104.000000;-0.095810
7103.000000;-0.096873
7102.000000;-0.097565
7101.000000;-0.097686
7100.000000;-0.097656
7099.000000;-0.097980
7098.000000;-0.098577
7097.000000;-0.098898
7096.000000;-0.098705
7095.000000;-0.098424
7094.000000;-0.098612
7093.000000;-0.099267
7092.000000;-0.099896
7091.000000;-0.100158
7090.000000;-0.100205
7089.000000;-0.100391
7088.000000;-0.100814
7087.000000;-0.101274
7086.000000;-0.101606
7085.000000;-0.101887
7084.000000;-0.102241
7083.000000;-0.102605
7082.000000;-0.102811
7081.000000;-0.102852
7080.000000;-0.102955
7079.000000;-0.103283
7078.000000;-0.103662
7077.000000;-0.103813
7076.000000;-0.103777
7075.000000;-0.103853
7074.000000;-0.104114
7073.000000;-0.104310
7072.000000;-0.104298
7071.000000;-0.104296
7070.000000;-0.104538
7069.000000;-0.104916
7068.000000;-0.105175
7067.000000;-0.105305
7066.000000;-0.105521
7065.000000;-0.105922
7064.000000;-0.106387
7063.000000;-0.106795
7062.000000;-0.107173
7061.000000;-0.107546
7060.000000;-0.107875
7059.000000;-0.108189
7058.000000;-0.108585
7057.000000;-0.109044
7056.000000;-0.109399
7055.000000;-0.109537
7054.000000;-0.109527
7053.000000;-0.109559
7052.000000;-0.109777
7051.000000;-0.110162
7050.000000;-0.110542
7049.000000;-0.110740
7048.000000;-0.110761
7047.000000;-0.110806
7046.000000;-0.111042
7045.000000;-0.111392
7044.000000;-0.111666
7043.000000;-0.111846
7042.000000;-0.112094
7041.000000;-0.112461
7040.000000;-0.112812
7039.000000;-0.113055
7038.000000;-0.113287
7037.000000;-0.113604
7036.000000;-0.113952
7035.000000;-0.114242
7034.000000;-0.114496
7033.000000;-0.114787
7032.000000;-0.115112
7031.000000;-0.115421
7030.000000;-0.115694
7029.000000;-0.115927
7028.000000;-0.116097
7027.000000;-0.116218
7026.000000;-0.116336
7025.000000;-0.116434
7024.000000;-0.116450
7023.000000;-0.116447
7022.000000;-0.116650
7021.000000;-0.117185
7020.000000;-0.117898
7019.000000;-0.118529
7018.000000;-0.118993
7017.000000;-0.119356
7016.000000;-0.119634
7015.000000;-0.119778
7014.000000;-0.119846
7013.000000;-0.120000
7012.000000;-0.120311
7011.000000;-0.120688
7010.000000;-0.121007
7009.000000;-0.121223
7008.000000;-0.121352
7007.000000;-0.121454
7006.000000;-0.121624
7005.000000;-0.121913
7004.000000;-0.122249
7003.000000;-0.122503
7002.000000;-0.122654
7001.000000;-0.122804
7000.000000;-0.123044
6999.000000;-0.123377
6998.000000;-0.123761
6997.000000;-0.124157
6996.000000;-0.124507
6995.000000;-0.124764
6994.000000;-0.124971
6993.000000;-0.125232
6992.000000;-0.125578
6991.000000;-0.125918
6990.000000;-0.126160
6989.000000;-0.126321
6988.000000;-0.126474
6987.000000;-0.126645
6986.000000;-0.126837
6985.000000;-0.127064
6984.000000;-0.127312
6983.000000;-0.127503
6982.000000;-0.127599
6981.000000;-0.127705
6980.000000;-0.127992
6979.000000;-0.128498
6978.000000;-0.129058
6977.000000;-0.129479
6976.000000;-0.129745
6975.000000;-0.129969
6974.000000;-0.130184
6973.000000;-0.130312
6972.000000;-0.130359
6971.000000;-0.130490
6970.000000;-0.130832
6969.000000;-0.131298
6968.000000;-0.131710
6967.000000;-0.132020
6966.000000;-0.132308
6965.000000;-0.132593
6964.000000;-0.132813
6963.000000;-0.132983
6962.000000;-0.133216
6961.000000;-0.133546
6960.000000;-0.133872
6959.000000;-0.134115
6958.000000;-0.134300
6957.000000;-0.134455
6956.000000;-0.134572
6955.000000;-0.134710
6954.000000;-0.135003
6953.000000;-0.135482
6952.000000;-0.136016
6951.000000;-0.136471
6950.000000;-0.136828
6949.000000;-0.137078
6948.000000;-0.137172
6947.000000;-0.137154
6946.000000;-0.137238
6945.000000;-0.137582
6944.000000;-0.138071
6943.000000;-0.138469
6942.000000;-0.138719
6941.000000;-0.138925
6940.000000;-0.139109
6939.000000;-0.139203
6938.000000;-0.139246
6937.000000;-0.139412
6936.000000;-0.139784
6935.000000;-0.140254
6934.000000;-0.140663
6933.000000;-0.140946
6932.000000;-0.141114
6931.000000;-0.141220
6930.000000;-0.141363
6929.000000;-0.141632
6928.000000;-0.142000
6927.000000;-0.142344
6926.000000;-0.142619
6925.000000;-0.142925
6924.000000;-0.143351
6923.000000;-0.143835
6922.000000;-0.144250
6921.000000;-0.144521
6920.000000;-0.144596
6919.000000;-0.144438
6918.000000;-0.144154
6917.000000;-0.144034
6916.000000;-0.144324
6915.000000;-0.144967
6914.000000;-0.145657
6913.000000;-0.146134
6912.000000;-0.146385
6911.000000;-0.146561
6910.000000;-0.146789
6909.000000;-0.147075
6908.000000;-0.147367
6907.000000;-0.147635
6906.000000;-0.147904
6905.000000;-0.148218
6904.000000;-0.148580
6903.000000;-0.148935
6902.000000;-0.149240
6901.000000;-0.149491
6900.000000;-0.149692
6899.000000;-0.149851
6898.000000;-0.150005
6897.000000;-0.150189
6896.000000;-0.150375
6895.000000;-0.150504
6894.000000;-0.150594
6893.000000;-0.150749
6892.000000;-0.151053
6891.000000;-0.151490
6890.000000;-0.151975
6889.000000;-0.152430
6888.000000;-0.152801
6887.000000;-0.153073
6886.000000;-0.153282
6885.000000;-0.153485
6884.000000;-0.153704
6883.000000;-0.153921
6882.000000;-0.154145
6881.000000;-0.154422
6880.000000;-0.154755
6879.000000;-0.155085
6878.000000;-0.155360
6877.000000;-0.155595
6876.000000;-0.155850
6875.000000;-0.156159
6874.000000;-0.156490
6873.000000;-0.156783
6872.000000;-0.157004
6871.000000;-0.157184
6870.000000;-0.157386
6869.000000;-0.157648
6868.000000;-0.157950
6867.000000;-0.158248
6866.000000;-0.158528
6865.000000;-0.158796
6864.000000;-0.159055
6863.000000;-0.159293
6862.000000;-0.159502
6861.000000;-0.159682
6860.000000;-0.159837
6859.000000;-0.159997
6858.000000;-0.160215
6857.000000;-0.160530
6856.000000;-0.160929
6855.000000;-0.161342
6854.000000;-0.161681
6853.000000;-0.161905
6852.000000;-0.162052
6851.000000;-0.162209
6850.000000;-0.162435
6849.000000;-0.162710
6848.000000;-0.162983
6847.000000;-0.163240
6846.000000;-0.163517
6845.000000;-0.163843
6844.000000;-0.164196
6843.000000;-0.164536
6842.000000;-0.164845
6841.000000;-0.165113
6840.000000;-0.165334
6839.000000;-0.165536
6838.000000;-0.165766
6837.000000;-0.166024
6836.000000;-0.166250
6835.000000;-0.166436
6834.000000;-0.166667
6833.000000;-0.167017
6832.000000;-0.167428
6831.000000;-0.167769
6830.000000;-0.167996
6829.000000;-0.168173
6828.000000;-0.168343
6827.000000;-0.168488
6826.000000;-0.168626
6825.000000;-0.168847
6824.000000;-0.169194
6823.000000;-0.169578
6822.000000;-0.169884
6821.000000;-0.170116
6820.000000;-0.170365
6819.000000;-0.170686
6818.000000;-0.171045
6817.000000;-0.171385
6816.000000;-0.171664
6815.000000;-0.171872
6814.000000;-0.172040
6813.000000;-0.172247
6812.000000;-0.172558
6811.000000;-0.172940
6810.000000;-0.173300
6809.000000;-0.173595
6808.000000;-0.173842
6807.000000;-0.174042
6806.000000;-0.174167
6805.000000;-0.174261
6804.000000;-0.174457
6803.000000;-0.174828
6802.000000;-0.175255
6801.000000;-0.175554
6800.000000;-0.175700
6799.000000;-0.175850
6798.000000;-0.176140
6797.000000;-0.176535
6796.000000;-0.176915
6795.000000;-0.177202
6794.000000;-0.177384
6793.000000;-0.177484
6792.000000;-0.177571
6791.000000;-0.177756
6790.000000;-0.178102
6789.000000;-0.178539
6788.000000;-0.178931
6787.000000;-0.179214
6786.000000;-0.179438
6785.000000;-0.179680
6784.000000;-0.179956
6783.000000;-0.180239
6782.000000;-0.180496
6781.000000;-0.180717
6780.000000;-0.180923
6779.000000;-0.181146
6778.000000;-0.181389
6777.000000;-0.181606
6776.000000;-0.181784
6775.000000;-0.181997
6774.000000;-0.182326
6773.000000;-0.182723
6772.000000;-0.183041
6771.000000;-0.183214
6770.000000;-0.183322
6769.000000;-0.183462
6768.000000;-0.183643
6767.000000;-0.183858
6766.000000;-0.184154
6765.000000;-0.184550
6764.000000;-0.184956
6763.000000;-0.185264
6762.000000;-0.185482
6761.000000;-0.185708
6760.000000;-0.185993
6759.000000;-0.186295
6758.000000;-0.186552
6757.000000;-0.186728
6756.000000;-0.186823
6755.000000;-0.186903
6754.000000;-0.187100
6753.000000;-0.187489
6752.000000;-0.187974
6751.000000;-0.188373
6750.000000;-0.188616
6749.000000;-0.188790
6748.000000;-0.189007
6747.000000;-0.189285
6746.000000;-0.189578
6745.000000;-0.189868
6744.000000;-0.190174
6743.000000;-0.190517
6742.000000;-0.190885
6741.000000;-0.191241
6740.000000;-0.191543
6739.000000;-0.191772
6738.000000;-0.191941
6737.000000;-0.192082
6736.000000;-0.192228
6735.000000;-0.192412
6734.000000;-0.192654
6733.000000;-0.192935
6732.000000;-0.193198
6731.000000;-0.193410
6730.000000;-0.193599
6729.000000;-0.193803
6728.000000;-0.194008
6727.000000;-0.194188
6726.000000;-0.194355
6725.000000;-0.194553
6724.000000;-0.194792
6723.000000;-0.195058
6722.000000;-0.195353
6721.000000;-0.195678
6720.000000;-0.196005
6719.000000;-0.196299
6718.000000;-0.196569
6717.000000;-0.196848
6716.000000;-0.197109
6715.000000;-0.197293
6714.000000;-0.197413
6713.000000;-0.197561
6712.000000;-0.197830
6711.000000;-0.198186
6710.000000;-0.198507
6709.000000;-0.198745
6708.000000;-0.198925
6707.000000;-0.199105
6706.000000;-0.199335
6705.000000;-0.199670
6704.000000;-0.200016
6703.000000;-0.200360
6702.000000;-0.200563
6701.000000;-0.200739
6700.000000;-0.201017
6699.000000;-0.201221
6698.000000;-0.201419
6697.000000;-0.201622
6696.000000;-0.201870
6695.000000;-0.202151
6694.000000;-0.202462
6693.000000;-0.202788
6692.000000;-0.203074
6691.000000;-0.203266
6690.000000;-0.203385
6689.000000;-0.203518
6688.000000;-0.203721
6687.000000;-0.203966
6686.000000;-0.204203
6685.000000;-0.204425
6684.000000;-0.204651
6683.000000;-0.204882
6682.000000;-0.205110
6681.000000;-0.205342
6680.000000;-0.205600
6679.000000;-0.205902
6678.000000;-0.206252
6677.000000;-0.206638
6676.000000;-0.207015
6675.000000;-0.207321
6674.000000;-0.207535
6673.000000;-0.207703
6672.000000;-0.207887
6671.000000;-0.208106
6670.000000;-0.208344
6669.000000;-0.208583
6668.000000;-0.208815
6667.000000;-0.209028
6666.000000;-0.209217
6665.000000;-0.209407
6664.000000;-0.209639
6663.000000;-0.209936
6662.000000;-0.210267
6661.000000;-0.210574
6660.000000;-0.210825
6659.000000;-0.211049
6658.000000;-0.211301
6657.000000;-0.211609
6656.000000;-0.211941
6655.000000;-0.212244
6654.000000;-0.212490
6653.000000;-0.212690
6652.000000;-0.212859
6651.000000;-0.213007
6650.000000;-0.213154
6649.000000;-0.213328
6648.000000;-0.213549
6647.000000;-0.213816
6646.000000;-0.214111
6645.000000;-0.214409
6644.000000;-0.214687
6643.000000;-0.214931
6642.000000;-0.215143
6641.000000;-0.215345
6640.000000;-0.215567
6639.000000;-0.215834
6638.000000;-0.216145
6637.000000;-0.216457
6636.000000;-0.216724
6635.000000;-0.216947
6634.000000;-0.217171
6633.000000;-0.217425
6632.000000;-0.217693
6631.000000;-0.217953
6630.000000;-0.218215
6629.000000;-0.218496
6628.000000;-0.218785
6627.000000;-0.219049
6626.000000;-0.219276
6625.000000;-0.219476
6624.000000;-0.219664
6623.000000;-0.219860
6622.000000;-0.220081
6621.000000;-0.220319
6620.000000;-0.220541
6619.000000;-0.220731
6618.000000;-0.220928
6617.000000;-0.221172
6616.000000;-0.221449
6615.000000;-0.221706
6614.000000;-0.221923
6613.000000;-0.222120
6612.000000;-0.222323
6611.000000;-0.222550
6610.000000;-0.222825
6609.000000;-0.223158
6608.000000;-0.223505
6607.000000;-0.223788
6606.000000;-0.223973
6605.000000;-0.224100
6604.000000;-0.224240
6603.000000;-0.224443
6602.000000;-0.224728
6601.000000;-0.225074
6600.000000;-0.225422
6599.000000;-0.225704
6598.000000;-0.225895
6597.000000;-0.226039
6596.000000;-0.226205
6595.000000;-0.226443
6594.000000;-0.226763
6593.000000;-0.227125
6592.000000;-0.227461
6591.000000;-0.227723
6590.000000;-0.227927
6589.000000;-0.228139
6588.000000;-0.228405
6587.000000;-0.228711
6586.000000;-0.229002
6585.000000;-0.229240
6584.000000;-0.229435
6583.000000;-0.229646
6582.000000;-0.229914
6581.000000;-0.230217
6580.000000;-0.230479
6579.000000;-0.230661
6578.000000;-0.230811
6577.000000;-0.230997
6576.000000;-0.231230
6575.000000;-0.231469
6574.000000;-0.231687
6573.000000;-0.231902
6572.000000;-0.232141
6571.000000;-0.232407
6570.000000;-0.232692
6569.000000;-0.232997
6568.000000;-0.233317
6567.000000;-0.233638
6566.000000;-0.233933
6565.000000;-0.234176
6564.000000;-0.234362
6563.000000;-0.234526
6562.000000;-0.234718
6561.000000;-0.234948
6560.000000;-0.235182
6559.000000;-0.235399
6558.000000;-0.235630
6557.000000;-0.235901
6556.000000;-0.236183
6555.000000;-0.236431
6554.000000;-0.236657
6553.000000;-0.236906
6552.000000;-0.237185
6551.000000;-0.237445
6550.000000;-0.237659
6549.000000;-0.237849
6548.000000;-0.238037
6547.000000;-0.238224
6546.000000;-0.238411
6545.000000;-0.238616
6544.000000;-0.238847
6543.000000;-0.239094
6542.000000;-0.239350
6541.000000;-0.239622
6540.000000;-0.239907
6539.000000;-0.240184
6538.000000;-0.240447
6537.000000;-0.240719
6536.000000;-0.241015
6535.000000;-0.241313
6534.000000;-0.241586
6533.000000;-0.241825
6532.000000;-0.242047
6531.000000;-0.242260
6530.000000;-0.242460
6529.000000;-0.242642
6528.000000;-0.242829
6527.000000;-0.243061
6526.000000;-0.243358
6525.000000;-0.243689
6524.000000;-0.243990
6523.000000;-0.244240
6522.000000;-0.244475
6521.000000;-0.244729
6520.000000;-0.244976
6519.000000;-0.245171
6518.000000;-0.245334
6517.000000;-0.245540
6516.000000;-0.245826
6515.000000;-0.246145
6514.000000;-0.246425
6513.000000;-0.246635
6512.000000;-0.246782
6511.000000;-0.246876
6510.000000;-0.246923
6509.000000;-0.246954
6508.000000;-0.247039
6507.000000;-0.247248
6506.000000;-0.247602
6505.000000;-0.248044
6504.000000;-0.248469
6503.000000;-0.248802
6502.000000;-0.249027
6501.000000;-0.249172
6500.000000;-0.249284
6499.000000;-0.249419
6498.000000;-0.249634
6497.000000;-0.249931
6496.000000;-0.250247
6495.000000;-0.250513
6494.000000;-0.250720
6493.000000;-0.250911
6492.000000;-0.251120
6491.000000;-0.251349
6490.000000;-0.251599
6489.000000;-0.251875
6488.000000;-0.252176
6487.000000;-0.252475
6486.000000;-0.252742
6485.000000;-0.252956
6484.000000;-0.253118
6483.000000;-0.253266
6482.000000;-0.253454
6481.000000;-0.253714
6480.000000;-0.254023
6479.000000;-0.254329
6478.000000;-0.254595
6477.000000;-0.254813
6476.000000;-0.254996
6475.000000;-0.255180
6474.000000;-0.255406
6473.000000;-0.255688
6472.000000;-0.255990
6471.000000;-0.256273
6470.000000;-0.256523
6469.000000;-0.256740
6468.000000;-0.256913
6467.000000;-0.257050
6466.000000;-0.257195
6465.000000;-0.257394
6464.000000;-0.257651
6463.000000;-0.257935
6462.000000;-0.258224
6461.000000;-0.258499
6460.000000;-0.258729
6459.000000;-0.258894
6458.000000;-0.259031
6457.000000;-0.259198
6456.000000;-0.259407
6455.000000;-0.259625
6454.000000;-0.259839
6453.000000;-0.260075
6452.000000;-0.260352
6451.000000;-0.260652
6450.000000;-0.260942
6449.000000;-0.261210
6448.000000;-0.261464
6447.000000;-0.261718
6446.000000;-0.261989
6445.000000;-0.262272
6444.000000;-0.262535
6443.000000;-0.262746
6442.000000;-0.262916
6441.000000;-0.263082
6440.000000;-0.263264
6439.000000;-0.263457
6438.000000;-0.263661
6437.000000;-0.263888
6436.000000;-0.264136
6435.000000;-0.264382
6434.000000;-0.264605
6433.000000;-0.264799
6432.000000;-0.264969
6431.000000;-0.265130
6430.000000;-0.265311
6429.000000;-0.265529
6428.000000;-0.265769
6427.000000;-0.265995
6426.000000;-0.266189
6425.000000;-0.266361
6424.000000;-0.266535
6423.000000;-0.266732
6422.000000;-0.266963
6421.000000;-0.267213
6420.000000;-0.267448
6419.000000;-0.267653
6418.000000;-0.267862
6417.000000;-0.268123
6416.000000;-0.268444
6415.000000;-0.268791
6414.000000;-0.269120
6413.000000;-0.269397
6412.000000;-0.269609
6411.000000;-0.269770
6410.000000;-0.269921
6409.000000;-0.270095
6408.000000;-0.270290
6407.000000;-0.270495
6406.000000;-0.270717
6405.000000;-0.270967
6404.000000;-0.271231
6403.000000;-0.271486
6402.000000;-0.271737
6401.000000;-0.272000
6400.000000;-0.272268
6399.000000;-0.272525
6398.000000;-0.272773
6397.000000;-0.273015
6396.000000;-0.273224
6395.000000;-0.273364
6394.000000;-0.273456
6393.000000;-0.273571
6392.000000;-0.273766
6391.000000;-0.274039
6390.000000;-0.274338
6389.000000;-0.274604
6388.000000;-0.274810
6387.000000;-0.274981
6386.000000;-0.275175
6385.000000;-0.275415
6384.000000;-0.275662
6383.000000;-0.275875
6382.000000;-0.276075
6381.000000;-0.276307
6380.000000;-0.276565
6379.000000;-0.276803
6378.000000;-0.277009
6377.000000;-0.277221
6376.000000;-0.277462
6375.000000;-0.277713
6374.000000;-0.277947
6373.000000;-0.278158
6372.000000;-0.278367
6371.000000;-0.278595
6370.000000;-0.278862
6369.000000;-0.279156
6368.000000;-0.279431
6367.000000;-0.279660
6366.000000;-0.279870
6365.000000;-0.280114
6364.000000;-0.280388
6363.000000;-0.280637
6362.000000;-0.280833
6361.000000;-0.281011
6360.000000;-0.281215
6359.000000;-0.281442
6358.000000;-0.281663
6357.000000;-0.281861
6356.000000;-0.282046
6355.000000;-0.282239
6354.000000;-0.282462
6353.000000;-0.282717
6352.000000;-0.282974
6351.000000;-0.283200
6350.000000;-0.283395
6349.000000;-0.283585
6348.000000;-0.283785
6347.000000;-0.283987
6346.000000;-0.284193
6345.000000;-0.284411
6344.000000;-0.284642
6343.000000;-0.284872
6342.000000;-0.285091
6341.000000;-0.285303
6340.000000;-0.285512
6339.000000;-0.285713
6338.000000;-0.285911
6337.000000;-0.286111
6336.000000;-0.286307
6335.000000;-0.286495
6334.000000;-0.286692
6333.000000;-0.286913
6332.000000;-0.287147
6331.000000;-0.287367
6330.000000;-0.287577
6329.000000;-0.287801
6328.000000;-0.288041
6327.000000;-0.288260
6326.000000;-0.288433
6325.000000;-0.288586
6324.000000;-0.288771
6323.000000;-0.289003
6322.000000;-0.289239
6321.000000;-0.289424
6320.000000;-0.289557
6319.000000;-0.289698
6318.000000;-0.289905
6317.000000;-0.290163
6316.000000;-0.290408
6315.000000;-0.290607
6314.000000;-0.290792
6313.000000;-0.291016
6312.000000;-0.291286
6311.000000;-0.291573
6310.000000;-0.291848
6309.000000;-0.292095
6308.000000;-0.292312
6307.000000;-0.292523
6306.000000;-0.292765
6305.000000;-0.293038
6304.000000;-0.293292
6303.000000;-0.293497
6302.000000;-0.293682
6301.000000;-0.293880
6300.000000;-0.294065
6299.000000;-0.294188
6298.000000;-0.294268
6297.000000;-0.294385
6296.000000;-0.294596
6295.000000;-0.294891
6294.000000;-0.295219
6293.000000;-0.295528
6292.000000;-0.295776
6291.000000;-0.295963
6290.000000;-0.296134
6289.000000;-0.296338
6288.000000;-0.296583
6287.000000;-0.296847
6286.000000;-0.297119
6285.000000;-0.297399
6284.000000;-0.297665
6283.000000;-0.297878
6282.000000;-0.298034
6281.000000;-0.298164
6280.000000;-0.298310
6279.000000;-0.298496
6278.000000;-0.298736
6277.000000;-0.299018
6276.000000;-0.299298
6275.000000;-0.299545
6274.000000;-0.299764
6273.000000;-0.299969
6272.000000;-0.300147
6271.000000;-0.300278
6270.000000;-0.300382
6269.000000;-0.300504
6268.000000;-0.300671
6267.000000;-0.300875
6266.000000;-0.301108
6265.000000;-0.301351
6264.000000;-0.301560
6263.000000;-0.301709
6262.000000;-0.301841
6261.000000;-0.302031
6260.000000;-0.302294
6259.000000;-0.302569
6258.000000;-0.302800
6257.000000;-0.302999
6256.000000;-0.303206
6255.000000;-0.303437
6254.000000;-0.303674
6253.000000;-0.303892
6252.000000;-0.304094
6251.000000;-0.304308
6250.000000;-0.304570
6249.000000;-0.304872
6248.000000;-0.305158
6247.000000;-0.305379
6246.000000;-0.305552
6245.000000;-0.305734
6244.000000;-0.305953
6243.000000;-0.306188
6242.000000;-0.306418
6241.000000;-0.306639
6240.000000;-0.306857
6239.000000;-0.307077
6238.000000;-0.307305
6237.000000;-0.307543
6236.000000;-0.307776
6235.000000;-0.307996
6234.000000;-0.308219
6233.000000;-0.308460
6232.000000;-0.308691
6231.000000;-0.308875
6230.000000;-0.309021
6229.000000;-0.309173
6228.000000;-0.309356
6227.000000;-0.309566
6226.000000;-0.309801
6225.000000;-0.310068
6224.000000;-0.310359
6223.000000;-0.310646
6222.000000;-0.310906
6221.000000;-0.311122
6220.000000;-0.311282
6219.000000;-0.311408
6218.000000;-0.311565
6217.000000;-0.311805
6216.000000;-0.312095
6215.000000;-0.312350
6214.000000;-0.312529
6213.000000;-0.312678
6212.000000;-0.312865
6211.000000;-0.313116
6210.000000;-0.313407
6209.000000;-0.313680
6208.000000;-0.313879
6207.000000;-0.313998
6206.000000;-0.314100
6205.000000;-0.314254
6204.000000;-0.314472
6203.000000;-0.314712
6202.000000;-0.314949
6201.000000;-0.315191
6200.000000;-0.315432
6199.000000;-0.315644
6198.000000;-0.315813
6197.000000;-0.315973
6196.000000;-0.316162
6195.000000;-0.316388
6194.000000;-0.316636
6193.000000;-0.316890
6192.000000;-0.317137
6191.000000;-0.317370
6190.000000;-0.317592
6189.000000;-0.317802
6188.000000;-0.317986
6187.000000;-0.318147
6186.000000;-0.318318
6185.000000;-0.318546
6184.000000;-0.318835
6183.000000;-0.319133
6182.000000;-0.319387
6181.000000;-0.319580
6180.000000;-0.319729
6179.000000;-0.319868
6178.000000;-0.320030
6177.000000;-0.320232
6176.000000;-0.320457
6175.000000;-0.320674
6174.000000;-0.320861
6173.000000;-0.321018
6172.000000;-0.321168
6171.000000;-0.321356
6170.000000;-0.321630
6169.000000;-0.321978
6168.000000;-0.322332
6167.000000;-0.322625
6166.000000;-0.322855
6165.000000;-0.323054
6164.000000;-0.323243
6163.000000;-0.323423
6162.000000;-0.323608
6161.000000;-0.323823
6160.000000;-0.324074
6159.000000;-0.324354
6158.000000;-0.324657
6157.000000;-0.324969
6156.000000;-0.325253
6155.000000;-0.325481
6154.000000;-0.325666
6153.000000;-0.325835
6152.000000;-0.325990
6151.000000;-0.326137
6150.000000;-0.326309
6149.000000;-0.326542
6148.000000;-0.326820
6147.000000;-0.327089
6146.000000;-0.327319
6145.000000;-0.327518
6144.000000;-0.327700
6143.000000;-0.327870
6142.000000;-0.328039
6141.000000;-0.328216
6140.000000;-0.328393
6139.000000;-0.328568
6138.000000;-0.328770
6137.000000;-0.329036
6136.000000;-0.329361
6135.000000;-0.329697
6134.000000;-0.329991
6133.000000;-0.330219
6132.000000;-0.330388
6131.000000;-0.330537
6130.000000;-0.330705
6129.000000;-0.330892
6128.000000;-0.331057
6127.000000;-0.331190
6126.000000;-0.331342
6125.000000;-0.331560
6124.000000;-0.331823
6123.000000;-0.332072
6122.000000;-0.332283
6121.000000;-0.332466
6120.000000;-0.332630
6119.000000;-0.332793
6118.000000;-0.332994
6117.000000;-0.333252
6116.000000;-0.333530
6115.000000;-0.333787
6114.000000;-0.334035
6113.000000;-0.334302
6112.000000;-0.334572
6111.000000;-0.334804
6110.000000;-0.334998
6109.000000;-0.335172
6108.000000;-0.335314
6107.000000;-0.335409
6106.000000;-0.335506
6105.000000;-0.335679
6104.000000;-0.335938
6103.000000;-0.336226
6102.000000;-0.336510
6101.000000;-0.336809
6100.000000;-0.337122
6099.000000;-0.337402
6098.000000;-0.337608
6097.000000;-0.337747
6096.000000;-0.337862
6095.000000;-0.338006
6094.000000;-0.338227
6093.000000;-0.338532
6092.000000;-0.338871
6091.000000;-0.339187
6090.000000;-0.339468
6089.000000;-0.339728
6088.000000;-0.339950
6087.000000;-0.340113
6086.000000;-0.340252
6085.000000;-0.340426
6084.000000;-0.340638
6083.000000;-0.340842
6082.000000;-0.341027
6081.000000;-0.341226
6080.000000;-0.341448
6079.000000;-0.341657
6078.000000;-0.341838
6077.000000;-0.342017
6076.000000;-0.342213
6075.000000;-0.342414
6074.000000;-0.342610
6073.000000;-0.342813
6072.000000;-0.343027
6071.000000;-0.343260
6070.000000;-0.343537
6069.000000;-0.343872
6068.000000;-0.344202
6067.000000;-0.344428
6066.000000;-0.344541
6065.000000;-0.344633
6064.000000;-0.344798
6063.000000;-0.345041
6062.000000;-0.345322
6061.000000;-0.345597
6060.000000;-0.345823
6059.000000;-0.345973
6058.000000;-0.346080
6057.000000;-0.346233
6056.000000;-0.346485
6055.000000;-0.346798
6054.000000;-0.347100
6053.000000;-0.347353
6052.000000;-0.347557
6051.000000;-0.347719
6050.000000;-0.347867
6049.000000;-0.348052
6048.000000;-0.348313
6047.000000;-0.348627
6046.000000;-0.348936
6045.000000;-0.349187
6044.000000;-0.349375
6043.000000;-0.349543
6042.000000;-0.349746
6041.000000;-0.349998
6040.000000;-0.350259
6039.000000;-0.350487
6038.000000;-0.350685
6037.000000;-0.350890
6036.000000;-0.351116
6035.000000;-0.351345
6034.000000;-0.351568
6033.000000;-0.351789
6032.000000;-0.352010
6031.000000;-0.352231
6030.000000;-0.352461
6029.000000;-0.352689
6028.000000;-0.352865
6027.000000;-0.352960
6026.000000;-0.353035
6025.000000;-0.353198
6024.000000;-0.353479
6023.000000;-0.353807
6022.000000;-0.354104
6021.000000;-0.354353
6020.000000;-0.354571
6019.000000;-0.354768
6018.000000;-0.354960
6017.000000;-0.355166
6016.000000;-0.355384
6015.000000;-0.355592
6014.000000;-0.355781
6013.000000;-0.355965
6012.000000;-0.356148
6011.000000;-0.356315
6010.000000;-0.356473
6009.000000;-0.356654
6008.000000;-0.356877
6007.000000;-0.357132
6006.000000;-0.357406
6005.000000;-0.357690
6004.000000;-0.357960
6003.000000;-0.358195
6002.000000;-0.358412
6001.000000;-0.358651
6000.000000;-0.358919
5999.000000;-0.359187
5998.000000;-0.359435
5997.000000;-0.359667
5996.000000;-0.359883
5995.000000;-0.360067
5994.000000;-0.360227
5993.000000;-0.360397
5992.000000;-0.360600
5991.000000;-0.360840
5990.000000;-0.361109
5989.000000;-0.361395
5988.000000;-0.361660
5987.000000;-0.361875
5986.000000;-0.362059
5985.000000;-0.362253
5984.000000;-0.362454
5983.000000;-0.362628
5982.000000;-0.362776
5981.000000;-0.362946
5980.000000;-0.363166
5979.000000;-0.363418
5978.000000;-0.363669
5977.000000;-0.363903
5976.000000;-0.364113
5975.000000;-0.364293
5974.000000;-0.364466
5973.000000;-0.364666
5972.000000;-0.364897
5971.000000;-0.365129
5970.000000;-0.365342
5969.000000;-0.365541
5968.000000;-0.365730
5967.000000;-0.365905
5966.000000;-0.366080
5965.000000;-0.366278
5964.000000;-0.366503
5963.000000;-0.366749
5962.000000;-0.367031
5961.000000;-0.367358
5960.000000;-0.367693
5959.000000;-0.367979
5958.000000;-0.368205
5957.000000;-0.368404
5956.000000;-0.368588
5955.000000;-0.368739
5954.000000;-0.368860
5953.000000;-0.368988
5952.000000;-0.369147
5951.000000;-0.369330
5950.000000;-0.369545
5949.000000;-0.369809
5948.000000;-0.370102
5947.000000;-0.370362
5946.000000;-0.370568
5945.000000;-0.370775
5944.000000;-0.371042
5943.000000;-0.371370
5942.000000;-0.371717
5941.000000;-0.372044
5940.000000;-0.372317
5939.000000;-0.372511
5938.000000;-0.372636
5937.000000;-0.372747
5936.000000;-0.372900
5935.000000;-0.373105
5934.000000;-0.373339
5933.000000;-0.373578
5932.000000;-0.373801
5931.000000;-0.374004
5930.000000;-0.374206
5929.000000;-0.374434
5928.000000;-0.374692
5927.000000;-0.374948
5926.000000;-0.375169
5925.000000;-0.375347
5924.000000;-0.375507
5923.000000;-0.375680
5922.000000;-0.375890
5921.000000;-0.376122
5920.000000;-0.376339
5919.000000;-0.376525
5918.000000;-0.376709
5917.000000;-0.376920
5916.000000;-0.377139
5915.000000;-0.377339
5914.000000;-0.377534
5913.000000;-0.377756
5912.000000;-0.378000
5911.000000;-0.378235
5910.000000;-0.378465
5909.000000;-0.378723
5908.000000;-0.379004
5907.000000;-0.379263
5906.000000;-0.379479
5905.000000;-0.379683
5904.000000;-0.379920
5903.000000;-0.380206
5902.000000;-0.380531
5901.000000;-0.380860
5900.000000;-0.381143
5899.000000;-0.381359
5898.000000;-0.381545
5897.000000;-0.381752
5896.000000;-0.381979
5895.000000;-0.382186
5894.000000;-0.382364
5893.000000;-0.382550
5892.000000;-0.382765
5891.000000;-0.382986
5890.000000;-0.383184
5889.000000;-0.383362
5888.000000;-0.383548
5887.000000;-0.383772
5886.000000;-0.384049
5885.000000;-0.384364
5884.000000;-0.384661
5883.000000;-0.384899
5882.000000;-0.385093
5881.000000;-0.385293
5880.000000;-0.385525
5879.000000;-0.385786
5878.000000;-0.386075
5877.000000;-0.386380
5876.000000;-0.386654
5875.000000;-0.386853
5874.000000;-0.386982
5873.000000;-0.387090
5872.000000;-0.387213
5871.000000;-0.387367
5870.000000;-0.387574
5869.000000;-0.387839
5868.000000;-0.388127
5867.000000;-0.388404
5866.000000;-0.388694
5865.000000;-0.389032
5864.000000;-0.389385
5863.000000;-0.389674
5862.000000;-0.389885
5861.000000;-0.390079
5860.000000;-0.390301
5859.000000;-0.390533
5858.000000;-0.390744
5857.000000;-0.390944
5856.000000;-0.391163
5855.000000;-0.391414
5854.000000;-0.391696
5853.000000;-0.391993
5852.000000;-0.392271
5851.000000;-0.392502
5850.000000;-0.392708
5849.000000;-0.392926
5848.000000;-0.393157
5847.000000;-0.393368
5846.000000;-0.393556
5845.000000;-0.393744
5844.000000;-0.393931
5843.000000;-0.394092
5842.000000;-0.394242
5841.000000;-0.394438
5840.000000;-0.394707
5839.000000;-0.395015
5838.000000;-0.395312
5837.000000;-0.395573
5836.000000;-0.395783
5835.000000;-0.395934
5834.000000;-0.396049
5833.000000;-0.396181
5832.000000;-0.396359
5831.000000;-0.396577
5830.000000;-0.396815
5829.000000;-0.397069
5828.000000;-0.397347
5827.000000;-0.397662
5826.000000;-0.398024
5825.000000;-0.398408
5824.000000;-0.398747
5823.000000;-0.398988
5822.000000;-0.399161
5821.000000;-0.399339
5820.000000;-0.399561
5819.000000;-0.399819
5818.000000;-0.400101
5817.000000;-0.400401
5816.000000;-0.400685
5815.000000;-0.400915
5814.000000;-0.401092
5813.000000;-0.401249
5812.000000;-0.401399
5811.000000;-0.401541
5810.000000;-0.401708
5809.000000;-0.401942
5808.000000;-0.402231
5807.000000;-0.402523
5806.000000;-0.402795
5805.000000;-0.403063
5804.000000;-0.403326
5803.000000;-0.403557
5802.000000;-0.403763
5801.000000;-0.403993
5800.000000;-0.404263
5799.000000;-0.404537
5798.000000;-0.404777
5797.000000;-0.404992
5796.000000;-0.405209
5795.000000;-0.405443
5794.000000;-0.405708
5793.000000;-0.406002
5792.000000;-0.406289
5791.000000;-0.406524
5790.000000;-0.406716
5789.000000;-0.406925
5788.000000;-0.407194
5787.000000;-0.407519
5786.000000;-0.407863
5785.000000;-0.408184
5784.000000;-0.408445
5783.000000;-0.408657
5782.000000;-0.408887
5781.000000;-0.409185
5780.000000;-0.409502
5779.000000;-0.409754
5778.000000;-0.409922
5777.000000;-0.410068
5776.000000;-0.410238
5775.000000;-0.410428
5774.000000;-0.410635
5773.000000;-0.410880
5772.000000;-0.411156
5771.000000;-0.411433
5770.000000;-0.411701
5769.000000;-0.411975
5768.000000;-0.412243
5767.000000;-0.412477
5766.000000;-0.412686
5765.000000;-0.412917
5764.000000;-0.413184
5763.000000;-0.413457
5762.000000;-0.413704
5761.000000;-0.413925
5760.000000;-0.414131
5759.000000;-0.414334
5758.000000;-0.414568
5757.000000;-0.414851
5756.000000;-0.415149
5755.000000;-0.415416
5754.000000;-0.415660
5753.000000;-0.415927
5752.000000;-0.416217
5751.000000;-0.416483
5750.000000;-0.416708
5749.000000;-0.416927
5748.000000;-0.417163
5747.000000;-0.417408
5746.000000;-0.417671
5745.000000;-0.417980
5744.000000;-0.418320
5743.000000;-0.418632
5742.000000;-0.418884
5741.000000;-0.419095
5740.000000;-0.419286
5739.000000;-0.419462
5738.000000;-0.419649
5737.000000;-0.419888
5736.000000;-0.420179
5735.000000;-0.420472
5734.000000;-0.420743
5733.000000;-0.421010
5732.000000;-0.421288
5731.000000;-0.421561
5730.000000;-0.421826
5729.000000;-0.422104
5728.000000;-0.422396
5727.000000;-0.422678
5726.000000;-0.422933
5725.000000;-0.423171
5724.000000;-0.423393
5723.000000;-0.423597
5722.000000;-0.423815
5721.000000;-0.424089
5720.000000;-0.424408
5719.000000;-0.424714
5718.000000;-0.424978
5717.000000;-0.425231
5716.000000;-0.425503
5715.000000;-0.425786
5714.000000;-0.426067
5713.000000;-0.426347
5712.000000;-0.426622
5711.000000;-0.426876
5710.000000;-0.427113
5709.000000;-0.427353
5708.000000;-0.427603
5707.000000;-0.427855
5706.000000;-0.428116
5705.000000;-0.428391
5704.000000;-0.428660
5703.000000;-0.428896
5702.000000;-0.429105
5701.000000;-0.429307
5700.000000;-0.429485
5699.000000;-0.429637
5698.000000;-0.429791
5697.000000;-0.430076
5696.000000;-0.430413
5695.000000;-0.430717
5694.000000;-0.430995
5693.000000;-0.431246
5692.000000;-0.431491
5691.000000;-0.431723
5690.000000;-0.431972
5689.000000;-0.432273
5688.000000;-0.432606
5687.000000;-0.432910
5686.000000;-0.433168
5685.000000;-0.433423
5684.000000;-0.433704
5683.000000;-0.433983
5682.000000;-0.434238
5681.000000;-0.434479
5680.000000;-0.434712
5679.000000;-0.434916
5678.000000;-0.435093
5677.000000;-0.435271
5676.000000;-0.435477
5675.000000;-0.435713
5674.000000;-0.435989
5673.000000;-0.436304
5672.000000;-0.436616
5671.000000;-0.436870
5670.000000;-0.437066
5669.000000;-0.437259
5668.000000;-0.437491
5667.000000;-0.437761
5666.000000;-0.438057
5665.000000;-0.438356
5664.000000;-0.438607
5663.000000;-0.438778
5662.000000;-0.438926
5661.000000;-0.439151
5660.000000;-0.439483
5659.000000;-0.439857
5658.000000;-0.440208
5657.000000;-0.440529
5656.000000;-0.440829
5655.000000;-0.441104
5654.000000;-0.441360
5653.000000;-0.441615
5652.000000;-0.441880
5651.000000;-0.442151
5650.000000;-0.442430
5649.000000;-0.442714
5648.000000;-0.442968
5647.000000;-0.443163
5646.000000;-0.443323
5645.000000;-0.443502
5644.000000;-0.443722
5643.000000;-0.443981
5642.000000;-0.444283
5641.000000;-0.444619
5640.000000;-0.444932
5639.000000;-0.445169
5638.000000;-0.445358
5637.000000;-0.445561
5636.000000;-0.445782
5635.000000;-0.445979
5634.000000;-0.446147
5633.000000;-0.446325
5632.000000;-0.446524
5631.000000;-0.446735
5630.000000;-0.446979
5629.000000;-0.447283
5628.000000;-0.447611
5627.000000;-0.447907
5626.000000;-0.448180
5625.000000;-0.448485
5624.000000;-0.448822
5623.000000;-0.449141
5622.000000;-0.449432
5621.000000;-0.449732
5620.000000;-0.450045
5619.000000;-0.450333
5618.000000;-0.450591
5617.000000;-0.450851
5616.000000;-0.451105
5615.000000;-0.451318
5614.000000;-0.451506
5613.000000;-0.451732
5612.000000;-0.452005
5611.000000;-0.452262
5610.000000;-0.452473
5609.000000;-0.452670
5608.000000;-0.452888
5607.000000;-0.453132
5606.000000;-0.453398
5605.000000;-0.453674
5604.000000;-0.453926
5603.000000;-0.454137
5602.000000;-0.454348
5601.000000;-0.454603
5600.000000;-0.454874
5599.000000;-0.455098
5598.000000;-0.455278
5597.000000;-0.455462
5596.000000;-0.455661
5595.000000;-0.455861
5594.000000;-0.456098
5593.000000;-0.456416
5592.000000;-0.456770
5591.000000;-0.457075
5590.000000;-0.457327
5589.000000;-0.457586
5588.000000;-0.457852
5587.000000;-0.458075
5586.000000;-0.458266
5585.000000;-0.458492
5584.000000;-0.458755
5583.000000;-0.458995
5582.000000;-0.459208
5581.000000;-0.459448
5580.000000;-0.459719
5579.000000;-0.459968
5578.000000;-0.460190
5577.000000;-0.460436
5576.000000;-0.460695
5575.000000;-0.460908
5574.000000;-0.461076
5573.000000;-0.461263
5572.000000;-0.461475
5571.000000;-0.461659
5570.000000;-0.461831
5569.000000;-0.462074
5568.000000;-0.462376
5567.000000;-0.462630
5566.000000;-0.462815
5565.000000;-0.463029
5564.000000;-0.463317
5563.000000;-0.463593
5562.000000;-0.463798
5561.000000;-0.464000
5560.000000;-0.464260
5559.000000;-0.464526
5558.000000;-0.464731
5557.000000;-0.464916
5556.000000;-0.465151
5555.000000;-0.465430
5554.000000;-0.465703
5553.000000;-0.465959
5552.000000;-0.466207
5551.000000;-0.466426
5550.000000;-0.466598
5549.000000;-0.466756
5548.000000;-0.466948
5547.000000;-0.467193
5546.000000;-0.467496
5545.000000;-0.467833
5544.000000;-0.468136
5543.000000;-0.468354
5542.000000;-0.468535
5541.000000;-0.468787
5540.000000;-0.469124
5539.000000;-0.469437
5538.000000;-0.469669
5537.000000;-0.469898
5536.000000;-0.470193
5535.000000;-0.470501
5534.000000;-0.470737
5533.000000;-0.470914
5532.000000;-0.471104
5531.000000;-0.471337
5530.000000;-0.471599
5529.000000;-0.471878
5528.000000;-0.472146
5527.000000;-0.472377
5526.000000;-0.472591
5525.000000;-0.472830
5524.000000;-0.473077
5523.000000;-0.473284
5522.000000;-0.473465
5521.000000;-0.473719
5520.000000;-0.474052
5519.000000;-0.474335
5518.000000;-0.474497
5517.000000;-0.474638
5516.000000;-0.474885
5515.000000;-0.475209
5514.000000;-0.475463
5513.000000;-0.475607
5512.000000;-0.475763
5511.000000;-0.476027
5510.000000;-0.476337
5509.000000;-0.476572
5508.000000;-0.476717
5507.000000;-0.476897
5506.000000;-0.477199
5505.000000;-0.477523
5504.000000;-0.477758
5503.000000;-0.477989
5502.000000;-0.478367
5501.000000;-0.478862
5500.000000;-0.479209
5499.000000;-0.479244
5498.000000;-0.479207
5497.000000;-0.479415
5496.000000;-0.479764
5495.000000;-0.479898
5494.000000;-0.479759
5493.000000;-0.479739
5492.000000;-0.480125
5491.000000;-0.480642
5490.000000;-0.480869
5489.000000;-0.480867
5488.000000;-0.481050
5487.000000;-0.481593
5486.000000;-0.482265
5485.000000;-0.482772
5484.000000;-0.483102
5483.000000;-0.483404
5482.000000;-0.483614
5481.000000;-0.483623
5480.000000;-0.483627
5479.000000;-0.483900
5478.000000;-0.484355
5477.000000;-0.484574
5476.000000;-0.484384
5475.000000;-0.484259
5474.000000;-0.484673
5473.000000;-0.485319
5472.000000;-0.485602
5471.000000;-0.485545
5470.000000;-0.485666
5469.000000;-0.486199
5468.000000;-0.486784
5467.000000;-0.487015
5466.000000;-0.487044
5465.000000;-0.487212
5464.000000;-0.487489
5463.000000;-0.487671
5462.000000;-0.487746
5461.000000;-0.487865
5460.000000;-0.488132
5459.000000;-0.488498
5458.000000;-0.488867
5457.000000;-0.489178
5456.000000;-0.489380
5455.000000;-0.489563
5454.000000;-0.489959
5453.000000;-0.490500
5452.000000;-0.490752
5451.000000;-0.490546
5450.000000;-0.490319
5449.000000;-0.490539
5448.000000;-0.490938
5447.000000;-0.490854
5446.000000;-0.490409
5445.000000;-0.490417
5444.000000;-0.491108
5443.000000;-0.491811
5442.000000;-0.491968
5441.000000;-0.491810
5440.000000;-0.492012
5439.000000;-0.492729
5438.000000;-0.493421
5437.000000;-0.493651
5436.000000;-0.493482
5435.000000;-0.493287
5434.000000;-0.493475
5433.000000;-0.494012
5432.000000;-0.494415
5431.000000;-0.494391
5430.000000;-0.494164
5429.000000;-0.494229
5428.000000;-0.494853
5427.000000;-0.495765
5426.000000;-0.496530
5425.000000;-0.497037
5424.000000;-0.497447
5423.000000;-0.497957
5422.000000;-0.498619
5421.000000;-0.499133
5420.000000;-0.499134
5419.000000;-0.498805
5418.000000;-0.498690
5417.000000;-0.498876
5416.000000;-0.498827
5415.000000;-0.498209
5414.000000;-0.497577
5413.000000;-0.497644
5412.000000;-0.498173
5411.000000;-0.498441
5410.000000;-0.498456
5409.000000;-0.498870
5408.000000;-0.499819
5407.000000;-0.500747
5406.000000;-0.501290
5405.000000;-0.501739
5404.000000;-0.502376
5403.000000;-0.502899
5402.000000;-0.503085
5401.000000;-0.503191
5400.000000;-0.503286
5399.000000;-0.503181
5398.000000;-0.502934
5397.000000;-0.502883
5396.000000;-0.503080
5395.000000;-0.503119
5394.000000;-0.502919
5393.000000;-0.502991
5392.000000;-0.503530
5391.000000;-0.504041
5390.000000;-0.504205
5389.000000;-0.504359
5388.000000;-0.504827
5387.000000;-0.505330
5386.000000;-0.505522
5385.000000;-0.505721
5384.000000;-0.506243
5383.000000;-0.506591
5382.000000;-0.506384
5381.000000;-0.506177
5380.000000;-0.506525
5379.000000;-0.507070
5378.000000;-0.507142
5377.000000;-0.506921
5376.000000;-0.507138
5375.000000;-0.507737
5374.000000;-0.508034
5373.000000;-0.508014
5372.000000;-0.508325
5371.000000;-0.509134
5370.000000;-0.509867
5369.000000;-0.510180
5368.000000;-0.510422
5367.000000;-0.510840
5366.000000;-0.511124
5365.000000;-0.511127
5364.000000;-0.511190
5363.000000;-0.511463
5362.000000;-0.511674
5361.000000;-0.511609
5360.000000;-0.511410
5359.000000;-0.511299
5358.000000;-0.511353
5357.000000;-0.511619
5356.000000;-0.512068
5355.000000;-0.512352
5354.000000;-0.512147
5353.000000;-0.511830
5352.000000;-0.512005
5351.000000;-0.512345
5350.000000;-0.512141
5349.000000;-0.511653
5348.000000;-0.511756
5347.000000;-0.512468
5346.000000;-0.512764
5345.000000;-0.512166
5344.000000;-0.511679
5343.000000;-0.512198
5342.000000;-0.512982
5341.000000;-0.513013
5340.000000;-0.512553
5339.000000;-0.512465
5338.000000;-0.512955
5337.000000;-0.513514
5336.000000;-0.513857
5335.000000;-0.514163
5334.000000;-0.514426
5333.000000;-0.514515
5332.000000;-0.514727
5331.000000;-0.515332
5330.000000;-0.515946
5329.000000;-0.516026
5328.000000;-0.515706
5327.000000;-0.515702
5326.000000;-0.516268
5325.000000;-0.516846
5324.000000;-0.517037
5323.000000;-0.517116
5322.000000;-0.517369
5321.000000;-0.517707
5320.000000;-0.517983
5319.000000;-0.518239
5318.000000;-0.518527
5317.000000;-0.518770
5316.000000;-0.518939
5315.000000;-0.519128
5314.000000;-0.519268
5313.000000;-0.519181
5312.000000;-0.518984
5311.000000;-0.518973
5310.000000;-0.519149
5309.000000;-0.519221
5308.000000;-0.519117
5307.000000;-0.519135
5306.000000;-0.519409
5305.000000;-0.519655
5304.000000;-0.519662
5303.000000;-0.519642
5302.000000;-0.519860
5301.000000;-0.520222
5300.000000;-0.520452
5299.000000;-0.520535
5298.000000;-0.520687
5297.000000;-0.520892
5296.000000;-0.520935
5295.000000;-0.520863
5294.000000;-0.520911
5293.000000;-0.521087
5292.000000;-0.521121
5291.000000;-0.520888
5290.000000;-0.520699
5289.000000;-0.520868
5288.000000;-0.521212
5287.000000;-0.521315
5286.000000;-0.521130
5285.000000;-0.521028
5284.000000;-0.521249
5283.000000;-0.521581
5282.000000;-0.521729
5281.000000;-0.521758
5280.000000;-0.521911
5279.000000;-0.522181
5278.000000;-0.522370
5277.000000;-0.522427
5276.000000;-0.522448
5275.000000;-0.522488
5274.000000;-0.522503
5273.000000;-0.522483
5272.000000;-0.522506
5271.000000;-0.522495
5270.000000;-0.522260
5269.000000;-0.521915
5268.000000;-0.521795
5267.000000;-0.521891
5266.000000;-0.521847
5265.000000;-0.521526
5264.000000;-0.521268
5263.000000;-0.521413
5262.000000;-0.521749
5261.000000;-0.521813
5260.000000;-0.521647
5259.000000;-0.521702
5258.000000;-0.522088
5257.000000;-0.522462
5256.000000;-0.522540
5255.000000;-0.522424
5254.000000;-0.522346
5253.000000;-0.522319
5252.000000;-0.522275
5251.000000;-0.522218
5250.000000;-0.522093
5249.000000;-0.521932
5248.000000;-0.521940
5247.000000;-0.522215
5246.000000;-0.522503
5245.000000;-0.522483
5244.000000;-0.522293
5243.000000;-0.522447
5242.000000;-0.523073
5241.000000;-0.523627
5240.000000;-0.523689
5239.000000;-0.523560
5238.000000;-0.523676
5237.000000;-0.523899
5236.000000;-0.523871
5235.000000;-0.523667
5234.000000;-0.523622
5233.000000;-0.523721
5232.000000;-0.523612
5231.000000;-0.523258
5230.000000;-0.523067
5229.000000;-0.523203
5228.000000;-0.523298
5227.000000;-0.523079
5226.000000;-0.522806
5225.000000;-0.522833
5224.000000;-0.523075
5223.000000;-0.523217
5222.000000;-0.523246
5221.000000;-0.523366
5220.000000;-0.523603
5219.000000;-0.523845
5218.000000;-0.524039
5217.000000;-0.524197
5216.000000;-0.524257
5215.000000;-0.524124
5214.000000;-0.523913
5213.000000;-0.523806
5212.000000;-0.523758
5211.000000;-0.523641
5210.000000;-0.523499
5209.000000;-0.523410
5208.000000;-0.523285
5207.000000;-0.523049
5206.000000;-0.522911
5205.000000;-0.523129
5204.000000;-0.523547
5203.000000;-0.523760
5202.000000;-0.523731
5201.000000;-0.523803
5200.000000;-0.524111
5199.000000;-0.524335
5198.000000;-0.524206
5197.000000;-0.523966
5196.000000;-0.523954
5195.000000;-0.524039
5194.000000;-0.523938
5193.000000;-0.523730
5192.000000;-0.523672
5191.000000;-0.523759
5190.000000;-0.523784
5189.000000;-0.523756
5188.000000;-0.523858
5187.000000;-0.524012
5186.000000;-0.523944
5185.000000;-0.523696
5184.000000;-0.523641
5183.000000;-0.523878
5182.000000;-0.524076
5181.000000;-0.524029
5180.000000;-0.523937
5179.000000;-0.524002
5178.000000;-0.524076
5177.000000;-0.523959
5176.000000;-0.523764
5175.000000;-0.523706
5174.000000;-0.523735
5173.000000;-0.523670
5172.000000;-0.523523
5171.000000;-0.523418
5170.000000;-0.523357
5169.000000;-0.523272
5168.000000;-0.523207
5167.000000;-0.523223
5166.000000;-0.523225
5165.000000;-0.523103
5164.000000;-0.522936
5163.000000;-0.522861
5162.000000;-0.522830
5161.000000;-0.522722
5160.000000;-0.522590
5159.000000;-0.522577
5158.000000;-0.522651
5157.000000;-0.522646
5156.000000;-0.522530
5155.000000;-0.522442
5154.000000;-0.522437
5153.000000;-0.522416
5152.000000;-0.522342
5151.000000;-0.522304
5150.000000;-0.522346
5149.000000;-0.522386
5148.000000;-0.522343
5147.000000;-0.522243
5146.000000;-0.522146
5145.000000;-0.522072
5144.000000;-0.522012
5143.000000;-0.521967
5142.000000;-0.521927
5141.000000;-0.521873
5140.000000;-0.521801
5139.000000;-0.521714
5138.000000;-0.521618
5137.000000;-0.521536
5136.000000;-0.521504
5135.000000;-0.521505
5134.000000;-0.521456
5133.000000;-0.521322
5132.000000;-0.521173
5131.000000;-0.521082
5130.000000;-0.521029
5129.000000;-0.520982
5128.000000;-0.520972
5127.000000;-0.521035
5126.000000;-0.521097
5125.000000;-0.521058
5124.000000;-0.520931
5123.000000;-0.520794
5122.000000;-0.520663
5121.000000;-0.520510
5120.000000;-0.520361
5119.000000;-0.520264
5118.000000;-0.520188
5117.000000;-0.520063
5116.000000;-0.519905
5115.000000;-0.519792
5114.000000;-0.519741
5113.000000;-0.519706
5112.000000;-0.519661
5111.000000;-0.519603
5110.000000;-0.519494
5109.000000;-0.519285
5108.000000;-0.519020
5107.000000;-0.518813
5106.000000;-0.518718
5105.000000;-0.518702
5104.000000;-0.518722
5103.000000;-0.518758
5102.000000;-0.518771
5101.000000;-0.518722
5100.000000;-0.518628
5099.000000;-0.518546
5098.000000;-0.518498
5097.000000;-0.518448
5096.000000;-0.518366
5095.000000;-0.518243
5094.000000;-0.518075
5093.000000;-0.517874
5092.000000;-0.517694
5091.000000;-0.517592
5090.000000;-0.517559
5089.000000;-0.517548
5088.000000;-0.517527
5087.000000;-0.517480
5086.000000;-0.517365
5085.000000;-0.517165
5084.000000;-0.516935
5083.000000;-0.516754
5082.000000;-0.516625
5081.000000;-0.516497
5080.000000;-0.516341
5079.000000;-0.516170
5078.000000;-0.516002
5077.000000;-0.515862
5076.000000;-0.515796
5075.000000;-0.515821
5074.000000;-0.515868
5073.000000;-0.515842
5072.000000;-0.515713
5071.000000;-0.515511
5070.000000;-0.515268
5069.000000;-0.515025
5068.000000;-0.514856
5067.000000;-0.514811
5066.000000;-0.514839
5065.000000;-0.514836
5064.000000;-0.514753
5063.000000;-0.514606
5062.000000;-0.514417
5061.000000;-0.514209
5060.000000;-0.514032
5059.000000;-0.513911
5058.000000;-0.513804
5057.000000;-0.513651
5056.000000;-0.513469
5055.000000;-0.513314
5054.000000;-0.513194
5053.000000;-0.513077
5052.000000;-0.512962
5051.000000;-0.512874
5050.000000;-0.512799
5049.000000;-0.512700
5048.000000;-0.512578
5047.000000;-0.512462
5046.000000;-0.512343
5045.000000;-0.512186
5044.000000;-0.511989
5043.000000;-0.511779
5042.000000;-0.511561
5041.000000;-0.511327
5040.000000;-0.511107
5039.000000;-0.510952
5038.000000;-0.510863
5037.000000;-0.510795
5036.000000;-0.510724
5035.000000;-0.510651
5034.000000;-0.510568
5033.000000;-0.510464
5032.000000;-0.510355
5031.000000;-0.510253
5030.000000;-0.510128
5029.000000;-0.509950
5028.000000;-0.509746
5027.000000;-0.509559
5026.000000;-0.509385
5025.000000;-0.509201
5024.000000;-0.509030
5023.000000;-0.508907
5022.000000;-0.508811
5021.000000;-0.508690
5020.000000;-0.508539
5019.000000;-0.508383
5018.000000;-0.508205
5017.000000;-0.507979
5016.000000;-0.507750
5015.000000;-0.507602
5014.000000;-0.507548
5013.000000;-0.507516
5012.000000;-0.507441
5011.000000;-0.507310
5010.000000;-0.507121
5009.000000;-0.506876
5008.000000;-0.506624
5007.000000;-0.506440
5006.000000;-0.506333
5005.000000;-0.506227
5004.000000;-0.506054
5003.000000;-0.505809
5002.000000;-0.505534
5001.000000;-0.505248
5000.000000;-0.505022
4999.000000;-0.504854
4998.000000;-0.504715
4997.000000;-0.504576
4996.000000;-0.504430
4995.000000;-0.504283
4994.000000;-0.504116
4993.000000;-0.503904
4992.000000;-0.503665
4991.000000;-0.503441
4990.000000;-0.503239
4989.000000;-0.503043
4988.000000;-0.502866
4987.000000;-0.502732
4986.000000;-0.502628
4985.000000;-0.502518
4984.000000;-0.502407
4983.000000;-0.502331
4982.000000;-0.502282
4981.000000;-0.502208
4980.000000;-0.502087
4979.000000;-0.501953
4978.000000;-0.501835
4977.000000;-0.501719
4976.000000;-0.501586
4975.000000;-0.501432
4974.000000;-0.501246
4973.000000;-0.501011
4972.000000;-0.500736
4971.000000;-0.500459
4970.000000;-0.500203
4969.000000;-0.499966
4968.000000;-0.499751
4967.000000;-0.499568
4966.000000;-0.499411
4965.000000;-0.499263
4964.000000;-0.499120
4963.000000;-0.498996
4962.000000;-0.498880
4961.000000;-0.498750
4960.000000;-0.498606
4959.000000;-0.498460
4958.000000;-0.498303
4957.000000;-0.498109
4956.000000;-0.497884
4955.000000;-0.497666
4954.000000;-0.497482
4953.000000;-0.497328
4952.000000;-0.497191
4951.000000;-0.497060
4950.000000;-0.496906
4949.000000;-0.496705
4948.000000;-0.496480
4947.000000;-0.496292
4946.000000;-0.496174
4945.000000;-0.496103
4944.000000;-0.496027
4943.000000;-0.495910
4942.000000;-0.495741
4941.000000;-0.495541
4940.000000;-0.495355
4939.000000;-0.495214
4938.000000;-0.495114
4937.000000;-0.495033
4936.000000;-0.494954
4935.000000;-0.494859
4934.000000;-0.494707
4933.000000;-0.494473
4932.000000;-0.494190
4931.000000;-0.493920
4930.000000;-0.493681
4929.000000;-0.493441
4928.000000;-0.493184
4927.000000;-0.492931
4926.000000;-0.492713
4925.000000;-0.492537
4924.000000;-0.492393
4923.000000;-0.492264
4922.000000;-0.492133
4921.000000;-0.491984
4920.000000;-0.491811
4919.000000;-0.491604
4918.000000;-0.491361
4917.000000;-0.491112
4916.000000;-0.490905
4915.000000;-0.490754
4914.000000;-0.490614
4913.000000;-0.490439
4912.000000;-0.490234
4911.000000;-0.490027
4910.000000;-0.489825
4909.000000;-0.489626
4908.000000;-0.489465
4907.000000;-0.489376
4906.000000;-0.489337
4905.000000;-0.489277
4904.000000;-0.489147
4903.000000;-0.488950
4902.000000;-0.488725
4901.000000;-0.488519
4900.000000;-0.488376
4899.000000;-0.488299
4898.000000;-0.488226
4897.000000;-0.488074
4896.000000;-0.487821
4895.000000;-0.487520
4894.000000;-0.487242
4893.000000;-0.487032
4892.000000;-0.486894
4891.000000;-0.486793
4890.000000;-0.486673
4889.000000;-0.486503
4888.000000;-0.486305
4887.000000;-0.486114
4886.000000;-0.485932
4885.000000;-0.485733
4884.000000;-0.485516
4883.000000;-0.485302
4882.000000;-0.485099
4881.000000;-0.484892
4880.000000;-0.484665
4879.000000;-0.484418
4878.000000;-0.484164
4877.000000;-0.483925
4876.000000;-0.483727
4875.000000;-0.483571
4874.000000;-0.483422
4873.000000;-0.483229
4872.000000;-0.482969
4871.000000;-0.482662
4870.000000;-0.482356
4869.000000;-0.482110
4868.000000;-0.481953
4867.000000;-0.481857
4866.000000;-0.481747
4865.000000;-0.481579
4864.000000;-0.481366
4863.000000;-0.481137
4862.000000;-0.480902
4861.000000;-0.480667
4860.000000;-0.480449
4859.000000;-0.480244
4858.000000;-0.480018
4857.000000;-0.479750
4856.000000;-0.479475
4855.000000;-0.479242
4854.000000;-0.479064
4853.000000;-0.478932
4852.000000;-0.478836
4851.000000;-0.478724
4850.000000;-0.478507
4849.000000;-0.478150
4848.000000;-0.477744
4847.000000;-0.477431
4846.000000;-0.477261
4845.000000;-0.477159
4844.000000;-0.477012
4843.000000;-0.476763
4842.000000;-0.476428
4841.000000;-0.476077
4840.000000;-0.475784
4839.000000;-0.475573
4838.000000;-0.475402
4837.000000;-0.475218
4836.000000;-0.475016
4835.000000;-0.474816
4834.000000;-0.474611
4833.000000;-0.474378
4832.000000;-0.474119
4831.000000;-0.473862
4830.000000;-0.473624
4829.000000;-0.473408
4828.000000;-0.473212
4827.000000;-0.473022
4826.000000;-0.472806
4825.000000;-0.472551
4824.000000;-0.472293
4823.000000;-0.472075
4822.000000;-0.471889
4821.000000;-0.471697
4820.000000;-0.471481
4819.000000;-0.471250
4818.000000;-0.471009
4817.000000;-0.470766
4816.000000;-0.470542
4815.000000;-0.470351
4814.000000;-0.470160
4813.000000;-0.469918
4812.000000;-0.469605
4811.000000;-0.469245
4810.000000;-0.468872
4809.000000;-0.468531
4808.000000;-0.468264
4807.000000;-0.468069
4806.000000;-0.467881
4805.000000;-0.467633
4804.000000;-0.467323
4803.000000;-0.466985
4802.000000;-0.466619
4801.000000;-0.466213
4800.000000;-0.465811
4799.000000;-0.465495
4798.000000;-0.465287
4797.000000;-0.465118
4796.000000;-0.464912
4795.000000;-0.464648
4794.000000;-0.464347
4793.000000;-0.464026
4792.000000;-0.463702
4791.000000;-0.463398
4790.000000;-0.463117
4789.000000;-0.462828
4788.000000;-0.462500
4787.000000;-0.462143
4786.000000;-0.461800
4785.000000;-0.461513
4784.000000;-0.461279
4783.000000;-0.461051
4782.000000;-0.460769
4781.000000;-0.460410
4780.000000;-0.459997
4779.000000;-0.459577
4778.000000;-0.459195
4777.000000;-0.458884
4776.000000;-0.458648
4775.000000;-0.458453
4774.000000;-0.458237
4773.000000;-0.457962
4772.000000;-0.457627
4771.000000;-0.457252
4770.000000;-0.456869
4769.000000;-0.456528
4768.000000;-0.456271
4767.000000;-0.456063
4766.000000;-0.455802
4765.000000;-0.455427
4764.000000;-0.454984
4763.000000;-0.454568
4762.000000;-0.454223
4761.000000;-0.453925
4760.000000;-0.453637
4759.000000;-0.453328
4758.000000;-0.452970
4757.000000;-0.452558
4756.000000;-0.452134
4755.000000;-0.451762
4754.000000;-0.451465
4753.000000;-0.451224
4752.000000;-0.450999
4751.000000;-0.450749
4750.000000;-0.450444
4749.000000;-0.450083
4748.000000;-0.449698
4747.000000;-0.449324
4746.000000;-0.448975
4745.000000;-0.448655
4744.000000;-0.448363
4743.000000;-0.448063
4742.000000;-0.447694
4741.000000;-0.447239
4740.000000;-0.446765
4739.000000;-0.446358
4738.000000;-0.446040
4737.000000;-0.445763
4736.000000;-0.445475
4735.000000;-0.445146
4734.000000;-0.444768
4733.000000;-0.444352
4732.000000;-0.443931
4731.000000;-0.443535
4730.000000;-0.443177
4729.000000;-0.442871
4728.000000;-0.442637
4727.000000;-0.442450
4726.000000;-0.442231
4725.000000;-0.441917
4724.000000;-0.441519
4723.000000;-0.441085
4722.000000;-0.440643
4721.000000;-0.440195
4720.000000;-0.439760
4719.000000;-0.439364
4718.000000;-0.439004
4717.000000;-0.438648
4716.000000;-0.438275
4715.000000;-0.437879
4714.000000;-0.437470
4713.000000;-0.437066
4712.000000;-0.436690
4711.000000;-0.436335
4710.000000;-0.435967
4709.000000;-0.435571
4708.000000;-0.435177
4707.000000;-0.434813
4706.000000;-0.434455
4705.000000;-0.434058
4704.000000;-0.433612
4703.000000;-0.433133
4702.000000;-0.432642
4701.000000;-0.432182
4700.000000;-0.431816
4699.000000;-0.431560
4698.000000;-0.431321
4697.000000;-0.430963
4696.000000;-0.430438
4695.000000;-0.429827
4694.000000;-0.429262
4693.000000;-0.428816
4692.000000;-0.428469
4691.000000;-0.428131
4690.000000;-0.427719
4689.000000;-0.427224
4688.000000;-0.426710
4687.000000;-0.426245
4686.000000;-0.425847
4685.000000;-0.425499
4684.000000;-0.425175
4683.000000;-0.424829
4682.000000;-0.424405
4681.000000;-0.423890
4680.000000;-0.423347
4679.000000;-0.422853
4678.000000;-0.422426
4677.000000;-0.422040
4676.000000;-0.421681
4675.000000;-0.421343
4674.000000;-0.420982
4673.000000;-0.420538
4672.000000;-0.419990
4671.000000;-0.419377
4670.000000;-0.418752
4669.000000;-0.418159
4668.000000;-0.417619
4667.000000;-0.417125
4666.000000;-0.416636
4665.000000;-0.416120
4664.000000;-0.415581
4663.000000;-0.415041
4662.000000;-0.414508
4661.000000;-0.413984
4660.000000;-0.413469
4659.000000;-0.412938
4658.000000;-0.412341
4657.000000;-0.411659
4656.000000;-0.410957
4655.000000;-0.410335
4654.000000;-0.409846
4653.000000;-0.409465
4652.000000;-0.409125
4651.000000;-0.408744
4650.000000;-0.408264
4649.000000;-0.407689
4648.000000;-0.407078
4647.000000;-0.406472
4646.000000;-0.405862
4645.000000;-0.405237
4644.000000;-0.404635
4643.000000;-0.404095
4642.000000;-0.403593
4641.000000;-0.403067
4640.000000;-0.402490
4639.000000;-0.401881
4638.000000;-0.401255
4637.000000;-0.400620
4636.000000;-0.399989
4635.000000;-0.399373
4634.000000;-0.398755
4633.000000;-0.398116
4632.000000;-0.397470
4631.000000;-0.396850
4630.000000;-0.396256
4629.000000;-0.395665
4628.000000;-0.395072
4627.000000;-0.394491
4626.000000;-0.393928
4625.000000;-0.393374
4624.000000;-0.392812
4623.000000;-0.392216
4622.000000;-0.391560
4621.000000;-0.390865
4620.000000;-0.390197
4619.000000;-0.389590
4618.000000;-0.389002
4617.000000;-0.388368
4616.000000;-0.387689
4615.000000;-0.387007
4614.000000;-0.386336
4613.000000;-0.385656
4612.000000;-0.384953
4611.000000;-0.384221
4610.000000;-0.383436
4609.000000;-0.382586
4608.000000;-0.381721
4607.000000;-0.380924
4606.000000;-0.380231
4605.000000;-0.379601
4604.000000;-0.378961
4603.000000;-0.378257
4602.000000;-0.377471
4601.000000;-0.376632
4600.000000;-0.375802
4599.000000;-0.375018
4598.000000;-0.374254
4597.000000;-0.373472
4596.000000;-0.372677
4595.000000;-0.371891
4594.000000;-0.371090
4593.000000;-0.370229
4592.000000;-0.369318
4591.000000;-0.368424
4590.000000;-0.367597
4589.000000;-0.366817
4588.000000;-0.366031
4587.000000;-0.365199
4586.000000;-0.364304
4585.000000;-0.363349
4584.000000;-0.362357
4583.000000;-0.361344
4582.000000;-0.360302
4581.000000;-0.359219
4580.000000;-0.358116
4579.000000;-0.357034
4578.000000;-0.356002
4577.000000;-0.355022
4576.000000;-0.354070
4575.000000;-0.353096
4574.000000;-0.352051
4573.000000;-0.350918
4572.000000;-0.349731
4571.000000;-0.348537
4570.000000;-0.347363
4569.000000;-0.346233
4568.000000;-0.345156
4567.000000;-0.344080
4566.000000;-0.342905
4565.000000;-0.341589
4564.000000;-0.340213
4563.000000;-0.338887
4562.000000;-0.337619
4561.000000;-0.336337
4560.000000;-0.334995
4559.000000;-0.333611
4558.000000;-0.332204
4557.000000;-0.330760
4556.000000;-0.329270
4555.000000;-0.327753
4554.000000;-0.326224
4553.000000;-0.324679
4552.000000;-0.323116
4551.000000;-0.321539
4550.000000;-0.319936
4549.000000;-0.318297
4548.000000;-0.316644
4547.000000;-0.315014
4546.000000;-0.313411
4545.000000;-0.311803
4544.000000;-0.310169
4543.000000;-0.308515
4542.000000;-0.306866
4541.000000;-0.305252
4540.000000;-0.303711
4539.000000;-0.302260
4538.000000;-0.300864
4537.000000;-0.299467
4536.000000;-0.298041
4535.000000;-0.296588
4534.000000;-0.295108
4533.000000;-0.293617
4532.000000;-0.292155
4531.000000;-0.290766
4530.000000;-0.289441
4529.000000;-0.288143
4528.000000;-0.286855
4527.000000;-0.285578
4526.000000;-0.284301
4525.000000;-0.283006
4524.000000;-0.281704
4523.000000;-0.280436
4522.000000;-0.279224
4521.000000;-0.278054
4520.000000;-0.276912
4519.000000;-0.275795
4518.000000;-0.274695
4517.000000;-0.273602
4516.000000;-0.272513
4515.000000;-0.271435
4514.000000;-0.270369
4513.000000;-0.269302
4512.000000;-0.268221
4511.000000;-0.267113
4510.000000;-0.265974
4509.000000;-0.264836
4508.000000;-0.263760
4507.000000;-0.262777
4506.000000;-0.261840
4505.000000;-0.260864
4504.000000;-0.259800
4503.000000;-0.258655
4502.000000;-0.257446
4501.000000;-0.256188
4500.000000;-0.254915
4499.000000;-0.253683
4498.000000;-0.252530
4497.000000;-0.251443
4496.000000;-0.250364
4495.000000;-0.249228
4494.000000;-0.248026
4493.000000;-0.246818
4492.000000;-0.245674
4491.000000;-0.244595
4490.000000;-0.243515
4489.000000;-0.242386
4488.000000;-0.241204
4487.000000;-0.239962
4486.000000;-0.238641
4485.000000;-0.237275
4484.000000;-0.235961
4483.000000;-0.234750
4482.000000;-0.233580
4481.000000;-0.232342
4480.000000;-0.230994
4479.000000;-0.229563
4478.000000;-0.228080
4477.000000;-0.226564
4476.000000;-0.225052
4475.000000;-0.223581
4474.000000;-0.222141
4473.000000;-0.220695
4472.000000;-0.219223
4471.000000;-0.217730
4470.000000;-0.216219
4469.000000;-0.214712
4468.000000;-0.213259
4467.000000;-0.211884
4466.000000;-0.210526
4465.000000;-0.209070
4464.000000;-0.207442
4463.000000;-0.205671
4462.000000;-0.203871
4461.000000;-0.202176
4460.000000;-0.200640
4459.000000;-0.199183
4458.000000;-0.197656
4457.000000;-0.195999
4456.000000;-0.194284
4455.000000;-0.192601
4454.000000;-0.190949
4453.000000;-0.189290
4452.000000;-0.187635
4451.000000;-0.186015
4450.000000;-0.184410
4449.000000;-0.182775
4448.000000;-0.181112
4447.000000;-0.179449
4446.000000;-0.177780
4445.000000;-0.176082
4444.000000;-0.174366
4443.000000;-0.172658
4442.000000;-0.170945
4441.000000;-0.169201
4440.000000;-0.167447
4439.000000;-0.165733
4438.000000;-0.164058
4437.000000;-0.162380
4436.000000;-0.160672
4435.000000;-0.158927
4434.000000;-0.157128
4433.000000;-0.155258
4432.000000;-0.153337
4431.000000;-0.151408
4430.000000;-0.149485
4429.000000;-0.147570
4428.000000;-0.145678
4427.000000;-0.143810
4426.000000;-0.141911
4425.000000;-0.139924
4424.000000;-0.137876
4423.000000;-0.135863
4422.000000;-0.133951
4421.000000;-0.132126
4420.000000;-0.130322
4419.000000;-0.128451
4418.000000;-0.126431
4417.000000;-0.124232
4416.000000;-0.121923
4415.000000;-0.119631
4414.000000;-0.117442
4413.000000;-0.115362
4412.000000;-0.113346
4411.000000;-0.111325
4410.000000;-0.109219
4409.000000;-0.106983
4408.000000;-0.104635
4407.000000;-0.102250
4406.000000;-0.099919
4405.000000;-0.097710
4404.000000;-0.095617
4403.000000;-0.093526
4402.000000;-0.091285
4401.000000;-0.088841
4400.000000;-0.086282
4399.000000;-0.083732
4398.000000;-0.081251
4397.000000;-0.078844
4396.000000;-0.076501
4395.000000;-0.074166
4394.000000;-0.071740
4393.000000;-0.069169
4392.000000;-0.066515
4391.000000;-0.063874
4390.000000;-0.061277
4389.000000;-0.058696
4388.000000;-0.056105
4387.000000;-0.053467
4386.000000;-0.050725
4385.000000;-0.047866
4384.000000;-0.044969
4383.000000;-0.042112
4382.000000;-0.039284
4381.000000;-0.036439
4380.000000;-0.033590
4379.000000;-0.030768
4378.000000;-0.027926
4377.000000;-0.024966
4376.000000;-0.021866
4375.000000;-0.018702
4374.000000;-0.015554
4373.000000;-0.012458
4372.000000;-0.009407
4371.000000;-0.006365
4370.000000;-0.003285
4369.000000;-0.000150
4368.000000;0.003030
4367.000000;0.006285
4366.000000;0.009693
4365.000000;0.013258
4364.000000;0.016863
4363.000000;0.020389
4362.000000;0.023842
4361.000000;0.027301
4360.000000;0.030810
4359.000000;0.034392
4358.000000;0.038082
4357.000000;0.041852
4356.000000;0.045581
4355.000000;0.049199
4354.000000;0.052821
4353.000000;0.056598
4352.000000;0.060488
4351.000000;0.064328
4350.000000;0.068086
4349.000000;0.071920
4348.000000;0.075968
4347.000000;0.080219
4346.000000;0.084611
4345.000000;0.089113
4344.000000;0.093661
4343.000000;0.098112
4342.000000;0.102335
4341.000000;0.106342
4340.000000;0.110304
4339.000000;0.114446
4338.000000;0.118909
4337.000000;0.123640
4336.000000;0.128443
4335.000000;0.133173
4334.000000;0.137851
4333.000000;0.142580
4332.000000;0.147401
4331.000000;0.152312
4330.000000;0.157355
4329.000000;0.162557
4328.000000;0.167819
4327.000000;0.172968
4326.000000;0.177936
4325.000000;0.182823
4324.000000;0.187820
4323.000000;0.193110
4322.000000;0.198783
4321.000000;0.204729
4320.000000;0.210642
4319.000000;0.216274
4318.000000;0.221663
4317.000000;0.227067
4316.000000;0.232700
4315.000000;0.238594
4314.000000;0.244663
4313.000000;0.250744
4312.000000;0.256661
4311.000000;0.262374
4310.000000;0.268081
4309.000000;0.274049
4308.000000;0.280351
4307.000000;0.286878
4306.000000;0.293569
4305.000000;0.300481
4304.000000;0.307583
4303.000000;0.314633
4302.000000;0.321381
4301.000000;0.327865
4300.000000;0.334432
4299.000000;0.341435
4298.000000;0.348923
4297.000000;0.356636
4296.000000;0.364336
4295.000000;0.372083
4294.000000;0.380097
4293.000000;0.388404
4292.000000;0.396770
4291.000000;0.405015
4290.000000;0.413212
4289.000000;0.421536
4288.000000;0.430085
4287.000000;0.438914
4286.000000;0.448065
4285.000000;0.457436
4284.000000;0.466804
4283.000000;0.476101
4282.000000;0.485494
4281.000000;0.495105
4280.000000;0.504885
4279.000000;0.514887
4278.000000;0.525416
4277.000000;0.536684
4276.000000;0.548495
4275.000000;0.560478
4274.000000;0.572432
4273.000000;0.584274
4272.000000;0.595933
4271.000000;0.607568
4270.000000;0.619651
4269.000000;0.632526
4268.000000;0.646101
4267.000000;0.660163
4266.000000;0.674658
4265.000000;0.689328
4264.000000;0.703569
4263.000000;0.717255
4262.000000;0.731405
4261.000000;0.747377
4260.000000;0.765525
4259.000000;0.785141
4258.000000;0.805505
4257.000000;0.826360
4256.000000;0.847501
4255.000000;0.868697
4254.000000;0.890168
4253.000000;0.912539
4252.000000;0.936168
4251.000000;0.960968
4250.000000;0.986928
4249.000000;1.014333
4248.000000;1.043649
4247.000000;1.075761
4246.000000;1.112020
4245.000000;1.153184
4244.000000;1.198485
4243.000000;1.246777
4242.000000;1.298752
4241.000000;1.357092
4240.000000;1.424488
4239.000000;1.504790
4238.000000;1.602964
4237.000000;1.735826
4236.000000;1.918678
4235.000000;2.221715
4234.000000;2.299814
4233.000000;2.001883
4232.000000;1.798313
4231.000000;1.662660
4230.000000;1.561885
4229.000000;1.478707
4228.000000;1.405764
4227.000000;1.340524
4226.000000;1.282293
4225.000000;1.231313
4224.000000;1.187459
4223.000000;1.148979
4222.000000;1.113149
4221.000000;1.078631
4220.000000;1.046181
4219.000000;1.016694
4218.000000;0.989757
4217.000000;0.964595
4216.000000;0.941219
4215.000000;0.919771
4214.000000;0.899557
4213.000000;0.879644
4212.000000;0.859956
4211.000000;0.841051
4210.000000;0.823240
4209.000000;0.806510
4208.000000;0.790852
4207.000000;0.776023
4206.000000;0.761353
4205.000000;0.746433
4204.000000;0.731727
4203.000000;0.717974
4202.000000;0.705256
4201.000000;0.693123
4200.000000;0.681317
4199.000000;0.669846
4198.000000;0.658562
4197.000000;0.647274
4196.000000;0.636147
4195.000000;0.625519
4194.000000;0.615424
4193.000000;0.605696
4192.000000;0.596381
4191.000000;0.587587
4190.000000;0.579029
4189.000000;0.570224
4188.000000;0.561132
4187.000000;0.552201
4186.000000;0.543771
4185.000000;0.535781
4184.000000;0.528017
4183.000000;0.520322
4182.000000;0.512565
4181.000000;0.504760
4180.000000;0.497220
4179.000000;0.490281
4178.000000;0.483854
4177.000000;0.477518
4176.000000;0.471076
4175.000000;0.464742
4174.000000;0.458729
4173.000000;0.452955
4172.000000;0.447209
4171.000000;0.441392
4170.000000;0.435502
4169.000000;0.429567
4168.000000;0.423702
4167.000000;0.418086
4166.000000;0.412816
4165.000000;0.407839
4164.000000;0.403036
4163.000000;0.398265
4162.000000;0.393393
4161.000000;0.388433
4160.000000;0.383613
4159.000000;0.379163
4158.000000;0.375016
4157.000000;0.370861
4156.000000;0.366499
4155.000000;0.362027
4154.000000;0.357680
4153.000000;0.353608
4152.000000;0.349789
4151.000000;0.346068
4150.000000;0.342274
4149.000000;0.338396
4148.000000;0.334618
4147.000000;0.331113
4146.000000;0.327858
4145.000000;0.324703
4144.000000;0.321559
4143.000000;0.318391
4142.000000;0.315121
4141.000000;0.311704
4140.000000;0.308238
4139.000000;0.304894
4138.000000;0.301733
4137.000000;0.298718
4136.000000;0.295837
4135.000000;0.293092
4134.000000;0.290403
4133.000000;0.287659
4132.000000;0.284849
4131.000000;0.282057
4130.000000;0.279345
4129.000000;0.276729
4128.000000;0.274238
4127.000000;0.271888
4126.000000;0.269635
4125.000000;0.267437
4124.000000;0.265309
4123.000000;0.263255
4122.000000;0.261189
4121.000000;0.259030
4120.000000;0.256816
4119.000000;0.254635
4118.000000;0.252504
4117.000000;0.250410
4116.000000;0.248381
4115.000000;0.246434
4114.000000;0.244505
4113.000000;0.242555
4112.000000;0.240636
4111.000000;0.238769
4110.000000;0.236850
4109.000000;0.234821
4108.000000;0.232840
4107.000000;0.231133
4106.000000;0.229717
4105.000000;0.228394
4104.000000;0.226991
4103.000000;0.225464
4102.000000;0.223857
4101.000000;0.222263
4100.000000;0.220788
4099.000000;0.219405
4098.000000;0.217947
4097.000000;0.216342
4096.000000;0.214765
4095.000000;0.213403
4094.000000;0.212170
4093.000000;0.210841
4092.000000;0.209401
4091.000000;0.208038
4090.000000;0.206838
4089.000000;0.205706
4088.000000;0.204566
4087.000000;0.203417
4086.000000;0.202213
4085.000000;0.200894
4084.000000;0.199572
4083.000000;0.198464
4082.000000;0.197594
4081.000000;0.196735
4080.000000;0.195720
4079.000000;0.194644
4078.000000;0.193669
4077.000000;0.192793
4076.000000;0.191909
4075.000000;0.190977
4074.000000;0.190019
4073.000000;0.189042
4072.000000;0.188040
4071.000000;0.187046
4070.000000;0.186098
4069.000000;0.185209
4068.000000;0.184392
4067.000000;0.183668
4066.000000;0.183002
4065.000000;0.182283
4064.000000;0.181414
4063.000000;0.180421
4062.000000;0.179445
4061.000000;0.178644
4060.000000;0.178060
4059.000000;0.177545
4058.000000;0.176865
4057.000000;0.175945
4056.000000;0.174958
4055.000000;0.174113
4054.000000;0.173416
4053.000000;0.172713
4052.000000;0.171924
4051.000000;0.171119
4050.000000;0.170374
4049.000000;0.169666
4048.000000;0.168922
4047.000000;0.168101
4046.000000;0.167239
4045.000000;0.166462
4044.000000;0.165913
4043.000000;0.165593
4042.000000;0.165310
4041.000000;0.164866
4040.000000;0.164271
4039.000000;0.163675
4038.000000;0.163134
4037.000000;0.162572
4036.000000;0.161941
4035.000000;0.161298
4034.000000;0.160707
4033.000000;0.160191
4032.000000;0.159760
4031.000000;0.159403
4030.000000;0.159035
4029.000000;0.158546
4028.000000;0.157908
4027.000000;0.157172
4026.000000;0.156398
4025.000000;0.155673
4024.000000;0.155154
4023.000000;0.154940
4022.000000;0.154899
4021.000000;0.154761
4020.000000;0.154399
4019.000000;0.153905
4018.000000;0.153390
4017.000000;0.152837
4016.000000;0.152218
4015.000000;0.151611
4014.000000;0.151119
4013.000000;0.150744
4012.000000;0.150410
4011.000000;0.150087
4010.000000;0.149806
4009.000000;0.149585
4008.000000;0.149368
4007.000000;0.149061
4006.000000;0.148626
4005.000000;0.148144
4004.000000;0.147747
4003.000000;0.147482
4002.000000;0.147274
4001.000000;0.147059
4000.000000;0.146871
3999.000000;0.146731
3998.000000;0.146540
3997.000000;0.146198
3996.000000;0.145797
3995.000000;0.145530
3994.000000;0.145429
3993.000000;0.145311
3992.000000;0.145022
3991.000000;0.144615
3990.000000;0.144245
3989.000000;0.143990
3988.000000;0.143825
3987.000000;0.143699
3986.000000;0.143567
3985.000000;0.143406
3984.000000;0.143233
3983.000000;0.143093
3982.000000;0.142986
3981.000000;0.142864
3980.000000;0.142699
3979.000000;0.142521
3978.000000;0.142356
3977.000000;0.142154
3976.000000;0.141841
3975.000000;0.141421
3974.000000;0.141020
3973.000000;0.140786
3972.000000;0.140741
3971.000000;0.140736
3970.000000;0.140620
3969.000000;0.140426
3968.000000;0.140336
3967.000000;0.140413
3966.000000;0.140476
3965.000000;0.140298
3964.000000;0.139886
3963.000000;0.139460
3962.000000;0.139211
3961.000000;0.139145
3960.000000;0.139156
3959.000000;0.139147
3958.000000;0.139091
3957.000000;0.139026
3956.000000;0.139018
3955.000000;0.139072
3954.000000;0.139085
3953.000000;0.138930
3952.000000;0.138563
3951.000000;0.138042
3950.000000;0.137486
3949.000000;0.137054
3948.000000;0.136891
3947.000000;0.136999
3946.000000;0.137162
3945.000000;0.137110
3944.000000;0.136806
3943.000000;0.136503
3942.000000;0.136472
3941.000000;0.136710
3940.000000;0.136947
3939.000000;0.136931
3938.000000;0.136656
3937.000000;0.136297
3936.000000;0.135957
3935.000000;0.135559
3934.000000;0.135036
3933.000000;0.134539
3932.000000;0.134330
3931.000000;0.134484
3930.000000;0.134781
3929.000000;0.134929
3928.000000;0.134802
3927.000000;0.134449
3926.000000;0.133974
3925.000000;0.133487
3924.000000;0.133066
3923.000000;0.132715
3922.000000;0.132400
3921.000000;0.132159
3920.000000;0.132051
3919.000000;0.132000
3918.000000;0.131848
3917.000000;0.131616
3916.000000;0.131551
3915.000000;0.131800
3914.000000;0.132167
3913.000000;0.132360
3912.000000;0.132321
3911.000000;0.132185
3910.000000;0.132042
3909.000000;0.131892
3908.000000;0.131739
3907.000000;0.131554
3906.000000;0.131244
3905.000000;0.130822
3904.000000;0.130533
3903.000000;0.130595
3902.000000;0.130891
3901.000000;0.131106
3900.000000;0.131152
3899.000000;0.131229
3898.000000;0.131492
3897.000000;0.131864
3896.000000;0.132231
3895.000000;0.132580
3894.000000;0.132867
3893.000000;0.132953
3892.000000;0.132813
3891.000000;0.132667
3890.000000;0.132760
3889.000000;0.133064
3888.000000;0.133336
3887.000000;0.133447
3886.000000;0.133518
3885.000000;0.133747
3884.000000;0.134173
3883.000000;0.134621
3882.000000;0.134898
3881.000000;0.135039
3880.000000;0.135297
3879.000000;0.135886
3878.000000;0.136732
3877.000000;0.137518
3876.000000;0.137989
3875.000000;0.138164
3874.000000;0.138242
3873.000000;0.138378
3872.000000;0.138579
3871.000000;0.138804
3870.000000;0.139123
3869.000000;0.139693
3868.000000;0.140528
3867.000000;0.141366
3866.000000;0.141935
3865.000000;0.142288
3864.000000;0.142711
3863.000000;0.143342
3862.000000;0.144032
3861.000000;0.144612
3860.000000;0.145119
3859.000000;0.145657
3858.000000;0.146201
3857.000000;0.146628
3856.000000;0.146908
3855.000000;0.147175
3854.000000;0.147588
3853.000000;0.148216
3852.000000;0.148987
3851.000000;0.149679
3850.000000;0.150139
3849.000000;0.150529
3848.000000;0.151115
3847.000000;0.151892
3846.000000;0.152593
3845.000000;0.153054
3844.000000;0.153391
3843.000000;0.153786
3842.000000;0.154281
3841.000000;0.154846
3840.000000;0.155509
3839.000000;0.156279
3838.000000;0.157047
3837.000000;0.157682
3836.000000;0.158214
3835.000000;0.158792
3834.000000;0.159480
3833.000000;0.160199
3832.000000;0.160839
3831.000000;0.161369
3830.000000;0.161828
3829.000000;0.162293
3828.000000;0.162844
3827.000000;0.163483
3826.000000;0.164127
3825.000000;0.164727
3824.000000;0.165326
3823.000000;0.165972
3822.000000;0.166652
3821.000000;0.167367
3820.000000;0.168192
3819.000000;0.169124
3818.000000;0.169965
3817.000000;0.170558
3816.000000;0.170992
3815.000000;0.171485
3814.000000;0.172112
3813.000000;0.172754
3812.000000;0.173329
3811.000000;0.173897
3810.000000;0.174532
3809.000000;0.175243
3808.000000;0.176014
3807.000000;0.176799
3806.000000;0.177545
3805.000000;0.178252
3804.000000;0.178945
3803.000000;0.179603
3802.000000;0.180146
3801.000000;0.180597
3800.000000;0.181146
3799.000000;0.181878
3798.000000;0.182624
3797.000000;0.183256
3796.000000;0.183908
3795.000000;0.184752
3794.000000;0.185692
3793.000000;0.186458
3792.000000;0.186988
3791.000000;0.187484
3790.000000;0.188092
3789.000000;0.188766
3788.000000;0.189442
3787.000000;0.190123
3786.000000;0.190765
3785.000000;0.191272
3784.000000;0.191694
3783.000000;0.192255
3782.000000;0.193083
3781.000000;0.194004
3780.000000;0.194746
3779.000000;0.195252
3778.000000;0.195732
3777.000000;0.196426
3776.000000;0.197368
3775.000000;0.198385
3774.000000;0.199272
3773.000000;0.199965
3772.000000;0.200550
3771.000000;0.201132
3770.000000;0.201758
3769.000000;0.202450
3768.000000;0.203228
3767.000000;0.204065
3766.000000;0.204897
3765.000000;0.205718
3764.000000;0.206595
3763.000000;0.207541
3762.000000;0.208454
3761.000000;0.209246
3760.000000;0.209957
3759.000000;0.210644
3758.000000;0.211275
3757.000000;0.211839
3756.000000;0.212470
3755.000000;0.213307
3754.000000;0.214337
3753.000000;0.215467
3752.000000;0.216639
3751.000000;0.217767
3750.000000;0.218707
3749.000000;0.219455
3748.000000;0.220212
3747.000000;0.221073
3746.000000;0.221843
3745.000000;0.222351
3744.000000;0.222776
3743.000000;0.223455
3742.000000;0.224345
3741.000000;0.225097
3740.000000;0.225678
3739.000000;0.226380
3738.000000;0.227319
3737.000000;0.228287
3736.000000;0.229096
3735.000000;0.229804
3734.000000;0.230533
3733.000000;0.231281
3732.000000;0.232009
3731.000000;0.232725
3730.000000;0.233404
3729.000000;0.234011
3728.000000;0.234632
3727.000000;0.235419
3726.000000;0.236382
3725.000000;0.237363
3724.000000;0.238221
3723.000000;0.238941
3722.000000;0.239564
3721.000000;0.240121
3720.000000;0.240695
3719.000000;0.241392
3718.000000;0.242210
3717.000000;0.243043
3716.000000;0.243820
3715.000000;0.244563
3714.000000;0.245301
3713.000000;0.246033
3712.000000;0.246763
3711.000000;0.247472
3710.000000;0.248109
3709.000000;0.248680
3708.000000;0.249314
3707.000000;0.250110
3706.000000;0.250976
3705.000000;0.251734
3704.000000;0.252347
3703.000000;0.252927
3702.000000;0.253558
3701.000000;0.254266
3700.000000;0.255109
3699.000000;0.256144
3698.000000;0.257284
3697.000000;0.258361
3696.000000;0.259313
3695.000000;0.260178
3694.000000;0.260945
3693.000000;0.261600
3692.000000;0.262277
3691.000000;0.263157
3690.000000;0.264201
3689.000000;0.265167
3688.000000;0.265925
3687.000000;0.266578
3686.000000;0.267249
3685.000000;0.267928
3684.000000;0.268606
3683.000000;0.269348
3682.000000;0.270166
3681.000000;0.270980
3680.000000;0.271763
3679.000000;0.272634
3678.000000;0.273683
3677.000000;0.274826
3676.000000;0.275892
3675.000000;0.276811
3674.000000;0.277646
3673.000000;0.278451
3672.000000;0.279246
3671.000000;0.280045
3670.000000;0.280801
3669.000000;0.281448
3668.000000;0.282023
3667.000000;0.282626
3666.000000;0.283305
3665.000000;0.283987
3664.000000;0.284588
3663.000000;0.285129
3662.000000;0.285718
3661.000000;0.286464
3660.000000;0.287406
3659.000000;0.288478
3658.000000;0.289570
3657.000000;0.290691
3656.000000;0.291984
3655.000000;0.293489
3654.000000;0.294964
3653.000000;0.296140
3652.000000;0.297086
3651.000000;0.298090
3650.000000;0.299217
3649.000000;0.300200
3648.000000;0.300785
3647.000000;0.301012
3646.000000;0.301136
3645.000000;0.301383
3644.000000;0.301870
3643.000000;0.302589
3642.000000;0.303384
3641.000000;0.304087
3640.000000;0.304743
3639.000000;0.305573
3638.000000;0.306688
3637.000000;0.307935
3636.000000;0.309080
3635.000000;0.310026
3634.000000;0.310827
3633.000000;0.311586
3632.000000;0.312375
3631.000000;0.313200
3630.000000;0.314009
3629.000000;0.314779
3628.000000;0.315575
3627.000000;0.316427
3626.000000;0.317228
3625.000000;0.317946
3624.000000;0.318773
3623.000000;0.319879
3622.000000;0.321110
3621.000000;0.322120
3620.000000;0.322800
3619.000000;0.323380
3618.000000;0.324110
3617.000000;0.324999
3616.000000;0.325915
3615.000000;0.326764
3614.000000;0.327531
3613.000000;0.328289
3612.000000;0.329203
3611.000000;0.330387
3610.000000;0.331714
3609.000000;0.332878
3608.000000;0.333697
3607.000000;0.334262
3606.000000;0.334781
3605.000000;0.335383
3604.000000;0.336103
3603.000000;0.336922
3602.000000;0.337784
3601.000000;0.338670
3600.000000;0.339638
3599.000000;0.340705
3598.000000;0.341731
3597.000000;0.342597
3596.000000;0.343449
3595.000000;0.344563
3594.000000;0.345956
3593.000000;0.347297
3592.000000;0.348265
3591.000000;0.348867
3590.000000;0.349348
3589.000000;0.349929
3588.000000;0.350702
3587.000000;0.351633
3586.000000;0.352577
3585.000000;0.353366
3584.000000;0.353980
3583.000000;0.354575
3582.000000;0.355312
3581.000000;0.356245
3580.000000;0.357359
3579.000000;0.358611
3578.000000;0.359888
3577.000000;0.361023
3576.000000;0.361906
3575.000000;0.362548
3574.000000;0.363059
3573.000000;0.363645
3572.000000;0.364544
3571.000000;0.365823
3570.000000;0.367219
3569.000000;0.368349
3568.000000;0.369132
3567.000000;0.369861
3566.000000;0.370814
3565.000000;0.371940
3564.000000;0.372996
3563.000000;0.373861
3562.000000;0.374612
3561.000000;0.375366
3560.000000;0.376147
3559.000000;0.376906
3558.000000;0.377628
3557.000000;0.378394
3556.000000;0.379326
3555.000000;0.380425
3554.000000;0.381531
3553.000000;0.382495
3552.000000;0.383334
3551.000000;0.384112
3550.000000;0.384785
3549.000000;0.385326
3548.000000;0.385946
3547.000000;0.386968
3546.000000;0.388451
3545.000000;0.390109
3544.000000;0.391623
3543.000000;0.392869
3542.000000;0.393836
3541.000000;0.394522
3540.000000;0.395030
3539.000000;0.395588
3538.000000;0.396375
3537.000000;0.397379
3536.000000;0.398485
3535.000000;0.399580
3534.000000;0.400539
3533.000000;0.401252
3532.000000;0.401754
3531.000000;0.402230
3530.000000;0.402821
3529.000000;0.403542
3528.000000;0.404415
3527.000000;0.405556
3526.000000;0.406991
3525.000000;0.408489
3524.000000;0.409708
3523.000000;0.410523
3522.000000;0.411155
3521.000000;0.411961
3520.000000;0.413111
3519.000000;0.414441
3518.000000;0.415624
3517.000000;0.416520
3516.000000;0.417289
3515.000000;0.418138
3514.000000;0.419047
3513.000000;0.419878
3512.000000;0.420630
3511.000000;0.421412
3510.000000;0.422201
3509.000000;0.422877
3508.000000;0.423539
3507.000000;0.424548
3506.000000;0.426097
3505.000000;0.427905
3504.000000;0.429488
3503.000000;0.430643
3502.000000;0.431529
3501.000000;0.432360
3500.000000;0.433167
3499.000000;0.433882
3498.000000;0.434513
3497.000000;0.435182
3496.000000;0.436018
3495.000000;0.437067
3494.000000;0.438290
3493.000000;0.439626
3492.000000;0.440976
3491.000000;0.442144
3490.000000;0.442922
3489.000000;0.443346
3488.000000;0.443779
3487.000000;0.444614
3486.000000;0.445897
3485.000000;0.447354
3484.000000;0.448726
3483.000000;0.449930
3482.000000;0.450909
3481.000000;0.451594
3480.000000;0.452064
3479.000000;0.452591
3478.000000;0.453408
3477.000000;0.454518
3476.000000;0.455796
3475.000000;0.457130
3474.000000;0.458388
3473.000000;0.459370
3472.000000;0.459927
3471.000000;0.460138
3470.000000;0.460311
3469.000000;0.460833
3468.000000;0.461975
3467.000000;0.463688
3466.000000;0.465532
3465.000000;0.466942
3464.000000;0.467709
3463.000000;0.468152
3462.000000;0.468768
3461.000000;0.469775
3460.000000;0.471035
3459.000000;0.472296
3458.000000;0.473379
3457.000000;0.474233
3456.000000;0.474938
3455.000000;0.475679
3454.000000;0.476621
3453.000000;0.477807
3452.000000;0.479169
3451.000000;0.480607
3450.000000;0.481993
3449.000000;0.483178
3448.000000;0.484108
3447.000000;0.484922
3446.000000;0.485816
3445.000000;0.486823
3444.000000;0.487819
3443.000000;0.488749
3442.000000;0.489745
3441.000000;0.490907
3440.000000;0.492055
3439.000000;0.492863
3438.000000;0.493289
3437.000000;0.493718
3436.000000;0.494562
3435.000000;0.495793
3434.000000;0.497012
3433.000000;0.497978
3432.000000;0.498870
3431.000000;0.499974
3430.000000;0.501293
3429.000000;0.502626
3428.000000;0.503882
3427.000000;0.505094
3426.000000;0.506161
3425.000000;0.506850
3424.000000;0.507143
3423.000000;0.507420
3422.000000;0.508142
3421.000000;0.509441
3420.000000;0.511065
3419.000000;0.512650
3418.000000;0.513979
3417.000000;0.515034
3416.000000;0.515938
3415.000000;0.516852
3414.000000;0.517845
3413.000000;0.518836
3412.000000;0.519681
3411.000000;0.520345
3410.000000;0.520977
3409.000000;0.521820
3408.000000;0.523024
3407.000000;0.524520
3406.000000;0.526054
3405.000000;0.527404
3404.000000;0.528586
3403.000000;0.529856
3402.000000;0.531424
3401.000000;0.533154
3400.000000;0.534568
3399.000000;0.535224
3398.000000;0.535154
3397.000000;0.534920
3396.000000;0.535207
3395.000000;0.536303
3394.000000;0.537928
3393.000000;0.539495
3392.000000;0.540558
3391.000000;0.541085
3390.000000;0.541397
3389.000000;0.541854
3388.000000;0.542585
3387.000000;0.543486
3386.000000;0.544455
3385.000000;0.545527
3384.000000;0.546739
3383.000000;0.547964
3382.000000;0.549039
3381.000000;0.549997
3380.000000;0.551034
3379.000000;0.552225
3378.000000;0.553425
3377.000000;0.554494
3376.000000;0.555499
3375.000000;0.556626
3374.000000;0.557954
3373.000000;0.559376
3372.000000;0.560683
3371.000000;0.561700
3370.000000;0.562416
3369.000000;0.563033
3368.000000;0.563800
3367.000000;0.564778
3366.000000;0.565822
3365.000000;0.566777
3364.000000;0.567581
3363.000000;0.568202
3362.000000;0.568679
3361.000000;0.569263
3360.000000;0.570306
3359.000000;0.571842
3358.000000;0.573431
3357.000000;0.574586
3356.000000;0.575265
3355.000000;0.575799
3354.000000;0.576444
3353.000000;0.577207
3352.000000;0.578035
3351.000000;0.578941
3350.000000;0.579886
3349.000000;0.580735
3348.000000;0.581429
3347.000000;0.582144
3346.000000;0.583190
3345.000000;0.584737
3344.000000;0.586611
3343.000000;0.588373
3342.000000;0.589668
3341.000000;0.590551
3340.000000;0.591411
3339.000000;0.592508
3338.000000;0.593670
3337.000000;0.594572
3336.000000;0.595186
3335.000000;0.595794
3334.000000;0.596546
3333.000000;0.597249
3332.000000;0.597688
3331.000000;0.598005
3330.000000;0.598588
3329.000000;0.599644
3328.000000;0.601002
3327.000000;0.602334
3326.000000;0.603446
3325.000000;0.604316
3324.000000;0.604969
3323.000000;0.605479
3322.000000;0.606028
3321.000000;0.606801
3320.000000;0.607751
3319.000000;0.608598
3318.000000;0.609184
3317.000000;0.609738
3316.000000;0.610657
3315.000000;0.612046
3314.000000;0.613619
3313.000000;0.615024
3312.000000;0.616155
3311.000000;0.617135
3310.000000;0.618108
3309.000000;0.619119
3308.000000;0.620079
3307.000000;0.620823
3306.000000;0.621273
3305.000000;0.621622
3304.000000;0.622268
3303.000000;0.623499
3302.000000;0.625236
3301.000000;0.627082
3300.000000;0.628609
3299.000000;0.629632
3298.000000;0.630298
3297.000000;0.630918
3296.000000;0.631675
3295.000000;0.632508
3294.000000;0.633309
3293.000000;0.634122
3292.000000;0.635036
3291.000000;0.635955
3290.000000;0.636689
3289.000000;0.637258
3288.000000;0.637916
3287.000000;0.638813
3286.000000;0.639813
3285.000000;0.640721
3284.000000;0.641552
3283.000000;0.642480
3282.000000;0.643630
3281.000000;0.645004
3280.000000;0.646512
3279.000000;0.647974
3278.000000;0.649140
3277.000000;0.649815
3276.000000;0.650007
3275.000000;0.649956
3274.000000;0.650006
3273.000000;0.650372
3272.000000;0.650970
3271.000000;0.651514
3270.000000;0.651857
3269.000000;0.652143
3268.000000;0.652571
3267.000000;0.653158
3266.000000;0.653883
3265.000000;0.654875
3264.000000;0.656222
3263.000000;0.657700
3262.000000;0.659026
3261.000000;0.660282
3260.000000;0.661706
3259.000000;0.663113
3258.000000;0.664015
3257.000000;0.664440
3256.000000;0.665108
3255.000000;0.666482
3254.000000;0.668045
3253.000000;0.668895
3252.000000;0.668811
3251.000000;0.668319
3250.000000;0.667899
3249.000000;0.667601
3248.000000;0.667421
3247.000000;0.667584
3246.000000;0.668307
3245.000000;0.669528
3244.000000;0.671010
3243.000000;0.672564
3242.000000;0.674075
3241.000000;0.675421
3240.000000;0.676486
3239.000000;0.677224
3238.000000;0.677705
3237.000000;0.678138
3236.000000;0.678770
3235.000000;0.679712
3234.000000;0.680858
3233.000000;0.682013
3232.000000;0.683043
3231.000000;0.683892
3230.000000;0.684566
3229.000000;0.685170
3228.000000;0.685834
3227.000000;0.686501
3226.000000;0.686894
3225.000000;0.686847
3224.000000;0.686549
3223.000000;0.686353
3222.000000;0.686434
3221.000000;0.686762
3220.000000;0.687285
3219.000000;0.687932
3218.000000;0.688539
3217.000000;0.688988
3216.000000;0.689401
3215.000000;0.690018
3214.000000;0.690894
3213.000000;0.691885
3212.000000;0.692926
3211.000000;0.694122
3210.000000;0.695511
3209.000000;0.696854
3208.000000;0.697764
3207.000000;0.698002
3206.000000;0.697618
3205.000000;0.696925
3204.000000;0.696348
3203.000000;0.696270
3202.000000;0.696958
3201.000000;0.698540
3200.000000;0.700852
3199.000000;0.703244
3198.000000;0.704804
3197.000000;0.705130
3196.000000;0.704813
3195.000000;0.704880
3194.000000;0.705756
3193.000000;0.707010
3192.000000;0.707998
3191.000000;0.708441
3190.000000;0.708336
3189.000000;0.707708
3188.000000;0.706746
3187.000000;0.705904
3186.000000;0.705565
3185.000000;0.705709
3184.000000;0.706136
3183.000000;0.706906
3182.000000;0.708238
3181.000000;0.709997
3180.000000;0.711553
3179.000000;0.712280
3178.000000;0.712095
3177.000000;0.711479
3176.000000;0.711110
3175.000000;0.711438
3174.000000;0.712405
3173.000000;0.713487
3172.000000;0.714128
3171.000000;0.714251
3170.000000;0.714275
3169.000000;0.714616
3168.000000;0.715289
3167.000000;0.716046
3166.000000;0.716730
3165.000000;0.717323
3164.000000;0.717771
3163.000000;0.717962
3162.000000;0.717894
3161.000000;0.717737
3160.000000;0.717682
3159.000000;0.717831
3158.000000;0.718248
3157.000000;0.718986
3156.000000;0.719951
3155.000000;0.720811
3154.000000;0.721230
3153.000000;0.721265
3152.000000;0.721400
3151.000000;0.722063
3150.000000;0.723100
3149.000000;0.723868
3148.000000;0.723921
3147.000000;0.723495
3146.000000;0.723206
3145.000000;0.723369
3144.000000;0.723793
3143.000000;0.724148
3142.000000;0.724327
3141.000000;0.724408
3140.000000;0.724481
3139.000000;0.724632
3138.000000;0.724937
3137.000000;0.725332
3136.000000;0.725622
3135.000000;0.725769
3134.000000;0.726042
3133.000000;0.726703
3132.000000;0.727601
3131.000000;0.728251
3130.000000;0.728371
3129.000000;0.728155
3128.000000;0.727962
3127.000000;0.727877
3126.000000;0.727708
3125.000000;0.727323
3124.000000;0.726925
3123.000000;0.726934
3122.000000;0.727592
3121.000000;0.728711
3120.000000;0.729754
3119.000000;0.730152
3118.000000;0.729611
3117.000000;0.728304
3116.000000;0.726884
3115.000000;0.726183
3114.000000;0.726653
3113.000000;0.728018
3112.000000;0.729541
3111.000000;0.730664
3110.000000;0.731289
3109.000000;0.731498
3108.000000;0.731259
3107.000000;0.730548
3106.000000;0.729573
3105.000000;0.728739
3104.000000;0.728425
3103.000000;0.728751
3102.000000;0.729447
3101.000000;0.729945
3100.000000;0.729845
3099.000000;0.729345
3098.000000;0.728959
3097.000000;0.728793
3096.000000;0.728472
3095.000000;0.727925
3094.000000;0.727757
3093.000000;0.728446
3092.000000;0.729525
3091.000000;0.730021
3090.000000;0.729599
3089.000000;0.728802
3088.000000;0.728246
3087.000000;0.728079
3086.000000;0.728224
3085.000000;0.728611
3084.000000;0.729025
3083.000000;0.729117
3082.000000;0.728817
3081.000000;0.728520
3080.000000;0.728694
3079.000000;0.729437
3078.000000;0.730507
3077.000000;0.731582
3076.000000;0.732400
3075.000000;0.732762
3074.000000;0.732556
3073.000000;0.731773
3072.000000;0.730532
3071.000000;0.729156
3070.000000;0.728098
3069.000000;0.727581
3068.000000;0.727364
3067.000000;0.727041
3066.000000;0.726524
3065.000000;0.726056
3064.000000;0.725820
3063.000000;0.725800
3062.000000;0.725991
3061.000000;0.726437
3060.000000;0.726996
3059.000000;0.727334
3058.000000;0.727244
3057.000000;0.726778
3056.000000;0.726049
3055.000000;0.725173
3054.000000;0.724481
3053.000000;0.724498
3052.000000;0.725450
3051.000000;0.726850
3050.000000;0.727731
3049.000000;0.727371
3048.000000;0.725881
3047.000000;0.724156
3046.000000;0.723193
3045.000000;0.723301
3044.000000;0.723934
3043.000000;0.724387
3042.000000;0.724537
3041.000000;0.724727
3040.000000;0.725015
3039.000000;0.724930
3038.000000;0.724018
3037.000000;0.722402
3036.000000;0.720723
3035.000000;0.719704
3034.000000;0.719747
3033.000000;0.720672
3032.000000;0.721734
3031.000000;0.722142
3030.000000;0.721693
3029.000000;0.720809
3028.000000;0.719961
3027.000000;0.719290
3026.000000;0.718753
3025.000000;0.718282
3024.000000;0.717694
3023.000000;0.716781
3022.000000;0.715684
3021.000000;0.714931
3020.000000;0.714879
3019.000000;0.715289
3018.000000;0.715638
3017.000000;0.715713
3016.000000;0.715733
3015.000000;0.715954
3014.000000;0.716345
3013.000000;0.716634
3012.000000;0.716612
3011.000000;0.716397
3010.000000;0.716369
3009.000000;0.716688
3008.000000;0.716932
3007.000000;0.716436
3006.000000;0.715071
3005.000000;0.713453
3004.000000;0.712285
3003.000000;0.711713
3002.000000;0.711427
3001.000000;0.711147
3000.000000;0.710798
2999.000000;0.710365
2998.000000;0.709821
2997.000000;0.709186
2996.000000;0.708509
2995.000000;0.707813
2994.000000;0.707170
2993.000000;0.706768
2992.000000;0.706785
2991.000000;0.707192
2990.000000;0.707744
2989.000000;0.708185
2988.000000;0.708413
2987.000000;0.708430
2986.000000;0.708142
2985.000000;0.707314
2984.000000;0.705881
2983.000000;0.704319
2982.000000;0.703444
2981.000000;0.703600
2980.000000;0.704195
2979.000000;0.704308
2978.000000;0.703701
2977.000000;0.702895
2976.000000;0.702285
2975.000000;0.701621
2974.000000;0.700525
2973.000000;0.699153
2972.000000;0.698016
2971.000000;0.697355
2970.000000;0.697024
2969.000000;0.696874
2968.000000;0.696925
2967.000000;0.697130
2966.000000;0.697223
2965.000000;0.696963
2964.000000;0.696437
2963.000000;0.695994
2962.000000;0.695859
2961.000000;0.695909
2960.000000;0.695859
2959.000000;0.695629
2958.000000;0.695411
2957.000000;0.695339
2956.000000;0.695233
2955.000000;0.694778
2954.000000;0.693920
2953.000000;0.692916
2952.000000;0.692052
2951.000000;0.691446
2950.000000;0.691098
2949.000000;0.690954
2948.000000;0.690890
2947.000000;0.690749
2946.000000;0.690428
2945.000000;0.689907
2944.000000;0.689220
2943.000000;0.688480
2942.000000;0.687830
2941.000000;0.687231
2940.000000;0.686413
2939.000000;0.685262
2938.000000;0.684143
2937.000000;0.683557
2936.000000;0.683501
2935.000000;0.683468
2934.000000;0.683137
2933.000000;0.682721
2932.000000;0.682470
2931.000000;0.682172
2930.000000;0.681458
2929.000000;0.680438
2928.000000;0.679678
2927.000000;0.679526
2926.000000;0.679694
2925.000000;0.679565
2924.000000;0.678805
2923.000000;0.677613
2922.000000;0.676481
2921.000000;0.675745
2920.000000;0.675335
2919.000000;0.674861
2918.000000;0.673967
2917.000000;0.672636
2916.000000;0.671242
2915.000000;0.670307
2914.000000;0.670165
2913.000000;0.670741
2912.000000;0.671604
2911.000000;0.672241
2910.000000;0.672347
2909.000000;0.671904
2908.000000;0.671077
2907.000000;0.670052
2906.000000;0.668959
2905.000000;0.667911
2904.000000;0.667055
2903.000000;0.666533
2902.000000;0.666332
2901.000000;0.666244
2900.000000;0.666089
2899.000000;0.665918
2898.000000;0.665819
2897.000000;0.665558
2896.000000;0.664685
2895.000000;0.663110
2894.000000;0.661357
2893.000000;0.660073
2892.000000;0.659428
2891.000000;0.659134
2890.000000;0.658929
2889.000000;0.658853
2888.000000;0.659089
2887.000000;0.659651
2886.000000;0.660180
2885.000000;0.660047
2884.000000;0.658842
2883.000000;0.656858
2882.000000;0.654911
2881.000000;0.653586
2880.000000;0.652814
2879.000000;0.652271
2878.000000;0.651884
2877.000000;0.651718
2876.000000;0.651619
2875.000000;0.651315
2874.000000;0.650775
2873.000000;0.650163
2872.000000;0.649515
2871.000000;0.648734
2870.000000;0.647864
2869.000000;0.647084
2868.000000;0.646468
2867.000000;0.645978
2866.000000;0.645627
2865.000000;0.645402
2864.000000;0.645118
2863.000000;0.644670
2862.000000;0.644339
2861.000000;0.644508
2860.000000;0.645053
2859.000000;0.645328
2858.000000;0.644829
2857.000000;0.643587
2856.000000;0.641897
2855.000000;0.640047
2854.000000;0.638398
2853.000000;0.637328
2852.000000;0.636815
2851.000000;0.636346
2850.000000;0.635503
2849.000000;0.634513
2848.000000;0.633958
2847.000000;0.634056
2846.000000;0.634462
2845.000000;0.634724
2844.000000;0.634714
2843.000000;0.634564
2842.000000;0.634311
2841.000000;0.633767
2840.000000;0.632773
2839.000000;0.631538
2838.000000;0.630578
2837.000000;0.630219
2836.000000;0.630235
2835.000000;0.630102
2834.000000;0.629548
2833.000000;0.628714
2832.000000;0.627840
2831.000000;0.627010
2830.000000;0.626234
2829.000000;0.625550
2828.000000;0.624949
2827.000000;0.624345
2826.000000;0.623681
2825.000000;0.622974
2824.000000;0.622205
2823.000000;0.621319
2822.000000;0.620432
2821.000000;0.619918
2820.000000;0.620122
2819.000000;0.620958
2818.000000;0.621827
2817.000000;0.621982
2816.000000;0.621072
2815.000000;0.619393
2814.000000;0.617612
2813.000000;0.616205
2812.000000;0.615186
2811.000000;0.614358
2810.000000;0.613662
2809.000000;0.613176
2808.000000;0.612885
2807.000000;0.612669
2806.000000;0.612474
2805.000000;0.612309
2804.000000;0.612060
2803.000000;0.611519
2802.000000;0.610676
2801.000000;0.609839
2800.000000;0.609361
2799.000000;0.609281
2798.000000;0.609266
2797.000000;0.608852
2796.000000;0.607799
2795.000000;0.606307
2794.000000;0.604906
2793.000000;0.604047
2792.000000;0.603778
2791.000000;0.603808
2790.000000;0.603800
2789.000000;0.603568
2788.000000;0.603100
2787.000000;0.602532
2786.000000;0.602076
2785.000000;0.601812
2784.000000;0.601545
2783.000000;0.600926
2782.000000;0.599778
2781.000000;0.598278
2780.000000;0.596890
2779.000000;0.596082
2778.000000;0.595965
2777.000000;0.596133
2776.000000;0.596001
2775.000000;0.595365
2774.000000;0.594499
2773.000000;0.593650
2772.000000;0.592726
2771.000000;0.591656
2770.000000;0.590760
2769.000000;0.590399
2768.000000;0.590402
2767.000000;0.590207
2766.000000;0.589553
2765.000000;0.588690
2764.000000;0.587906
2763.000000;0.587197
2762.000000;0.586469
2761.000000;0.585780
2760.000000;0.585224
2759.000000;0.584749
2758.000000;0.584215
2757.000000;0.583535
2756.000000;0.582729
2755.000000;0.581917
2754.000000;0.581259
2753.000000;0.580787
2752.000000;0.580336
2751.000000;0.579759
2750.000000;0.579162
2749.000000;0.578731
2748.000000;0.578397
2747.000000;0.577903
2746.000000;0.577177
2745.000000;0.576403
2744.000000;0.575728
2743.000000;0.575157
2742.000000;0.574755
2741.000000;0.574664
2740.000000;0.574792
2739.000000;0.574709
2738.000000;0.574020
2737.000000;0.572747
2736.000000;0.571270
2735.000000;0.570058
2734.000000;0.569473
2733.000000;0.569597
2732.000000;0.570092
2731.000000;0.570374
2730.000000;0.570072
2729.000000;0.569271
2728.000000;0.568291
2727.000000;0.567392
2726.000000;0.566695
2725.000000;0.566166
2724.000000;0.565582
2723.000000;0.564725
2722.000000;0.563722
2721.000000;0.563009
2720.000000;0.562790
2719.000000;0.562704
2718.000000;0.562215
2717.000000;0.561236
2716.000000;0.560171
2715.000000;0.559408
2714.000000;0.558973
2713.000000;0.558661
2712.000000;0.558270
2711.000000;0.557687
2710.000000;0.556886
2709.000000;0.555967
2708.000000;0.555120
2707.000000;0.554480
2706.000000;0.554017
2705.000000;0.553624
2704.000000;0.553289
2703.000000;0.553130
2702.000000;0.553193
2701.000000;0.553240
2700.000000;0.552855
2699.000000;0.551847
2698.000000;0.550506
2697.000000;0.549357
2696.000000;0.548702
2695.000000;0.548435
2694.000000;0.548261
2693.000000;0.547973
2692.000000;0.547528
2691.000000;0.546965
2690.000000;0.546309
2689.000000;0.545551
2688.000000;0.544720
2687.000000;0.543971
2686.000000;0.543496
2685.000000;0.543260
2684.000000;0.542943
2683.000000;0.542271
2682.000000;0.541384
2681.000000;0.540694
2680.000000;0.540425
2679.000000;0.540405
2678.000000;0.540332
2677.000000;0.540052
2676.000000;0.539549
2675.000000;0.538810
2674.000000;0.537821
2673.000000;0.536659
2672.000000;0.535511
2671.000000;0.534599
2670.000000;0.534039
2669.000000;0.533715
2668.000000;0.533332
2667.000000;0.532676
2666.000000;0.531802
2665.000000;0.530916
2664.000000;0.530117
2663.000000;0.529370
2662.000000;0.528671
2661.000000;0.528082
2660.000000;0.527615
2659.000000;0.527182
2658.000000;0.526683
2657.000000;0.526085
2656.000000;0.525471
2655.000000;0.525043
2654.000000;0.524953
2653.000000;0.525014
2652.000000;0.524761
2651.000000;0.523958
2650.000000;0.522935
2649.000000;0.522154
2648.000000;0.521599
2647.000000;0.520906
2646.000000;0.520020
2645.000000;0.519303
2644.000000;0.518943
2643.000000;0.518650
2642.000000;0.518139
2641.000000;0.517580
2640.000000;0.517311
2639.000000;0.517310
2638.000000;0.517230
2637.000000;0.516799
2636.000000;0.515984
2635.000000;0.514890
2634.000000;0.513730
2633.000000;0.512807
2632.000000;0.512279
2631.000000;0.511972
2630.000000;0.511590
2629.000000;0.511073
2628.000000;0.510586
2627.000000;0.510187
2626.000000;0.509694
2625.000000;0.508911
2624.000000;0.507869
2623.000000;0.506805
2622.000000;0.505987
2621.000000;0.505546
2620.000000;0.505392
2619.000000;0.505296
2618.000000;0.505115
2617.000000;0.504873
2616.000000;0.504578
2615.000000;0.504076
2614.000000;0.503246
2613.000000;0.502244
2612.000000;0.501379
2611.000000;0.500734
2610.000000;0.500112
2609.000000;0.499379
2608.000000;0.498678
2607.000000;0.498197
2606.000000;0.497874
2605.000000;0.497484
2604.000000;0.496964
2603.000000;0.496506
2602.000000;0.496283
2601.000000;0.496182
2600.000000;0.495881
2599.000000;0.495183
2598.000000;0.494231
2597.000000;0.493369
2596.000000;0.492814
2595.000000;0.492511
2594.000000;0.492260
2593.000000;0.491927
2592.000000;0.491483
2591.000000;0.490932
2590.000000;0.490280
2589.000000;0.489569
2588.000000;0.488865
2587.000000;0.488187
2586.000000;0.487495
2585.000000;0.486750
2584.000000;0.485981
2583.000000;0.485262
2582.000000;0.484637
2581.000000;0.484079
2580.000000;0.483519
2579.000000;0.482928
2578.000000;0.482341
2577.000000;0.481791
2576.000000;0.481228
2575.000000;0.480565
2574.000000;0.479797
2573.000000;0.479030
2572.000000;0.478386
2571.000000;0.477917
2570.000000;0.477601
2569.000000;0.477372
2568.000000;0.477141
2567.000000;0.476860
2566.000000;0.476572
2565.000000;0.476315
2564.000000;0.475956
2563.000000;0.475231
2562.000000;0.474043
2561.000000;0.472618
2560.000000;0.471293
2559.000000;0.470229
2558.000000;0.469429
2557.000000;0.468936
2556.000000;0.468808
2555.000000;0.468892
2554.000000;0.468830
2553.000000;0.468365
2552.000000;0.467561
2551.000000;0.466659
2550.000000;0.465844
2549.000000;0.465217
2548.000000;0.464846
2547.000000;0.464699
2546.000000;0.464578
2545.000000;0.464282
2544.000000;0.463828
2543.000000;0.463396
2542.000000;0.463031
2541.000000;0.462511
2540.000000;0.461580
2539.000000;0.460285
2538.000000;0.458994
2537.000000;0.458089
2536.000000;0.457649
2535.000000;0.457454
2534.000000;0.457274
2533.000000;0.457081
2532.000000;0.456946
2531.000000;0.456780
2530.000000;0.456349
2529.000000;0.455577
2528.000000;0.454672
2527.000000;0.453835
2526.000000;0.452987
2525.000000;0.451951
2524.000000;0.450833
2523.000000;0.449963
2522.000000;0.449455
2521.000000;0.449073
2520.000000;0.448613
2519.000000;0.448205
2518.000000;0.448067
2517.000000;0.448099
2516.000000;0.447933
2515.000000;0.447348
2514.000000;0.446497
2513.000000;0.445704
2512.000000;0.445156
2511.000000;0.444804
2510.000000;0.444491
2509.000000;0.444129
2508.000000;0.443751
2507.000000;0.443377
2506.000000;0.442879
2505.000000;0.442105
2504.000000;0.441153
2503.000000;0.440349
2502.000000;0.439861
2501.000000;0.439474
2500.000000;0.438887
2499.000000;0.438104
2498.000000;0.437396
2497.000000;0.436945
2496.000000;0.436717
2495.000000;0.436597
2494.000000;0.436453
2493.000000;0.436105
2492.000000;0.435440
2491.000000;0.434574
2490.000000;0.433732
2489.000000;0.432963
2488.000000;0.432145
2487.000000;0.431282
2486.000000;0.430584
2485.000000;0.430217
2484.000000;0.430106
2483.000000;0.430051
2482.000000;0.429871
2481.000000;0.429431
2480.000000;0.428727
2479.000000;0.427993
2478.000000;0.427535
2477.000000;0.427340
2476.000000;0.427023
2475.000000;0.426283
2474.000000;0.425252
2473.000000;0.424264
2472.000000;0.423444
2471.000000;0.422730
2470.000000;0.422160
2469.000000;0.421896
2468.000000;0.421955
2467.000000;0.422097
2466.000000;0.422026
2465.000000;0.421599
2464.000000;0.420862
2463.000000;0.419977
2462.000000;0.419141
2461.000000;0.418479
2460.000000;0.417979
2459.000000;0.417525
2458.000000;0.416983
2457.000000;0.416257
2456.000000;0.415344
2455.000000;0.414411
2454.000000;0.413710
2453.000000;0.413358
2452.000000;0.413233
2451.000000;0.413147
2450.000000;0.413044
2449.000000;0.412929
2448.000000;0.412700
2447.000000;0.412203
2446.000000;0.411420
2445.000000;0.410482
2444.000000;0.409525
2443.000000;0.408630
2442.000000;0.407874
2441.000000;0.407312
2440.000000;0.406878
2439.000000;0.406434
2438.000000;0.405918
2437.000000;0.405373
2436.000000;0.404823
2435.000000;0.404219
2434.000000;0.403547
2433.000000;0.402872
2432.000000;0.402241
2431.000000;0.401620
2430.000000;0.401003
2429.000000;0.400474
2428.000000;0.400092
2427.000000;0.399739
2426.000000;0.399189
2425.000000;0.398363
2424.000000;0.397456
2423.000000;0.396772
2422.000000;0.396440
2421.000000;0.396288
2420.000000;0.396004
2419.000000;0.395405
2418.000000;0.394573
2417.000000;0.393744
2416.000000;0.393103
2415.000000;0.392671
2414.000000;0.392352
2413.000000;0.392025
2412.000000;0.391615
2411.000000;0.391118
2410.000000;0.390584
2409.000000;0.390069
2408.000000;0.389573
2407.000000;0.389048
2406.000000;0.388456
2405.000000;0.387812
2404.000000;0.387144
2403.000000;0.386433
2402.000000;0.385635
2401.000000;0.384786
2400.000000;0.384056
2399.000000;0.383619
2398.000000;0.383460
2397.000000;0.383367
2396.000000;0.383148
2395.000000;0.382802
2394.000000;0.382423
2393.000000;0.382000
2392.000000;0.381418
2391.000000;0.380658
2390.000000;0.379895
2389.000000;0.379335
2388.000000;0.379005
2387.000000;0.378755
2386.000000;0.378444
2385.000000;0.378093
2384.000000;0.377816
2383.000000;0.377636
2382.000000;0.377398
2381.000000;0.376926
2380.000000;0.376241
2379.000000;0.375541
2378.000000;0.374956
2377.000000;0.374390
2376.000000;0.373689
2375.000000;0.372879
2374.000000;0.372142
2373.000000;0.371601
2372.000000;0.371221
2371.000000;0.370889
2370.000000;0.370497
2369.000000;0.369960
2368.000000;0.369247
2367.000000;0.368431
2366.000000;0.367649
2365.000000;0.367016
2364.000000;0.366599
2363.000000;0.366397
2362.000000;0.366231
2361.000000;0.365827
2360.000000;0.365117
2359.000000;0.364362
2358.000000;0.363861
2357.000000;0.363559
2356.000000;0.363147
2355.000000;0.362532
2354.000000;0.361890
2353.000000;0.361340
2352.000000;0.360784
2351.000000;0.360163
2350.000000;0.359584
2349.000000;0.359059
2348.000000;0.358457
2347.000000;0.357685
2346.000000;0.356864
2345.000000;0.356152
2344.000000;0.355524
2343.000000;0.354927
2342.000000;0.354424
2341.000000;0.354145
2340.000000;0.354022
2339.000000;0.353842
2338.000000;0.353510
2337.000000;0.353035
2336.000000;0.352411
2335.000000;0.351660
2334.000000;0.350971
2333.000000;0.350541
2332.000000;0.350291
2331.000000;0.349932
2330.000000;0.349333
2329.000000;0.348614
2328.000000;0.347953
2327.000000;0.347333
2326.000000;0.346684
2325.000000;0.346034
2324.000000;0.345451
2323.000000;0.344958
2322.000000;0.344502
2321.000000;0.344103
2320.000000;0.343788
2319.000000;0.343528
2318.000000;0.343232
2317.000000;0.342836
2316.000000;0.342342
2315.000000;0.341722
2314.000000;0.340901
2313.000000;0.339859
2312.000000;0.338778
2311.000000;0.337948
2310.000000;0.337510
2309.000000;0.337287
2308.000000;0.336975
2307.000000;0.336444
2306.000000;0.335789
2305.000000;0.335131
2304.000000;0.334481
2303.000000;0.333831
2302.000000;0.333226
2301.000000;0.332688
2300.000000;0.332141
2299.000000;0.331537
2298.000000;0.330959
2297.000000;0.330526
2296.000000;0.330233
2295.000000;0.329971
2294.000000;0.329665
2293.000000;0.329293
2292.000000;0.328810
2291.000000;0.328185
2290.000000;0.327500
2289.000000;0.326918
2288.000000;0.326500
2287.000000;0.326138
2286.000000;0.325703
2285.000000;0.325182
2284.000000;0.324616
2283.000000;0.323971
2282.000000;0.323176
2281.000000;0.322278
2280.000000;0.321482
2279.000000;0.320973
2278.000000;0.320710
2277.000000;0.320451
2276.000000;0.319990
2275.000000;0.319338
2274.000000;0.318668
2273.000000;0.318126
2272.000000;0.317739
2271.000000;0.317440
2270.000000;0.317106
2269.000000;0.316605
2268.000000;0.315899
2267.000000;0.315123
2266.000000;0.314479
2265.000000;0.314035
2264.000000;0.313671
2263.000000;0.313232
2262.000000;0.312665
2261.000000;0.312028
2260.000000;0.311429
2259.000000;0.310985
2258.000000;0.310734
2257.000000;0.310566
2256.000000;0.310290
2255.000000;0.309807
2254.000000;0.309155
2253.000000;0.308382
2252.000000;0.307496
2251.000000;0.306561
2250.000000;0.305732
2249.000000;0.305117
2248.000000;0.304668
2247.000000;0.304278
2246.000000;0.303902
2245.000000;0.303529
2244.000000;0.303128
2243.000000;0.302687
2242.000000;0.302263
2241.000000;0.301898
2240.000000;0.301559
2239.000000;0.301214
2238.000000;0.300884
2237.000000;0.300527
2236.000000;0.299974
2235.000000;0.299108
2234.000000;0.298088
2233.000000;0.297255
2232.000000;0.296798
2231.000000;0.296598
2230.000000;0.296398
2229.000000;0.296036
2228.000000;0.295545
2227.000000;0.295074
2226.000000;0.294738
2225.000000;0.294480
2224.000000;0.294092
2223.000000;0.293429
2222.000000;0.292585
2221.000000;0.291788
2220.000000;0.291157
2219.000000;0.290653
2218.000000;0.290233
2217.000000;0.289914
2216.000000;0.289656
2215.000000;0.289307
2214.000000;0.288732
2213.000000;0.287965
2212.000000;0.287141
2211.000000;0.286351
2210.000000;0.285616
2209.000000;0.284966
2208.000000;0.284444
2207.000000;0.284029
2206.000000;0.283615
2205.000000;0.283123
2204.000000;0.282612
2203.000000;0.282220
2202.000000;0.281985
2201.000000;0.281761
2200.000000;0.281339
2199.000000;0.280641
2198.000000;0.279777
2197.000000;0.278941
2196.000000;0.278282
2195.000000;0.277852
2194.000000;0.277607
2193.000000;0.277419
2192.000000;0.277135
2191.000000;0.276669
2190.000000;0.276043
2189.000000;0.275337
2188.000000;0.274648
2187.000000;0.274077
2186.000000;0.273690
2185.000000;0.273440
2184.000000;0.273159
2183.000000;0.272664
2182.000000;0.271906
2181.000000;0.271010
2180.000000;0.270194
2179.000000;0.269631
2178.000000;0.269342
2177.000000;0.269190
2176.000000;0.269000
2175.000000;0.268690
2174.000000;0.268283
2173.000000;0.267817
2172.000000;0.267313
2171.000000;0.266813
2170.000000;0.266370
2169.000000;0.265966
2168.000000;0.265495
2167.000000;0.264875
2166.000000;0.264145
2165.000000;0.263405
2164.000000;0.262739
2163.000000;0.262207
2162.000000;0.261850
2161.000000;0.261627
2160.000000;0.261372
2159.000000;0.260915
2158.000000;0.260241
2157.000000;0.259497
2156.000000;0.258819
2155.000000;0.258214
2154.000000;0.257628
2153.000000;0.257092
2152.000000;0.256709
2151.000000;0.256508
2150.000000;0.256338
2149.000000;0.256001
2148.000000;0.255479
2147.000000;0.254953
2146.000000;0.254566
2145.000000;0.254234
2144.000000;0.253771
2143.000000;0.253120
2142.000000;0.252393
2141.000000;0.251700
2140.000000;0.251085
2139.000000;0.250585
2138.000000;0.250233
2137.000000;0.249948
2136.000000;0.249570
2135.000000;0.249061
2134.000000;0.248572
2133.000000;0.248224
2132.000000;0.247920
2131.000000;0.247466
2130.000000;0.246810
2129.000000;0.246057
2128.000000;0.245312
2127.000000;0.244605
2126.000000;0.243948
2125.000000;0.243373
2124.000000;0.242871
2123.000000;0.242391
2122.000000;0.241900
2121.000000;0.241419
2120.000000;0.240973
2119.000000;0.240556
2118.000000;0.240136
2117.000000;0.239683
2116.000000;0.239184
2115.000000;0.238657
2114.000000;0.238150
2113.000000;0.237703
2112.000000;0.237301
2111.000000;0.236876
2110.000000;0.236357
2109.000000;0.235742
2108.000000;0.235127
2107.000000;0.234649
2106.000000;0.234350
2105.000000;0.234112
2104.000000;0.233765
2103.000000;0.233281
2102.000000;0.232790
2101.000000;0.232400
2100.000000;0.232040
2099.000000;0.231527
2098.000000;0.230763
2097.000000;0.229859
2096.000000;0.229068
2095.000000;0.228586
2094.000000;0.228383
2093.000000;0.228227
2092.000000;0.227932
2091.000000;0.227542
2090.000000;0.227219
2089.000000;0.226970
2088.000000;0.226620
2087.000000;0.226062
2086.000000;0.225401
2085.000000;0.224802
2084.000000;0.224288
2083.000000;0.223789
2082.000000;0.223293
2081.000000;0.222832
2080.000000;0.222378
2079.000000;0.221867
2078.000000;0.221306
2077.000000;0.220755
2076.000000;0.220225
2075.000000;0.219677
2074.000000;0.219113
2073.000000;0.218605
2072.000000;0.218211
2071.000000;0.217912
2070.000000;0.217630
2069.000000;0.217264
2068.000000;0.216729
2067.000000;0.216043
2066.000000;0.215360
2065.000000;0.214857
2064.000000;0.214551
2063.000000;0.214284
2062.000000;0.213895
2061.000000;0.213353
2060.000000;0.212725
2059.000000;0.212068
2058.000000;0.211428
2057.000000;0.210884
2056.000000;0.210526
2055.000000;0.210345
2054.000000;0.210169
2053.000000;0.209771
2052.000000;0.209065
2051.000000;0.208184
2050.000000;0.207357
2049.000000;0.206711
2048.000000;0.206231
2047.000000;0.205865
2046.000000;0.205596
2045.000000;0.205391
2044.000000;0.205154
2043.000000;0.204791
2042.000000;0.204310
2041.000000;0.203806
2040.000000;0.203345
2039.000000;0.202911
2038.000000;0.202432
2037.000000;0.201867
2036.000000;0.201259
2035.000000;0.200708
2034.000000;0.200258
2033.000000;0.199819
2032.000000;0.199254
2031.000000;0.198560
2030.000000;0.197898
2029.000000;0.197420
2028.000000;0.197102
2027.000000;0.196796
2026.000000;0.196414
2025.000000;0.195985
2024.000000;0.195554
2023.000000;0.195098
2022.000000;0.194571
2021.000000;0.193995
2020.000000;0.193470
2019.000000;0.193066
2018.000000;0.192742
2017.000000;0.192375
2016.000000;0.191896
2015.000000;0.191368
2014.000000;0.190915
2013.000000;0.190573
2012.000000;0.190251
2011.000000;0.189838
2010.000000;0.189312
2009.000000;0.188739
2008.000000;0.188205
2007.000000;0.187740
2006.000000;0.187293
2005.000000;0.186781
2004.000000;0.186197
2003.000000;0.185649
2002.000000;0.185235
2001.000000;0.184891
2000.000000;0.184441
1999.000000;0.183816
1998.000000;0.183158
1997.000000;0.182641
1996.000000;0.182248
1995.000000;0.181783
1994.000000;0.181111
1993.000000;0.180316
1992.000000;0.179614
1991.000000;0.179135
1990.000000;0.178823
1989.000000;0.178539
1988.000000;0.178236
1987.000000;0.177972
1986.000000;0.177773
1985.000000;0.177558
1984.000000;0.177240
1983.000000;0.176846
1982.000000;0.176450
1981.000000;0.176023
1980.000000;0.175487
1979.000000;0.174875
1978.000000;0.174324
1977.000000;0.173882
1976.000000;0.173437
1975.000000;0.172902
1974.000000;0.172362
1973.000000;0.171953
1972.000000;0.171666
1971.000000;0.171356
1970.000000;0.170910
1969.000000;0.170325
1968.000000;0.169681
1967.000000;0.169084
1966.000000;0.168622
1965.000000;0.168300
1964.000000;0.168018
1963.000000;0.167666
1962.000000;0.167233
1961.000000;0.166793
1960.000000;0.166396
1959.000000;0.166012
1958.000000;0.165560
1957.000000;0.164968
1956.000000;0.164245
1955.000000;0.163502
1954.000000;0.162884
1953.000000;0.162442
1952.000000;0.162093
1951.000000;0.161719
1950.000000;0.161262
1949.000000;0.160715
1948.000000;0.160109
1947.000000;0.159539
1946.000000;0.159121
1945.000000;0.158864
1944.000000;0.158641
1943.000000;0.158338
1942.000000;0.157974
1941.000000;0.157596
1940.000000;0.157166
1939.000000;0.156639
1938.000000;0.156108
1937.000000;0.155721
1936.000000;0.155471
1935.000000;0.155177
1934.000000;0.154699
1933.000000;0.154082
1932.000000;0.153461
1931.000000;0.152909
1930.000000;0.152418
1929.000000;0.151961
1928.000000;0.151510
1927.000000;0.151015
1926.000000;0.150448
1925.000000;0.149851
1924.000000;0.149319
1923.000000;0.148912
1922.000000;0.148595
1921.000000;0.148270
1920.000000;0.147858
1919.000000;0.147352
1918.000000;0.146803
1917.000000;0.146269
1916.000000;0.145810
1915.000000;0.145474
1914.000000;0.145255
1913.000000;0.145031
1912.000000;0.144631
1911.000000;0.144001
1910.000000;0.143272
1909.000000;0.142628
1908.000000;0.142151
1907.000000;0.141783
1906.000000;0.141439
1905.000000;0.141072
1904.000000;0.140667
1903.000000;0.140222
1902.000000;0.139747
1901.000000;0.139263
1900.000000;0.138790
1899.000000;0.138331
1898.000000;0.137869
1897.000000;0.137363
1896.000000;0.136797
1895.000000;0.136231
1894.000000;0.135781
1893.000000;0.135505
1892.000000;0.135329
1891.000000;0.135114
1890.000000;0.134768
1889.000000;0.134300
1888.000000;0.133783
1887.000000;0.133291
1886.000000;0.132857
1885.000000;0.132459
1884.000000;0.132063
1883.000000;0.131669
1882.000000;0.131302
1881.000000;0.130934
1880.000000;0.130493
1879.000000;0.129952
1878.000000;0.129385
1877.000000;0.128881
1876.000000;0.128452
1875.000000;0.128045
1874.000000;0.127621
1873.000000;0.127171
1872.000000;0.126708
1871.000000;0.126268
1870.000000;0.125897
1869.000000;0.125575
1868.000000;0.125193
1867.000000;0.124664
1866.000000;0.124046
1865.000000;0.123490
1864.000000;0.123072
1863.000000;0.122726
1862.000000;0.122350
1861.000000;0.121900
1860.000000;0.121387
1859.000000;0.120835
1858.000000;0.120277
1857.000000;0.119766
1856.000000;0.119338
1855.000000;0.118973
1854.000000;0.118616
1853.000000;0.118240
1852.000000;0.117874
1851.000000;0.117567
1850.000000;0.117311
1849.000000;0.117030
1848.000000;0.116639
1847.000000;0.116117
1846.000000;0.115504
1845.000000;0.114873
1844.000000;0.114315
1843.000000;0.113914
1842.000000;0.113670
1841.000000;0.113458
1840.000000;0.113125
1839.000000;0.112642
1838.000000;0.112122
1837.000000;0.111658
1836.000000;0.111199
1835.000000;0.110663
1834.000000;0.110094
1833.000000;0.109637
1832.000000;0.109354
1831.000000;0.109124
1830.000000;0.108754
1829.000000;0.108149
1828.000000;0.107392
1827.000000;0.106699
1826.000000;0.106280
1825.000000;0.106191
1824.000000;0.106279
1823.000000;0.106295
1822.000000;0.106059
1821.000000;0.105539
1820.000000;0.104823
1819.000000;0.104073
1818.000000;0.103444
1817.000000;0.102976
1816.000000;0.102564
1815.000000;0.102098
1814.000000;0.101604
1813.000000;0.101198
1812.000000;0.100899
1811.000000;0.100578
1810.000000;0.100125
1809.000000;0.099582
1808.000000;0.099066
1807.000000;0.098626
1806.000000;0.098221
1805.000000;0.097813
1804.000000;0.097422
1803.000000;0.097075
1802.000000;0.096757
1801.000000;0.096424
1800.000000;0.096048
1799.000000;0.095606
1798.000000;0.095088
1797.000000;0.094522
1796.000000;0.093991
1795.000000;0.093582
1794.000000;0.093280
1793.000000;0.092963
1792.000000;0.092530
1791.000000;0.092006
1790.000000;0.091497
1789.000000;0.091052
1788.000000;0.090626
1787.000000;0.090169
1786.000000;0.089712
1785.000000;0.089320
1784.000000;0.089017
1783.000000;0.088768
1782.000000;0.088508
1781.000000;0.088180
1780.000000;0.087749
1779.000000;0.087234
1778.000000;0.086710
1777.000000;0.086229
1776.000000;0.085766
1775.000000;0.085255
1774.000000;0.084685
1773.000000;0.084132
1772.000000;0.083680
1771.000000;0.083349
1770.000000;0.083103
1769.000000;0.082897
1768.000000;0.082692
1767.000000;0.082450
1766.000000;0.082141
1765.000000;0.081742
1764.000000;0.081241
1763.000000;0.080670
1762.000000;0.080132
1761.000000;0.079745
1760.000000;0.079504
1759.000000;0.079258
1758.000000;0.078851
1757.000000;0.078286
1756.000000;0.077703
1755.000000;0.077199
1754.000000;0.076734
1753.000000;0.076234
1752.000000;0.075714
1751.000000;0.075257
1750.000000;0.074888
1749.000000;0.074516
1748.000000;0.074058
1747.000000;0.073553
1746.000000;0.073104
1745.000000;0.072770
1744.000000;0.072522
1743.000000;0.072305
1742.000000;0.072079
1741.000000;0.071808
1740.000000;0.071454
1739.000000;0.071021
1738.000000;0.070554
1737.000000;0.070103
1736.000000;0.069685
1735.000000;0.069280
1734.000000;0.068864
1733.000000;0.068418
1732.000000;0.067930
1731.000000;0.067444
1730.000000;0.067036
1729.000000;0.066698
1728.000000;0.066332
1727.000000;0.065862
1726.000000;0.065320
1725.000000;0.064808
1724.000000;0.064406
1723.000000;0.064111
1722.000000;0.063855
1721.000000;0.063534
1720.000000;0.063092
1719.000000;0.062581
1718.000000;0.062133
1717.000000;0.061805
1716.000000;0.061505
1715.000000;0.061126
1714.000000;0.060689
1713.000000;0.060289
1712.000000;0.059965
1711.000000;0.059680
1710.000000;0.059396
1709.000000;0.059111
1708.000000;0.058810
1707.000000;0.058438
1706.000000;0.057977
1705.000000;0.057496
1704.000000;0.057063
1703.000000;0.056663
1702.000000;0.056222
1701.000000;0.055710
1700.000000;0.055206
1699.000000;0.054778
1698.000000;0.054376
1697.000000;0.053949
1696.000000;0.053519
1695.000000;0.053123
1694.000000;0.052744
1693.000000;0.052314
1692.000000;0.051824
1691.000000;0.051347
1690.000000;0.050952
1689.000000;0.050651
1688.000000;0.050406
1687.000000;0.050137
1686.000000;0.049774
1685.000000;0.049303
1684.000000;0.048795
1683.000000;0.048341
1682.000000;0.047955
1681.000000;0.047597
1680.000000;0.047231
1679.000000;0.046854
1678.000000;0.046474
1677.000000;0.046096
1676.000000;0.045727
1675.000000;0.045372
1674.000000;0.045008
1673.000000;0.044594
1672.000000;0.044138
1671.000000;0.043709
1670.000000;0.043357
1669.000000;0.043063
1668.000000;0.042768
1667.000000;0.042424
1666.000000;0.042006
1665.000000;0.041525
1664.000000;0.041036
1663.000000;0.040627
1662.000000;0.040336
1661.000000;0.040099
1660.000000;0.039815
1659.000000;0.039439
1658.000000;0.039005
1657.000000;0.038569
1656.000000;0.038157
1655.000000;0.037761
1654.000000;0.037363
1653.000000;0.036970
1652.000000;0.036582
1651.000000;0.036191
1650.000000;0.035806
1649.000000;0.035460
1648.000000;0.035171
1647.000000;0.034911
1646.000000;0.034641
1645.000000;0.034329
1644.000000;0.033956
1643.000000;0.033518
1642.000000;0.033025
1641.000000;0.032525
1640.000000;0.032090
1639.000000;0.031753
1638.000000;0.031449
1637.000000;0.031063
1636.000000;0.030568
1635.000000;0.030074
1634.000000;0.029702
1633.000000;0.029439
1632.000000;0.029163
1631.000000;0.028792
1630.000000;0.028340
1629.000000;0.027851
1628.000000;0.027366
1627.000000;0.026945
1626.000000;0.026623
1625.000000;0.026339
1624.000000;0.025942
1623.000000;0.025364
1622.000000;0.024733
1621.000000;0.024262
1620.000000;0.024017
1619.000000;0.023855
1618.000000;0.023590
1617.000000;0.023177
1616.000000;0.022704
1615.000000;0.022255
1614.000000;0.021854
1613.000000;0.021508
1612.000000;0.021244
1611.000000;0.021044
1610.000000;0.020809
1609.000000;0.020451
1608.000000;0.019989
1607.000000;0.019521
1606.000000;0.019095
1605.000000;0.018677
1604.000000;0.018232
1603.000000;0.017782
1602.000000;0.017376
1601.000000;0.017037
1600.000000;0.016770
1599.000000;0.016560
1598.000000;0.016351
1597.000000;0.016055
1596.000000;0.015633
1595.000000;0.015136
1594.000000;0.014650
1593.000000;0.014211
1592.000000;0.013804
1591.000000;0.013410
1590.000000;0.013010
1589.000000;0.012588
1588.000000;0.012160
1587.000000;0.011777
1586.000000;0.011452
1585.000000;0.011118
1584.000000;0.010707
1583.000000;0.010252
1582.000000;0.009857
1581.000000;0.009572
1580.000000;0.009339
1579.000000;0.009070
1578.000000;0.008732
1577.000000;0.008344
1576.000000;0.007931
1575.000000;0.007512
1574.000000;0.007097
1573.000000;0.006679
1572.000000;0.006242
1571.000000;0.005796
1570.000000;0.005398
1569.000000;0.005107
1568.000000;0.004911
1567.000000;0.004712
1566.000000;0.004383
1565.000000;0.003887
1564.000000;0.003340
1563.000000;0.002918
1562.000000;0.002679
1561.000000;0.002493
1560.000000;0.002176
1559.000000;0.001714
1558.000000;0.001194
1557.000000;0.000707
1556.000000;0.000302
1555.000000;-0.000027
1554.000000;-0.000284
1553.000000;-0.000492
1552.000000;-0.000714
1551.000000;-0.001007
1550.000000;-0.001376
1549.000000;-0.001802
1548.000000;-0.002286
1547.000000;-0.002827
1546.000000;-0.003381
1545.000000;-0.003873
1544.000000;-0.004264
1543.000000;-0.004576
1542.000000;-0.004838
1541.000000;-0.005056
1540.000000;-0.005248
1539.000000;-0.005474
1538.000000;-0.005783
1537.000000;-0.006201
1536.000000;-0.006696
1535.000000;-0.007176
1534.000000;-0.007568
1533.000000;-0.007872
1532.000000;-0.008164
1531.000000;-0.008523
1530.000000;-0.008958
1529.000000;-0.009405
1528.000000;-0.009784
1527.000000;-0.010075
1526.000000;-0.010340
1525.000000;-0.010647
1524.000000;-0.011004
1523.000000;-0.011371
1522.000000;-0.011726
1521.000000;-0.012066
1520.000000;-0.012361
1519.000000;-0.012580
1518.000000;-0.012763
1517.000000;-0.013017
1516.000000;-0.013429
1515.000000;-0.013991
1514.000000;-0.014617
1513.000000;-0.015213
1512.000000;-0.015700
1511.000000;-0.016046
1510.000000;-0.016292
1509.000000;-0.016512
1508.000000;-0.016713
1507.000000;-0.016824
1506.000000;-0.016864
1505.000000;-0.016976
1504.000000;-0.017304
1503.000000;-0.017831
1502.000000;-0.018390
1501.000000;-0.018856
1500.000000;-0.019238
1499.000000;-0.019592
1498.000000;-0.019938
1497.000000;-0.020291
1496.000000;-0.020680
1495.000000;-0.021114
1494.000000;-0.021545
1493.000000;-0.021919
1492.000000;-0.022214
1491.000000;-0.022474
1490.000000;-0.022773
1489.000000;-0.023166
1488.000000;-0.023631
1487.000000;-0.024075
1486.000000;-0.024430
1485.000000;-0.024739
1484.000000;-0.025074
1483.000000;-0.025443
1482.000000;-0.025785
1481.000000;-0.026064
1480.000000;-0.026308
1479.000000;-0.026575
1478.000000;-0.026909
1477.000000;-0.027330
1476.000000;-0.027817
1475.000000;-0.028292
1474.000000;-0.028677
1473.000000;-0.028957
1472.000000;-0.029180
1471.000000;-0.029416
1470.000000;-0.029714
1469.000000;-0.030087
1468.000000;-0.030486
1467.000000;-0.030821
1466.000000;-0.031062
1465.000000;-0.031293
1464.000000;-0.031625
1463.000000;-0.032069
1462.000000;-0.032524
1461.000000;-0.032906
1460.000000;-0.033228
1459.000000;-0.033558
1458.000000;-0.033932
1457.000000;-0.034319
1456.000000;-0.034651
1455.000000;-0.034897
1454.000000;-0.035128
1453.000000;-0.035445
1452.000000;-0.035894
1451.000000;-0.036438
1450.000000;-0.036992
1449.000000;-0.037486
1448.000000;-0.037879
1447.000000;-0.038143
1446.000000;-0.038304
1445.000000;-0.038449
1444.000000;-0.038650
1443.000000;-0.038897
1442.000000;-0.039143
1441.000000;-0.039406
1440.000000;-0.039755
1439.000000;-0.040213
1438.000000;-0.040727
1437.000000;-0.041240
1436.000000;-0.041723
1435.000000;-0.042145
1434.000000;-0.042474
1433.000000;-0.042722
1432.000000;-0.042970
1431.000000;-0.043298
1430.000000;-0.043699
1429.000000;-0.044111
1428.000000;-0.044495
1427.000000;-0.044840
1426.000000;-0.045152
1425.000000;-0.045423
1424.000000;-0.045635
1423.000000;-0.045780
1422.000000;-0.045899
1421.000000;-0.046089
1420.000000;-0.046428
1419.000000;-0.046881
1418.000000;-0.047326
1417.000000;-0.047698
1416.000000;-0.048042
1415.000000;-0.048411
1414.000000;-0.048790
1413.000000;-0.049117
1412.000000;-0.049369
1411.000000;-0.049589
1410.000000;-0.049850
1409.000000;-0.050198
1408.000000;-0.050626
1407.000000;-0.051072
1406.000000;-0.051468
1405.000000;-0.051804
1404.000000;-0.052121
1403.000000;-0.052461
1402.000000;-0.052822
1401.000000;-0.053177
1400.000000;-0.053501
1399.000000;-0.053791
1398.000000;-0.054076
1397.000000;-0.054397
1396.000000;-0.054754
1395.000000;-0.055094
1394.000000;-0.055397
1393.000000;-0.055722
1392.000000;-0.056124
1391.000000;-0.056544
1390.000000;-0.056868
1389.000000;-0.057074
1388.000000;-0.057256
1387.000000;-0.057492
1386.000000;-0.057763
1385.000000;-0.058028
1384.000000;-0.058294
1383.000000;-0.058577
1382.000000;-0.058860
1381.000000;-0.059146
1380.000000;-0.059492
1379.000000;-0.059930
1378.000000;-0.060393
1377.000000;-0.060778
1376.000000;-0.061065
1375.000000;-0.061341
1374.000000;-0.061688
1373.000000;-0.062099
1372.000000;-0.062501
1371.000000;-0.062831
1370.000000;-0.063068
1369.000000;-0.063239
1368.000000;-0.063405
1367.000000;-0.063649
1366.000000;-0.064017
1365.000000;-0.064462
1364.000000;-0.064868
1363.000000;-0.065154
1362.000000;-0.065359
1361.000000;-0.065612
1360.000000;-0.065983
1359.000000;-0.066417
1358.000000;-0.066808
1357.000000;-0.067113
1356.000000;-0.067368
1355.000000;-0.067625
1354.000000;-0.067927
1353.000000;-0.068300
1352.000000;-0.068731
1351.000000;-0.069142
1350.000000;-0.069436
1349.000000;-0.069586
1348.000000;-0.069646
1347.000000;-0.069709
1346.000000;-0.069869
1345.000000;-0.070210
1344.000000;-0.070745
1343.000000;-0.071366
1342.000000;-0.071882
1341.000000;-0.072165
1340.000000;-0.072257
1339.000000;-0.072346
1338.000000;-0.072616
1337.000000;-0.073104
1336.000000;-0.073666
1335.000000;-0.074106
1334.000000;-0.074354
1333.000000;-0.074505
1332.000000;-0.074687
1331.000000;-0.074936
1330.000000;-0.075238
1329.000000;-0.075606
1328.000000;-0.076054
1327.000000;-0.076514
1326.000000;-0.076881
1325.000000;-0.077130
1324.000000;-0.077323
1323.000000;-0.077517
1322.000000;-0.077722
1321.000000;-0.077960
1320.000000;-0.078274
1319.000000;-0.078666
1318.000000;-0.079065
1317.000000;-0.079393
1316.000000;-0.079620
1315.000000;-0.079758
1314.000000;-0.079865
1313.000000;-0.080045
1312.000000;-0.080382
1311.000000;-0.080852
1310.000000;-0.081349
1309.000000;-0.081810
1308.000000;-0.082254
1307.000000;-0.082675
1306.000000;-0.082990
1305.000000;-0.083146
1304.000000;-0.083227
1303.000000;-0.083390
1302.000000;-0.083712
1301.000000;-0.084138
1300.000000;-0.084549
1299.000000;-0.084867
1298.000000;-0.085096
1297.000000;-0.085314
1296.000000;-0.085611
1295.000000;-0.086009
1294.000000;-0.086445
1293.000000;-0.086841
1292.000000;-0.087173
1291.000000;-0.087464
1290.000000;-0.087749
1289.000000;-0.088042
1288.000000;-0.088325
1287.000000;-0.088561
1286.000000;-0.088741
1285.000000;-0.088912
1284.000000;-0.089137
1283.000000;-0.089432
1282.000000;-0.089771
1281.000000;-0.090145
1280.000000;-0.090543
1279.000000;-0.090901
1278.000000;-0.091137
1277.000000;-0.091255
1276.000000;-0.091378
1275.000000;-0.091618
1274.000000;-0.091957
1273.000000;-0.092299
1272.000000;-0.092587
1271.000000;-0.092839
1270.000000;-0.093103
1269.000000;-0.093417
1268.000000;-0.093785
1267.000000;-0.094173
1266.000000;-0.094527
1265.000000;-0.094827
1264.000000;-0.095099
1263.000000;-0.095375
1262.000000;-0.095662
1261.000000;-0.095957
1260.000000;-0.096273
1259.000000;-0.096603
1258.000000;-0.096918
1257.000000;-0.097213
1256.000000;-0.097535
1255.000000;-0.097922
1254.000000;-0.098341
1253.000000;-0.098728
1252.000000;-0.099061
1251.000000;-0.099356
1250.000000;-0.099613
1249.000000;-0.099812
1248.000000;-0.099974
1247.000000;-0.100157
1246.000000;-0.100389
1245.000000;-0.100637
1244.000000;-0.100863
1243.000000;-0.101077
1242.000000;-0.101323
1241.000000;-0.101621
1240.000000;-0.101957
1239.000000;-0.102308
1238.000000;-0.102668
1237.000000;-0.103026
1236.000000;-0.103354
1235.000000;-0.103627
1234.000000;-0.103857
1233.000000;-0.104089
1232.000000;-0.104371
1231.000000;-0.104717
1230.000000;-0.105100
1229.000000;-0.105464
1228.000000;-0.105741
1227.000000;-0.105900
1226.000000;-0.105987
1225.000000;-0.106102
1224.000000;-0.106322
1223.000000;-0.106637
1222.000000;-0.106994
1221.000000;-0.107364
1220.000000;-0.107750
1219.000000;-0.108124
1218.000000;-0.108416
1217.000000;-0.108591
1216.000000;-0.108716
1215.000000;-0.108899
1214.000000;-0.109181
1213.000000;-0.109508
1212.000000;-0.109806
1211.000000;-0.110080
1210.000000;-0.110401
1209.000000;-0.110803
1208.000000;-0.111214
1207.000000;-0.111527
1206.000000;-0.111725
1205.000000;-0.111895
1204.000000;-0.112136
1203.000000;-0.112457
1202.000000;-0.112806
1201.000000;-0.113118
1200.000000;-0.113375
