Criado como novo conjunto de dados;"e2410_daniel_v2.spp","17282.6 Secs"
cm-1;Abs
10000.000000;0.271684
9999.000000;0.270944
9998.000000;0.270296
9997.000000;0.269724
9996.000000;0.269250
9995.000000;0.268893
9994.000000;0.268590
9993.000000;0.268241
9992.000000;0.267821
9991.000000;0.267371
9990.000000;0.266889
9989.000000;0.266306
9988.000000;0.265592
9987.000000;0.264822
9986.000000;0.264115
9985.000000;0.263549
9984.000000;0.263136
9983.000000;0.262822
9982.000000;0.262480
9981.000000;0.261985
9980.000000;0.261331
9979.000000;0.260659
9978.000000;0.260115
9977.000000;0.259702
9976.000000;0.259311
9975.000000;0.258869
9974.000000;0.258405
9973.000000;0.257968
9972.000000;0.257534
9971.000000;0.257035
9970.000000;0.256431
9969.000000;0.255756
9968.000000;0.255095
9967.000000;0.254530
9966.000000;0.254090
9965.000000;0.253738
9964.000000;0.253416
9963.000000;0.253090
9962.000000;0.252741
9961.000000;0.252329
9960.000000;0.251816
9959.000000;0.251238
9958.000000;0.250702
9957.000000;0.250275
9956.000000;0.249901
9955.000000;0.249464
9954.000000;0.248929
9953.000000;0.248365
9952.000000;0.247854
9951.000000;0.247413
9950.000000;0.247024
9949.000000;0.246678
9948.000000;0.246345
9947.000000;0.245938
9946.000000;0.245380
9945.000000;0.244708
9944.000000;0.244067
9943.000000;0.243573
9942.000000;0.243204
9941.000000;0.242845
9940.000000;0.242408
9939.000000;0.241891
9938.000000;0.241340
9937.000000;0.240809
9936.000000;0.240344
9935.000000;0.239970
9934.000000;0.239657
9933.000000;0.239325
9932.000000;0.238907
9931.000000;0.238407
9930.000000;0.237885
9929.000000;0.237376
9928.000000;0.236834
9927.000000;0.236169
9926.000000;0.235362
9925.000000;0.234544
9924.000000;0.233923
9923.000000;0.233588
9922.000000;0.233397
9921.000000;0.233101
9920.000000;0.232602
9919.000000;0.232037
9918.000000;0.231598
9917.000000;0.231324
9916.000000;0.231109
9915.000000;0.230860
9914.000000;0.230572
9913.000000;0.230232
9912.000000;0.229766
9911.000000;0.229114
9910.000000;0.228316
9909.000000;0.227473
9908.000000;0.226649
9907.000000;0.225879
9906.000000;0.225250
9905.000000;0.224874
9904.000000;0.224749
9903.000000;0.224683
9902.000000;0.224433
9901.000000;0.223930
9900.000000;0.223314
9899.000000;0.222768
9898.000000;0.222351
9897.000000;0.221992
9896.000000;0.221578
9895.000000;0.221016
9894.000000;0.220269
9893.000000;0.219404
9892.000000;0.218602
9891.000000;0.218040
9890.000000;0.217736
9889.000000;0.217545
9888.000000;0.217302
9887.000000;0.216946
9886.000000;0.216488
9885.000000;0.215943
9884.000000;0.215358
9883.000000;0.214865
9882.000000;0.214593
9881.000000;0.214488
9880.000000;0.214294
9879.000000;0.213780
9878.000000;0.212986
9877.000000;0.212175
9876.000000;0.211554
9875.000000;0.211089
9874.000000;0.210632
9873.000000;0.210156
9872.000000;0.209788
9871.000000;0.209607
9870.000000;0.209492
9869.000000;0.209233
9868.000000;0.208761
9867.000000;0.208190
9866.000000;0.207652
9865.000000;0.207159
9864.000000;0.206661
9863.000000;0.206147
9862.000000;0.205642
9861.000000;0.205138
9860.000000;0.204613
9859.000000;0.204098
9858.000000;0.203659
9857.000000;0.203294
9856.000000;0.202916
9855.000000;0.202452
9854.000000;0.201930
9853.000000;0.201437
9852.000000;0.201027
9851.000000;0.200696
9850.000000;0.200402
9849.000000;0.200065
9848.000000;0.199580
9847.000000;0.198906
9846.000000;0.198127
9845.000000;0.197394
9844.000000;0.196793
9843.000000;0.196296
9842.000000;0.195820
9841.000000;0.195303
9840.000000;0.194732
9839.000000;0.194150
9838.000000;0.193648
9837.000000;0.193288
9836.000000;0.192998
9835.000000;0.192596
9834.000000;0.191983
9833.000000;0.191253
9832.000000;0.190599
9831.000000;0.190136
9830.000000;0.189858
9829.000000;0.189699
9828.000000;0.189548
9827.000000;0.189242
9826.000000;0.188666
9825.000000;0.187909
9824.000000;0.187208
9823.000000;0.186708
9822.000000;0.186346
9821.000000;0.185973
9820.000000;0.185529
9819.000000;0.185035
9818.000000;0.184508
9817.000000;0.183965
9816.000000;0.183458
9815.000000;0.183016
9814.000000;0.182599
9813.000000;0.182176
9812.000000;0.181804
9811.000000;0.181536
9810.000000;0.181297
9809.000000;0.180951
9808.000000;0.180488
9807.000000;0.180019
9806.000000;0.179596
9805.000000;0.179132
9804.000000;0.178556
9803.000000;0.177940
9802.000000;0.177417
9801.000000;0.177036
9800.000000;0.176767
9799.000000;0.176549
9798.000000;0.176283
9797.000000;0.175844
9796.000000;0.175185
9795.000000;0.174425
9794.000000;0.173767
9793.000000;0.173320
9792.000000;0.173042
9791.000000;0.172805
9790.000000;0.172482
9789.000000;0.172002
9788.000000;0.171389
9787.000000;0.170768
9786.000000;0.170268
9785.000000;0.169914
9784.000000;0.169629
9783.000000;0.169318
9782.000000;0.168929
9781.000000;0.168446
9780.000000;0.167872
9779.000000;0.167237
9778.000000;0.166587
9777.000000;0.165989
9776.000000;0.165515
9775.000000;0.165185
9774.000000;0.164916
9773.000000;0.164565
9772.000000;0.164084
9771.000000;0.163574
9770.000000;0.163146
9769.000000;0.162771
9768.000000;0.162340
9767.000000;0.161819
9766.000000;0.161274
9765.000000;0.160750
9764.000000;0.160219
9763.000000;0.159674
9762.000000;0.159165
9761.000000;0.158739
9760.000000;0.158374
9759.000000;0.158029
9758.000000;0.157685
9757.000000;0.157311
9756.000000;0.156866
9755.000000;0.156357
9754.000000;0.155850
9753.000000;0.155368
9752.000000;0.154844
9751.000000;0.154222
9750.000000;0.153583
9749.000000;0.153085
9748.000000;0.152788
9747.000000;0.152576
9746.000000;0.152284
9745.000000;0.151853
9744.000000;0.151350
9743.000000;0.150849
9742.000000;0.150352
9741.000000;0.149836
9740.000000;0.149346
9739.000000;0.148982
9738.000000;0.148760
9737.000000;0.148556
9736.000000;0.148220
9735.000000;0.147748
9734.000000;0.147262
9733.000000;0.146829
9732.000000;0.146365
9731.000000;0.145765
9730.000000;0.145083
9729.000000;0.144504
9728.000000;0.144142
9727.000000;0.143915
9726.000000;0.143638
9725.000000;0.143213
9724.000000;0.142702
9723.000000;0.142227
9722.000000;0.141831
9721.000000;0.141447
9720.000000;0.140998
9719.000000;0.140472
9718.000000;0.139915
9717.000000;0.139376
9716.000000;0.138889
9715.000000;0.138466
9714.000000;0.138081
9713.000000;0.137680
9712.000000;0.137235
9711.000000;0.136786
9710.000000;0.136380
9709.000000;0.136002
9708.000000;0.135617
9707.000000;0.135256
9706.000000;0.134980
9705.000000;0.134756
9704.000000;0.134453
9703.000000;0.133995
9702.000000;0.133461
9701.000000;0.132989
9700.000000;0.132626
9699.000000;0.132311
9698.000000;0.131960
9697.000000;0.131521
9696.000000;0.130991
9695.000000;0.130438
9694.000000;0.129972
9693.000000;0.129644
9692.000000;0.129385
9691.000000;0.129073
9690.000000;0.128672
9689.000000;0.128244
9688.000000;0.127828
9687.000000;0.127373
9686.000000;0.126807
9685.000000;0.126146
9684.000000;0.125510
9683.000000;0.125031
9682.000000;0.124727
9681.000000;0.124478
9680.000000;0.124135
9679.000000;0.123663
9678.000000;0.123158
9677.000000;0.122717
9676.000000;0.122325
9675.000000;0.121896
9674.000000;0.121390
9673.000000;0.120851
9672.000000;0.120342
9671.000000;0.119881
9670.000000;0.119444
9669.000000;0.118990
9668.000000;0.118493
9667.000000;0.117975
9666.000000;0.117515
9665.000000;0.117177
9664.000000;0.116937
9663.000000;0.116687
9662.000000;0.116340
9661.000000;0.115913
9660.000000;0.115485
9659.000000;0.115093
9658.000000;0.114679
9657.000000;0.114165
9656.000000;0.113562
9655.000000;0.113011
9654.000000;0.112670
9653.000000;0.112554
9652.000000;0.112504
9651.000000;0.112315
9650.000000;0.111897
9649.000000;0.111296
9648.000000;0.110612
9647.000000;0.109942
9646.000000;0.109374
9645.000000;0.108969
9644.000000;0.108712
9643.000000;0.108514
9642.000000;0.108270
9641.000000;0.107927
9640.000000;0.107480
9639.000000;0.106952
9638.000000;0.106388
9637.000000;0.105854
9636.000000;0.105403
9635.000000;0.105041
9634.000000;0.104730
9633.000000;0.104411
9632.000000;0.104030
9631.000000;0.103555
9630.000000;0.102998
9629.000000;0.102436
9628.000000;0.101971
9627.000000;0.101655
9626.000000;0.101430
9625.000000;0.101166
9624.000000;0.100772
9623.000000;0.100283
9622.000000;0.099820
9621.000000;0.099467
9620.000000;0.099195
9619.000000;0.098891
9618.000000;0.098465
9617.000000;0.097915
9616.000000;0.097343
9615.000000;0.096878
9614.000000;0.096576
9613.000000;0.096373
9612.000000;0.096135
9611.000000;0.095785
9610.000000;0.095344
9609.000000;0.094876
9608.000000;0.094423
9607.000000;0.093993
9606.000000;0.093577
9605.000000;0.093145
9604.000000;0.092664
9603.000000;0.092170
9602.000000;0.091758
9601.000000;0.091483
9600.000000;0.091258
9599.000000;0.090920
9598.000000;0.090385
9597.000000;0.089715
9596.000000;0.089062
9595.000000;0.088565
9594.000000;0.088273
9593.000000;0.088110
9592.000000;0.087923
9591.000000;0.087612
9590.000000;0.087209
9589.000000;0.086812
9588.000000;0.086445
9587.000000;0.086059
9586.000000;0.085647
9585.000000;0.085272
9584.000000;0.084961
9583.000000;0.084644
9582.000000;0.084240
9581.000000;0.083759
9580.000000;0.083261
9579.000000;0.082771
9578.000000;0.082275
9577.000000;0.081787
9576.000000;0.081353
9575.000000;0.080978
9574.000000;0.080599
9573.000000;0.080157
9572.000000;0.079663
9571.000000;0.079194
9570.000000;0.078823
9569.000000;0.078559
9568.000000;0.078339
9567.000000;0.078085
9566.000000;0.077775
9565.000000;0.077433
9564.000000;0.077059
9563.000000;0.076609
9562.000000;0.076074
9561.000000;0.075547
9560.000000;0.075140
9559.000000;0.074860
9558.000000;0.074605
9557.000000;0.074283
9556.000000;0.073887
9555.000000;0.073452
9554.000000;0.073004
9553.000000;0.072581
9552.000000;0.072256
9551.000000;0.072052
9550.000000;0.071864
9549.000000;0.071531
9548.000000;0.071012
9547.000000;0.070442
9546.000000;0.069997
9545.000000;0.069740
9544.000000;0.069607
9543.000000;0.069503
9542.000000;0.069352
9541.000000;0.069089
9540.000000;0.068670
9539.000000;0.068122
9538.000000;0.067541
9537.000000;0.067017
9536.000000;0.066560
9535.000000;0.066122
9534.000000;0.065661
9533.000000;0.065168
9532.000000;0.064672
9531.000000;0.064218
9530.000000;0.063846
9529.000000;0.063547
9528.000000;0.063270
9527.000000;0.062971
9526.000000;0.062657
9525.000000;0.062349
9524.000000;0.062029
9523.000000;0.061663
9522.000000;0.061250
9521.000000;0.060823
9520.000000;0.060403
9519.000000;0.060003
9518.000000;0.059636
9517.000000;0.059306
9516.000000;0.058973
9515.000000;0.058596
9514.000000;0.058204
9513.000000;0.057882
9512.000000;0.057660
9511.000000;0.057479
9510.000000;0.057255
9509.000000;0.056958
9508.000000;0.056595
9507.000000;0.056170
9506.000000;0.055692
9505.000000;0.055180
9504.000000;0.054645
9503.000000;0.054082
9502.000000;0.053507
9501.000000;0.052979
9500.000000;0.052546
9499.000000;0.052212
9498.000000;0.051956
9497.000000;0.051759
9496.000000;0.051584
9495.000000;0.051370
9494.000000;0.051097
9493.000000;0.050818
9492.000000;0.050584
9491.000000;0.050358
9490.000000;0.050043
9489.000000;0.049593
9488.000000;0.049033
9487.000000;0.048433
9486.000000;0.047876
9485.000000;0.047451
9484.000000;0.047183
9483.000000;0.046989
9482.000000;0.046749
9481.000000;0.046425
9480.000000;0.046059
9479.000000;0.045674
9478.000000;0.045263
9477.000000;0.044862
9476.000000;0.044538
9475.000000;0.044283
9474.000000;0.044003
9473.000000;0.043658
9472.000000;0.043328
9471.000000;0.043096
9470.000000;0.042903
9469.000000;0.042615
9468.000000;0.042170
9467.000000;0.041624
9466.000000;0.041068
9465.000000;0.040585
9464.000000;0.040238
9463.000000;0.040021
9462.000000;0.039823
9461.000000;0.039515
9460.000000;0.039089
9459.000000;0.038644
9458.000000;0.038242
9457.000000;0.037842
9456.000000;0.037405
9455.000000;0.036981
9454.000000;0.036642
9453.000000;0.036381
9452.000000;0.036114
9451.000000;0.035783
9450.000000;0.035396
9449.000000;0.034985
9448.000000;0.034575
9447.000000;0.034177
9446.000000;0.033795
9445.000000;0.033429
9444.000000;0.033095
9443.000000;0.032837
9442.000000;0.032685
9441.000000;0.032601
9440.000000;0.032496
9439.000000;0.032296
9438.000000;0.031993
9437.000000;0.031620
9436.000000;0.031205
9435.000000;0.030773
9434.000000;0.030362
9433.000000;0.029993
9432.000000;0.029631
9431.000000;0.029215
9430.000000;0.028746
9429.000000;0.028303
9428.000000;0.027947
9427.000000;0.027649
9426.000000;0.027341
9425.000000;0.027028
9424.000000;0.026779
9423.000000;0.026593
9422.000000;0.026368
9421.000000;0.026017
9420.000000;0.025588
9419.000000;0.025190
9418.000000;0.024865
9417.000000;0.024584
9416.000000;0.024338
9415.000000;0.024154
9414.000000;0.024007
9413.000000;0.023814
9412.000000;0.023524
9411.000000;0.023173
9410.000000;0.022816
9409.000000;0.022460
9408.000000;0.022099
9407.000000;0.021759
9406.000000;0.021444
9405.000000;0.021080
9404.000000;0.020585
9403.000000;0.020002
9402.000000;0.019494
9401.000000;0.019195
9400.000000;0.019083
9399.000000;0.019017
9398.000000;0.018866
9397.000000;0.018584
9396.000000;0.018203
9395.000000;0.017793
9394.000000;0.017411
9393.000000;0.017072
9392.000000;0.016746
9391.000000;0.016398
9390.000000;0.016009
9389.000000;0.015590
9388.000000;0.015169
9387.000000;0.014802
9386.000000;0.014542
9385.000000;0.014388
9384.000000;0.014254
9383.000000;0.014044
9382.000000;0.013739
9381.000000;0.013410
9380.000000;0.013116
9379.000000;0.012827
9378.000000;0.012474
9377.000000;0.012054
9376.000000;0.011650
9375.000000;0.011332
9374.000000;0.011089
9373.000000;0.010862
9372.000000;0.010627
9371.000000;0.010391
9370.000000;0.010139
9369.000000;0.009835
9368.000000;0.009481
9367.000000;0.009125
9366.000000;0.008788
9365.000000;0.008437
9364.000000;0.008042
9363.000000;0.007634
9362.000000;0.007266
9361.000000;0.006936
9360.000000;0.006610
9359.000000;0.006286
9358.000000;0.006001
9357.000000;0.005756
9356.000000;0.005503
9355.000000;0.005213
9354.000000;0.004910
9353.000000;0.004611
9352.000000;0.004275
9351.000000;0.003869
9350.000000;0.003442
9349.000000;0.003081
9348.000000;0.002810
9347.000000;0.002569
9346.000000;0.002305
9345.000000;0.002019
9344.000000;0.001722
9343.000000;0.001408
9342.000000;0.001090
9341.000000;0.000821
9340.000000;0.000620
9339.000000;0.000435
9338.000000;0.000209
9337.000000;-0.000037
9336.000000;-0.000258
9335.000000;-0.000498
9334.000000;-0.000851
9333.000000;-0.001291
9332.000000;-0.001642
9331.000000;-0.001773
9330.000000;-0.001774
9329.000000;-0.001883
9328.000000;-0.002247
9327.000000;-0.002819
9326.000000;-0.003433
9325.000000;-0.003933
9324.000000;-0.004249
9323.000000;-0.004409
9322.000000;-0.004524
9321.000000;-0.004697
9320.000000;-0.004935
9319.000000;-0.005174
9318.000000;-0.005387
9317.000000;-0.005638
9316.000000;-0.005999
9315.000000;-0.006457
9314.000000;-0.006916
9313.000000;-0.007278
9312.000000;-0.007505
9311.000000;-0.007641
9310.000000;-0.007794
9309.000000;-0.008053
9308.000000;-0.008413
9307.000000;-0.008779
9306.000000;-0.009076
9305.000000;-0.009328
9304.000000;-0.009599
9303.000000;-0.009900
9302.000000;-0.010184
9301.000000;-0.010420
9300.000000;-0.010635
9299.000000;-0.010874
9298.000000;-0.011146
9297.000000;-0.011422
9296.000000;-0.011670
9295.000000;-0.011892
9294.000000;-0.012129
9293.000000;-0.012414
9292.000000;-0.012732
9291.000000;-0.013016
9290.000000;-0.013231
9289.000000;-0.013424
9288.000000;-0.013676
9287.000000;-0.014010
9286.000000;-0.014368
9285.000000;-0.014691
9284.000000;-0.014977
9283.000000;-0.015262
9282.000000;-0.015563
9281.000000;-0.015874
9280.000000;-0.016187
9279.000000;-0.016500
9278.000000;-0.016791
9277.000000;-0.017020
9276.000000;-0.017175
9275.000000;-0.017316
9274.000000;-0.017531
9273.000000;-0.017848
9272.000000;-0.018204
9271.000000;-0.018526
9270.000000;-0.018802
9269.000000;-0.019062
9268.000000;-0.019294
9267.000000;-0.019455
9266.000000;-0.019570
9265.000000;-0.019750
9264.000000;-0.020078
9263.000000;-0.020496
9262.000000;-0.020876
9261.000000;-0.021164
9260.000000;-0.021417
9259.000000;-0.021709
9258.000000;-0.022065
9257.000000;-0.022469
9256.000000;-0.022885
9255.000000;-0.023257
9254.000000;-0.023531
9253.000000;-0.023708
9252.000000;-0.023860
9251.000000;-0.024063
9250.000000;-0.024334
9249.000000;-0.024629
9248.000000;-0.024886
9247.000000;-0.025058
9246.000000;-0.025142
9245.000000;-0.025203
9244.000000;-0.025338
9243.000000;-0.025591
9242.000000;-0.025911
9241.000000;-0.026208
9240.000000;-0.026432
9239.000000;-0.026594
9238.000000;-0.026741
9237.000000;-0.026928
9236.000000;-0.027203
9235.000000;-0.027571
9234.000000;-0.027978
9233.000000;-0.028351
9232.000000;-0.028653
9231.000000;-0.028901
9230.000000;-0.029126
9229.000000;-0.029340
9228.000000;-0.029542
9227.000000;-0.029734
9226.000000;-0.029928
9225.000000;-0.030133
9224.000000;-0.030344
9223.000000;-0.030554
9222.000000;-0.030773
9221.000000;-0.031018
9220.000000;-0.031291
9219.000000;-0.031564
9218.000000;-0.031820
9217.000000;-0.032084
9216.000000;-0.032387
9215.000000;-0.032703
9214.000000;-0.032965
9213.000000;-0.033140
9212.000000;-0.033280
9211.000000;-0.033472
9210.000000;-0.033765
9209.000000;-0.034148
9208.000000;-0.034557
9207.000000;-0.034892
9206.000000;-0.035067
9205.000000;-0.035106
9204.000000;-0.035143
9203.000000;-0.035299
9202.000000;-0.035557
9201.000000;-0.035812
9200.000000;-0.036030
9199.000000;-0.036278
9198.000000;-0.036603
9197.000000;-0.036946
9196.000000;-0.037234
9195.000000;-0.037495
9194.000000;-0.037814
9193.000000;-0.038192
9192.000000;-0.038528
9191.000000;-0.038744
9190.000000;-0.038887
9189.000000;-0.039060
9188.000000;-0.039299
9187.000000;-0.039555
9186.000000;-0.039778
9185.000000;-0.039970
9184.000000;-0.040149
9183.000000;-0.040300
9182.000000;-0.040386
9181.000000;-0.040416
9180.000000;-0.040469
9179.000000;-0.040639
9178.000000;-0.040957
9177.000000;-0.041355
9176.000000;-0.041725
9175.000000;-0.042004
9174.000000;-0.042197
9173.000000;-0.042334
9172.000000;-0.042427
9171.000000;-0.042487
9170.000000;-0.042561
9169.000000;-0.042718
9168.000000;-0.042980
9167.000000;-0.043280
9166.000000;-0.043522
9165.000000;-0.043679
9164.000000;-0.043821
9163.000000;-0.044052
9162.000000;-0.044416
9161.000000;-0.044865
9160.000000;-0.045295
9159.000000;-0.045630
9158.000000;-0.045868
9157.000000;-0.046063
9156.000000;-0.046277
9155.000000;-0.046540
9154.000000;-0.046841
9153.000000;-0.047128
9152.000000;-0.047337
9151.000000;-0.047440
9150.000000;-0.047491
9149.000000;-0.047595
9148.000000;-0.047815
9147.000000;-0.048127
9146.000000;-0.048469
9145.000000;-0.048802
9144.000000;-0.049100
9143.000000;-0.049306
9142.000000;-0.049372
9141.000000;-0.049346
9140.000000;-0.049361
9139.000000;-0.049520
9138.000000;-0.049817
9137.000000;-0.050179
9136.000000;-0.050549
9135.000000;-0.050893
9134.000000;-0.051176
9133.000000;-0.051366
9132.000000;-0.051481
9131.000000;-0.051581
9130.000000;-0.051716
9129.000000;-0.051881
9128.000000;-0.052034
9127.000000;-0.052155
9126.000000;-0.052271
9125.000000;-0.052444
9124.000000;-0.052715
9123.000000;-0.053045
9122.000000;-0.053344
9121.000000;-0.053560
9120.000000;-0.053744
9119.000000;-0.053991
9118.000000;-0.054333
9117.000000;-0.054691
9116.000000;-0.054958
9115.000000;-0.055092
9114.000000;-0.055133
9113.000000;-0.055159
9112.000000;-0.055230
9111.000000;-0.055356
9110.000000;-0.055521
9109.000000;-0.055712
9108.000000;-0.055945
9107.000000;-0.056231
9106.000000;-0.056533
9105.000000;-0.056789
9104.000000;-0.056975
9103.000000;-0.057136
9102.000000;-0.057334
9101.000000;-0.057584
9100.000000;-0.057857
9099.000000;-0.058112
9098.000000;-0.058296
9097.000000;-0.058354
9096.000000;-0.058293
9095.000000;-0.058240
9094.000000;-0.058371
9093.000000;-0.058745
9092.000000;-0.059229
9091.000000;-0.059624
9090.000000;-0.059842
9089.000000;-0.059959
9088.000000;-0.060099
9087.000000;-0.060311
9086.000000;-0.060555
9085.000000;-0.060761
9084.000000;-0.060894
9083.000000;-0.060974
9082.000000;-0.061069
9081.000000;-0.061232
9080.000000;-0.061449
9079.000000;-0.061645
9078.000000;-0.061784
9077.000000;-0.061924
9076.000000;-0.062161
9075.000000;-0.062512
9074.000000;-0.062882
9073.000000;-0.063167
9072.000000;-0.063348
9071.000000;-0.063481
9070.000000;-0.063622
9069.000000;-0.063791
9068.000000;-0.063983
9067.000000;-0.064172
9066.000000;-0.064315
9065.000000;-0.064386
9064.000000;-0.064429
9063.000000;-0.064530
9062.000000;-0.064732
9061.000000;-0.064992
9060.000000;-0.065252
9059.000000;-0.065502
9058.000000;-0.065755
9057.000000;-0.065985
9056.000000;-0.066139
9055.000000;-0.066220
9054.000000;-0.066315
9053.000000;-0.066506
9052.000000;-0.066782
9051.000000;-0.067044
9050.000000;-0.067213
9049.000000;-0.067303
9048.000000;-0.067392
9047.000000;-0.067536
9046.000000;-0.067713
9045.000000;-0.067867
9044.000000;-0.067997
9043.000000;-0.068171
9042.000000;-0.068432
9041.000000;-0.068717
9040.000000;-0.068920
9039.000000;-0.069012
9038.000000;-0.069073
9037.000000;-0.069193
9036.000000;-0.069378
9035.000000;-0.069587
9034.000000;-0.069800
9033.000000;-0.070024
9032.000000;-0.070239
9031.000000;-0.070407
9030.000000;-0.070524
9029.000000;-0.070642
9028.000000;-0.070820
9027.000000;-0.071071
9026.000000;-0.071360
9025.000000;-0.071634
9024.000000;-0.071847
9023.000000;-0.071988
9022.000000;-0.072079
9021.000000;-0.072153
9020.000000;-0.072219
9019.000000;-0.072290
9018.000000;-0.072398
9017.000000;-0.072573
9016.000000;-0.072795
9015.000000;-0.073001
9014.000000;-0.073154
9013.000000;-0.073284
9012.000000;-0.073443
9011.000000;-0.073658
9010.000000;-0.073936
9009.000000;-0.074266
9008.000000;-0.074605
9007.000000;-0.074863
9006.000000;-0.074969
9005.000000;-0.074944
9004.000000;-0.074908
9003.000000;-0.074984
9002.000000;-0.075210
9001.000000;-0.075519
9000.000000;-0.075793
8999.000000;-0.075966
8998.000000;-0.076070
8997.000000;-0.076196
8996.000000;-0.076398
8995.000000;-0.076649
8994.000000;-0.076883
8993.000000;-0.077065
8992.000000;-0.077187
8991.000000;-0.077238
8990.000000;-0.077229
8989.000000;-0.077241
8988.000000;-0.077392
8987.000000;-0.077715
8986.000000;-0.078102
8985.000000;-0.078388
8984.000000;-0.078500
8983.000000;-0.078505
8982.000000;-0.078533
8981.000000;-0.078672
8980.000000;-0.078918
8979.000000;-0.079194
8978.000000;-0.079409
8977.000000;-0.079531
8976.000000;-0.079619
8975.000000;-0.079759
8974.000000;-0.079976
8973.000000;-0.080216
8972.000000;-0.080417
8971.000000;-0.080566
8970.000000;-0.080669
8969.000000;-0.080714
8968.000000;-0.080696
8967.000000;-0.080679
8966.000000;-0.080774
8965.000000;-0.081031
8964.000000;-0.081383
8963.000000;-0.081696
8962.000000;-0.081882
8961.000000;-0.081947
8960.000000;-0.081968
8959.000000;-0.082020
8958.000000;-0.082108
8957.000000;-0.082167
8956.000000;-0.082152
8955.000000;-0.082133
8954.000000;-0.082263
8953.000000;-0.082619
8952.000000;-0.083095
8951.000000;-0.083496
8950.000000;-0.083705
8949.000000;-0.083746
8948.000000;-0.083708
8947.000000;-0.083686
8946.000000;-0.083758
8945.000000;-0.083957
8944.000000;-0.084230
8943.000000;-0.084476
8942.000000;-0.084653
8941.000000;-0.084804
8940.000000;-0.084961
8939.000000;-0.085080
8938.000000;-0.085108
8937.000000;-0.085080
8936.000000;-0.085104
8935.000000;-0.085254
8934.000000;-0.085514
8933.000000;-0.085812
8932.000000;-0.086084
8931.000000;-0.086303
8930.000000;-0.086461
8929.000000;-0.086546
8928.000000;-0.086540
8927.000000;-0.086465
8926.000000;-0.086413
8925.000000;-0.086488
8924.000000;-0.086705
8923.000000;-0.086983
8922.000000;-0.087239
8921.000000;-0.087458
8920.000000;-0.087647
8919.000000;-0.087777
8918.000000;-0.087837
8917.000000;-0.087890
8916.000000;-0.088005
8915.000000;-0.088135
8914.000000;-0.088156
8913.000000;-0.088034
8912.000000;-0.087896
8911.000000;-0.087889
8910.000000;-0.088025
8909.000000;-0.088203
8908.000000;-0.088352
8907.000000;-0.088515
8906.000000;-0.088772
8905.000000;-0.089139
8904.000000;-0.089540
8903.000000;-0.089860
8902.000000;-0.090006
8901.000000;-0.089952
8900.000000;-0.089752
8899.000000;-0.089530
8898.000000;-0.089450
8897.000000;-0.089626
8896.000000;-0.090029
8895.000000;-0.090489
8894.000000;-0.090819
8893.000000;-0.090961
8892.000000;-0.090991
8891.000000;-0.091015
8890.000000;-0.091056
8889.000000;-0.091065
8888.000000;-0.090993
8887.000000;-0.090864
8886.000000;-0.090782
8885.000000;-0.090882
8884.000000;-0.091216
8883.000000;-0.091669
8882.000000;-0.092016
8881.000000;-0.092105
8880.000000;-0.091995
8879.000000;-0.091893
8878.000000;-0.091957
8877.000000;-0.092164
8876.000000;-0.092376
8875.000000;-0.092490
8874.000000;-0.092517
8873.000000;-0.092533
8872.000000;-0.092602
8871.000000;-0.092735
8870.000000;-0.092894
8869.000000;-0.093004
8868.000000;-0.093003
8867.000000;-0.092915
8866.000000;-0.092869
8865.000000;-0.092986
8864.000000;-0.093239
8863.000000;-0.093465
8862.000000;-0.093537
8861.000000;-0.093495
8860.000000;-0.093464
8859.000000;-0.093489
8858.000000;-0.093519
8857.000000;-0.093526
8856.000000;-0.093568
8855.000000;-0.093687
8854.000000;-0.093823
8853.000000;-0.093871
8852.000000;-0.093818
8851.000000;-0.093770
8850.000000;-0.093837
8849.000000;-0.094031
8848.000000;-0.094267
8847.000000;-0.094457
8846.000000;-0.094577
8845.000000;-0.094668
8844.000000;-0.094779
8843.000000;-0.094909
8842.000000;-0.095007
8841.000000;-0.095028
8840.000000;-0.094999
8839.000000;-0.094998
8838.000000;-0.095061
8837.000000;-0.095135
8836.000000;-0.095146
8835.000000;-0.095092
8834.000000;-0.095037
8833.000000;-0.095024
8832.000000;-0.095029
8831.000000;-0.095012
8830.000000;-0.094988
8829.000000;-0.094985
8828.000000;-0.094984
8827.000000;-0.094940
8826.000000;-0.094862
8825.000000;-0.094822
8824.000000;-0.094860
8823.000000;-0.094927
8822.000000;-0.094941
8821.000000;-0.094870
8820.000000;-0.094752
8819.000000;-0.094640
8818.000000;-0.094568
8817.000000;-0.094527
8816.000000;-0.094453
8815.000000;-0.094263
8814.000000;-0.093955
8813.000000;-0.093671
8812.000000;-0.093597
8811.000000;-0.093792
8810.000000;-0.094133
8809.000000;-0.094437
8808.000000;-0.094613
8807.000000;-0.094690
8806.000000;-0.094723
8805.000000;-0.094704
8804.000000;-0.094579
8803.000000;-0.094343
8802.000000;-0.094093
8801.000000;-0.093972
8800.000000;-0.094031
8799.000000;-0.094172
8798.000000;-0.094256
8797.000000;-0.094235
8796.000000;-0.094171
8795.000000;-0.094141
8794.000000;-0.094161
8793.000000;-0.094187
8792.000000;-0.094163
8791.000000;-0.094060
8790.000000;-0.093894
8789.000000;-0.093721
8788.000000;-0.093591
8787.000000;-0.093509
8786.000000;-0.093443
8785.000000;-0.093365
8784.000000;-0.093260
8783.000000;-0.093120
8782.000000;-0.092955
8781.000000;-0.092815
8780.000000;-0.092756
8779.000000;-0.092772
8778.000000;-0.092799
8777.000000;-0.092784
8776.000000;-0.092735
8775.000000;-0.092673
8774.000000;-0.092584
8773.000000;-0.092445
8772.000000;-0.092267
8771.000000;-0.092094
8770.000000;-0.091950
8769.000000;-0.091822
8768.000000;-0.091675
8767.000000;-0.091486
8766.000000;-0.091263
8765.000000;-0.091057
8764.000000;-0.090915
8763.000000;-0.090825
8762.000000;-0.090724
8761.000000;-0.090574
8760.000000;-0.090416
8759.000000;-0.090315
8758.000000;-0.090278
8757.000000;-0.090252
8756.000000;-0.090199
8755.000000;-0.090127
8754.000000;-0.090059
8753.000000;-0.089983
8752.000000;-0.089883
8751.000000;-0.089766
8750.000000;-0.089660
8749.000000;-0.089586
8748.000000;-0.089532
8747.000000;-0.089449
8746.000000;-0.089283
8745.000000;-0.089016
8744.000000;-0.088708
8743.000000;-0.088459
8742.000000;-0.088316
8741.000000;-0.088226
8740.000000;-0.088102
8739.000000;-0.087933
8738.000000;-0.087780
8737.000000;-0.087690
8736.000000;-0.087628
8735.000000;-0.087533
8734.000000;-0.087394
8733.000000;-0.087232
8732.000000;-0.087055
8731.000000;-0.086857
8730.000000;-0.086668
8729.000000;-0.086535
8728.000000;-0.086452
8727.000000;-0.086355
8726.000000;-0.086197
8725.000000;-0.085997
8724.000000;-0.085792
8723.000000;-0.085609
8722.000000;-0.085478
8721.000000;-0.085433
8720.000000;-0.085453
8719.000000;-0.085441
8718.000000;-0.085329
8717.000000;-0.085153
8716.000000;-0.084994
8715.000000;-0.084868
8714.000000;-0.084739
8713.000000;-0.084616
8712.000000;-0.084565
8711.000000;-0.084612
8710.000000;-0.084706
8709.000000;-0.084780
8708.000000;-0.084796
8707.000000;-0.084715
8706.000000;-0.084508
8705.000000;-0.084222
8704.000000;-0.083989
8703.000000;-0.083912
8702.000000;-0.083960
8701.000000;-0.084003
8700.000000;-0.083928
8699.000000;-0.083724
8698.000000;-0.083480
8697.000000;-0.083323
8696.000000;-0.083329
8695.000000;-0.083447
8694.000000;-0.083532
8693.000000;-0.083478
8692.000000;-0.083311
8691.000000;-0.083143
8690.000000;-0.083057
8689.000000;-0.083050
8688.000000;-0.083068
8687.000000;-0.083061
8686.000000;-0.083026
8685.000000;-0.082994
8684.000000;-0.082979
8683.000000;-0.082945
8682.000000;-0.082852
8681.000000;-0.082739
8680.000000;-0.082696
8679.000000;-0.082739
8678.000000;-0.082766
8677.000000;-0.082677
8676.000000;-0.082513
8675.000000;-0.082409
8674.000000;-0.082440
8673.000000;-0.082554
8672.000000;-0.082657
8671.000000;-0.082711
8670.000000;-0.082747
8669.000000;-0.082808
8668.000000;-0.082897
8667.000000;-0.082975
8666.000000;-0.083006
8665.000000;-0.083012
8664.000000;-0.083044
8663.000000;-0.083109
8662.000000;-0.083150
8661.000000;-0.083133
8660.000000;-0.083111
8659.000000;-0.083160
8658.000000;-0.083275
8657.000000;-0.083375
8656.000000;-0.083395
8655.000000;-0.083350
8654.000000;-0.083296
8653.000000;-0.083274
8652.000000;-0.083302
8651.000000;-0.083373
8650.000000;-0.083454
8649.000000;-0.083509
8648.000000;-0.083518
8647.000000;-0.083497
8646.000000;-0.083478
8645.000000;-0.083507
8644.000000;-0.083624
8643.000000;-0.083823
8642.000000;-0.084044
8641.000000;-0.084223
8640.000000;-0.084366
8639.000000;-0.084521
8638.000000;-0.084699
8637.000000;-0.084848
8636.000000;-0.084920
8635.000000;-0.084923
8634.000000;-0.084907
8633.000000;-0.084921
8632.000000;-0.084988
8631.000000;-0.085101
8630.000000;-0.085223
8629.000000;-0.085304
8628.000000;-0.085332
8627.000000;-0.085352
8626.000000;-0.085435
8625.000000;-0.085600
8624.000000;-0.085800
8623.000000;-0.085947
8622.000000;-0.085981
8621.000000;-0.085920
8620.000000;-0.085852
8619.000000;-0.085886
8618.000000;-0.086062
8617.000000;-0.086334
8616.000000;-0.086611
8615.000000;-0.086837
8614.000000;-0.087015
8613.000000;-0.087175
8612.000000;-0.087332
8611.000000;-0.087482
8610.000000;-0.087628
8609.000000;-0.087788
8608.000000;-0.087968
8607.000000;-0.088141
8606.000000;-0.088270
8605.000000;-0.088343
8604.000000;-0.088377
8603.000000;-0.088390
8602.000000;-0.088387
8601.000000;-0.088374
8600.000000;-0.088378
8599.000000;-0.088435
8598.000000;-0.088562
8597.000000;-0.088755
8596.000000;-0.088974
8595.000000;-0.089163
8594.000000;-0.089285
8593.000000;-0.089352
8592.000000;-0.089413
8591.000000;-0.089497
8590.000000;-0.089614
8589.000000;-0.089777
8588.000000;-0.089992
8587.000000;-0.090218
8586.000000;-0.090385
8585.000000;-0.090479
8584.000000;-0.090574
8583.000000;-0.090734
8582.000000;-0.090927
8581.000000;-0.091071
8580.000000;-0.091147
8579.000000;-0.091211
8578.000000;-0.091312
8577.000000;-0.091444
8576.000000;-0.091588
8575.000000;-0.091748
8574.000000;-0.091929
8573.000000;-0.092119
8572.000000;-0.092306
8571.000000;-0.092499
8570.000000;-0.092709
8569.000000;-0.092933
8568.000000;-0.093168
8567.000000;-0.093405
8566.000000;-0.093618
8565.000000;-0.093766
8564.000000;-0.093840
8563.000000;-0.093883
8562.000000;-0.093960
8561.000000;-0.094096
8560.000000;-0.094259
8559.000000;-0.094389
8558.000000;-0.094448
8557.000000;-0.094469
8556.000000;-0.094532
8555.000000;-0.094690
8554.000000;-0.094909
8553.000000;-0.095109
8552.000000;-0.095260
8551.000000;-0.095393
8550.000000;-0.095535
8549.000000;-0.095663
8548.000000;-0.095764
8547.000000;-0.095880
8546.000000;-0.096068
8545.000000;-0.096318
8544.000000;-0.096550
8543.000000;-0.096697
8542.000000;-0.096770
8541.000000;-0.096831
8540.000000;-0.096934
8539.000000;-0.097083
8538.000000;-0.097249
8537.000000;-0.097405
8536.000000;-0.097543
8535.000000;-0.097662
8534.000000;-0.097764
8533.000000;-0.097860
8532.000000;-0.097978
8531.000000;-0.098147
8530.000000;-0.098358
8529.000000;-0.098568
8528.000000;-0.098728
8527.000000;-0.098826
8526.000000;-0.098885
8525.000000;-0.098935
8524.000000;-0.098990
8523.000000;-0.099039
8522.000000;-0.099077
8521.000000;-0.099143
8520.000000;-0.099295
8519.000000;-0.099552
8518.000000;-0.099852
8517.000000;-0.100103
8516.000000;-0.100260
8515.000000;-0.100339
8514.000000;-0.100390
8513.000000;-0.100461
8512.000000;-0.100601
8511.000000;-0.100828
8510.000000;-0.101098
8509.000000;-0.101333
8508.000000;-0.101484
8507.000000;-0.101578
8506.000000;-0.101672
8505.000000;-0.101801
8504.000000;-0.101959
8503.000000;-0.102115
8502.000000;-0.102234
8501.000000;-0.102306
8500.000000;-0.102366
8499.000000;-0.102473
8498.000000;-0.102648
8497.000000;-0.102842
8496.000000;-0.102993
8495.000000;-0.103088
8494.000000;-0.103175
8493.000000;-0.103311
8492.000000;-0.103516
8491.000000;-0.103755
8490.000000;-0.103959
8489.000000;-0.104085
8488.000000;-0.104166
8487.000000;-0.104272
8486.000000;-0.104425
8485.000000;-0.104572
8484.000000;-0.104659
8483.000000;-0.104702
8482.000000;-0.104752
8481.000000;-0.104828
8480.000000;-0.104915
8479.000000;-0.105012
8478.000000;-0.105137
8477.000000;-0.105287
8476.000000;-0.105436
8475.000000;-0.105584
8474.000000;-0.105762
8473.000000;-0.105974
8472.000000;-0.106179
8471.000000;-0.106329
8470.000000;-0.106422
8469.000000;-0.106493
8468.000000;-0.106573
8467.000000;-0.106675
8466.000000;-0.106806
8465.000000;-0.106961
8464.000000;-0.107121
8463.000000;-0.107262
8462.000000;-0.107389
8461.000000;-0.107524
8460.000000;-0.107677
8459.000000;-0.107837
8458.000000;-0.107990
8457.000000;-0.108144
8456.000000;-0.108317
8455.000000;-0.108509
8454.000000;-0.108697
8453.000000;-0.108849
8452.000000;-0.108947
8451.000000;-0.108997
8450.000000;-0.109034
8449.000000;-0.109104
8448.000000;-0.109234
8447.000000;-0.109400
8446.000000;-0.109555
8445.000000;-0.109674
8444.000000;-0.109768
8443.000000;-0.109857
8442.000000;-0.109949
8441.000000;-0.110048
8440.000000;-0.110174
8439.000000;-0.110346
8438.000000;-0.110558
8437.000000;-0.110784
8436.000000;-0.111001
8435.000000;-0.111198
8434.000000;-0.111370
8433.000000;-0.111518
8432.000000;-0.111659
8431.000000;-0.111803
8430.000000;-0.111939
8429.000000;-0.112050
8428.000000;-0.112140
8427.000000;-0.112225
8426.000000;-0.112307
8425.000000;-0.112373
8424.000000;-0.112427
8423.000000;-0.112482
8422.000000;-0.112540
8421.000000;-0.112600
8420.000000;-0.112697
8419.000000;-0.112877
8418.000000;-0.113129
8417.000000;-0.113377
8416.000000;-0.113565
8415.000000;-0.113707
8414.000000;-0.113841
8413.000000;-0.113958
8412.000000;-0.114030
8411.000000;-0.114083
8410.000000;-0.114181
8409.000000;-0.114339
8408.000000;-0.114508
8407.000000;-0.114636
8406.000000;-0.114728
8405.000000;-0.114819
8404.000000;-0.114925
8403.000000;-0.115036
8402.000000;-0.115124
8401.000000;-0.115176
8400.000000;-0.115216
8399.000000;-0.115297
8398.000000;-0.115452
8397.000000;-0.115642
8396.000000;-0.115798
8395.000000;-0.115915
8394.000000;-0.116056
8393.000000;-0.116255
8392.000000;-0.116455
8391.000000;-0.116576
8390.000000;-0.116625
8389.000000;-0.116700
8388.000000;-0.116883
8387.000000;-0.117156
8386.000000;-0.117431
8385.000000;-0.117635
8384.000000;-0.117767
8383.000000;-0.117877
8382.000000;-0.118017
8381.000000;-0.118207
8380.000000;-0.118423
8379.000000;-0.118620
8378.000000;-0.118755
8377.000000;-0.118820
8376.000000;-0.118858
8375.000000;-0.118936
8374.000000;-0.119090
8373.000000;-0.119290
8372.000000;-0.119470
8371.000000;-0.119604
8370.000000;-0.119711
8369.000000;-0.119813
8368.000000;-0.119901
8367.000000;-0.119954
8366.000000;-0.119974
8365.000000;-0.119990
8364.000000;-0.120032
8363.000000;-0.120124
8362.000000;-0.120283
8361.000000;-0.120505
8360.000000;-0.120764
8359.000000;-0.121026
8358.000000;-0.121260
8357.000000;-0.121446
8356.000000;-0.121580
8355.000000;-0.121687
8354.000000;-0.121807
8353.000000;-0.121949
8352.000000;-0.122090
8351.000000;-0.122211
8350.000000;-0.122324
8349.000000;-0.122441
8348.000000;-0.122547
8347.000000;-0.122631
8346.000000;-0.122729
8345.000000;-0.122890
8344.000000;-0.123120
8343.000000;-0.123363
8342.000000;-0.123571
8341.000000;-0.123739
8340.000000;-0.123887
8339.000000;-0.124032
8338.000000;-0.124180
8337.000000;-0.124337
8336.000000;-0.124504
8335.000000;-0.124683
8334.000000;-0.124888
8333.000000;-0.125129
8332.000000;-0.125372
8331.000000;-0.125543
8330.000000;-0.125597
8329.000000;-0.125591
8328.000000;-0.125645
8327.000000;-0.125839
8326.000000;-0.126135
8325.000000;-0.126426
8324.000000;-0.126637
8323.000000;-0.126788
8322.000000;-0.126936
8321.000000;-0.127091
8320.000000;-0.127213
8319.000000;-0.127277
8318.000000;-0.127322
8317.000000;-0.127409
8316.000000;-0.127559
8315.000000;-0.127756
8314.000000;-0.127977
8313.000000;-0.128199
8312.000000;-0.128386
8311.000000;-0.128524
8310.000000;-0.128651
8309.000000;-0.128828
8308.000000;-0.129055
8307.000000;-0.129266
8306.000000;-0.129407
8305.000000;-0.129503
8304.000000;-0.129620
8303.000000;-0.129786
8302.000000;-0.129973
8301.000000;-0.130149
8300.000000;-0.130320
8299.000000;-0.130515
8298.000000;-0.130743
8297.000000;-0.130968
8296.000000;-0.131140
8295.000000;-0.131257
8294.000000;-0.131380
8293.000000;-0.131564
8292.000000;-0.131794
8291.000000;-0.132000
8290.000000;-0.132154
8289.000000;-0.132288
8288.000000;-0.132440
8287.000000;-0.132598
8286.000000;-0.132736
8285.000000;-0.132855
8284.000000;-0.132976
8283.000000;-0.133106
8282.000000;-0.133253
8281.000000;-0.133431
8280.000000;-0.133633
8279.000000;-0.133811
8278.000000;-0.133927
8277.000000;-0.134008
8276.000000;-0.134109
8275.000000;-0.134248
8274.000000;-0.134402
8273.000000;-0.134567
8272.000000;-0.134768
8271.000000;-0.135015
8270.000000;-0.135280
8269.000000;-0.135536
8268.000000;-0.135773
8267.000000;-0.135975
8266.000000;-0.136114
8265.000000;-0.136190
8264.000000;-0.136249
8263.000000;-0.136342
8262.000000;-0.136482
8261.000000;-0.136639
8260.000000;-0.136787
8259.000000;-0.136924
8258.000000;-0.137071
8257.000000;-0.137259
8256.000000;-0.137486
8255.000000;-0.137714
8254.000000;-0.137898
8253.000000;-0.138048
8252.000000;-0.138219
8251.000000;-0.138439
8250.000000;-0.138670
8249.000000;-0.138858
8248.000000;-0.139006
8247.000000;-0.139157
8246.000000;-0.139338
8245.000000;-0.139539
8244.000000;-0.139738
8243.000000;-0.139926
8242.000000;-0.140098
8241.000000;-0.140245
8240.000000;-0.140365
8239.000000;-0.140475
8238.000000;-0.140595
8237.000000;-0.140730
8236.000000;-0.140882
8235.000000;-0.141049
8234.000000;-0.141229
8233.000000;-0.141409
8232.000000;-0.141569
8231.000000;-0.141703
8230.000000;-0.141821
8229.000000;-0.141950
8228.000000;-0.142116
8227.000000;-0.142334
8226.000000;-0.142591
8225.000000;-0.142852
8224.000000;-0.143082
8223.000000;-0.143282
8222.000000;-0.143485
8221.000000;-0.143709
8220.000000;-0.143931
8219.000000;-0.144117
8218.000000;-0.144272
8217.000000;-0.144431
8216.000000;-0.144598
8215.000000;-0.144734
8214.000000;-0.144826
8213.000000;-0.144919
8212.000000;-0.145061
8211.000000;-0.145240
8210.000000;-0.145410
8209.000000;-0.145558
8208.000000;-0.145716
8207.000000;-0.145899
8206.000000;-0.146092
8205.000000;-0.146284
8204.000000;-0.146485
8203.000000;-0.146686
8202.000000;-0.146848
8201.000000;-0.146948
8200.000000;-0.147019
8199.000000;-0.147123
8198.000000;-0.147304
8197.000000;-0.147565
8196.000000;-0.147869
8195.000000;-0.148146
8194.000000;-0.148323
8193.000000;-0.148390
8192.000000;-0.148425
8191.000000;-0.148520
8190.000000;-0.148707
8189.000000;-0.148949
8188.000000;-0.149195
8187.000000;-0.149423
8186.000000;-0.149636
8185.000000;-0.149840
8184.000000;-0.150031
8183.000000;-0.150196
8182.000000;-0.150313
8181.000000;-0.150385
8180.000000;-0.150451
8179.000000;-0.150566
8178.000000;-0.150752
8177.000000;-0.150985
8176.000000;-0.151216
8175.000000;-0.151410
8174.000000;-0.151555
8173.000000;-0.151665
8172.000000;-0.151765
8171.000000;-0.151881
8170.000000;-0.152031
8169.000000;-0.152217
8168.000000;-0.152423
8167.000000;-0.152624
8166.000000;-0.152801
8165.000000;-0.152958
8164.000000;-0.153106
8163.000000;-0.153249
8162.000000;-0.153378
8161.000000;-0.153501
8160.000000;-0.153651
8159.000000;-0.153858
8158.000000;-0.154110
8157.000000;-0.154360
8156.000000;-0.154562
8155.000000;-0.154704
8154.000000;-0.154807
8153.000000;-0.154915
8152.000000;-0.155065
8151.000000;-0.155266
8150.000000;-0.155484
8149.000000;-0.155681
8148.000000;-0.155855
8147.000000;-0.156040
8146.000000;-0.156262
8145.000000;-0.156504
8144.000000;-0.156720
8143.000000;-0.156878
8142.000000;-0.156984
8141.000000;-0.157073
8140.000000;-0.157181
8139.000000;-0.157333
8138.000000;-0.157536
8137.000000;-0.157776
8136.000000;-0.158021
8135.000000;-0.158234
8134.000000;-0.158397
8133.000000;-0.158526
8132.000000;-0.158651
8131.000000;-0.158787
8130.000000;-0.158925
8129.000000;-0.159055
8128.000000;-0.159193
8127.000000;-0.159366
8126.000000;-0.159583
8125.000000;-0.159812
8124.000000;-0.160013
8123.000000;-0.160175
8122.000000;-0.160322
8121.000000;-0.160467
8120.000000;-0.160594
8119.000000;-0.160695
8118.000000;-0.160816
8117.000000;-0.161021
8116.000000;-0.161328
8115.000000;-0.161675
8114.000000;-0.161980
8113.000000;-0.162213
8112.000000;-0.162397
8111.000000;-0.162568
8110.000000;-0.162761
8109.000000;-0.162998
8108.000000;-0.163265
8107.000000;-0.163502
8106.000000;-0.163642
8105.000000;-0.163687
8104.000000;-0.163705
8103.000000;-0.163757
8102.000000;-0.163844
8101.000000;-0.163939
8100.000000;-0.164036
8099.000000;-0.164152
8098.000000;-0.164299
8097.000000;-0.164472
8096.000000;-0.164667
8095.000000;-0.164885
8094.000000;-0.165121
8093.000000;-0.165361
8092.000000;-0.165596
8091.000000;-0.165825
8090.000000;-0.166057
8089.000000;-0.166289
8088.000000;-0.166507
8087.000000;-0.166689
8086.000000;-0.166835
8085.000000;-0.166978
8084.000000;-0.167144
8083.000000;-0.167326
8082.000000;-0.167486
8081.000000;-0.167615
8080.000000;-0.167743
8079.000000;-0.167904
8078.000000;-0.168093
8077.000000;-0.168288
8076.000000;-0.168479
8075.000000;-0.168664
8074.000000;-0.168834
8073.000000;-0.168979
8072.000000;-0.169113
8071.000000;-0.169267
8070.000000;-0.169461
8069.000000;-0.169688
8068.000000;-0.169921
8067.000000;-0.170136
8066.000000;-0.170331
8065.000000;-0.170525
8064.000000;-0.170736
8063.000000;-0.170960
8062.000000;-0.171168
8061.000000;-0.171339
8060.000000;-0.171487
8059.000000;-0.171635
8058.000000;-0.171784
8057.000000;-0.171915
8056.000000;-0.172018
8055.000000;-0.172114
8054.000000;-0.172228
8053.000000;-0.172379
8052.000000;-0.172571
8051.000000;-0.172789
8050.000000;-0.172998
8049.000000;-0.173171
8048.000000;-0.173318
8047.000000;-0.173492
8046.000000;-0.173741
8045.000000;-0.174053
8044.000000;-0.174358
8043.000000;-0.174573
8042.000000;-0.174683
8041.000000;-0.174757
8040.000000;-0.174887
8039.000000;-0.175097
8038.000000;-0.175336
8037.000000;-0.175536
8036.000000;-0.175693
8035.000000;-0.175853
8034.000000;-0.176054
8033.000000;-0.176286
8032.000000;-0.176511
8031.000000;-0.176692
8030.000000;-0.176832
8029.000000;-0.176965
8028.000000;-0.177130
8027.000000;-0.177341
8026.000000;-0.177576
8025.000000;-0.177802
8024.000000;-0.178006
8023.000000;-0.178191
8022.000000;-0.178364
8021.000000;-0.178526
8020.000000;-0.178678
8019.000000;-0.178828
8018.000000;-0.178996
8017.000000;-0.179205
8016.000000;-0.179454
8015.000000;-0.179704
8014.000000;-0.179897
8013.000000;-0.180023
8012.000000;-0.180130
8011.000000;-0.180279
8010.000000;-0.180481
8009.000000;-0.180708
8008.000000;-0.180926
8007.000000;-0.181115
8006.000000;-0.181256
8005.000000;-0.181350
8004.000000;-0.181435
8003.000000;-0.181573
8002.000000;-0.181791
8001.000000;-0.182071
8000.000000;-0.182365
7999.000000;-0.182630
7998.000000;-0.182835
7997.000000;-0.182968
7996.000000;-0.183062
7995.000000;-0.183168
7994.000000;-0.183319
7993.000000;-0.183501
7992.000000;-0.183697
7991.000000;-0.183915
7990.000000;-0.184171
7989.000000;-0.184444
7988.000000;-0.184678
7987.000000;-0.184829
7986.000000;-0.184906
7985.000000;-0.184970
7984.000000;-0.185091
7983.000000;-0.185299
7982.000000;-0.185573
7981.000000;-0.185852
7980.000000;-0.186090
7979.000000;-0.186277
7978.000000;-0.186437
7977.000000;-0.186590
7976.000000;-0.186749
7975.000000;-0.186923
7974.000000;-0.187125
7973.000000;-0.187354
7972.000000;-0.187581
7971.000000;-0.187766
7970.000000;-0.187896
7969.000000;-0.188001
7968.000000;-0.188140
7967.000000;-0.188350
7966.000000;-0.188613
7965.000000;-0.188873
7964.000000;-0.189079
7963.000000;-0.189221
7962.000000;-0.189331
7961.000000;-0.189457
7960.000000;-0.189632
7959.000000;-0.189853
7958.000000;-0.190092
7957.000000;-0.190313
7956.000000;-0.190502
7955.000000;-0.190661
7954.000000;-0.190801
7953.000000;-0.190927
7952.000000;-0.191053
7951.000000;-0.191202
7950.000000;-0.191391
7949.000000;-0.191611
7948.000000;-0.191828
7947.000000;-0.192029
7946.000000;-0.192232
7945.000000;-0.192462
7944.000000;-0.192701
7943.000000;-0.192894
7942.000000;-0.193000
7941.000000;-0.193042
7940.000000;-0.193095
7939.000000;-0.193225
7938.000000;-0.193438
7937.000000;-0.193685
7936.000000;-0.193905
7935.000000;-0.194074
7934.000000;-0.194208
7933.000000;-0.194348
7932.000000;-0.194520
7931.000000;-0.194729
7930.000000;-0.194955
7929.000000;-0.195171
7928.000000;-0.195356
7927.000000;-0.195509
7926.000000;-0.195649
7925.000000;-0.195800
7924.000000;-0.195966
7923.000000;-0.196134
7922.000000;-0.196295
7921.000000;-0.196459
7920.000000;-0.196634
7919.000000;-0.196823
7918.000000;-0.197025
7917.000000;-0.197247
7916.000000;-0.197485
7915.000000;-0.197706
7914.000000;-0.197876
7913.000000;-0.197996
7912.000000;-0.198107
7911.000000;-0.198244
7910.000000;-0.198421
7909.000000;-0.198626
7908.000000;-0.198838
7907.000000;-0.199023
7906.000000;-0.199157
7905.000000;-0.199267
7904.000000;-0.199415
7903.000000;-0.199637
7902.000000;-0.199901
7901.000000;-0.200139
7900.000000;-0.200316
7899.000000;-0.200451
7898.000000;-0.200572
7897.000000;-0.200684
7896.000000;-0.200788
7895.000000;-0.200908
7894.000000;-0.201073
7893.000000;-0.201285
7892.000000;-0.201503
7891.000000;-0.201685
7890.000000;-0.201824
7889.000000;-0.201960
7888.000000;-0.202131
7887.000000;-0.202341
7886.000000;-0.202560
7885.000000;-0.202765
7884.000000;-0.202948
7883.000000;-0.203115
7882.000000;-0.203267
7881.000000;-0.203409
7880.000000;-0.203550
7879.000000;-0.203692
7878.000000;-0.203828
7877.000000;-0.203954
7876.000000;-0.204088
7875.000000;-0.204249
7874.000000;-0.204431
7873.000000;-0.204607
7872.000000;-0.204763
7871.000000;-0.204917
7870.000000;-0.205094
7869.000000;-0.205292
7868.000000;-0.205486
7867.000000;-0.205664
7866.000000;-0.205838
7865.000000;-0.206024
7864.000000;-0.206219
7863.000000;-0.206393
7862.000000;-0.206522
7861.000000;-0.206613
7860.000000;-0.206700
7859.000000;-0.206817
7858.000000;-0.206975
7857.000000;-0.207153
7856.000000;-0.207317
7855.000000;-0.207452
7854.000000;-0.207570
7853.000000;-0.207700
7852.000000;-0.207853
7851.000000;-0.208013
7850.000000;-0.208164
7849.000000;-0.208312
7848.000000;-0.208478
7847.000000;-0.208673
7846.000000;-0.208886
7845.000000;-0.209090
7844.000000;-0.209261
7843.000000;-0.209391
7842.000000;-0.209498
7841.000000;-0.209616
7840.000000;-0.209764
7839.000000;-0.209932
7838.000000;-0.210098
7837.000000;-0.210254
7836.000000;-0.210404
7835.000000;-0.210551
7834.000000;-0.210693
7833.000000;-0.210833
7832.000000;-0.210977
7831.000000;-0.211123
7830.000000;-0.211266
7829.000000;-0.211409
7828.000000;-0.211549
7827.000000;-0.211670
7826.000000;-0.211755
7825.000000;-0.211820
7824.000000;-0.211914
7823.000000;-0.212068
7822.000000;-0.212262
7821.000000;-0.212449
7820.000000;-0.212610
7819.000000;-0.212763
7818.000000;-0.212926
7817.000000;-0.213077
7816.000000;-0.213177
7815.000000;-0.213219
7814.000000;-0.213255
7813.000000;-0.213350
7812.000000;-0.213524
7811.000000;-0.213732
7810.000000;-0.213917
7809.000000;-0.214066
7808.000000;-0.214210
7807.000000;-0.214372
7806.000000;-0.214532
7805.000000;-0.214654
7804.000000;-0.214728
7803.000000;-0.214782
7802.000000;-0.214855
7801.000000;-0.214968
7800.000000;-0.215114
7799.000000;-0.215271
7798.000000;-0.215419
7797.000000;-0.215551
7796.000000;-0.215675
7795.000000;-0.215805
7794.000000;-0.215956
7793.000000;-0.216118
7792.000000;-0.216257
7791.000000;-0.216346
7790.000000;-0.216408
7789.000000;-0.216498
7788.000000;-0.216641
7787.000000;-0.216810
7786.000000;-0.216969
7785.000000;-0.217119
7784.000000;-0.217273
7783.000000;-0.217419
7782.000000;-0.217535
7781.000000;-0.217621
7780.000000;-0.217702
7779.000000;-0.217781
7778.000000;-0.217840
7777.000000;-0.217881
7776.000000;-0.217936
7775.000000;-0.218040
7774.000000;-0.218192
7773.000000;-0.218371
7772.000000;-0.218551
7771.000000;-0.218706
7770.000000;-0.218815
7769.000000;-0.218882
7768.000000;-0.218934
7767.000000;-0.219004
7766.000000;-0.219119
7765.000000;-0.219287
7764.000000;-0.219488
7763.000000;-0.219669
7762.000000;-0.219778
7761.000000;-0.219817
7760.000000;-0.219840
7759.000000;-0.219901
7758.000000;-0.220007
7757.000000;-0.220134
7756.000000;-0.220258
7755.000000;-0.220357
7754.000000;-0.220427
7753.000000;-0.220487
7752.000000;-0.220580
7751.000000;-0.220718
7750.000000;-0.220860
7749.000000;-0.220957
7748.000000;-0.221014
7747.000000;-0.221080
7746.000000;-0.221188
7745.000000;-0.221320
7744.000000;-0.221433
7743.000000;-0.221508
7742.000000;-0.221571
7741.000000;-0.221659
7740.000000;-0.221785
7739.000000;-0.221929
7738.000000;-0.222056
7737.000000;-0.222144
7736.000000;-0.222199
7735.000000;-0.222247
7734.000000;-0.222319
7733.000000;-0.222419
7732.000000;-0.222522
7731.000000;-0.222591
7730.000000;-0.222628
7729.000000;-0.222670
7728.000000;-0.222748
7727.000000;-0.222855
7726.000000;-0.222960
7725.000000;-0.223047
7724.000000;-0.223121
7723.000000;-0.223188
7722.000000;-0.223246
7721.000000;-0.223296
7720.000000;-0.223341
7719.000000;-0.223381
7718.000000;-0.223430
7717.000000;-0.223509
7716.000000;-0.223619
7715.000000;-0.223730
7714.000000;-0.223821
7713.000000;-0.223905
7712.000000;-0.224008
7711.000000;-0.224117
7710.000000;-0.224197
7709.000000;-0.224245
7708.000000;-0.224287
7707.000000;-0.224332
7706.000000;-0.224364
7705.000000;-0.224381
7704.000000;-0.224404
7703.000000;-0.224439
7702.000000;-0.224478
7701.000000;-0.224523
7700.000000;-0.224595
7699.000000;-0.224691
7698.000000;-0.224776
7697.000000;-0.224828
7696.000000;-0.224861
7695.000000;-0.224898
7694.000000;-0.224940
7693.000000;-0.224976
7692.000000;-0.225012
7691.000000;-0.225055
7690.000000;-0.225102
7689.000000;-0.225150
7688.000000;-0.225206
7687.000000;-0.225273
7686.000000;-0.225336
7685.000000;-0.225386
7684.000000;-0.225427
7683.000000;-0.225458
7682.000000;-0.225478
7681.000000;-0.225510
7680.000000;-0.225583
7679.000000;-0.225692
7678.000000;-0.225783
7677.000000;-0.225819
7676.000000;-0.225813
7675.000000;-0.225793
7674.000000;-0.225764
7673.000000;-0.225734
7672.000000;-0.225725
7671.000000;-0.225750
7670.000000;-0.225783
7669.000000;-0.225788
7668.000000;-0.225771
7667.000000;-0.225766
7666.000000;-0.225794
7665.000000;-0.225854
7664.000000;-0.225937
7663.000000;-0.226023
7662.000000;-0.226075
7661.000000;-0.226070
7660.000000;-0.226024
7659.000000;-0.225974
7658.000000;-0.225938
7657.000000;-0.225914
7656.000000;-0.225900
7655.000000;-0.225902
7654.000000;-0.225920
7653.000000;-0.225947
7652.000000;-0.225973
7651.000000;-0.225984
7650.000000;-0.225978
7649.000000;-0.225970
7648.000000;-0.225984
7647.000000;-0.226018
7646.000000;-0.226041
7645.000000;-0.226034
7644.000000;-0.226014
7643.000000;-0.226005
7642.000000;-0.226005
7641.000000;-0.225992
7640.000000;-0.225960
7639.000000;-0.225918
7638.000000;-0.225871
7637.000000;-0.225829
7636.000000;-0.225808
7635.000000;-0.225811
7634.000000;-0.225823
7633.000000;-0.225830
7632.000000;-0.225830
7631.000000;-0.225828
7630.000000;-0.225810
7629.000000;-0.225764
7628.000000;-0.225701
7627.000000;-0.225639
7626.000000;-0.225582
7625.000000;-0.225523
7624.000000;-0.225464
7623.000000;-0.225411
7622.000000;-0.225360
7621.000000;-0.225300
7620.000000;-0.225228
7619.000000;-0.225147
7618.000000;-0.225054
7617.000000;-0.224961
7616.000000;-0.224893
7615.000000;-0.224865
7614.000000;-0.224869
7613.000000;-0.224880
7612.000000;-0.224883
7611.000000;-0.224866
7610.000000;-0.224821
7609.000000;-0.224749
7608.000000;-0.224663
7607.000000;-0.224568
7606.000000;-0.224462
7605.000000;-0.224350
7604.000000;-0.224252
7603.000000;-0.224171
7602.000000;-0.224092
7601.000000;-0.224013
7600.000000;-0.223957
7599.000000;-0.223931
7598.000000;-0.223904
7597.000000;-0.223845
7596.000000;-0.223763
7595.000000;-0.223683
7594.000000;-0.223599
7593.000000;-0.223486
7592.000000;-0.223344
7591.000000;-0.223205
7590.000000;-0.223090
7589.000000;-0.223002
7588.000000;-0.222939
7587.000000;-0.222901
7586.000000;-0.222867
7585.000000;-0.222803
7584.000000;-0.222678
7583.000000;-0.222503
7582.000000;-0.222324
7581.000000;-0.222196
7580.000000;-0.222138
7579.000000;-0.222101
7578.000000;-0.222011
7577.000000;-0.221844
7576.000000;-0.221640
7575.000000;-0.221447
7574.000000;-0.221269
7573.000000;-0.221096
7572.000000;-0.220946
7571.000000;-0.220849
7570.000000;-0.220795
7569.000000;-0.220738
7568.000000;-0.220645
7567.000000;-0.220512
7566.000000;-0.220355
7565.000000;-0.220195
7564.000000;-0.220048
7563.000000;-0.219909
7562.000000;-0.219758
7561.000000;-0.219588
7560.000000;-0.219421
7559.000000;-0.219281
7558.000000;-0.219163
7557.000000;-0.219041
7556.000000;-0.218907
7555.000000;-0.218764
7554.000000;-0.218608
7553.000000;-0.218433
7552.000000;-0.218242
7551.000000;-0.218048
7550.000000;-0.217855
7549.000000;-0.217660
7548.000000;-0.217470
7547.000000;-0.217294
7546.000000;-0.217136
7545.000000;-0.216994
7544.000000;-0.216862
7543.000000;-0.216725
7542.000000;-0.216561
7541.000000;-0.216367
7540.000000;-0.216165
7539.000000;-0.215974
7538.000000;-0.215791
7537.000000;-0.215605
7536.000000;-0.215414
7535.000000;-0.215210
7534.000000;-0.214980
7533.000000;-0.214723
7532.000000;-0.214475
7531.000000;-0.214270
7530.000000;-0.214102
7529.000000;-0.213938
7528.000000;-0.213757
7527.000000;-0.213566
7526.000000;-0.213394
7525.000000;-0.213258
7524.000000;-0.213146
7523.000000;-0.213011
7522.000000;-0.212810
7521.000000;-0.212550
7520.000000;-0.212268
7519.000000;-0.211984
7518.000000;-0.211689
7517.000000;-0.211398
7516.000000;-0.211158
7515.000000;-0.210992
7514.000000;-0.210857
7513.000000;-0.210692
7512.000000;-0.210486
7511.000000;-0.210268
7510.000000;-0.210061
7509.000000;-0.209866
7508.000000;-0.209672
7507.000000;-0.209474
7506.000000;-0.209266
7505.000000;-0.209048
7504.000000;-0.208824
7503.000000;-0.208584
7502.000000;-0.208311
7501.000000;-0.208015
7500.000000;-0.207736
7499.000000;-0.207496
7498.000000;-0.207272
7497.000000;-0.207084
7496.000000;-0.206844
7495.000000;-0.206604
7494.000000;-0.206370
7493.000000;-0.206133
7492.000000;-0.205892
7491.000000;-0.205641
7490.000000;-0.205380
7489.000000;-0.205123
7488.000000;-0.204887
7487.000000;-0.204659
7486.000000;-0.204419
7485.000000;-0.204182
7484.000000;-0.203981
7483.000000;-0.203810
7482.000000;-0.203608
7481.000000;-0.203344
7480.000000;-0.203055
7479.000000;-0.202785
7478.000000;-0.202539
7477.000000;-0.202303
7476.000000;-0.202086
7475.000000;-0.201887
7474.000000;-0.201673
7473.000000;-0.201415
7472.000000;-0.201124
7471.000000;-0.200831
7470.000000;-0.200544
7469.000000;-0.200263
7468.000000;-0.199995
7467.000000;-0.199740
7466.000000;-0.199485
7465.000000;-0.199227
7464.000000;-0.198983
7463.000000;-0.198749
7462.000000;-0.198495
7461.000000;-0.198203
7460.000000;-0.197894
7459.000000;-0.197599
7458.000000;-0.197330
7457.000000;-0.197088
7456.000000;-0.196862
7455.000000;-0.196624
7454.000000;-0.196354
7453.000000;-0.196084
7452.000000;-0.195872
7451.000000;-0.195721
7450.000000;-0.195563
7449.000000;-0.195345
7448.000000;-0.195081
7447.000000;-0.194796
7446.000000;-0.194495
7445.000000;-0.194195
7444.000000;-0.193927
7443.000000;-0.193694
7442.000000;-0.193468
7441.000000;-0.193255
7440.000000;-0.193088
7439.000000;-0.192949
7438.000000;-0.192760
7437.000000;-0.192484
7436.000000;-0.192178
7435.000000;-0.191898
7434.000000;-0.191626
7433.000000;-0.191338
7432.000000;-0.191066
7431.000000;-0.190846
7430.000000;-0.190646
7429.000000;-0.190395
7428.000000;-0.190068
7427.000000;-0.189692
7426.000000;-0.189314
7425.000000;-0.189003
7424.000000;-0.188808
7423.000000;-0.188676
7422.000000;-0.188477
7421.000000;-0.188160
7420.000000;-0.187827
7419.000000;-0.187584
7418.000000;-0.187410
7417.000000;-0.187219
7416.000000;-0.186984
7415.000000;-0.186733
7414.000000;-0.186486
7413.000000;-0.186243
7412.000000;-0.186011
7411.000000;-0.185799
7410.000000;-0.185614
7409.000000;-0.185486
7408.000000;-0.185419
7407.000000;-0.185335
7406.000000;-0.185140
7405.000000;-0.184852
7404.000000;-0.184580
7403.000000;-0.184369
7402.000000;-0.184154
7401.000000;-0.183871
7400.000000;-0.183513
7399.000000;-0.183130
7398.000000;-0.182815
7397.000000;-0.182634
7396.000000;-0.182534
7395.000000;-0.182399
7394.000000;-0.182257
7393.000000;-0.182286
7392.000000;-0.182522
7391.000000;-0.182706
7390.000000;-0.182551
7389.000000;-0.182083
7388.000000;-0.181516
7387.000000;-0.180939
7386.000000;-0.180345
7385.000000;-0.179898
7384.000000;-0.179787
7383.000000;-0.179804
7382.000000;-0.179483
7381.000000;-0.178826
7380.000000;-0.178442
7379.000000;-0.178670
7378.000000;-0.178974
7377.000000;-0.178638
7376.000000;-0.177733
7375.000000;-0.176968
7374.000000;-0.176767
7373.000000;-0.176931
7372.000000;-0.177073
7371.000000;-0.176988
7370.000000;-0.176663
7369.000000;-0.176244
7368.000000;-0.175975
7367.000000;-0.175921
7366.000000;-0.175823
7365.000000;-0.175494
7364.000000;-0.175128
7363.000000;-0.174935
7362.000000;-0.174721
7361.000000;-0.174256
7360.000000;-0.173817
7359.000000;-0.173770
7358.000000;-0.173840
7357.000000;-0.173456
7356.000000;-0.172665
7355.000000;-0.172060
7354.000000;-0.171859
7353.000000;-0.171730
7352.000000;-0.171456
7351.000000;-0.171114
7350.000000;-0.170667
7349.000000;-0.170072
7348.000000;-0.169702
7347.000000;-0.169903
7346.000000;-0.170262
7345.000000;-0.170081
7344.000000;-0.169475
7343.000000;-0.169075
7342.000000;-0.168756
7341.000000;-0.167752
7340.000000;-0.166193
7339.000000;-0.165350
7338.000000;-0.165779
7337.000000;-0.166449
7336.000000;-0.166272
7335.000000;-0.165425
7334.000000;-0.164629
7333.000000;-0.164122
7332.000000;-0.163906
7331.000000;-0.164052
7330.000000;-0.164169
7329.000000;-0.163522
7328.000000;-0.162259
7327.000000;-0.161565
7326.000000;-0.161947
7325.000000;-0.162341
7324.000000;-0.161705
7323.000000;-0.160511
7322.000000;-0.159838
7321.000000;-0.159714
7320.000000;-0.159308
7319.000000;-0.158336
7318.000000;-0.157248
7317.000000;-0.156341
7316.000000;-0.155631
7315.000000;-0.155269
7314.000000;-0.155199
7313.000000;-0.154740
7312.000000;-0.153459
7311.000000;-0.152141
7310.000000;-0.151814
7309.000000;-0.152157
7308.000000;-0.151970
7307.000000;-0.150971
7306.000000;-0.150041
7305.000000;-0.149674
7304.000000;-0.149329
7303.000000;-0.148577
7302.000000;-0.147734
7301.000000;-0.147044
7300.000000;-0.146224
7299.000000;-0.145258
7298.000000;-0.144710
7297.000000;-0.144642
7296.000000;-0.144160
7295.000000;-0.142682
7294.000000;-0.140915
7293.000000;-0.139870
7292.000000;-0.139401
7291.000000;-0.138563
7290.000000;-0.136996
7289.000000;-0.135198
7288.000000;-0.133737
7287.000000;-0.132729
7286.000000;-0.132029
7285.000000;-0.131453
7284.000000;-0.130755
7283.000000;-0.129767
7282.000000;-0.128612
7281.000000;-0.127535
7280.000000;-0.126547
7279.000000;-0.125460
7278.000000;-0.124223
7277.000000;-0.122953
7276.000000;-0.121688
7275.000000;-0.120326
7274.000000;-0.118824
7273.000000;-0.117308
7272.000000;-0.115944
7271.000000;-0.114744
7270.000000;-0.113538
7269.000000;-0.112120
7268.000000;-0.110454
7267.000000;-0.108748
7266.000000;-0.107212
7265.000000;-0.105739
7264.000000;-0.103993
7263.000000;-0.101901
7262.000000;-0.099849
7261.000000;-0.098233
7260.000000;-0.096943
7259.000000;-0.095543
7258.000000;-0.093835
7257.000000;-0.091984
7256.000000;-0.090094
7255.000000;-0.088012
7254.000000;-0.085674
7253.000000;-0.083322
7252.000000;-0.081294
7251.000000;-0.079622
7250.000000;-0.077922
7249.000000;-0.075786
7248.000000;-0.073302
7247.000000;-0.071040
7246.000000;-0.069280
7245.000000;-0.067493
7244.000000;-0.064955
7243.000000;-0.061764
7242.000000;-0.058823
7241.000000;-0.056672
7240.000000;-0.054780
7239.000000;-0.052324
7238.000000;-0.049289
7237.000000;-0.046412
7236.000000;-0.044147
7235.000000;-0.042057
7234.000000;-0.039376
7233.000000;-0.035947
7232.000000;-0.032506
7231.000000;-0.029910
7230.000000;-0.028073
7229.000000;-0.025957
7228.000000;-0.022738
7227.000000;-0.018706
7226.000000;-0.014833
7225.000000;-0.011745
7224.000000;-0.009296
7223.000000;-0.006907
7222.000000;-0.004074
7221.000000;-0.000670
7220.000000;0.003004
7219.000000;0.006497
7218.000000;0.009680
7217.000000;0.012852
7216.000000;0.016334
7215.000000;0.020059
7214.000000;0.023731
7213.000000;0.027314
7212.000000;0.031101
7211.000000;0.035256
7210.000000;0.039552
7209.000000;0.043709
7208.000000;0.047769
7207.000000;0.051976
7206.000000;0.056442
7205.000000;0.061041
7204.000000;0.065511
7203.000000;0.069675
7202.000000;0.073622
7201.000000;0.077674
7200.000000;0.082071
7199.000000;0.086691
7198.000000;0.091228
7197.000000;0.095635
7196.000000;0.100181
7195.000000;0.104999
7194.000000;0.109852
7193.000000;0.114543
7192.000000;0.119277
7191.000000;0.124335
7190.000000;0.129606
7189.000000;0.134814
7188.000000;0.140007
7187.000000;0.145364
7186.000000;0.150679
7185.000000;0.155570
7184.000000;0.160200
7183.000000;0.165230
7182.000000;0.170926
7181.000000;0.176803
7180.000000;0.182373
7179.000000;0.187830
7178.000000;0.193642
7177.000000;0.199820
7176.000000;0.205995
7175.000000;0.211937
7174.000000;0.217681
7173.000000;0.223291
7172.000000;0.228871
7171.000000;0.234695
7170.000000;0.240938
7169.000000;0.247406
7168.000000;0.253785
7167.000000;0.259953
7166.000000;0.265844
7165.000000;0.271287
7164.000000;0.276378
7163.000000;0.281697
7162.000000;0.287728
7161.000000;0.294241
7160.000000;0.300605
7159.000000;0.306691
7158.000000;0.312982
7157.000000;0.319740
7156.000000;0.326585
7155.000000;0.333032
7154.000000;0.339075
7153.000000;0.345085
7152.000000;0.351339
7151.000000;0.357805
7150.000000;0.364255
7149.000000;0.370528
7148.000000;0.376690
7147.000000;0.382952
7146.000000;0.389442
7145.000000;0.396049
7144.000000;0.402503
7143.000000;0.408675
7142.000000;0.414824
7141.000000;0.421348
7140.000000;0.428215
7139.000000;0.434871
7138.000000;0.440929
7137.000000;0.446736
7136.000000;0.452884
7135.000000;0.459367
7134.000000;0.465641
7133.000000;0.471472
7132.000000;0.477248
7131.000000;0.483322
7130.000000;0.489530
7129.000000;0.495595
7128.000000;0.501609
7127.000000;0.507736
7126.000000;0.513842
7125.000000;0.519803
7124.000000;0.525834
7123.000000;0.532062
7122.000000;0.538090
7121.000000;0.543509
7120.000000;0.548649
7119.000000;0.554216
7118.000000;0.560283
7117.000000;0.566218
7116.000000;0.571715
7115.000000;0.577280
7114.000000;0.583424
7113.000000;0.589886
7112.000000;0.596004
7111.000000;0.601509
7110.000000;0.606642
7109.000000;0.611674
7108.000000;0.616670
7107.000000;0.621635
7106.000000;0.626619
7105.000000;0.631668
7104.000000;0.636766
7103.000000;0.641806
7102.000000;0.646658
7101.000000;0.651327
7100.000000;0.655942
7099.000000;0.660541
7098.000000;0.665049
7097.000000;0.669494
7096.000000;0.674016
7095.000000;0.678591
7094.000000;0.683033
7093.000000;0.687362
7092.000000;0.691869
7091.000000;0.696630
7090.000000;0.701276
7089.000000;0.705507
7088.000000;0.709537
7087.000000;0.713718
7086.000000;0.717940
7085.000000;0.721823
7084.000000;0.725356
7083.000000;0.728931
7082.000000;0.732804
7081.000000;0.736836
7080.000000;0.740748
7079.000000;0.744408
7078.000000;0.747876
7077.000000;0.751276
7076.000000;0.754645
7075.000000;0.757898
7074.000000;0.760998
7073.000000;0.764106
7072.000000;0.767402
7071.000000;0.770773
7070.000000;0.773930
7069.000000;0.776874
7068.000000;0.779938
7067.000000;0.783280
7066.000000;0.786631
7065.000000;0.789704
7064.000000;0.792540
7063.000000;0.795232
7062.000000;0.797678
7061.000000;0.799908
7060.000000;0.802327
7059.000000;0.805269
7058.000000;0.808527
7057.000000;0.811583
7056.000000;0.814144
7055.000000;0.816223
7054.000000;0.817909
7053.000000;0.819305
7052.000000;0.820616
7051.000000;0.822060
7050.000000;0.823735
7049.000000;0.825669
7048.000000;0.827825
7047.000000;0.829981
7046.000000;0.831883
7045.000000;0.833678
7044.000000;0.835880
7043.000000;0.838676
7042.000000;0.841547
7041.000000;0.843854
7040.000000;0.845518
7039.000000;0.846873
7038.000000;0.848145
7037.000000;0.849412
7036.000000;0.850802
7035.000000;0.852361
7034.000000;0.853888
7033.000000;0.855207
7032.000000;0.856476
7031.000000;0.857953
7030.000000;0.859594
7029.000000;0.861133
7028.000000;0.862414
7027.000000;0.863445
7026.000000;0.864255
7025.000000;0.864930
7024.000000;0.865642
7023.000000;0.866498
7022.000000;0.867512
7021.000000;0.868800
7020.000000;0.870511
7019.000000;0.872425
7018.000000;0.873931
7017.000000;0.874658
7016.000000;0.874875
7015.000000;0.875064
7014.000000;0.875422
7013.000000;0.876009
7012.000000;0.876955
7011.000000;0.878190
7010.000000;0.879277
7009.000000;0.879911
7008.000000;0.880343
7007.000000;0.880933
7006.000000;0.881590
7005.000000;0.882025
7004.000000;0.882312
7003.000000;0.882782
7002.000000;0.883513
7001.000000;0.884333
7000.000000;0.885159
6999.000000;0.885927
6998.000000;0.886332
6997.000000;0.886118
6996.000000;0.885578
6995.000000;0.885378
6994.000000;0.885846
6993.000000;0.886696
6992.000000;0.887441
6991.000000;0.887827
6990.000000;0.887879
6989.000000;0.887774
6988.000000;0.887710
6987.000000;0.887751
6986.000000;0.887807
6985.000000;0.887841
6984.000000;0.887958
6983.000000;0.888155
6982.000000;0.888195
6981.000000;0.887942
6980.000000;0.887658
6979.000000;0.887736
6978.000000;0.888217
6977.000000;0.888767
6976.000000;0.889042
6975.000000;0.888940
6974.000000;0.888605
6973.000000;0.888273
6972.000000;0.888029
6971.000000;0.887672
6970.000000;0.886994
6969.000000;0.886202
6968.000000;0.885759
6967.000000;0.885731
6966.000000;0.885681
6965.000000;0.885378
6964.000000;0.885198
6963.000000;0.885503
6962.000000;0.886005
6961.000000;0.886164
6960.000000;0.885947
6959.000000;0.885757
6958.000000;0.885771
6957.000000;0.885738
6956.000000;0.885389
6955.000000;0.884715
6954.000000;0.883876
6953.000000;0.883068
6952.000000;0.882454
6951.000000;0.882020
6950.000000;0.881563
6949.000000;0.880988
6948.000000;0.880491
6947.000000;0.880260
6946.000000;0.880125
6945.000000;0.879720
6944.000000;0.878920
6943.000000;0.877920
6942.000000;0.876976
6941.000000;0.876260
6940.000000;0.875835
6939.000000;0.875565
6938.000000;0.875153
6937.000000;0.874455
6936.000000;0.873670
6935.000000;0.873049
6934.000000;0.872568
6933.000000;0.872047
6932.000000;0.871444
6931.000000;0.870778
6930.000000;0.869933
6929.000000;0.868788
6928.000000;0.867529
6927.000000;0.866576
6926.000000;0.866157
6925.000000;0.866048
6924.000000;0.865762
6923.000000;0.864930
6922.000000;0.863539
6921.000000;0.861916
6920.000000;0.860459
6919.000000;0.859352
6918.000000;0.858558
6917.000000;0.858009
6916.000000;0.857634
6915.000000;0.857241
6914.000000;0.856643
6913.000000;0.855931
6912.000000;0.855363
6911.000000;0.854921
6910.000000;0.854285
6909.000000;0.853332
6908.000000;0.852344
6907.000000;0.851545
6906.000000;0.850734
6905.000000;0.849628
6904.000000;0.848323
6903.000000;0.847128
6902.000000;0.846117
6901.000000;0.845160
6900.000000;0.844256
6899.000000;0.843570
6898.000000;0.843173
6897.000000;0.842969
6896.000000;0.842801
6895.000000;0.842457
6894.000000;0.841705
6893.000000;0.840511
6892.000000;0.839179
6891.000000;0.838110
6890.000000;0.837467
6889.000000;0.837114
6888.000000;0.836747
6887.000000;0.836035
6886.000000;0.834851
6885.000000;0.833495
6884.000000;0.832471
6883.000000;0.831902
6882.000000;0.831363
6881.000000;0.830427
6880.000000;0.829141
6879.000000;0.827775
6878.000000;0.826399
6877.000000;0.824992
6876.000000;0.823741
6875.000000;0.822870
6874.000000;0.822259
6873.000000;0.821569
6872.000000;0.820687
6871.000000;0.819811
6870.000000;0.819090
6869.000000;0.818396
6868.000000;0.817471
6867.000000;0.816154
6866.000000;0.814483
6865.000000;0.812709
6864.000000;0.811188
6863.000000;0.810149
6862.000000;0.809552
6861.000000;0.809167
6860.000000;0.808735
6859.000000;0.808031
6858.000000;0.806933
6857.000000;0.805517
6856.000000;0.803999
6855.000000;0.802515
6854.000000;0.801061
6853.000000;0.799626
6852.000000;0.798245
6851.000000;0.796885
6850.000000;0.795459
6849.000000;0.793998
6848.000000;0.792609
6847.000000;0.791207
6846.000000;0.789536
6845.000000;0.787559
6844.000000;0.785609
6843.000000;0.783982
6842.000000;0.782573
6841.000000;0.781074
6840.000000;0.779359
6839.000000;0.777519
6838.000000;0.775689
6837.000000;0.773983
6836.000000;0.772439
6835.000000;0.770895
6834.000000;0.769072
6833.000000;0.766931
6832.000000;0.764774
6831.000000;0.762845
6830.000000;0.760997
6829.000000;0.758954
6828.000000;0.756726
6827.000000;0.754535
6826.000000;0.752430
6825.000000;0.750219
6824.000000;0.747737
6823.000000;0.745038
6822.000000;0.742333
6821.000000;0.739870
6820.000000;0.737778
6819.000000;0.735913
6818.000000;0.733921
6817.000000;0.731576
6816.000000;0.728990
6815.000000;0.726415
6814.000000;0.723960
6813.000000;0.721578
6812.000000;0.719205
6811.000000;0.716751
6810.000000;0.714080
6809.000000;0.711172
6808.000000;0.708211
6807.000000;0.705390
6806.000000;0.702695
6805.000000;0.700015
6804.000000;0.697362
6803.000000;0.694841
6802.000000;0.692445
6801.000000;0.690048
6800.000000;0.687553
6799.000000;0.684943
6798.000000;0.682232
6797.000000;0.679444
6796.000000;0.676607
6795.000000;0.673697
6794.000000;0.670674
6793.000000;0.667630
6792.000000;0.664772
6791.000000;0.662156
6790.000000;0.659545
6789.000000;0.656670
6788.000000;0.653574
6787.000000;0.650559
6786.000000;0.647837
6785.000000;0.645329
6784.000000;0.642770
6783.000000;0.639911
6782.000000;0.636702
6781.000000;0.633375
6780.000000;0.630288
6779.000000;0.627596
6778.000000;0.625097
6777.000000;0.622455
6776.000000;0.619528
6775.000000;0.616417
6774.000000;0.613296
6773.000000;0.610286
6772.000000;0.607432
6771.000000;0.604678
6770.000000;0.601881
6769.000000;0.598956
6768.000000;0.595975
6767.000000;0.593055
6766.000000;0.590199
6765.000000;0.587308
6764.000000;0.584303
6763.000000;0.581180
6762.000000;0.578021
6761.000000;0.574983
6760.000000;0.572201
6759.000000;0.569606
6758.000000;0.566924
6757.000000;0.563931
6756.000000;0.560663
6755.000000;0.557310
6754.000000;0.554006
6753.000000;0.550795
6752.000000;0.547710
6751.000000;0.544767
6750.000000;0.541908
6749.000000;0.539053
6748.000000;0.536195
6747.000000;0.533369
6746.000000;0.530569
6745.000000;0.527751
6744.000000;0.524881
6743.000000;0.521937
6742.000000;0.518910
6741.000000;0.515844
6740.000000;0.512831
6739.000000;0.509915
6738.000000;0.507052
6737.000000;0.504180
6736.000000;0.501287
6735.000000;0.498377
6734.000000;0.495439
6733.000000;0.492509
6732.000000;0.489664
6731.000000;0.486909
6730.000000;0.484135
6729.000000;0.481264
6728.000000;0.478334
6727.000000;0.475405
6726.000000;0.472448
6725.000000;0.469412
6724.000000;0.466339
6723.000000;0.463318
6722.000000;0.460384
6721.000000;0.457537
6720.000000;0.454789
6719.000000;0.452103
6718.000000;0.449370
6717.000000;0.446530
6716.000000;0.443663
6715.000000;0.440864
6714.000000;0.438071
6713.000000;0.435157
6712.000000;0.432102
6711.000000;0.429059
6710.000000;0.426168
6709.000000;0.423429
6708.000000;0.420776
6707.000000;0.418161
6706.000000;0.415525
6705.000000;0.412814
6704.000000;0.410065
6703.000000;0.407441
6702.000000;0.404735
6701.000000;0.401977
6700.000000;0.399091
6699.000000;0.396065
6698.000000;0.392967
6697.000000;0.389932
6696.000000;0.387087
6695.000000;0.384456
6694.000000;0.381946
6693.000000;0.379448
6692.000000;0.376922
6691.000000;0.374359
6690.000000;0.371727
6689.000000;0.369010
6688.000000;0.366253
6687.000000;0.363517
6686.000000;0.360807
6685.000000;0.358081
6684.000000;0.355315
6683.000000;0.352520
6682.000000;0.349720
6681.000000;0.346955
6680.000000;0.344270
6679.000000;0.341669
6678.000000;0.339101
6677.000000;0.336523
6676.000000;0.333928
6675.000000;0.331317
6674.000000;0.328685
6673.000000;0.326078
6672.000000;0.323584
6671.000000;0.321207
6670.000000;0.318799
6669.000000;0.316209
6668.000000;0.313460
6667.000000;0.310721
6666.000000;0.308117
6665.000000;0.305630
6664.000000;0.303178
6663.000000;0.300705
6662.000000;0.298192
6661.000000;0.295642
6660.000000;0.293079
6659.000000;0.290522
6658.000000;0.287964
6657.000000;0.285388
6656.000000;0.282815
6655.000000;0.280288
6654.000000;0.277829
6653.000000;0.275419
6652.000000;0.273021
6651.000000;0.270598
6650.000000;0.268132
6649.000000;0.265654
6648.000000;0.263214
6647.000000;0.260818
6646.000000;0.258404
6645.000000;0.255928
6644.000000;0.253426
6643.000000;0.250972
6642.000000;0.248588
6641.000000;0.246234
6640.000000;0.243860
6639.000000;0.241454
6638.000000;0.239032
6637.000000;0.236632
6636.000000;0.234291
6635.000000;0.232005
6634.000000;0.229719
6633.000000;0.227390
6632.000000;0.225031
6631.000000;0.222684
6630.000000;0.220367
6629.000000;0.218076
6628.000000;0.215803
6627.000000;0.213532
6626.000000;0.211239
6625.000000;0.208929
6624.000000;0.206654
6623.000000;0.204460
6622.000000;0.202325
6621.000000;0.200179
6620.000000;0.197959
6619.000000;0.195634
6618.000000;0.193213
6617.000000;0.190757
6616.000000;0.188361
6615.000000;0.186075
6614.000000;0.183876
6613.000000;0.181725
6612.000000;0.179618
6611.000000;0.177545
6610.000000;0.175444
6609.000000;0.173258
6608.000000;0.171010
6607.000000;0.168769
6606.000000;0.166559
6605.000000;0.164363
6604.000000;0.162196
6603.000000;0.160094
6602.000000;0.158043
6601.000000;0.155975
6600.000000;0.153858
6599.000000;0.151737
6598.000000;0.149665
6597.000000;0.147629
6596.000000;0.145580
6595.000000;0.143499
6594.000000;0.141399
6593.000000;0.139296
6592.000000;0.137197
6591.000000;0.135109
6590.000000;0.133043
6589.000000;0.131002
6588.000000;0.128962
6587.000000;0.126893
6586.000000;0.124799
6585.000000;0.122726
6584.000000;0.120730
6583.000000;0.118808
6582.000000;0.116894
6581.000000;0.114923
6580.000000;0.112898
6579.000000;0.110860
6578.000000;0.108834
6577.000000;0.106823
6576.000000;0.104842
6575.000000;0.102915
6574.000000;0.101043
6573.000000;0.099180
6572.000000;0.097282
6571.000000;0.095345
6570.000000;0.093404
6569.000000;0.091495
6568.000000;0.089613
6567.000000;0.087721
6566.000000;0.085791
6565.000000;0.083846
6564.000000;0.081933
6563.000000;0.080066
6562.000000;0.078203
6561.000000;0.076295
6560.000000;0.074347
6559.000000;0.072420
6558.000000;0.070567
6557.000000;0.068791
6556.000000;0.067042
6555.000000;0.065250
6554.000000;0.063379
6553.000000;0.061455
6552.000000;0.059549
6551.000000;0.057722
6550.000000;0.055978
6549.000000;0.054268
6548.000000;0.052540
6547.000000;0.050763
6546.000000;0.048937
6545.000000;0.047092
6544.000000;0.045276
6543.000000;0.043525
6542.000000;0.041840
6541.000000;0.040177
6540.000000;0.038478
6539.000000;0.036712
6538.000000;0.034903
6537.000000;0.033122
6536.000000;0.031427
6535.000000;0.029814
6534.000000;0.028230
6533.000000;0.026625
6532.000000;0.024971
6531.000000;0.023259
6530.000000;0.021506
6529.000000;0.019757
6528.000000;0.018057
6527.000000;0.016411
6526.000000;0.014785
6525.000000;0.013146
6524.000000;0.011480
6523.000000;0.009779
6522.000000;0.008054
6521.000000;0.006350
6520.000000;0.004722
6519.000000;0.003179
6518.000000;0.001673
6517.000000;0.000156
6516.000000;-0.001391
6515.000000;-0.002977
6514.000000;-0.004616
6513.000000;-0.006298
6512.000000;-0.007978
6511.000000;-0.009626
6510.000000;-0.011242
6509.000000;-0.012836
6508.000000;-0.014400
6507.000000;-0.015937
6506.000000;-0.017464
6505.000000;-0.018980
6504.000000;-0.020468
6503.000000;-0.021932
6502.000000;-0.023419
6501.000000;-0.024943
6500.000000;-0.026462
6499.000000;-0.027944
6498.000000;-0.029425
6497.000000;-0.030956
6496.000000;-0.032521
6495.000000;-0.034054
6494.000000;-0.035526
6493.000000;-0.036966
6492.000000;-0.038402
6491.000000;-0.039836
6490.000000;-0.041272
6489.000000;-0.042722
6488.000000;-0.044180
6487.000000;-0.045633
6486.000000;-0.047091
6485.000000;-0.048593
6484.000000;-0.050147
6483.000000;-0.051699
6482.000000;-0.053174
6481.000000;-0.054544
6480.000000;-0.055849
6479.000000;-0.057163
6478.000000;-0.058545
6477.000000;-0.059996
6476.000000;-0.061460
6475.000000;-0.062879
6474.000000;-0.064237
6473.000000;-0.065572
6472.000000;-0.066924
6471.000000;-0.068308
6470.000000;-0.069701
6469.000000;-0.071069
6468.000000;-0.072398
6467.000000;-0.073716
6466.000000;-0.075062
6465.000000;-0.076445
6464.000000;-0.077829
6463.000000;-0.079185
6462.000000;-0.080521
6461.000000;-0.081867
6460.000000;-0.083225
6459.000000;-0.084561
6458.000000;-0.085857
6457.000000;-0.087132
6456.000000;-0.088416
6455.000000;-0.089711
6454.000000;-0.090990
6453.000000;-0.092228
6452.000000;-0.093433
6451.000000;-0.094640
6450.000000;-0.095872
6449.000000;-0.097117
6448.000000;-0.098363
6447.000000;-0.099621
6446.000000;-0.100910
6445.000000;-0.102214
6444.000000;-0.103499
6443.000000;-0.104758
6442.000000;-0.106013
6441.000000;-0.107267
6440.000000;-0.108488
6439.000000;-0.109664
6438.000000;-0.110831
6437.000000;-0.112026
6436.000000;-0.113246
6435.000000;-0.114467
6434.000000;-0.115689
6433.000000;-0.116930
6432.000000;-0.118178
6431.000000;-0.119397
6430.000000;-0.120560
6429.000000;-0.121676
6428.000000;-0.122781
6427.000000;-0.123921
6426.000000;-0.125116
6425.000000;-0.126340
6424.000000;-0.127536
6423.000000;-0.128676
6422.000000;-0.129793
6421.000000;-0.130931
6420.000000;-0.132092
6419.000000;-0.133244
6418.000000;-0.134370
6417.000000;-0.135478
6416.000000;-0.136581
6415.000000;-0.137681
6414.000000;-0.138777
6413.000000;-0.139862
6412.000000;-0.140929
6411.000000;-0.141984
6410.000000;-0.143058
6409.000000;-0.144175
6408.000000;-0.145321
6407.000000;-0.146455
6406.000000;-0.147547
6405.000000;-0.148601
6404.000000;-0.149637
6403.000000;-0.150683
6402.000000;-0.151762
6401.000000;-0.152869
6400.000000;-0.153975
6399.000000;-0.155058
6398.000000;-0.156120
6397.000000;-0.157176
6396.000000;-0.158224
6395.000000;-0.159251
6394.000000;-0.160253
6393.000000;-0.161238
6392.000000;-0.162216
6391.000000;-0.163200
6390.000000;-0.164205
6389.000000;-0.165227
6388.000000;-0.166239
6387.000000;-0.167226
6386.000000;-0.168211
6385.000000;-0.169226
6384.000000;-0.170269
6383.000000;-0.171315
6382.000000;-0.172354
6381.000000;-0.173391
6380.000000;-0.174419
6379.000000;-0.175416
6378.000000;-0.176377
6377.000000;-0.177329
6376.000000;-0.178289
6375.000000;-0.179249
6374.000000;-0.180182
6373.000000;-0.181079
6372.000000;-0.181967
6371.000000;-0.182890
6370.000000;-0.183879
6369.000000;-0.184915
6368.000000;-0.185942
6367.000000;-0.186922
6366.000000;-0.187862
6365.000000;-0.188785
6364.000000;-0.189696
6363.000000;-0.190590
6362.000000;-0.191485
6361.000000;-0.192410
6360.000000;-0.193360
6359.000000;-0.194301
6358.000000;-0.195204
6357.000000;-0.196069
6356.000000;-0.196916
6355.000000;-0.197757
6354.000000;-0.198600
6353.000000;-0.199447
6352.000000;-0.200300
6351.000000;-0.201164
6350.000000;-0.202052
6349.000000;-0.202966
6348.000000;-0.203886
6347.000000;-0.204790
6346.000000;-0.205677
6345.000000;-0.206560
6344.000000;-0.207443
6343.000000;-0.208311
6342.000000;-0.209146
6341.000000;-0.209943
6340.000000;-0.210716
6339.000000;-0.211496
6338.000000;-0.212321
6337.000000;-0.213195
6336.000000;-0.214087
6335.000000;-0.214962
6334.000000;-0.215818
6333.000000;-0.216668
6332.000000;-0.217512
6331.000000;-0.218337
6330.000000;-0.219152
6329.000000;-0.219977
6328.000000;-0.220806
6327.000000;-0.221616
6326.000000;-0.222399
6325.000000;-0.223178
6324.000000;-0.223969
6323.000000;-0.224766
6322.000000;-0.225550
6321.000000;-0.226320
6320.000000;-0.227090
6319.000000;-0.227872
6318.000000;-0.228667
6317.000000;-0.229467
6316.000000;-0.230262
6315.000000;-0.231057
6314.000000;-0.231865
6313.000000;-0.232684
6312.000000;-0.233478
6311.000000;-0.234209
6310.000000;-0.234883
6309.000000;-0.235549
6308.000000;-0.236248
6307.000000;-0.236979
6306.000000;-0.237719
6305.000000;-0.238453
6304.000000;-0.239192
6303.000000;-0.239948
6302.000000;-0.240721
6301.000000;-0.241496
6300.000000;-0.242260
6299.000000;-0.243017
6298.000000;-0.243773
6297.000000;-0.244519
6296.000000;-0.245235
6295.000000;-0.245921
6294.000000;-0.246607
6293.000000;-0.247321
6292.000000;-0.248048
6291.000000;-0.248751
6290.000000;-0.249423
6289.000000;-0.250097
6288.000000;-0.250795
6287.000000;-0.251505
6286.000000;-0.252203
6285.000000;-0.252882
6284.000000;-0.253554
6283.000000;-0.254228
6282.000000;-0.254911
6281.000000;-0.255600
6280.000000;-0.256285
6279.000000;-0.256949
6278.000000;-0.257588
6277.000000;-0.258226
6276.000000;-0.258887
6275.000000;-0.259579
6274.000000;-0.260297
6273.000000;-0.261035
6272.000000;-0.261777
6271.000000;-0.262498
6270.000000;-0.263174
6269.000000;-0.263804
6268.000000;-0.264413
6267.000000;-0.265029
6266.000000;-0.265672
6265.000000;-0.266336
6264.000000;-0.266998
6263.000000;-0.267635
6262.000000;-0.268241
6261.000000;-0.268834
6260.000000;-0.269438
6259.000000;-0.270068
6258.000000;-0.270721
6257.000000;-0.271376
6256.000000;-0.272013
6255.000000;-0.272624
6254.000000;-0.273224
6253.000000;-0.273841
6252.000000;-0.274492
6251.000000;-0.275165
6250.000000;-0.275829
6249.000000;-0.276458
6248.000000;-0.277048
6247.000000;-0.277618
6246.000000;-0.278189
6245.000000;-0.278775
6244.000000;-0.279374
6243.000000;-0.279978
6242.000000;-0.280576
6241.000000;-0.281161
6240.000000;-0.281734
6239.000000;-0.282305
6238.000000;-0.282884
6237.000000;-0.283467
6236.000000;-0.284049
6235.000000;-0.284633
6234.000000;-0.285234
6233.000000;-0.285849
6232.000000;-0.286454
6231.000000;-0.287035
6230.000000;-0.287607
6229.000000;-0.288195
6228.000000;-0.288798
6227.000000;-0.289382
6226.000000;-0.289919
6225.000000;-0.290419
6224.000000;-0.290925
6223.000000;-0.291479
6222.000000;-0.292091
6221.000000;-0.292726
6220.000000;-0.293329
6219.000000;-0.293868
6218.000000;-0.294360
6217.000000;-0.294853
6216.000000;-0.295374
6215.000000;-0.295915
6214.000000;-0.296451
6213.000000;-0.296973
6212.000000;-0.297504
6211.000000;-0.298066
6210.000000;-0.298658
6209.000000;-0.299241
6208.000000;-0.299786
6207.000000;-0.300305
6206.000000;-0.300837
6205.000000;-0.301397
6204.000000;-0.301948
6203.000000;-0.302460
6202.000000;-0.302954
6201.000000;-0.303482
6200.000000;-0.304055
6199.000000;-0.304630
6198.000000;-0.305165
6197.000000;-0.305670
6196.000000;-0.306185
6195.000000;-0.306722
6194.000000;-0.307251
6193.000000;-0.307742
6192.000000;-0.308196
6191.000000;-0.308645
6190.000000;-0.309118
6189.000000;-0.309620
6188.000000;-0.310135
6187.000000;-0.310647
6186.000000;-0.311158
6185.000000;-0.311680
6184.000000;-0.312209
6183.000000;-0.312722
6182.000000;-0.313196
6181.000000;-0.313631
6180.000000;-0.314058
6179.000000;-0.314514
6178.000000;-0.315013
6177.000000;-0.315542
6176.000000;-0.316071
6175.000000;-0.316579
6174.000000;-0.317059
6173.000000;-0.317522
6172.000000;-0.317983
6171.000000;-0.318450
6170.000000;-0.318919
6169.000000;-0.319380
6168.000000;-0.319834
6167.000000;-0.320295
6166.000000;-0.320779
6165.000000;-0.321283
6164.000000;-0.321789
6163.000000;-0.322285
6162.000000;-0.322762
6161.000000;-0.323216
6160.000000;-0.323648
6159.000000;-0.324079
6158.000000;-0.324532
6157.000000;-0.325006
6156.000000;-0.325476
6155.000000;-0.325929
6154.000000;-0.326375
6153.000000;-0.326825
6152.000000;-0.327271
6151.000000;-0.327703
6150.000000;-0.328129
6149.000000;-0.328571
6148.000000;-0.329034
6147.000000;-0.329504
6146.000000;-0.329957
6145.000000;-0.330383
6144.000000;-0.330791
6143.000000;-0.331203
6142.000000;-0.331635
6141.000000;-0.332075
6140.000000;-0.332502
6139.000000;-0.332914
6138.000000;-0.333332
6137.000000;-0.333774
6136.000000;-0.334228
6135.000000;-0.334673
6134.000000;-0.335104
6133.000000;-0.335532
6132.000000;-0.335968
6131.000000;-0.336408
6130.000000;-0.336838
6129.000000;-0.337244
6128.000000;-0.337623
6127.000000;-0.337996
6126.000000;-0.338390
6125.000000;-0.338805
6124.000000;-0.339216
6123.000000;-0.339602
6122.000000;-0.339976
6121.000000;-0.340363
6120.000000;-0.340774
6119.000000;-0.341205
6118.000000;-0.341649
6117.000000;-0.342095
6116.000000;-0.342524
6115.000000;-0.342922
6114.000000;-0.343299
6113.000000;-0.343677
6112.000000;-0.344071
6111.000000;-0.344475
6110.000000;-0.344871
6109.000000;-0.345246
6108.000000;-0.345598
6107.000000;-0.345943
6106.000000;-0.346298
6105.000000;-0.346673
6104.000000;-0.347064
6103.000000;-0.347466
6102.000000;-0.347873
6101.000000;-0.348267
6100.000000;-0.348636
6099.000000;-0.348992
6098.000000;-0.349368
6097.000000;-0.349784
6096.000000;-0.350220
6095.000000;-0.350644
6094.000000;-0.351038
6093.000000;-0.351404
6092.000000;-0.351743
6091.000000;-0.352061
6090.000000;-0.352369
6089.000000;-0.352680
6088.000000;-0.352994
6087.000000;-0.353315
6086.000000;-0.353662
6085.000000;-0.354049
6084.000000;-0.354461
6083.000000;-0.354860
6082.000000;-0.355221
6081.000000;-0.355545
6080.000000;-0.355850
6079.000000;-0.356163
6078.000000;-0.356499
6077.000000;-0.356856
6076.000000;-0.357215
6075.000000;-0.357561
6074.000000;-0.357897
6073.000000;-0.358230
6072.000000;-0.358564
6071.000000;-0.358907
6070.000000;-0.359267
6069.000000;-0.359637
6068.000000;-0.359989
6067.000000;-0.360310
6066.000000;-0.360618
6065.000000;-0.360940
6064.000000;-0.361274
6063.000000;-0.361601
6062.000000;-0.361918
6061.000000;-0.362234
6060.000000;-0.362543
6059.000000;-0.362834
6058.000000;-0.363117
6057.000000;-0.363422
6056.000000;-0.363754
6055.000000;-0.364088
6054.000000;-0.364402
6053.000000;-0.364696
6052.000000;-0.364978
6051.000000;-0.365247
6050.000000;-0.365505
6049.000000;-0.365769
6048.000000;-0.366061
6047.000000;-0.366379
6046.000000;-0.366710
6045.000000;-0.367039
6044.000000;-0.367355
6043.000000;-0.367658
6042.000000;-0.367957
6041.000000;-0.368271
6040.000000;-0.368603
6039.000000;-0.368932
6038.000000;-0.369228
6037.000000;-0.369487
6036.000000;-0.369731
6035.000000;-0.369984
6034.000000;-0.370254
6033.000000;-0.370536
6032.000000;-0.370824
6031.000000;-0.371115
6030.000000;-0.371402
6029.000000;-0.371679
6028.000000;-0.371948
6027.000000;-0.372213
6026.000000;-0.372470
6025.000000;-0.372708
6024.000000;-0.372933
6023.000000;-0.373166
6022.000000;-0.373421
6021.000000;-0.373689
6020.000000;-0.373951
6019.000000;-0.374204
6018.000000;-0.374460
6017.000000;-0.374720
6016.000000;-0.374970
6015.000000;-0.375197
6014.000000;-0.375408
6013.000000;-0.375620
6012.000000;-0.375844
6011.000000;-0.376083
6010.000000;-0.376337
6009.000000;-0.376597
6008.000000;-0.376854
6007.000000;-0.377109
6006.000000;-0.377374
6005.000000;-0.377649
6004.000000;-0.377912
6003.000000;-0.378151
6002.000000;-0.378376
6001.000000;-0.378609
6000.000000;-0.378851
5999.000000;-0.379088
5998.000000;-0.379308
5997.000000;-0.379513
5996.000000;-0.379712
5995.000000;-0.379911
5994.000000;-0.380115
5993.000000;-0.380323
5992.000000;-0.380531
5991.000000;-0.380736
5990.000000;-0.380944
5989.000000;-0.381156
5988.000000;-0.381372
5987.000000;-0.381587
5986.000000;-0.381798
5985.000000;-0.381996
5984.000000;-0.382169
5983.000000;-0.382323
5982.000000;-0.382478
5981.000000;-0.382645
5980.000000;-0.382813
5979.000000;-0.382974
5978.000000;-0.383134
5977.000000;-0.383306
5976.000000;-0.383495
5975.000000;-0.383694
5974.000000;-0.383900
5973.000000;-0.384102
5972.000000;-0.384287
5971.000000;-0.384448
5970.000000;-0.384598
5969.000000;-0.384752
5968.000000;-0.384919
5967.000000;-0.385097
5966.000000;-0.385280
5965.000000;-0.385457
5964.000000;-0.385613
5963.000000;-0.385753
5962.000000;-0.385897
5961.000000;-0.386058
5960.000000;-0.386225
5959.000000;-0.386388
5958.000000;-0.386552
5957.000000;-0.386727
5956.000000;-0.386903
5955.000000;-0.387061
5954.000000;-0.387199
5953.000000;-0.387321
5952.000000;-0.387428
5951.000000;-0.387524
5950.000000;-0.387627
5949.000000;-0.387759
5948.000000;-0.387907
5947.000000;-0.388041
5946.000000;-0.388147
5945.000000;-0.388250
5944.000000;-0.388376
5943.000000;-0.388522
5942.000000;-0.388658
5941.000000;-0.388760
5940.000000;-0.388827
5939.000000;-0.388881
5938.000000;-0.388951
5937.000000;-0.389053
5936.000000;-0.389182
5935.000000;-0.389316
5934.000000;-0.389437
5933.000000;-0.389535
5932.000000;-0.389622
5931.000000;-0.389720
5930.000000;-0.389843
5929.000000;-0.389977
5928.000000;-0.390094
5927.000000;-0.390184
5926.000000;-0.390260
5925.000000;-0.390343
5924.000000;-0.390431
5923.000000;-0.390516
5922.000000;-0.390603
5921.000000;-0.390699
5920.000000;-0.390798
5919.000000;-0.390880
5918.000000;-0.390940
5917.000000;-0.390995
5916.000000;-0.391061
5915.000000;-0.391138
5914.000000;-0.391213
5913.000000;-0.391282
5912.000000;-0.391358
5911.000000;-0.391457
5910.000000;-0.391575
5909.000000;-0.391687
5908.000000;-0.391768
5907.000000;-0.391813
5906.000000;-0.391840
5905.000000;-0.391865
5904.000000;-0.391901
5903.000000;-0.391959
5902.000000;-0.392042
5901.000000;-0.392134
5900.000000;-0.392208
5899.000000;-0.392253
5898.000000;-0.392284
5897.000000;-0.392315
5896.000000;-0.392345
5895.000000;-0.392377
5894.000000;-0.392425
5893.000000;-0.392499
5892.000000;-0.392582
5891.000000;-0.392647
5890.000000;-0.392681
5889.000000;-0.392689
5888.000000;-0.392693
5887.000000;-0.392710
5886.000000;-0.392747
5885.000000;-0.392790
5884.000000;-0.392822
5883.000000;-0.392848
5882.000000;-0.392884
5881.000000;-0.392925
5880.000000;-0.392942
5879.000000;-0.392922
5878.000000;-0.392893
5877.000000;-0.392896
5876.000000;-0.392934
5875.000000;-0.392983
5874.000000;-0.393026
5873.000000;-0.393055
5872.000000;-0.393060
5871.000000;-0.393027
5870.000000;-0.392961
5869.000000;-0.392879
5868.000000;-0.392798
5867.000000;-0.392723
5866.000000;-0.392664
5865.000000;-0.392620
5864.000000;-0.392589
5863.000000;-0.392562
5862.000000;-0.392538
5861.000000;-0.392516
5860.000000;-0.392485
5859.000000;-0.392442
5858.000000;-0.392395
5857.000000;-0.392348
5856.000000;-0.392293
5855.000000;-0.392227
5854.000000;-0.392156
5853.000000;-0.392081
5852.000000;-0.391994
5851.000000;-0.391893
5850.000000;-0.391796
5849.000000;-0.391725
5848.000000;-0.391677
5847.000000;-0.391636
5846.000000;-0.391587
5845.000000;-0.391514
5844.000000;-0.391401
5843.000000;-0.391248
5842.000000;-0.391081
5841.000000;-0.390930
5840.000000;-0.390806
5839.000000;-0.390704
5838.000000;-0.390610
5837.000000;-0.390507
5836.000000;-0.390378
5835.000000;-0.390225
5834.000000;-0.390071
5833.000000;-0.389932
5832.000000;-0.389795
5831.000000;-0.389646
5830.000000;-0.389489
5829.000000;-0.389341
5828.000000;-0.389205
5827.000000;-0.389076
5826.000000;-0.388951
5825.000000;-0.388822
5824.000000;-0.388669
5823.000000;-0.388481
5822.000000;-0.388275
5821.000000;-0.388077
5820.000000;-0.387897
5819.000000;-0.387737
5818.000000;-0.387601
5817.000000;-0.387482
5816.000000;-0.387342
5815.000000;-0.387146
5814.000000;-0.386898
5813.000000;-0.386635
5812.000000;-0.386387
5811.000000;-0.386162
5810.000000;-0.385960
5809.000000;-0.385781
5808.000000;-0.385615
5807.000000;-0.385443
5806.000000;-0.385248
5805.000000;-0.385022
5804.000000;-0.384771
5803.000000;-0.384517
5802.000000;-0.384286
5801.000000;-0.384078
5800.000000;-0.383857
5799.000000;-0.383596
5798.000000;-0.383308
5797.000000;-0.383027
5796.000000;-0.382761
5795.000000;-0.382495
5794.000000;-0.382224
5793.000000;-0.381962
5792.000000;-0.381713
5791.000000;-0.381473
5790.000000;-0.381239
5789.000000;-0.381012
5788.000000;-0.380775
5787.000000;-0.380507
5786.000000;-0.380202
5785.000000;-0.379868
5784.000000;-0.379520
5783.000000;-0.379169
5782.000000;-0.378825
5781.000000;-0.378495
5780.000000;-0.378173
5779.000000;-0.377849
5778.000000;-0.377530
5777.000000;-0.377219
5776.000000;-0.376909
5775.000000;-0.376585
5774.000000;-0.376243
5773.000000;-0.375884
5772.000000;-0.375502
5771.000000;-0.375102
5770.000000;-0.374707
5769.000000;-0.374335
5768.000000;-0.373980
5767.000000;-0.373637
5766.000000;-0.373315
5765.000000;-0.373014
5764.000000;-0.372695
5763.000000;-0.372310
5762.000000;-0.371860
5761.000000;-0.371391
5760.000000;-0.370944
5759.000000;-0.370526
5758.000000;-0.370134
5757.000000;-0.369767
5756.000000;-0.369413
5755.000000;-0.369042
5754.000000;-0.368633
5753.000000;-0.368189
5752.000000;-0.367729
5751.000000;-0.367271
5750.000000;-0.366826
5749.000000;-0.366388
5748.000000;-0.365940
5747.000000;-0.365462
5746.000000;-0.364961
5745.000000;-0.364463
5744.000000;-0.363985
5743.000000;-0.363517
5742.000000;-0.363042
5741.000000;-0.362550
5740.000000;-0.362039
5739.000000;-0.361516
5738.000000;-0.360996
5737.000000;-0.360491
5736.000000;-0.360003
5735.000000;-0.359523
5734.000000;-0.359037
5733.000000;-0.358532
5732.000000;-0.358002
5731.000000;-0.357456
5730.000000;-0.356915
5729.000000;-0.356381
5728.000000;-0.355833
5727.000000;-0.355259
5726.000000;-0.354669
5725.000000;-0.354080
5724.000000;-0.353490
5723.000000;-0.352892
5722.000000;-0.352295
5721.000000;-0.351707
5720.000000;-0.351126
5719.000000;-0.350547
5718.000000;-0.349971
5717.000000;-0.349396
5716.000000;-0.348803
5715.000000;-0.348185
5714.000000;-0.347574
5713.000000;-0.347005
5712.000000;-0.346465
5711.000000;-0.345902
5710.000000;-0.345283
5709.000000;-0.344624
5708.000000;-0.343967
5707.000000;-0.343336
5706.000000;-0.342730
5705.000000;-0.342119
5704.000000;-0.341472
5703.000000;-0.340785
5702.000000;-0.340087
5701.000000;-0.339411
5700.000000;-0.338762
5699.000000;-0.338123
5698.000000;-0.337513
5697.000000;-0.336861
5696.000000;-0.336178
5695.000000;-0.335473
5694.000000;-0.334775
5693.000000;-0.334094
5692.000000;-0.333409
5691.000000;-0.332710
5690.000000;-0.332020
5689.000000;-0.331366
5688.000000;-0.330730
5687.000000;-0.330077
5686.000000;-0.329396
5685.000000;-0.328707
5684.000000;-0.328021
5683.000000;-0.327331
5682.000000;-0.326638
5681.000000;-0.325949
5680.000000;-0.325270
5679.000000;-0.324600
5678.000000;-0.323938
5677.000000;-0.323283
5676.000000;-0.322627
5675.000000;-0.321968
5674.000000;-0.321309
5673.000000;-0.320644
5672.000000;-0.319949
5671.000000;-0.319229
5670.000000;-0.318521
5669.000000;-0.317857
5668.000000;-0.317219
5667.000000;-0.316567
5666.000000;-0.315890
5665.000000;-0.315207
5664.000000;-0.314536
5663.000000;-0.313886
5662.000000;-0.313260
5661.000000;-0.312645
5660.000000;-0.312012
5659.000000;-0.311349
5658.000000;-0.310685
5657.000000;-0.310051
5656.000000;-0.309440
5655.000000;-0.308827
5654.000000;-0.308210
5653.000000;-0.307609
5652.000000;-0.307019
5651.000000;-0.306424
5650.000000;-0.305812
5649.000000;-0.305182
5648.000000;-0.304530
5647.000000;-0.303870
5646.000000;-0.303242
5645.000000;-0.302673
5644.000000;-0.302149
5643.000000;-0.301639
5642.000000;-0.301129
5641.000000;-0.300613
5640.000000;-0.300073
5639.000000;-0.299502
5638.000000;-0.298934
5637.000000;-0.298404
5636.000000;-0.297904
5635.000000;-0.297399
5634.000000;-0.296878
5633.000000;-0.296349
5632.000000;-0.295824
5631.000000;-0.295323
5630.000000;-0.294870
5629.000000;-0.294457
5628.000000;-0.294032
5627.000000;-0.293557
5626.000000;-0.293060
5625.000000;-0.292593
5624.000000;-0.292160
5623.000000;-0.291731
5622.000000;-0.291310
5621.000000;-0.290922
5620.000000;-0.290560
5619.000000;-0.290184
5618.000000;-0.289781
5617.000000;-0.289371
5616.000000;-0.288973
5615.000000;-0.288594
5614.000000;-0.288250
5613.000000;-0.287950
5612.000000;-0.287672
5611.000000;-0.287381
5610.000000;-0.287067
5609.000000;-0.286742
5608.000000;-0.286412
5607.000000;-0.286088
5606.000000;-0.285785
5605.000000;-0.285501
5604.000000;-0.285215
5603.000000;-0.284924
5602.000000;-0.284666
5601.000000;-0.284462
5600.000000;-0.284277
5599.000000;-0.284068
5598.000000;-0.283848
5597.000000;-0.283648
5596.000000;-0.283455
5595.000000;-0.283235
5594.000000;-0.283008
5593.000000;-0.282817
5592.000000;-0.282661
5591.000000;-0.282504
5590.000000;-0.282342
5589.000000;-0.282200
5588.000000;-0.282079
5587.000000;-0.281957
5586.000000;-0.281835
5585.000000;-0.281731
5584.000000;-0.281640
5583.000000;-0.281541
5582.000000;-0.281445
5581.000000;-0.281369
5580.000000;-0.281300
5579.000000;-0.281209
5578.000000;-0.281111
5577.000000;-0.281038
5576.000000;-0.280981
5575.000000;-0.280911
5574.000000;-0.280840
5573.000000;-0.280808
5572.000000;-0.280813
5571.000000;-0.280817
5570.000000;-0.280824
5569.000000;-0.280870
5568.000000;-0.280951
5567.000000;-0.281013
5566.000000;-0.281025
5565.000000;-0.280996
5564.000000;-0.280929
5563.000000;-0.280833
5562.000000;-0.280761
5561.000000;-0.280778
5560.000000;-0.280878
5559.000000;-0.280985
5558.000000;-0.281056
5557.000000;-0.281114
5556.000000;-0.281183
5555.000000;-0.281240
5554.000000;-0.281263
5553.000000;-0.281271
5552.000000;-0.281296
5551.000000;-0.281336
5550.000000;-0.281377
5549.000000;-0.281413
5548.000000;-0.281441
5547.000000;-0.281463
5546.000000;-0.281503
5545.000000;-0.281572
5544.000000;-0.281650
5543.000000;-0.281710
5542.000000;-0.281775
5541.000000;-0.281889
5540.000000;-0.282044
5539.000000;-0.282170
5538.000000;-0.282230
5537.000000;-0.282267
5536.000000;-0.282334
5535.000000;-0.282427
5534.000000;-0.282518
5533.000000;-0.282599
5532.000000;-0.282680
5531.000000;-0.282755
5530.000000;-0.282813
5529.000000;-0.282860
5528.000000;-0.282894
5527.000000;-0.282922
5526.000000;-0.282972
5525.000000;-0.283061
5524.000000;-0.283155
5523.000000;-0.283206
5522.000000;-0.283217
5521.000000;-0.283250
5520.000000;-0.283314
5519.000000;-0.283344
5518.000000;-0.283310
5517.000000;-0.283273
5516.000000;-0.283313
5515.000000;-0.283416
5514.000000;-0.283484
5513.000000;-0.283469
5512.000000;-0.283434
5511.000000;-0.283443
5510.000000;-0.283480
5509.000000;-0.283483
5508.000000;-0.283459
5507.000000;-0.283487
5506.000000;-0.283589
5505.000000;-0.283636
5504.000000;-0.283529
5503.000000;-0.283364
5502.000000;-0.283322
5501.000000;-0.283435
5500.000000;-0.283503
5499.000000;-0.283358
5498.000000;-0.283118
5497.000000;-0.283009
5496.000000;-0.283020
5495.000000;-0.282942
5494.000000;-0.282701
5493.000000;-0.282498
5492.000000;-0.282510
5491.000000;-0.282597
5490.000000;-0.282500
5489.000000;-0.282225
5488.000000;-0.282012
5487.000000;-0.281995
5486.000000;-0.282048
5485.000000;-0.281977
5484.000000;-0.281785
5483.000000;-0.281613
5482.000000;-0.281429
5481.000000;-0.281122
5480.000000;-0.280780
5479.000000;-0.280607
5478.000000;-0.280591
5477.000000;-0.280447
5476.000000;-0.279993
5475.000000;-0.279486
5474.000000;-0.279254
5473.000000;-0.279172
5472.000000;-0.278879
5471.000000;-0.278342
5470.000000;-0.277851
5469.000000;-0.277576
5468.000000;-0.277340
5467.000000;-0.276931
5466.000000;-0.276445
5465.000000;-0.276049
5464.000000;-0.275692
5463.000000;-0.275249
5462.000000;-0.274706
5461.000000;-0.274146
5460.000000;-0.273641
5459.000000;-0.273197
5458.000000;-0.272770
5457.000000;-0.272293
5456.000000;-0.271705
5455.000000;-0.271068
5454.000000;-0.270546
5453.000000;-0.270097
5452.000000;-0.269453
5451.000000;-0.268525
5450.000000;-0.267603
5449.000000;-0.266985
5448.000000;-0.266486
5447.000000;-0.265643
5446.000000;-0.264480
5445.000000;-0.263506
5444.000000;-0.262947
5443.000000;-0.262453
5442.000000;-0.261611
5441.000000;-0.260448
5440.000000;-0.259368
5439.000000;-0.258581
5438.000000;-0.257834
5437.000000;-0.256818
5436.000000;-0.255498
5435.000000;-0.254088
5434.000000;-0.252885
5433.000000;-0.251950
5432.000000;-0.251022
5431.000000;-0.249840
5430.000000;-0.248407
5429.000000;-0.246974
5428.000000;-0.245767
5427.000000;-0.244740
5426.000000;-0.243665
5425.000000;-0.242386
5424.000000;-0.240931
5423.000000;-0.239457
5422.000000;-0.238066
5421.000000;-0.236575
5420.000000;-0.234714
5419.000000;-0.232586
5418.000000;-0.230568
5417.000000;-0.228750
5416.000000;-0.226774
5415.000000;-0.224373
5414.000000;-0.221862
5413.000000;-0.219705
5412.000000;-0.217820
5411.000000;-0.215754
5410.000000;-0.213425
5409.000000;-0.211201
5408.000000;-0.209247
5407.000000;-0.207270
5406.000000;-0.204965
5405.000000;-0.202426
5404.000000;-0.199865
5403.000000;-0.197194
5402.000000;-0.194315
5401.000000;-0.191346
5400.000000;-0.188288
5399.000000;-0.185025
5398.000000;-0.181594
5397.000000;-0.178201
5396.000000;-0.174894
5395.000000;-0.171418
5394.000000;-0.167679
5393.000000;-0.163940
5392.000000;-0.160338
5391.000000;-0.156624
5390.000000;-0.152599
5389.000000;-0.148427
5388.000000;-0.144312
5387.000000;-0.140094
5386.000000;-0.135529
5385.000000;-0.130800
5384.000000;-0.126160
5383.000000;-0.121343
5382.000000;-0.116063
5381.000000;-0.110601
5380.000000;-0.105317
5379.000000;-0.100019
5378.000000;-0.094250
5377.000000;-0.088086
5376.000000;-0.082032
5375.000000;-0.076131
5374.000000;-0.069916
5373.000000;-0.063249
5372.000000;-0.056496
5371.000000;-0.049829
5370.000000;-0.042926
5369.000000;-0.035556
5368.000000;-0.027963
5367.000000;-0.020326
5366.000000;-0.012386
5365.000000;-0.003961
5364.000000;0.004726
5363.000000;0.013501
5362.000000;0.022544
5361.000000;0.032072
5360.000000;0.042026
5359.000000;0.052220
5358.000000;0.062573
5357.000000;0.073040
5356.000000;0.083623
5355.000000;0.094607
5354.000000;0.106365
5353.000000;0.118707
5352.000000;0.131041
5351.000000;0.143390
5350.000000;0.156368
5349.000000;0.170047
5348.000000;0.183774
5347.000000;0.197325
5346.000000;0.211525
5345.000000;0.227100
5344.000000;0.243444
5343.000000;0.259428
5342.000000;0.275062
5341.000000;0.291234
5340.000000;0.308367
5339.000000;0.326252
5338.000000;0.344730
5337.000000;0.363787
5336.000000;0.383138
5335.000000;0.402540
5334.000000;0.422435
5333.000000;0.443373
5332.000000;0.465052
5331.000000;0.486832
5330.000000;0.508868
5329.000000;0.531897
5328.000000;0.556073
5327.000000;0.580770
5326.000000;0.605637
5325.000000;0.630993
5324.000000;0.657004
5323.000000;0.683443
5322.000000;0.710381
5321.000000;0.738159
5320.000000;0.766689
5319.000000;0.795617
5318.000000;0.825089
5317.000000;0.855517
5316.000000;0.886693
5315.000000;0.918137
5314.000000;0.950214
5313.000000;0.983540
5312.000000;1.017460
5311.000000;1.050688
5310.000000;1.083284
5309.000000;1.116419
5308.000000;1.150319
5307.000000;1.184223
5306.000000;1.218159
5305.000000;1.252683
5304.000000;1.287142
5303.000000;1.320514
5302.000000;1.353537
5301.000000;1.387250
5300.000000;1.420014
5299.000000;1.449253
5298.000000;1.475747
5297.000000;1.502448
5296.000000;1.529662
5295.000000;1.555400
5294.000000;1.579639
5293.000000;1.603694
5292.000000;1.626254
5291.000000;1.644995
5290.000000;1.661384
5289.000000;1.678769
5288.000000;1.696770
5287.000000;1.712813
5286.000000;1.727276
5285.000000;1.741484
5284.000000;1.752855
5283.000000;1.758198
5282.000000;1.759845
5281.000000;1.762195
5280.000000;1.765389
5279.000000;1.768004
5278.000000;1.771973
5277.000000;1.778832
5276.000000;1.784866
5275.000000;1.786544
5274.000000;1.787686
5273.000000;1.793779
5272.000000;1.802457
5271.000000;1.806657
5270.000000;1.805095
5269.000000;1.802289
5268.000000;1.800007
5267.000000;1.796521
5266.000000;1.792539
5265.000000;1.791104
5264.000000;1.792634
5263.000000;1.795002
5262.000000;1.797645
5261.000000;1.801128
5260.000000;1.803962
5259.000000;1.804488
5258.000000;1.804228
5257.000000;1.804964
5256.000000;1.804509
5255.000000;1.799759
5254.000000;1.792336
5253.000000;1.786761
5252.000000;1.784796
5251.000000;1.785207
5250.000000;1.786729
5249.000000;1.788116
5248.000000;1.787743
5247.000000;1.786145
5246.000000;1.785900
5245.000000;1.786822
5244.000000;1.785402
5243.000000;1.781272
5242.000000;1.779261
5241.000000;1.781665
5240.000000;1.783981
5239.000000;1.782327
5238.000000;1.780220
5237.000000;1.782590
5236.000000;1.787463
5235.000000;1.789138
5234.000000;1.786518
5233.000000;1.782498
5232.000000;1.778011
5231.000000;1.772661
5230.000000;1.768632
5229.000000;1.768932
5228.000000;1.773427
5227.000000;1.779856
5226.000000;1.786923
5225.000000;1.792830
5224.000000;1.793296
5223.000000;1.786488
5222.000000;1.777087
5221.000000;1.770600
5220.000000;1.767163
5219.000000;1.764277
5218.000000;1.762366
5217.000000;1.763467
5216.000000;1.766747
5215.000000;1.769469
5214.000000;1.770569
5213.000000;1.769868
5212.000000;1.766276
5211.000000;1.760924
5210.000000;1.759086
5209.000000;1.764468
5208.000000;1.773592
5207.000000;1.779390
5206.000000;1.779478
5205.000000;1.776699
5204.000000;1.773357
5203.000000;1.770436
5202.000000;1.770075
5201.000000;1.773396
5200.000000;1.777190
5199.000000;1.777293
5198.000000;1.774435
5197.000000;1.772468
5196.000000;1.772158
5195.000000;1.771095
5194.000000;1.768565
5193.000000;1.766283
5192.000000;1.765021
5191.000000;1.764170
5190.000000;1.763856
5189.000000;1.764477
5188.000000;1.765012
5187.000000;1.764514
5186.000000;1.764098
5185.000000;1.764983
5184.000000;1.766278
5183.000000;1.767146
5182.000000;1.768847
5181.000000;1.771697
5180.000000;1.772666
5179.000000;1.769797
5178.000000;1.766597
5177.000000;1.767737
5176.000000;1.772610
5175.000000;1.776846
5174.000000;1.778629
5173.000000;1.779610
5172.000000;1.780657
5171.000000;1.780790
5170.000000;1.779457
5169.000000;1.776663
5168.000000;1.772096
5167.000000;1.767181
5166.000000;1.766056
5165.000000;1.771182
5164.000000;1.779405
5163.000000;1.785240
5162.000000;1.787161
5161.000000;1.787171
5160.000000;1.785807
5159.000000;1.782189
5158.000000;1.777671
5157.000000;1.774987
5156.000000;1.774536
5155.000000;1.774861
5154.000000;1.775849
5153.000000;1.778278
5152.000000;1.781021
5151.000000;1.781879
5150.000000;1.780562
5149.000000;1.778122
5148.000000;1.774727
5147.000000;1.770792
5146.000000;1.768718
5145.000000;1.770245
5144.000000;1.773170
5143.000000;1.773879
5142.000000;1.772415
5141.000000;1.771732
5140.000000;1.772939
5139.000000;1.774785
5138.000000;1.777014
5137.000000;1.780711
5136.000000;1.785664
5135.000000;1.790394
5134.000000;1.794232
5133.000000;1.796905
5132.000000;1.797541
5131.000000;1.796688
5130.000000;1.797145
5129.000000;1.799747
5128.000000;1.800374
5127.000000;1.794989
5126.000000;1.786255
5125.000000;1.780322
5124.000000;1.778736
5123.000000;1.778207
5122.000000;1.777099
5121.000000;1.777728
5120.000000;1.781750
5119.000000;1.787028
5118.000000;1.790237
5117.000000;1.790066
5116.000000;1.787124
5115.000000;1.782984
5114.000000;1.779746
5113.000000;1.778488
5112.000000;1.778011
5111.000000;1.776915
5110.000000;1.776413
5109.000000;1.778620
5108.000000;1.782624
5107.000000;1.785083
5106.000000;1.784864
5105.000000;1.784171
5104.000000;1.784608
5103.000000;1.785085
5102.000000;1.784318
5101.000000;1.783147
5100.000000;1.783177
5099.000000;1.784428
5098.000000;1.785093
5097.000000;1.783152
5096.000000;1.778417
5095.000000;1.773484
5094.000000;1.771906
5093.000000;1.774736
5092.000000;1.779521
5091.000000;1.783088
5090.000000;1.784313
5089.000000;1.783781
5088.000000;1.782438
5087.000000;1.781597
5086.000000;1.782611
5085.000000;1.784984
5084.000000;1.786246
5083.000000;1.785443
5082.000000;1.784850
5081.000000;1.786038
5080.000000;1.786630
5079.000000;1.783852
5078.000000;1.779395
5077.000000;1.777399
5076.000000;1.779016
5075.000000;1.781696
5074.000000;1.782842
5073.000000;1.781644
5072.000000;1.778201
5071.000000;1.773803
5070.000000;1.771253
5069.000000;1.772408
5068.000000;1.776027
5067.000000;1.779745
5066.000000;1.782915
5065.000000;1.785284
5064.000000;1.784578
5063.000000;1.778569
5062.000000;1.768805
5061.000000;1.759367
5060.000000;1.752680
5059.000000;1.748822
5058.000000;1.747661
5057.000000;1.749211
5056.000000;1.752281
5055.000000;1.755039
5054.000000;1.756962
5053.000000;1.758458
5052.000000;1.759055
5051.000000;1.757898
5050.000000;1.755422
5049.000000;1.752650
5048.000000;1.749591
5047.000000;1.746350
5046.000000;1.744813
5045.000000;1.746653
5044.000000;1.750149
5043.000000;1.751393
5042.000000;1.748875
5041.000000;1.744944
5040.000000;1.742514
5039.000000;1.742230
5038.000000;1.742711
5037.000000;1.741836
5036.000000;1.738047
5035.000000;1.731988
5034.000000;1.726585
5033.000000;1.723945
5032.000000;1.722708
5031.000000;1.720148
5030.000000;1.716248
5029.000000;1.713509
5028.000000;1.713189
5027.000000;1.713870
5026.000000;1.713781
5025.000000;1.712662
5024.000000;1.710947
5023.000000;1.708596
5022.000000;1.705414
5021.000000;1.701546
5020.000000;1.697328
5019.000000;1.693351
5018.000000;1.690398
5017.000000;1.688593
5016.000000;1.687078
5015.000000;1.685099
5014.000000;1.682709
5013.000000;1.679861
5012.000000;1.676013
5011.000000;1.671480
5010.000000;1.667768
5009.000000;1.665392
5008.000000;1.662710
5007.000000;1.658230
5006.000000;1.652930
5005.000000;1.648799
5004.000000;1.645919
5003.000000;1.642726
5002.000000;1.638524
5001.000000;1.633867
5000.000000;1.629275
4999.000000;1.624866
4998.000000;1.621120
4997.000000;1.618411
4996.000000;1.616007
4995.000000;1.612685
4994.000000;1.608048
4993.000000;1.602260
4992.000000;1.595119
4991.000000;1.586832
4990.000000;1.579065
4989.000000;1.573625
4988.000000;1.570346
4987.000000;1.567370
4986.000000;1.563297
4985.000000;1.558043
4984.000000;1.551890
4983.000000;1.545085
4982.000000;1.538276
4981.000000;1.532198
4980.000000;1.526778
4979.000000;1.521267
4978.000000;1.515427
4977.000000;1.509995
4976.000000;1.505948
4975.000000;1.503638
4974.000000;1.502296
4973.000000;1.500145
4972.000000;1.495522
4971.000000;1.488551
4970.000000;1.481137
4969.000000;1.474965
4968.000000;1.470143
4967.000000;1.465929
4966.000000;1.461860
4965.000000;1.457607
4964.000000;1.452721
4963.000000;1.447278
4962.000000;1.442003
4961.000000;1.436978
4960.000000;1.431118
4959.000000;1.423692
4958.000000;1.415592
4957.000000;1.408066
4956.000000;1.401154
4955.000000;1.394449
4954.000000;1.388548
4953.000000;1.384384
4952.000000;1.381550
4951.000000;1.378551
4950.000000;1.374469
4949.000000;1.369349
4948.000000;1.363271
4947.000000;1.356275
4946.000000;1.349103
4945.000000;1.342757
4944.000000;1.337323
4943.000000;1.332031
4942.000000;1.326528
4941.000000;1.321125
4940.000000;1.315825
4939.000000;1.310004
4938.000000;1.303290
4937.000000;1.296096
4936.000000;1.289129
4935.000000;1.282819
4934.000000;1.277290
4933.000000;1.272421
4932.000000;1.267839
4931.000000;1.263125
4930.000000;1.258118
4929.000000;1.252835
4928.000000;1.247314
4927.000000;1.241714
4926.000000;1.236282
4925.000000;1.230886
4924.000000;1.225002
4923.000000;1.218602
4922.000000;1.212595
4921.000000;1.207796
4920.000000;1.203850
4919.000000;1.199798
4918.000000;1.195322
4917.000000;1.190678
4916.000000;1.185647
4915.000000;1.179528
4914.000000;1.172228
4913.000000;1.164605
4912.000000;1.157504
4911.000000;1.151046
4910.000000;1.144973
4909.000000;1.139198
4908.000000;1.133787
4907.000000;1.128744
4906.000000;1.123951
4905.000000;1.119130
4904.000000;1.113909
4903.000000;1.108201
4902.000000;1.102462
4901.000000;1.097220
4900.000000;1.092368
4899.000000;1.087268
4898.000000;1.081575
4897.000000;1.075627
4896.000000;1.069993
4895.000000;1.064941
4894.000000;1.060409
4893.000000;1.056179
4892.000000;1.051958
4891.000000;1.047456
4890.000000;1.042520
4889.000000;1.037140
4888.000000;1.031403
4887.000000;1.025512
4886.000000;1.019696
4885.000000;1.013971
4884.000000;1.008149
4883.000000;1.002226
4882.000000;0.996557
4881.000000;0.991428
4880.000000;0.986670
4879.000000;0.981968
4878.000000;0.977305
4877.000000;0.972747
4876.000000;0.968008
4875.000000;0.962694
4874.000000;0.956942
4873.000000;0.951411
4872.000000;0.946523
4871.000000;0.942022
4870.000000;0.937333
4869.000000;0.932159
4868.000000;0.926691
4867.000000;0.921444
4866.000000;0.916872
4865.000000;0.912922
4864.000000;0.908974
4863.000000;0.904428
4862.000000;0.899358
4861.000000;0.894345
4860.000000;0.889677
4859.000000;0.885021
4858.000000;0.879938
4857.000000;0.874467
4856.000000;0.869038
4855.000000;0.864001
4854.000000;0.859408
4853.000000;0.855156
4852.000000;0.851144
4851.000000;0.847280
4850.000000;0.843398
4849.000000;0.839289
4848.000000;0.834855
4847.000000;0.830201
4846.000000;0.825520
4845.000000;0.820875
4844.000000;0.816219
4843.000000;0.811585
4842.000000;0.807112
4841.000000;0.802777
4840.000000;0.798316
4839.000000;0.793574
4838.000000;0.788764
4837.000000;0.784236
4836.000000;0.780041
4835.000000;0.775936
4834.000000;0.771721
4833.000000;0.767394
4832.000000;0.763025
4831.000000;0.758684
4830.000000;0.754490
4829.000000;0.750554
4828.000000;0.746837
4827.000000;0.743153
4826.000000;0.739314
4825.000000;0.735202
4824.000000;0.730765
4823.000000;0.726084
4822.000000;0.721437
4821.000000;0.717140
4820.000000;0.713294
4819.000000;0.709721
4818.000000;0.706145
4817.000000;0.702372
4816.000000;0.698347
4815.000000;0.694141
4814.000000;0.689873
4813.000000;0.685618
4812.000000;0.681396
4811.000000;0.677282
4810.000000;0.673387
4809.000000;0.669686
4808.000000;0.666041
4807.000000;0.662381
4806.000000;0.658842
4805.000000;0.655506
4804.000000;0.652205
4803.000000;0.648660
4802.000000;0.644760
4801.000000;0.640620
4800.000000;0.636435
4799.000000;0.632394
4798.000000;0.628630
4797.000000;0.625100
4796.000000;0.621586
4795.000000;0.617943
4794.000000;0.614276
4793.000000;0.610751
4792.000000;0.607316
4791.000000;0.603802
4790.000000;0.600213
4789.000000;0.596692
4788.000000;0.593234
4787.000000;0.589678
4786.000000;0.586013
4785.000000;0.582462
4784.000000;0.579175
4783.000000;0.576017
4782.000000;0.572781
4781.000000;0.569464
4780.000000;0.566187
4779.000000;0.562941
4778.000000;0.559571
4777.000000;0.556022
4776.000000;0.552455
4775.000000;0.549092
4774.000000;0.545987
4773.000000;0.542994
4772.000000;0.539945
4771.000000;0.536808
4770.000000;0.533648
4769.000000;0.530475
4768.000000;0.527229
4767.000000;0.523921
4766.000000;0.520714
4765.000000;0.517784
4764.000000;0.515125
4763.000000;0.512561
4762.000000;0.509896
4761.000000;0.507031
4760.000000;0.503967
4759.000000;0.500793
4758.000000;0.497645
4757.000000;0.494611
4756.000000;0.491670
4755.000000;0.488745
4754.000000;0.485807
4753.000000;0.482866
4752.000000;0.479913
4751.000000;0.476940
4750.000000;0.474017
4749.000000;0.471246
4748.000000;0.468640
4747.000000;0.466071
4746.000000;0.463377
4745.000000;0.460498
4744.000000;0.457508
4743.000000;0.454559
4742.000000;0.451790
4741.000000;0.449244
4740.000000;0.446850
4739.000000;0.444489
4738.000000;0.442072
4737.000000;0.439582
4736.000000;0.437066
4735.000000;0.434601
4734.000000;0.432227
4733.000000;0.429885
4732.000000;0.427479
4731.000000;0.425010
4730.000000;0.422592
4729.000000;0.420279
4728.000000;0.417958
4727.000000;0.415486
4726.000000;0.412895
4725.000000;0.410377
4724.000000;0.408057
4723.000000;0.405865
4722.000000;0.403650
4721.000000;0.401350
4720.000000;0.399032
4719.000000;0.396799
4718.000000;0.394699
4717.000000;0.392703
4716.000000;0.390748
4715.000000;0.388767
4714.000000;0.386682
4713.000000;0.384415
4712.000000;0.381981
4711.000000;0.379550
4710.000000;0.377345
4709.000000;0.375425
4708.000000;0.373636
4707.000000;0.371767
4706.000000;0.369744
4705.000000;0.367638
4704.000000;0.365556
4703.000000;0.363571
4702.000000;0.361713
4701.000000;0.359970
4700.000000;0.358302
4699.000000;0.356670
4698.000000;0.355044
4697.000000;0.353367
4696.000000;0.351580
4695.000000;0.349690
4694.000000;0.347769
4693.000000;0.345879
4692.000000;0.344054
4691.000000;0.342367
4690.000000;0.340907
4689.000000;0.339633
4688.000000;0.338350
4687.000000;0.336889
4686.000000;0.335272
4685.000000;0.333637
4684.000000;0.332054
4683.000000;0.330491
4682.000000;0.328912
4681.000000;0.327319
4680.000000;0.325728
4679.000000;0.324166
4678.000000;0.322680
4677.000000;0.321281
4676.000000;0.319899
4675.000000;0.318452
4674.000000;0.316943
4673.000000;0.315449
4672.000000;0.314050
4671.000000;0.312783
4670.000000;0.311642
4669.000000;0.310564
4668.000000;0.309438
4667.000000;0.308185
4666.000000;0.306813
4665.000000;0.305376
4664.000000;0.303923
4663.000000;0.302503
4662.000000;0.301163
4661.000000;0.299896
4660.000000;0.298661
4659.000000;0.297488
4658.000000;0.296503
4657.000000;0.295760
4656.000000;0.295107
4655.000000;0.294314
4654.000000;0.293292
4653.000000;0.292142
4652.000000;0.291003
4651.000000;0.289936
4650.000000;0.288913
4649.000000;0.287861
4648.000000;0.286727
4647.000000;0.285557
4646.000000;0.284483
4645.000000;0.283570
4644.000000;0.282730
4643.000000;0.281833
4642.000000;0.280866
4641.000000;0.279915
4640.000000;0.279034
4639.000000;0.278223
4638.000000;0.277490
4637.000000;0.276834
4636.000000;0.276175
4635.000000;0.275410
4634.000000;0.274549
4633.000000;0.273724
4632.000000;0.273042
4631.000000;0.272495
4630.000000;0.271989
4629.000000;0.271425
4628.000000;0.270749
4627.000000;0.269994
4626.000000;0.269277
4625.000000;0.268703
4624.000000;0.268264
4623.000000;0.267873
4622.000000;0.267453
4621.000000;0.266949
4620.000000;0.266317
4619.000000;0.265581
4618.000000;0.264888
4617.000000;0.264389
4616.000000;0.264057
4615.000000;0.263705
4614.000000;0.263209
4613.000000;0.262622
4612.000000;0.262077
4611.000000;0.261644
4610.000000;0.261306
4609.000000;0.261006
4608.000000;0.260675
4607.000000;0.260278
4606.000000;0.259864
4605.000000;0.259523
4604.000000;0.259296
4603.000000;0.259143
4602.000000;0.259000
4601.000000;0.258816
4600.000000;0.258532
4599.000000;0.258121
4598.000000;0.257665
4597.000000;0.257328
4596.000000;0.257212
4595.000000;0.257265
4594.000000;0.257353
4593.000000;0.257375
4592.000000;0.257313
4591.000000;0.257199
4590.000000;0.257085
4589.000000;0.256999
4588.000000;0.256920
4587.000000;0.256822
4586.000000;0.256727
4585.000000;0.256683
4584.000000;0.256685
4583.000000;0.256669
4582.000000;0.256609
4581.000000;0.256568
4580.000000;0.256617
4579.000000;0.256756
4578.000000;0.256936
4577.000000;0.257135
4576.000000;0.257378
4575.000000;0.257688
4574.000000;0.258058
4573.000000;0.258458
4572.000000;0.258866
4571.000000;0.259289
4570.000000;0.259737
4569.000000;0.260159
4568.000000;0.260452
4567.000000;0.260565
4566.000000;0.260592
4565.000000;0.260703
4564.000000;0.260995
4563.000000;0.261437
4562.000000;0.261954
4561.000000;0.262505
4560.000000;0.263082
4559.000000;0.263680
4558.000000;0.264311
4557.000000;0.265016
4556.000000;0.265828
4555.000000;0.266740
4554.000000;0.267690
4553.000000;0.268584
4552.000000;0.269355
4551.000000;0.270023
4550.000000;0.270698
4549.000000;0.271483
4548.000000;0.272374
4547.000000;0.273264
4546.000000;0.274049
4545.000000;0.274719
4544.000000;0.275347
4543.000000;0.276027
4542.000000;0.276810
4541.000000;0.277678
4540.000000;0.278594
4539.000000;0.279559
4538.000000;0.280602
4537.000000;0.281694
4536.000000;0.282730
4535.000000;0.283620
4534.000000;0.284382
4533.000000;0.285112
4532.000000;0.285900
4531.000000;0.286790
4530.000000;0.287771
4529.000000;0.288766
4528.000000;0.289681
4527.000000;0.290521
4526.000000;0.291418
4525.000000;0.292475
4524.000000;0.293618
4523.000000;0.294690
4522.000000;0.295641
4521.000000;0.296568
4520.000000;0.297559
4519.000000;0.298589
4518.000000;0.299563
4517.000000;0.300415
4516.000000;0.301166
4515.000000;0.301925
4514.000000;0.302814
4513.000000;0.303851
4512.000000;0.304923
4511.000000;0.305924
4510.000000;0.306883
4509.000000;0.307889
4508.000000;0.308941
4507.000000;0.309957
4506.000000;0.310916
4505.000000;0.311887
4504.000000;0.312916
4503.000000;0.313983
4502.000000;0.315087
4501.000000;0.316269
4500.000000;0.317517
4499.000000;0.318734
4498.000000;0.319851
4497.000000;0.320935
4496.000000;0.322131
4495.000000;0.323519
4494.000000;0.325020
4493.000000;0.326452
4492.000000;0.327682
4491.000000;0.328767
4490.000000;0.329931
4489.000000;0.331361
4488.000000;0.333041
4487.000000;0.334795
4486.000000;0.336459
4485.000000;0.337977
4484.000000;0.339372
4483.000000;0.340722
4482.000000;0.342135
4481.000000;0.343668
4480.000000;0.345263
4479.000000;0.346844
4478.000000;0.348439
4477.000000;0.350144
4476.000000;0.351964
4475.000000;0.353782
4474.000000;0.355503
4473.000000;0.357145
4472.000000;0.358784
4471.000000;0.360484
4470.000000;0.362283
4469.000000;0.364183
4468.000000;0.366122
4467.000000;0.368026
4466.000000;0.369898
4465.000000;0.371800
4464.000000;0.373786
4463.000000;0.375875
4462.000000;0.378077
4461.000000;0.380347
4460.000000;0.382553
4459.000000;0.384586
4458.000000;0.386492
4457.000000;0.388419
4456.000000;0.390444
4455.000000;0.392557
4454.000000;0.394777
4453.000000;0.397150
4452.000000;0.399609
4451.000000;0.402006
4450.000000;0.404308
4449.000000;0.406642
4448.000000;0.409084
4447.000000;0.411541
4446.000000;0.413883
4445.000000;0.416112
4444.000000;0.418309
4443.000000;0.420525
4442.000000;0.422798
4441.000000;0.425180
4440.000000;0.427688
4439.000000;0.430283
4438.000000;0.432945
4437.000000;0.435694
4436.000000;0.438479
4435.000000;0.441154
4434.000000;0.443649
4433.000000;0.446085
4432.000000;0.448623
4431.000000;0.451269
4430.000000;0.453925
4429.000000;0.456571
4428.000000;0.459291
4427.000000;0.462135
4426.000000;0.465076
4425.000000;0.468073
4424.000000;0.471115
4423.000000;0.474179
4422.000000;0.477240
4421.000000;0.480308
4420.000000;0.483416
4419.000000;0.486535
4418.000000;0.489544
4417.000000;0.492324
4416.000000;0.494896
4415.000000;0.497439
4414.000000;0.500175
4413.000000;0.503198
4412.000000;0.506406
4411.000000;0.509630
4410.000000;0.512817
4409.000000;0.516073
4408.000000;0.519507
4407.000000;0.523066
4406.000000;0.526542
4405.000000;0.529761
4404.000000;0.532766
4403.000000;0.535785
4402.000000;0.538998
4401.000000;0.542346
4400.000000;0.545667
4399.000000;0.548989
4398.000000;0.552553
4397.000000;0.556468
4396.000000;0.560492
4395.000000;0.564291
4394.000000;0.567824
4393.000000;0.571303
4392.000000;0.574841
4391.000000;0.578365
4390.000000;0.581851
4389.000000;0.585422
4388.000000;0.589148
4387.000000;0.592937
4386.000000;0.596689
4385.000000;0.600425
4384.000000;0.604188
4383.000000;0.607930
4382.000000;0.611600
4381.000000;0.615255
4380.000000;0.618998
4379.000000;0.622861
4378.000000;0.626805
4377.000000;0.630777
4376.000000;0.634733
4375.000000;0.638645
4374.000000;0.642521
4373.000000;0.646388
4372.000000;0.650295
4371.000000;0.654361
4370.000000;0.658722
4369.000000;0.663318
4368.000000;0.667797
4367.000000;0.671837
4366.000000;0.675563
4365.000000;0.679487
4364.000000;0.683996
4363.000000;0.689017
4362.000000;0.694179
4361.000000;0.699137
4360.000000;0.703741
4359.000000;0.708065
4358.000000;0.712334
4357.000000;0.716709
4356.000000;0.721131
4355.000000;0.725505
4354.000000;0.729961
4353.000000;0.734748
4352.000000;0.739887
4351.000000;0.745179
4350.000000;0.750540
4349.000000;0.755996
4348.000000;0.761306
4347.000000;0.765977
4346.000000;0.769890
4345.000000;0.773646
4344.000000;0.777983
4343.000000;0.783023
4342.000000;0.788294
4341.000000;0.793363
4340.000000;0.798203
4339.000000;0.803060
4338.000000;0.808185
4337.000000;0.813722
4336.000000;0.819654
4335.000000;0.825793
4334.000000;0.831865
4333.000000;0.837605
4332.000000;0.842804
4331.000000;0.847385
4330.000000;0.851560
4329.000000;0.855806
4328.000000;0.860576
4327.000000;0.866008
4326.000000;0.871855
4325.000000;0.877649
4324.000000;0.883002
4323.000000;0.887939
4322.000000;0.892930
4321.000000;0.898404
4320.000000;0.904256
4319.000000;0.909988
4318.000000;0.915348
4317.000000;0.920610
4316.000000;0.926176
4315.000000;0.932149
4314.000000;0.938343
4313.000000;0.944500
4312.000000;0.950404
4311.000000;0.955951
4310.000000;0.961237
4309.000000;0.966531
4308.000000;0.972174
4307.000000;0.978564
4306.000000;0.985964
4305.000000;0.994034
4304.000000;1.001757
4303.000000;1.008339
4302.000000;1.014076
4301.000000;1.019874
4300.000000;1.026036
4299.000000;1.032116
4298.000000;1.037885
4297.000000;1.043661
4296.000000;1.049554
4295.000000;1.055196
4294.000000;1.060589
4293.000000;1.066471
4292.000000;1.073323
4291.000000;1.080600
4290.000000;1.087545
4289.000000;1.094335
4288.000000;1.101728
4287.000000;1.109777
4286.000000;1.117488
4285.000000;1.123766
4284.000000;1.128468
4283.000000;1.132700
4282.000000;1.138248
4281.000000;1.146258
4280.000000;1.156045
4279.000000;1.165467
4278.000000;1.172983
4277.000000;1.179146
4276.000000;1.185682
4275.000000;1.193565
4274.000000;1.202445
4273.000000;1.211360
4272.000000;1.219300
4271.000000;1.225467
4270.000000;1.229913
4269.000000;1.233924
4268.000000;1.239095
4267.000000;1.245900
4266.000000;1.253493
4265.000000;1.260962
4264.000000;1.268401
4263.000000;1.276673
4262.000000;1.286348
4261.000000;1.296975
4260.000000;1.307258
4259.000000;1.316025
4258.000000;1.323093
4257.000000;1.329092
4256.000000;1.334698
4255.000000;1.340506
4254.000000;1.347352
4253.000000;1.355773
4252.000000;1.364888
4251.000000;1.372714
4250.000000;1.378249
4249.000000;1.382608
4248.000000;1.387560
4247.000000;1.393640
4246.000000;1.400602
4245.000000;1.408711
4244.000000;1.418516
4243.000000;1.429621
4242.000000;1.440713
4241.000000;1.450704
4240.000000;1.459340
4239.000000;1.467103
4238.000000;1.475072
4237.000000;1.484389
4236.000000;1.495056
4235.000000;1.505490
4234.000000;1.514114
4233.000000;1.521073
4232.000000;1.527417
4231.000000;1.533190
4230.000000;1.537724
4229.000000;1.541670
4228.000000;1.547305
4227.000000;1.556326
4226.000000;1.567974
4225.000000;1.579549
4224.000000;1.588670
4223.000000;1.594978
4222.000000;1.599731
4221.000000;1.604238
4220.000000;1.609092
4219.000000;1.614881
4218.000000;1.622969
4217.000000;1.634399
4216.000000;1.647969
4215.000000;1.660486
4214.000000;1.669667
4213.000000;1.676188
4212.000000;1.682262
4211.000000;1.689126
4210.000000;1.696572
4209.000000;1.703792
4208.000000;1.710157
4207.000000;1.716183
4206.000000;1.724101
4205.000000;1.736367
4204.000000;1.752806
4203.000000;1.769815
4202.000000;1.783283
4201.000000;1.791979
4200.000000;1.797422
4199.000000;1.801550
4198.000000;1.805629
4197.000000;1.810458
4196.000000;1.816774
4195.000000;1.825947
4194.000000;1.840041
4193.000000;1.859244
4192.000000;1.878597
4191.000000;1.890074
4190.000000;1.890785
4189.000000;1.886719
4188.000000;1.885996
4187.000000;1.891528
4186.000000;1.901514
4185.000000;1.913890
4184.000000;1.927716
4183.000000;1.942152
4182.000000;1.956933
4181.000000;1.972780
4180.000000;1.989842
4179.000000;2.006821
4178.000000;2.022610
4177.000000;2.037524
4176.000000;2.050955
4175.000000;2.059493
4174.000000;2.060875
4173.000000;2.058247
4172.000000;2.057255
4171.000000;2.060337
4170.000000;2.065559
4169.000000;2.069633
4168.000000;2.071262
4167.000000;2.072782
4166.000000;2.078308
4165.000000;2.089703
4164.000000;2.104736
4163.000000;2.117768
4162.000000;2.124345
4161.000000;2.126309
4160.000000;2.128842
4159.000000;2.136908
4158.000000;2.154698
4157.000000;2.181549
4156.000000;2.208475
4155.000000;2.223512
4154.000000;2.224954
4153.000000;2.224035
4152.000000;2.232048
4151.000000;2.251062
4150.000000;2.275218
4149.000000;2.296498
4148.000000;2.307250
4147.000000;2.303722
4146.000000;2.292390
4145.000000;2.283643
4144.000000;2.277870
4143.000000;2.267898
4142.000000;2.257213
4141.000000;2.261090
4140.000000;2.287469
4139.000000;2.323631
4138.000000;2.344043
4137.000000;2.340452
4136.000000;2.332313
4135.000000;2.339508
4134.000000;2.364762
4133.000000;2.396778
4132.000000;2.417427
4131.000000;2.412928
4130.000000;2.390223
4129.000000;2.372802
4128.000000;2.377796
4127.000000;2.405408
4126.000000;2.442578
4125.000000;2.470135
4124.000000;2.476903
4123.000000;2.466872
4122.000000;2.446313
4121.000000;2.421583
4120.000000;2.403329
4119.000000;2.399540
4118.000000;2.410154
4117.000000;2.430687
4116.000000;2.459165
4115.000000;2.498122
4114.000000;2.544970
4113.000000;2.583284
4112.000000;2.596675
4111.000000;2.588581
4110.000000;2.580592
4109.000000;2.592475
4108.000000;2.623888
4107.000000;2.654296
4106.000000;2.660573
4105.000000;2.641427
4104.000000;2.610548
4103.000000;2.581923
4102.000000;2.567414
4101.000000;2.573204
4100.000000;2.598427
4099.000000;2.636446
4098.000000;2.684017
4097.000000;2.749110
4096.000000;2.837286
4095.000000;2.923907
4094.000000;2.955717
4093.000000;2.918362
4092.000000;2.846861
4091.000000;2.769579
4090.000000;2.707335
4089.000000;2.685521
4088.000000;2.722360
4087.000000;2.805572
4086.000000;2.873228
4085.000000;2.857613
4084.000000;2.773942
4083.000000;2.691429
4082.000000;2.650132
4081.000000;2.653724
4080.000000;2.696157
4079.000000;2.776339
4078.000000;2.879375
4077.000000;2.928817
4076.000000;2.859439
4075.000000;2.740901
4074.000000;2.647769
4073.000000;2.599956
4072.000000;2.587164
4071.000000;2.590510
4070.000000;2.604955
4069.000000;2.642577
4068.000000;2.710034
4067.000000;2.780879
4066.000000;2.807678
4065.000000;2.802370
4064.000000;2.813024
4063.000000;2.850281
4062.000000;2.878445
4061.000000;2.860341
4060.000000;2.812773
4059.000000;2.768348
4058.000000;2.736526
4057.000000;2.709736
4056.000000;2.684195
4055.000000;2.668591
4054.000000;2.676234
4053.000000;2.715418
4052.000000;2.781370
4051.000000;2.848198
4050.000000;2.887383
4049.000000;2.905063
4048.000000;2.915366
4047.000000;2.907873
4046.000000;2.871475
4045.000000;2.818936
4044.000000;2.770997
4043.000000;2.737830
4042.000000;2.723633
4041.000000;2.738607
4040.000000;2.798236
4039.000000;2.898808
4038.000000;2.939842
4037.000000;2.861221
4036.000000;2.780419
4035.000000;2.743941
4034.000000;2.752205
4033.000000;2.799578
4032.000000;2.868310
4031.000000;2.925104
4030.000000;2.939523
4029.000000;2.904650
4028.000000;2.852600
4027.000000;2.807904
4026.000000;2.775414
4025.000000;2.772002
4024.000000;2.820585
4023.000000;2.935557
4022.000000;3.122326
4021.000000;3.351097
4020.000000;3.508250
4019.000000;3.582533
4018.000000;3.740194
4017.000000;3.655349
4016.000000;3.354143
4015.000000;3.147143
4014.000000;3.011252
4013.000000;2.929890
4012.000000;2.905994
4011.000000;2.926677
4010.000000;2.967550
4009.000000;3.024647
4008.000000;3.034441
4007.000000;2.940355
4006.000000;2.867973
4005.000000;2.874305
4004.000000;2.963392
4003.000000;3.135210
4002.000000;3.394227
4001.000000;3.723115
4000.000000;3.977655
3999.000000;4.009905
3998.000000;4.326440
3997.000000;3.933092
3996.000000;3.766082
3995.000000;3.676264
3994.000000;3.180887
3993.000000;2.930627
3992.000000;2.844330
3991.000000;2.867828
3990.000000;2.955125
3989.000000;3.029865
3988.000000;3.117914
3987.000000;3.285605
3986.000000;3.704926
3985.000000;3.986961
3984.000000;3.627680
3983.000000;3.813889
3982.000000;3.449234
3981.000000;3.120488
3980.000000;2.959552
3979.000000;2.851078
3978.000000;2.766950
3977.000000;2.724402
3976.000000;2.735240
3975.000000;2.789507
3974.000000;2.854675
3973.000000;2.940475
3972.000000;3.063517
3971.000000;3.483736
3970.000000;3.538969
3969.000000;3.061919
3968.000000;3.013192
3967.000000;3.083485
3966.000000;3.113925
3965.000000;2.965952
3964.000000;2.836174
3963.000000;2.745729
3962.000000;2.677580
3961.000000;2.654107
3960.000000;2.708122
3959.000000;2.854847
3958.000000;3.117156
3957.000000;3.280893
3956.000000;3.177315
3955.000000;3.194584
3954.000000;3.308846
3953.000000;3.281225
3952.000000;3.141992
3951.000000;3.009580
3950.000000;2.833109
3949.000000;2.670188
3948.000000;2.631941
3947.000000;2.744600
3946.000000;2.944290
3945.000000;3.302716
3944.000000;3.676285
3943.000000;3.201965
3942.000000;2.968130
3941.000000;2.806616
3940.000000;2.732777
3939.000000;2.683957
3938.000000;2.653337
3937.000000;2.668922
3936.000000;2.736180
3935.000000;2.820105
3934.000000;2.881986
3933.000000;2.908154
3932.000000;2.938472
3931.000000;3.021103
3930.000000;3.119088
3929.000000;3.176170
3928.000000;3.198119
3927.000000;3.216884
3926.000000;3.174691
3925.000000;2.924260
3924.000000;2.778327
3923.000000;2.809291
3922.000000;2.940048
3921.000000;3.217794
3920.000000;3.553792
3919.000000;3.107700
3918.000000;2.930081
3917.000000;2.930047
3916.000000;3.033161
3915.000000;3.114571
3914.000000;3.190524
3913.000000;3.252121
3912.000000;3.152019
3911.000000;3.013147
3910.000000;2.978037
3909.000000;3.021999
3908.000000;3.086353
3907.000000;3.097753
3906.000000;3.022011
3905.000000;2.931705
3904.000000;2.924040
3903.000000;2.998938
3902.000000;3.036079
3901.000000;3.006985
3900.000000;2.971277
3899.000000;2.924266
3898.000000;2.915075
3897.000000;2.990268
3896.000000;3.128854
3895.000000;3.302954
3894.000000;3.419192
3893.000000;3.510692
3892.000000;3.693478
3891.000000;3.821800
3890.000000;3.952883
3889.000000;3.859398
3888.000000;3.681464
3887.000000;3.570231
3886.000000;3.887282
3885.000000;3.554438
3884.000000;3.373976
3883.000000;3.413434
3882.000000;3.329829
3881.000000;3.217429
3880.000000;3.253712
3879.000000;3.498142
3878.000000;3.777593
3877.000000;3.835525
3876.000000;3.662254
3875.000000;3.467355
3874.000000;3.443943
3873.000000;3.624578
3872.000000;3.936120
3871.000000;4.015333
3870.000000;3.744664
3869.000000;3.804145
3868.000000;3.719952
3867.000000;3.652650
3866.000000;3.568121
3865.000000;3.487877
3864.000000;3.430018
3863.000000;3.429220
3862.000000;3.466554
3861.000000;3.502986
3860.000000;3.495478
3859.000000;3.425240
3858.000000;3.384476
3857.000000;3.434381
3856.000000;3.510995
3855.000000;3.543391
3854.000000;3.561674
3853.000000;3.673471
3852.000000;3.885901
3851.000000;4.083056
3850.000000;4.322161
3849.000000;3.975787
3848.000000;3.492860
3847.000000;3.223670
3846.000000;3.104041
3845.000000;3.082844
3844.000000;3.132291
3843.000000;3.255612
3842.000000;3.451409
3841.000000;3.682456
3840.000000;3.898933
3839.000000;4.112012
3838.000000;4.465284
3837.000000;4.490621
3836.000000;4.175971
3835.000000;4.005755
3834.000000;3.857735
3833.000000;3.742428
3832.000000;3.698849
3831.000000;3.789194
3830.000000;4.105764
3829.000000;4.401538
3828.000000;3.920822
3827.000000;3.587201
3826.000000;3.489575
3825.000000;3.583818
3824.000000;3.733548
3823.000000;3.796473
3822.000000;3.792522
3821.000000;3.919584
3820.000000;4.311191
3819.000000;4.842815
3818.000000;4.546904
3817.000000;3.974599
3816.000000;3.503275
3815.000000;3.309954
3814.000000;3.280819
3813.000000;3.250541
3812.000000;3.206323
3811.000000;3.216984
3810.000000;3.331366
3809.000000;3.531646
3808.000000;3.964820
3807.000000;4.206126
3806.000000;4.091061
3805.000000;4.312624
3804.000000;4.187204
3803.000000;3.936866
3802.000000;3.757248
3801.000000;3.784765
3800.000000;3.946733
3799.000000;4.028477
3798.000000;3.954551
3797.000000;3.815397
3796.000000;3.727333
3795.000000;3.724711
3794.000000;3.768696
3793.000000;3.702662
3792.000000;3.431416
3791.000000;3.268721
3790.000000;3.239956
3789.000000;3.250721
3788.000000;3.163574
3787.000000;3.005150
3786.000000;2.900956
3785.000000;2.883352
3784.000000;2.994147
3783.000000;3.242672
3782.000000;3.825843
3781.000000;4.203012
3780.000000;3.901991
3779.000000;4.265531
3778.000000;3.926656
3777.000000;3.717885
3776.000000;3.442683
3775.000000;3.260593
3774.000000;3.213677
3773.000000;3.145885
3772.000000;3.062941
3771.000000;3.029071
3770.000000;3.095106
3769.000000;3.268755
3768.000000;3.465929
3767.000000;3.553812
3766.000000;3.447514
3765.000000;3.294523
3764.000000;3.255820
3763.000000;3.324196
3762.000000;3.439460
3761.000000;3.566736
3760.000000;3.755586
3759.000000;3.979697
3758.000000;3.645540
3757.000000;3.532120
3756.000000;3.733378
3755.000000;4.267921
3754.000000;4.148101
3753.000000;3.999849
3752.000000;4.189299
3751.000000;4.398500
3750.000000;4.499333
3749.000000;4.555596
3748.000000;4.727193
3747.000000;5.060884
3746.000000;4.496995
3745.000000;3.989781
3744.000000;3.977781
3743.000000;3.775693
3742.000000;3.711421
3741.000000;3.622848
3740.000000;3.554079
3739.000000;3.589055
3738.000000;3.722935
3737.000000;3.858342
3736.000000;3.790164
3735.000000;3.629874
3734.000000;3.560833
3733.000000;3.477173
3732.000000;3.369316
3731.000000;3.295823
3730.000000;3.281986
3729.000000;3.287125
3728.000000;3.222707
3727.000000;3.078281
3726.000000;3.047908
3725.000000;3.173781
3724.000000;3.254015
3723.000000;3.137267
3722.000000;3.052075
3721.000000;3.060864
3720.000000;3.127384
3719.000000;3.189884
3718.000000;3.193462
3717.000000;3.229591
3716.000000;3.357433
3715.000000;3.481025
3714.000000;3.527456
3713.000000;3.590133
3712.000000;3.673245
3711.000000;3.741651
3710.000000;3.807154
3709.000000;3.740642
3708.000000;3.478173
3707.000000;3.214857
3706.000000;3.031078
3705.000000;2.924762
3704.000000;2.872753
3703.000000;2.870424
3702.000000;2.944693
3701.000000;3.135474
3700.000000;3.426981
3699.000000;3.520306
3698.000000;3.409140
3697.000000;3.479246
3696.000000;3.731607
3695.000000;3.477687
3694.000000;3.372549
3693.000000;3.490060
3692.000000;3.647262
3691.000000;3.648598
3690.000000;3.596978
3689.000000;3.585861
3688.000000;3.688305
3687.000000;4.077940
3686.000000;4.178376
3685.000000;3.554740
3684.000000;3.250445
3683.000000;3.111532
3682.000000;3.092495
3681.000000;3.128527
3680.000000;3.225837
3679.000000;3.388335
3678.000000;3.527234
3677.000000;3.544335
3676.000000;3.510827
3675.000000;3.615935
3674.000000;3.854583
3673.000000;4.004025
3672.000000;3.929645
3671.000000;3.758585
3670.000000;3.746680
3669.000000;3.965858
3668.000000;4.186144
3667.000000;3.945196
3666.000000;3.468661
3665.000000;3.112280
3664.000000;2.934100
3663.000000;2.932404
3662.000000;3.095976
3661.000000;3.338737
3660.000000;3.318321
3659.000000;3.241656
3658.000000;3.175348
3657.000000;3.094494
3656.000000;3.070736
3655.000000;3.161291
3654.000000;3.304576
3653.000000;3.396028
3652.000000;3.422835
3651.000000;3.459060
3650.000000;3.563216
3649.000000;3.662508
3648.000000;3.624486
3647.000000;3.510063
3646.000000;3.437305
3645.000000;3.459939
3644.000000;3.438465
3643.000000;3.144135
3642.000000;2.901539
3641.000000;2.816476
3640.000000;2.826277
3639.000000;2.888496
3638.000000;3.005944
3637.000000;3.191657
3636.000000;3.405329
3635.000000;3.683900
3634.000000;3.866688
3633.000000;3.585338
3632.000000;3.577015
3631.000000;3.641665
3630.000000;3.785814
3629.000000;4.026463
3628.000000;3.693449
3627.000000;3.555872
3626.000000;3.433086
3625.000000;3.307207
3624.000000;3.262858
3623.000000;3.336302
3622.000000;3.366168
3621.000000;3.240352
3620.000000;3.077187
3619.000000;3.019073
3618.000000;3.111465
3617.000000;3.234613
3616.000000;3.275365
3615.000000;3.257366
3614.000000;3.243401
3613.000000;3.243591
3612.000000;3.227179
3611.000000;3.195346
3610.000000;3.148738
3609.000000;3.110376
3608.000000;3.088323
3607.000000;3.055090
3606.000000;3.016929
3605.000000;2.970672
3604.000000;2.938395
3603.000000;2.973121
3602.000000;3.117137
3601.000000;3.242894
3600.000000;3.106131
3599.000000;2.977456
3598.000000;2.905957
3597.000000;2.874392
3596.000000;2.882930
3595.000000;2.968813
3594.000000;3.177057
3593.000000;3.591129
3592.000000;3.800287
3591.000000;3.448232
3590.000000;3.187321
3589.000000;2.999245
3588.000000;2.946376
3587.000000;3.014559
3586.000000;3.066512
3585.000000;3.046401
3584.000000;2.983061
3583.000000;2.909554
3582.000000;2.865002
3581.000000;2.876430
3580.000000;2.936710
3579.000000;3.021509
3578.000000;3.071835
3577.000000;3.020627
3576.000000;2.923656
3575.000000;2.868230
3574.000000;2.862052
3573.000000;2.838812
3572.000000;2.813447
3571.000000;2.832070
3570.000000;3.016725
3569.000000;3.109794
3568.000000;2.509691
3567.000000;2.347256
3566.000000;2.435673
3565.000000;2.620862
3564.000000;2.720310
3563.000000;2.736040
3562.000000;2.732729
3561.000000;2.787560
3560.000000;2.946815
3559.000000;3.342219
3558.000000;3.728800
3557.000000;3.305785
3556.000000;3.190171
3555.000000;3.262040
3554.000000;3.427875
3553.000000;3.730613
3552.000000;3.958797
3551.000000;3.375447
3550.000000;3.147892
3549.000000;2.979381
3548.000000;2.837817
3547.000000;2.815400
3546.000000;3.091183
3545.000000;3.421301
3544.000000;3.221693
3543.000000;3.272416
3542.000000;3.280115
3541.000000;3.285647
3540.000000;3.219665
3539.000000;3.071452
3538.000000;2.978609
3537.000000;2.996221
3536.000000;3.086637
3535.000000;3.149430
3534.000000;3.173375
3533.000000;3.147351
3532.000000;3.027093
3531.000000;2.923565
3530.000000;2.891313
3529.000000;2.910538
3528.000000;2.946738
3527.000000;2.949616
3526.000000;2.871762
3525.000000;2.746867
3524.000000;2.666859
3523.000000;2.695131
3522.000000;2.818372
3521.000000;2.953058
3520.000000;3.055697
3519.000000;3.075404
3518.000000;2.982236
3517.000000;2.942905
3516.000000;2.978058
3515.000000;2.982881
3514.000000;2.946208
3513.000000;2.942685
3512.000000;2.992332
3511.000000;3.114679
3510.000000;3.395738
3509.000000;3.439350
3508.000000;3.268594
3507.000000;3.203910
3506.000000;3.084191
3505.000000;2.926964
3504.000000;2.788549
3503.000000;2.716168
3502.000000;2.721981
3501.000000;2.775232
3500.000000;2.819579
3499.000000;2.826212
3498.000000;2.814880
3497.000000;2.817531
3496.000000;2.858850
3495.000000;2.948921
3494.000000;3.046364
3493.000000;3.036151
3492.000000;2.967987
3491.000000;2.962132
3490.000000;3.040872
3489.000000;3.251987
3488.000000;3.514857
3487.000000;3.333762
3486.000000;3.373625
3485.000000;3.306304
3484.000000;2.991140
3483.000000;2.879928
3482.000000;2.952238
3481.000000;2.951448
3480.000000;2.783569
3479.000000;2.715070
3478.000000;2.742289
3477.000000;2.808834
3476.000000;2.919372
3475.000000;3.103798
3474.000000;3.274213
3473.000000;3.269724
3472.000000;3.235337
3471.000000;3.332255
3470.000000;3.729280
3469.000000;3.588333
3468.000000;3.151709
3467.000000;2.968279
3466.000000;2.938621
3465.000000;3.037158
3464.000000;3.125052
3463.000000;2.972820
3462.000000;2.771960
3461.000000;2.657551
3460.000000;2.638236
3459.000000;2.721042
3458.000000;2.958010
3457.000000;3.454087
3456.000000;3.284417
3455.000000;3.067274
3454.000000;3.115694
3453.000000;3.198021
3452.000000;3.234365
3451.000000;3.143126
3450.000000;3.022516
3449.000000;2.883194
3448.000000;2.734662
3447.000000;2.642889
3446.000000;2.649813
3445.000000;2.759372
3444.000000;2.970993
3443.000000;3.053450
3442.000000;2.890634
3441.000000;2.823183
3440.000000;2.835030
3439.000000;2.884894
3438.000000;2.931289
3437.000000;2.946894
3436.000000;2.946039
3435.000000;2.962494
3434.000000;2.997494
3433.000000;2.994956
3432.000000;2.944601
3431.000000;2.906773
3430.000000;2.898448
3429.000000;2.914811
3428.000000;2.960293
3427.000000;3.024656
3426.000000;3.135674
3425.000000;3.295678
3424.000000;3.920160
3423.000000;3.710306
3422.000000;3.301452
3421.000000;3.205623
3420.000000;3.157718
3419.000000;3.058813
3418.000000;2.986572
3417.000000;2.997083
3416.000000;3.081183
3415.000000;3.227532
3414.000000;3.430831
3413.000000;3.541657
3412.000000;3.587297
3411.000000;3.784399
3410.000000;4.108900
3409.000000;3.507736
3408.000000;3.005985
3407.000000;2.805933
3406.000000;2.754534
3405.000000;2.804054
3404.000000;2.887478
3403.000000;2.891632
3402.000000;2.785941
3401.000000;2.692529
3400.000000;2.656159
3399.000000;2.663813
3398.000000;2.702028
3397.000000;2.762713
3396.000000;2.863093
3395.000000;3.036046
3394.000000;3.430357
3393.000000;3.532195
3392.000000;3.264808
3391.000000;3.179495
3390.000000;3.136303
3389.000000;3.154947
3388.000000;3.303425
3387.000000;3.694887
3386.000000;3.764514
3385.000000;3.593174
3384.000000;3.292103
3383.000000;2.991626
3382.000000;2.830950
3381.000000;2.721212
3380.000000;2.677775
3379.000000;2.739299
3378.000000;2.963582
3377.000000;3.518439
3376.000000;3.391707
3375.000000;3.091894
3374.000000;3.061518
3373.000000;3.092570
3372.000000;3.297716
3371.000000;3.417798
3370.000000;3.221103
3369.000000;3.072317
3368.000000;3.014220
3367.000000;2.988148
3366.000000;2.934141
3365.000000;2.833705
3364.000000;2.729821
3363.000000;2.696584
3362.000000;2.778962
3361.000000;2.940112
3360.000000;3.004294
3359.000000;3.106050
3358.000000;3.432722
3357.000000;3.325888
3356.000000;3.080236
3355.000000;3.076119
3354.000000;3.194473
3353.000000;3.691190
3352.000000;3.685528
3351.000000;3.196275
3350.000000;3.073289
3349.000000;2.939290
3348.000000;2.922571
3347.000000;3.051054
3346.000000;3.160605
3345.000000;3.130581
3344.000000;3.232931
3343.000000;3.753390
3342.000000;3.296654
3341.000000;3.124789
3340.000000;3.304899
3339.000000;3.663654
3338.000000;3.298152
3337.000000;3.119669
3336.000000;2.962206
3335.000000;2.814283
3334.000000;2.745224
3333.000000;2.754859
3332.000000;2.809826
3331.000000;2.898954
3330.000000;3.024111
3329.000000;3.100694
3328.000000;3.084683
3327.000000;3.057033
3326.000000;3.087617
3325.000000;3.504322
3324.000000;3.346717
3323.000000;2.947550
3322.000000;3.013743
3321.000000;3.170717
3320.000000;2.964884
3319.000000;2.844546
3318.000000;2.934374
3317.000000;3.582812
3316.000000;3.392227
3315.000000;2.997115
3314.000000;2.905321
3313.000000;2.911104
3312.000000;3.023194
3311.000000;3.141938
3310.000000;3.129191
3309.000000;3.083163
3308.000000;3.103454
3307.000000;3.121014
3306.000000;3.072260
3305.000000;2.961435
3304.000000;2.801399
3303.000000;2.698482
3302.000000;2.687039
3301.000000;2.760192
3300.000000;2.883871
3299.000000;3.004823
3298.000000;3.139580
3297.000000;3.304019
3296.000000;3.902156
3295.000000;4.020424
3294.000000;3.492200
3293.000000;3.405791
3292.000000;3.267206
3291.000000;3.213885
3290.000000;3.194522
3289.000000;3.087308
3288.000000;2.923988
3287.000000;2.794732
3286.000000;2.723094
3285.000000;2.721765
3284.000000;2.793145
3283.000000;2.930413
3282.000000;3.132502
3281.000000;3.485463
3280.000000;3.271885
3279.000000;2.929331
3278.000000;2.785233
3277.000000;2.747983
3276.000000;2.766355
3275.000000;2.826834
3274.000000;2.955610
3273.000000;3.280386
3272.000000;3.662450
3271.000000;3.292152
3270.000000;3.168933
3269.000000;3.214175
3268.000000;3.277694
3267.000000;3.105009
3266.000000;2.901263
3265.000000;2.776161
3264.000000;2.726708
3263.000000;2.759504
3262.000000;2.866300
3261.000000;2.912093
3260.000000;2.866917
3259.000000;2.879841
3258.000000;3.004425
3257.000000;3.336348
3256.000000;3.766044
3255.000000;3.142886
3254.000000;2.937016
3253.000000;2.813903
3252.000000;2.726582
3251.000000;2.680623
3250.000000;2.692237
3249.000000;2.754283
3248.000000;2.863286
3247.000000;3.042059
3246.000000;3.313814
3245.000000;3.330640
3244.000000;3.109145
3243.000000;2.972311
3242.000000;2.865889
3241.000000;2.777563
3240.000000;2.695717
3239.000000;2.623583
3238.000000;2.568691
3237.000000;2.540846
3236.000000;2.543916
3235.000000;2.579365
3234.000000;2.647980
3233.000000;2.700756
3232.000000;2.727613
3231.000000;2.833108
3230.000000;3.212529
3229.000000;3.063381
3228.000000;2.835086
3227.000000;2.818940
3226.000000;2.896075
3225.000000;2.922301
3224.000000;2.844378
3223.000000;2.802929
3222.000000;2.872717
3221.000000;3.090126
3220.000000;3.405231
3219.000000;3.436387
3218.000000;3.355930
3217.000000;3.439190
3216.000000;3.744081
3215.000000;3.496157
3214.000000;3.057085
3213.000000;2.840766
3212.000000;2.769950
3211.000000;2.786959
3210.000000;2.764470
3209.000000;2.703969
3208.000000;2.703144
3207.000000;2.791083
3206.000000;2.951112
3205.000000;3.074452
3204.000000;3.036049
3203.000000;2.951823
3202.000000;2.909367
3201.000000;2.913871
3200.000000;2.952871
3199.000000;2.947443
3198.000000;2.836948
3197.000000;2.779951
3196.000000;2.912055
3195.000000;3.347017
3194.000000;3.143764
3193.000000;2.913793
3192.000000;3.006592
3191.000000;3.397737
3190.000000;3.753086
3189.000000;3.565169
3188.000000;3.573360
3187.000000;3.411626
3186.000000;3.492506
3185.000000;3.059301
3184.000000;2.747344
3183.000000;2.642451
3182.000000;2.647949
3181.000000;2.714978
3180.000000;2.788537
3179.000000;2.854606
3178.000000;2.926462
3177.000000;2.973398
3176.000000;2.929390
3175.000000;2.868108
3174.000000;2.851752
3173.000000;2.886566
3172.000000;2.975984
3171.000000;3.095088
3170.000000;3.153606
3169.000000;3.178200
3168.000000;3.377543
3167.000000;3.606469
3166.000000;3.303998
3165.000000;3.375033
3164.000000;3.610840
3163.000000;3.324764
3162.000000;3.213323
3161.000000;3.269521
3160.000000;3.195141
3159.000000;3.124752
3158.000000;3.143793
3157.000000;3.028725
3156.000000;2.867988
3155.000000;2.814213
3154.000000;2.902306
3153.000000;3.166718
3152.000000;3.695738
3151.000000;3.398230
3150.000000;3.014096
3149.000000;2.838475
3148.000000;2.847422
3147.000000;3.099321
3146.000000;3.670635
3145.000000;3.106538
3144.000000;3.065960
3143.000000;3.030076
3142.000000;2.895332
3141.000000;2.821163
3140.000000;2.818311
3139.000000;3.123419
3138.000000;3.346735
3137.000000;2.756759
3136.000000;2.618103
3135.000000;2.607297
3134.000000;2.718311
3133.000000;2.907230
3132.000000;3.115536
3131.000000;3.132704
3130.000000;3.021411
3129.000000;2.960595
3128.000000;2.991774
3127.000000;3.135166
3126.000000;3.081440
3125.000000;2.858502
3124.000000;2.708505
3123.000000;2.616809
3122.000000;2.563870
3121.000000;2.556002
3120.000000;2.608441
3119.000000;2.734081
3118.000000;2.964815
3117.000000;3.459484
3116.000000;3.403442
3115.000000;3.021682
3114.000000;2.947589
3113.000000;2.963130
3112.000000;2.977168
3111.000000;2.917794
3110.000000;2.895813
3109.000000;2.978565
3108.000000;3.197603
3107.000000;3.144868
3106.000000;2.971363
3105.000000;3.087087
3104.000000;2.885311
3103.000000;2.604302
3102.000000;2.500585
3101.000000;2.510837
3100.000000;2.603708
3099.000000;2.756650
3098.000000;2.985316
3097.000000;3.357841
3096.000000;3.277023
3095.000000;3.097085
3094.000000;3.046579
3093.000000;3.062083
3092.000000;3.091679
3091.000000;3.086551
3090.000000;3.055585
3089.000000;2.997200
3088.000000;2.919505
3087.000000;2.875686
3086.000000;2.991174
3085.000000;3.325439
3084.000000;3.042019
3083.000000;2.778965
3082.000000;2.773596
3081.000000;2.871109
3080.000000;2.860466
3079.000000;2.776741
3078.000000;2.812142
3077.000000;2.912306
3076.000000;2.936219
3075.000000;2.935174
3074.000000;2.939351
3073.000000;2.864702
3072.000000;2.776629
3071.000000;2.709590
3070.000000;2.666469
3069.000000;2.654511
3068.000000;2.664562
3067.000000;2.687379
3066.000000;2.729025
3065.000000;2.797784
3064.000000;2.882372
3063.000000;2.958199
3062.000000;3.031240
3061.000000;3.188889
3060.000000;3.610996
3059.000000;3.369620
3058.000000;2.978098
3057.000000;2.876987
3056.000000;2.871030
3055.000000;2.909516
3054.000000;2.973181
3053.000000;3.142126
3052.000000;3.335135
3051.000000;3.090691
3050.000000;2.833629
3049.000000;2.720464
3048.000000;2.721193
3047.000000;2.839652
3046.000000;3.080006
3045.000000;3.296600
3044.000000;3.185113
3043.000000;3.049086
3042.000000;2.955929
3041.000000;2.874597
3040.000000;2.810158
3039.000000;2.775767
3038.000000;2.771515
3037.000000;2.790496
3036.000000;2.832486
3035.000000;2.900563
3034.000000;2.973478
3033.000000;3.033810
3032.000000;3.108575
3031.000000;3.504843
3030.000000;3.262095
3029.000000;2.762697
3028.000000;2.632488
3027.000000;2.628765
3026.000000;2.741560
3025.000000;2.882429
3024.000000;2.954272
3023.000000;2.984062
3022.000000;3.076292
3021.000000;3.259545
3020.000000;3.472745
3019.000000;3.472501
3018.000000;3.290967
3017.000000;3.087183
3016.000000;2.891340
3015.000000;2.758928
3014.000000;2.719987
3013.000000;2.755063
3012.000000;2.798434
3011.000000;2.842436
3010.000000;2.989887
3009.000000;3.045941
3008.000000;2.735208
3007.000000;2.580368
3006.000000;2.532523
3005.000000;2.546804
3004.000000;2.590452
3003.000000;2.639561
3002.000000;2.683157
3001.000000;2.741284
3000.000000;2.844273
2999.000000;3.049583
2998.000000;3.404608
2997.000000;3.842809
2996.000000;4.004850
2995.000000;3.410823
2994.000000;3.059831
2993.000000;2.868884
2992.000000;2.786959
2991.000000;2.783656
2990.000000;2.784759
2989.000000;2.739279
2988.000000;2.684685
2987.000000;2.692916
2986.000000;2.804576
2985.000000;3.028397
2984.000000;3.331009
2983.000000;3.319701
2982.000000;3.007074
2981.000000;2.884793
2980.000000;2.914165
2979.000000;3.099585
2978.000000;3.239112
2977.000000;3.002385
2976.000000;2.805400
2975.000000;2.697762
2974.000000;2.659134
2973.000000;2.673400
2972.000000;2.730349
2971.000000;2.765821
2970.000000;2.717551
2969.000000;2.667470
2968.000000;2.657488
2967.000000;2.645652
2966.000000;2.629209
2965.000000;2.652615
2964.000000;2.726115
2963.000000;2.818869
2962.000000;2.822638
2961.000000;2.731021
2960.000000;2.705012
2959.000000;2.810411
2958.000000;3.062412
2957.000000;3.204753
2956.000000;2.955363
2955.000000;2.755050
2954.000000;2.677486
2953.000000;2.771058
2952.000000;3.185742
2951.000000;3.128142
2950.000000;2.755495
2949.000000;2.763727
2948.000000;2.875088
2947.000000;2.972995
2946.000000;2.929370
2945.000000;2.885708
2944.000000;2.841262
2943.000000;2.795937
2942.000000;2.772205
2941.000000;2.736013
2940.000000;2.672068
2939.000000;2.647323
2938.000000;2.713583
2937.000000;2.880365
2936.000000;3.190730
2935.000000;3.231181
2934.000000;2.965362
2933.000000;2.884525
2932.000000;2.978882
2931.000000;3.341724
2930.000000;3.404578
2929.000000;2.988605
2928.000000;2.877325
2927.000000;2.868537
2926.000000;2.887488
2925.000000;2.876601
2924.000000;2.870380
2923.000000;2.879395
2922.000000;2.869751
2921.000000;2.835248
2920.000000;2.802528
2919.000000;2.727965
2918.000000;2.638650
2917.000000;2.610931
2916.000000;2.656146
2915.000000;2.729337
2914.000000;2.730437
2913.000000;2.659746
2912.000000;2.603113
2911.000000;2.586157
2910.000000;2.593809
2909.000000;2.603605
2908.000000;2.605862
2907.000000;2.605414
2906.000000;2.611936
2905.000000;2.635655
2904.000000;2.686230
2903.000000;2.761918
2902.000000;2.819585
2901.000000;2.798296
2900.000000;2.734143
2899.000000;2.688106
2898.000000;2.663222
2897.000000;2.643241
2896.000000;2.652116
2895.000000;2.723298
2894.000000;2.831109
2893.000000;2.856934
2892.000000;2.740897
2891.000000;2.604422
2890.000000;2.536172
2889.000000;2.549843
2888.000000;2.624906
2887.000000;2.696002
2886.000000;2.700633
2885.000000;2.674909
2884.000000;2.648851
2883.000000;2.624699
2882.000000;2.627312
2881.000000;2.677379
2880.000000;2.767701
2879.000000;2.868832
2878.000000;2.914720
2877.000000;2.887370
2876.000000;2.896711
2875.000000;2.985159
2874.000000;2.930419
2873.000000;2.746097
2872.000000;2.665690
2871.000000;2.671532
2870.000000;2.711140
2869.000000;2.751678
2868.000000;2.816610
2867.000000;2.861706
2866.000000;2.839935
2865.000000;2.848045
2864.000000;2.917049
2863.000000;2.950774
2862.000000;2.945743
2861.000000;2.975244
2860.000000;3.047775
2859.000000;3.183793
2858.000000;3.369356
2857.000000;3.677572
2856.000000;3.648813
2855.000000;3.402209
2854.000000;3.215887
2853.000000;3.114774
2852.000000;3.065874
2851.000000;3.072196
2850.000000;3.267234
2849.000000;3.350827
2848.000000;2.888922
2847.000000;2.687294
2846.000000;2.607729
2845.000000;2.617187
2844.000000;2.682061
2843.000000;2.736631
2842.000000;2.682679
2841.000000;2.611989
2840.000000;2.624784
2839.000000;2.718425
2838.000000;2.821965
2837.000000;2.805660
2836.000000;2.684351
2835.000000;2.576360
2834.000000;2.529282
2833.000000;2.545329
2832.000000;2.604233
2831.000000;2.672285
2830.000000;2.727963
2829.000000;2.783390
2828.000000;2.853730
2827.000000;2.923175
2826.000000;2.966843
2825.000000;2.992298
2824.000000;3.033289
2823.000000;3.130974
2822.000000;3.304288
2821.000000;3.492918
2820.000000;3.317291
2819.000000;3.011804
2818.000000;2.861936
2817.000000;2.831028
2816.000000;2.863438
2815.000000;2.864875
2814.000000;2.809426
2813.000000;2.770139
2812.000000;2.782301
2811.000000;2.814589
2810.000000;2.801615
2809.000000;2.745765
2808.000000;2.721081
2807.000000;2.765000
2806.000000;2.847089
2805.000000;2.874101
2804.000000;2.867894
2803.000000;2.909309
2802.000000;2.986960
2801.000000;3.037277
2800.000000;3.053606
2799.000000;3.063607
2798.000000;3.030544
2797.000000;3.020602
2796.000000;3.108439
2795.000000;3.086068
2794.000000;2.868454
2793.000000;2.721699
2792.000000;2.625150
2791.000000;2.539953
2790.000000;2.476325
2789.000000;2.468899
2788.000000;2.536827
2787.000000;2.679067
2786.000000;2.855270
2785.000000;2.973313
2784.000000;2.974230
2783.000000;2.939073
2782.000000;2.958061
2781.000000;3.051161
2780.000000;3.059044
2779.000000;2.942085
2778.000000;2.897290
2777.000000;2.999367
2776.000000;2.988316
2775.000000;2.816741
2774.000000;2.750148
2773.000000;2.773155
2772.000000;2.825783
2771.000000;2.913170
2770.000000;3.079557
2769.000000;3.387024
2768.000000;3.291246
2767.000000;2.854060
2766.000000;2.650660
2765.000000;2.579886
2764.000000;2.586389
2763.000000;2.569962
2762.000000;2.517432
2761.000000;2.491515
2760.000000;2.484287
2759.000000;2.481337
2758.000000;2.494788
2757.000000;2.552945
2756.000000;2.674058
2755.000000;3.027827
2754.000000;3.139141
2753.000000;2.846744
2752.000000;2.798702
2751.000000;2.899849
2750.000000;3.121318
2749.000000;3.202317
2748.000000;3.104226
2747.000000;3.025258
2746.000000;2.922443
2745.000000;2.792041
2744.000000;2.692878
2743.000000;2.631188
2742.000000;2.591176
2741.000000;2.582408
2740.000000;2.641912
2739.000000;2.817180
2738.000000;2.941014
2737.000000;2.761757
2736.000000;2.634938
2735.000000;2.570100
2734.000000;2.537799
2733.000000;2.545473
2732.000000;2.620252
2731.000000;2.883470
2730.000000;3.190930
2729.000000;2.903744
2728.000000;2.758636
2727.000000;2.727554
2726.000000;2.675887
2725.000000;2.602912
2724.000000;2.540181
2723.000000;2.520919
2722.000000;2.563097
2721.000000;2.640585
2720.000000;2.719941
2719.000000;2.855284
2718.000000;2.992342
2717.000000;2.868645
2716.000000;2.721073
2715.000000;2.616551
2714.000000;2.556346
2713.000000;2.556116
2712.000000;2.604690
2711.000000;2.659437
2710.000000;2.738427
2709.000000;2.866931
2708.000000;2.921633
2707.000000;2.869604
2706.000000;2.823030
2705.000000;2.793454
2704.000000;2.809589
2703.000000;2.921161
2702.000000;3.164337
2701.000000;2.998764
2700.000000;2.713697
2699.000000;2.568504
2698.000000;2.516918
2697.000000;2.561870
2696.000000;2.673715
2695.000000;2.761136
2694.000000;2.810017
2693.000000;2.860162
2692.000000;2.845988
2691.000000;2.789382
2690.000000;2.740146
2689.000000;2.716132
2688.000000;2.718175
2687.000000;2.782530
2686.000000;3.042458
2685.000000;3.571481
2684.000000;3.133108
2683.000000;2.956679
2682.000000;2.806019
2681.000000;2.676104
2680.000000;2.607896
2679.000000;2.633160
2678.000000;2.754604
2677.000000;2.824732
2676.000000;2.734331
2675.000000;2.671089
2674.000000;2.687011
2673.000000;2.775069
2672.000000;2.882449
2671.000000;2.916627
2670.000000;2.837186
2669.000000;2.734426
2668.000000;2.708876
2667.000000;2.684657
2666.000000;2.586526
2665.000000;2.534522
2664.000000;2.578693
2663.000000;2.693884
2662.000000;2.802302
2661.000000;2.823584
2660.000000;2.780067
2659.000000;2.736085
2658.000000;2.740230
2657.000000;2.834081
2656.000000;2.943492
2655.000000;2.862423
2654.000000;2.756571
2653.000000;2.706172
2652.000000;2.682969
2651.000000;2.679716
2650.000000;2.712776
2649.000000;2.792538
2648.000000;3.078375
2647.000000;3.159920
2646.000000;2.921484
2645.000000;2.940298
2644.000000;2.783916
2643.000000;2.609460
2642.000000;2.598202
2641.000000;2.667620
2640.000000;2.667540
2639.000000;2.656698
2638.000000;2.727774
2637.000000;2.864509
2636.000000;2.965441
2635.000000;2.972107
2634.000000;3.034111
2633.000000;3.343951
2632.000000;3.297897
2631.000000;2.916577
2630.000000;2.830915
2629.000000;2.951063
2628.000000;3.393534
2627.000000;2.986032
2626.000000;2.676564
2625.000000;2.640146
2624.000000;2.908269
2623.000000;3.042566
2622.000000;2.670075
2621.000000;2.576980
2620.000000;2.642353
2619.000000;2.860616
2618.000000;3.378800
2617.000000;3.007720
2616.000000;2.696027
2615.000000;2.579541
2614.000000;2.531807
2613.000000;2.551279
2612.000000;2.637055
2611.000000;2.795689
2610.000000;2.964533
2609.000000;3.004511
2608.000000;2.878368
2607.000000;2.754407
2606.000000;2.718024
2605.000000;2.732476
2604.000000;2.722332
2603.000000;2.671139
2602.000000;2.646584
2601.000000;2.720141
2600.000000;2.896152
2599.000000;2.908491
2598.000000;2.810375
2597.000000;2.763464
2596.000000;2.661266
2595.000000;2.594781
2594.000000;2.606178
2593.000000;2.664952
2592.000000;2.719286
2591.000000;2.772651
2590.000000;2.904970
2589.000000;3.077033
2588.000000;3.044892
2587.000000;2.894111
2586.000000;2.785743
2585.000000;2.771561
2584.000000;2.816201
2583.000000;2.857198
2582.000000;2.962338
2581.000000;3.381001
2580.000000;3.131312
2579.000000;2.804668
2578.000000;2.725227
2577.000000;2.735406
2576.000000;2.747504
2575.000000;2.741353
2574.000000;2.776246
2573.000000;2.880899
2572.000000;2.978308
2571.000000;2.882670
2570.000000;2.697801
2569.000000;2.599073
2568.000000;2.628755
2567.000000;2.782017
2566.000000;2.929034
2565.000000;2.895595
2564.000000;2.838461
2563.000000;2.865627
2562.000000;2.980086
2561.000000;3.192030
2560.000000;3.463876
2559.000000;3.298518
2558.000000;3.044480
2557.000000;2.813131
2556.000000;2.655197
2555.000000;2.586406
2554.000000;2.600738
2553.000000;2.704613
2552.000000;2.918161
2551.000000;3.215513
2550.000000;3.257662
2549.000000;2.915254
2548.000000;2.668982
2547.000000;2.569012
2546.000000;2.596579
2545.000000;2.733878
2544.000000;2.897212
2543.000000;2.896228
2542.000000;2.778064
2541.000000;2.699402
2540.000000;2.667111
2539.000000;2.651598
2538.000000;2.678399
2537.000000;2.735826
2536.000000;2.649251
2535.000000;2.539861
2534.000000;2.548408
2533.000000;2.669364
2532.000000;2.784206
2531.000000;2.718082
2530.000000;2.597830
2529.000000;2.547024
2528.000000;2.605183
2527.000000;2.786491
2526.000000;2.992408
2525.000000;2.952303
2524.000000;2.882186
2523.000000;2.857678
2522.000000;2.820378
2521.000000;2.749464
2520.000000;2.685448
2519.000000;2.625755
2518.000000;2.560306
2517.000000;2.508774
2516.000000;2.492925
2515.000000;2.518428
2514.000000;2.585286
2513.000000;2.698294
2512.000000;2.798076
2511.000000;2.768216
2510.000000;2.701827
2509.000000;2.691569
2508.000000;2.733921
2507.000000;2.723276
2506.000000;2.618014
2505.000000;2.533286
2504.000000;2.515072
2503.000000;2.569086
2502.000000;2.694097
2501.000000;2.891869
2500.000000;3.239825
2499.000000;3.387144
2498.000000;2.773638
2497.000000;2.504698
2496.000000;2.366524
2495.000000;2.328554
2494.000000;2.354869
2493.000000;2.416605
2492.000000;2.488557
2491.000000;2.557256
2490.000000;2.592599
2489.000000;2.576692
2488.000000;2.560649
2487.000000;2.602773
2486.000000;2.737966
2485.000000;2.976556
2484.000000;3.202501
2483.000000;3.015998
2482.000000;2.710871
2481.000000;2.586972
2480.000000;2.654508
2479.000000;2.961034
2478.000000;3.118306
2477.000000;3.051292
2476.000000;3.207208
2475.000000;3.524703
2474.000000;3.494181
2473.000000;3.163738
2472.000000;2.986036
2471.000000;2.890063
2470.000000;2.843624
2469.000000;2.852488
2468.000000;2.874305
2467.000000;2.794563
2466.000000;2.627766
2465.000000;2.490569
2464.000000;2.435526
2463.000000;2.464581
2462.000000;2.558375
2461.000000;2.655197
2460.000000;2.724384
2459.000000;2.822469
2458.000000;3.136639
2457.000000;3.238312
2456.000000;2.938316
2455.000000;2.831007
2454.000000;2.800163
2453.000000;2.775357
2452.000000;2.767593
2451.000000;2.745451
2450.000000;2.674831
2449.000000;2.583223
2448.000000;2.496311
2447.000000;2.449214
2446.000000;2.461464
2445.000000;2.533613
2444.000000;2.666254
2443.000000;2.877545
2442.000000;3.145667
2441.000000;3.365994
2440.000000;3.265620
2439.000000;2.859672
2438.000000;2.645775
2437.000000;2.588590
2436.000000;2.617054
2435.000000;2.690235
2434.000000;2.793519
2433.000000;3.277141
2432.000000;3.096376
2431.000000;2.686009
2430.000000;2.589247
2429.000000;2.589871
2428.000000;2.680261
2427.000000;2.853772
2426.000000;2.909626
2425.000000;2.793322
2424.000000;2.790495
2423.000000;2.887493
2422.000000;2.963177
2421.000000;3.036241
2420.000000;3.128610
2419.000000;3.124367
2418.000000;2.975898
2417.000000;2.769636
2416.000000;2.610672
2415.000000;2.545760
2414.000000;2.586967
2413.000000;2.728648
2412.000000;2.892075
2411.000000;2.986220
2410.000000;3.115262
2409.000000;3.452060
2408.000000;3.733754
2407.000000;3.269218
2406.000000;2.956742
2405.000000;2.748964
2404.000000;2.622148
2403.000000;2.582009
2402.000000;2.648241
2401.000000;2.834434
2400.000000;3.306595
2399.000000;3.513403
2398.000000;3.156140
2397.000000;3.025700
2396.000000;3.013206
2395.000000;3.022659
2394.000000;2.883571
2393.000000;2.768035
2392.000000;2.727207
2391.000000;2.713626
2390.000000;2.698863
2389.000000;2.675139
2388.000000;2.623238
2387.000000;2.538941
2386.000000;2.460048
2385.000000;2.441541
2384.000000;2.527052
2383.000000;2.738309
2382.000000;3.001611
2381.000000;3.118034
2380.000000;3.039316
2379.000000;2.981644
2378.000000;3.043265
2377.000000;3.136436
2376.000000;3.162480
2375.000000;3.159357
2374.000000;3.192072
2373.000000;3.174793
2372.000000;3.031143
2371.000000;2.886398
2370.000000;2.786286
2369.000000;2.737015
2368.000000;2.750222
2367.000000;2.836280
2366.000000;3.032727
2365.000000;3.272948
2364.000000;3.018928
2363.000000;2.837514
2362.000000;2.748029
2361.000000;2.697098
2360.000000;2.693943
2359.000000;2.770214
2358.000000;2.899341
2357.000000;2.989049
2356.000000;2.909139
2355.000000;2.769824
2354.000000;2.706893
2353.000000;2.737491
2352.000000;2.819940
2351.000000;2.853629
2350.000000;2.816954
2349.000000;2.816353
2348.000000;2.847999
2347.000000;2.844169
2346.000000;2.975489
2345.000000;3.204108
2344.000000;3.240119
2343.000000;2.956459
2342.000000;2.814574
2341.000000;2.819425
2340.000000;2.952213
2339.000000;3.267734
2338.000000;3.683465
2337.000000;3.712301
2336.000000;3.300056
2335.000000;2.978258
2334.000000;2.899122
2333.000000;2.911280
2332.000000;2.949735
2331.000000;2.949464
2330.000000;2.929283
2329.000000;2.905105
2328.000000;2.885272
2327.000000;2.884240
2326.000000;2.870750
2325.000000;2.852698
2324.000000;2.863968
2323.000000;2.936500
2322.000000;3.055759
2321.000000;3.094987
2320.000000;2.972852
2319.000000;2.816905
2318.000000;2.693129
2317.000000;2.581685
2316.000000;2.512856
2315.000000;2.507765
2314.000000;2.592726
2313.000000;2.771712
2312.000000;3.068343
2311.000000;3.551407
2310.000000;4.147609
2309.000000;3.685912
2308.000000;3.482085
2307.000000;3.386222
2306.000000;3.321346
2305.000000;3.095924
2304.000000;2.841192
2303.000000;2.665940
2302.000000;2.609473
2301.000000;2.669999
2300.000000;2.863056
2299.000000;3.132432
2298.000000;3.525295
2297.000000;3.451516
2296.000000;3.067940
2295.000000;2.969468
2294.000000;3.488172
2293.000000;2.981864
2292.000000;2.637144
2291.000000;2.539119
2290.000000;2.533971
2289.000000;2.610562
2288.000000;2.744502
2287.000000;2.906867
2286.000000;3.034402
2285.000000;3.043911
2284.000000;2.925265
2283.000000;2.855796
2282.000000;2.982243
2281.000000;3.480626
2280.000000;3.632513
2279.000000;3.535592
2278.000000;3.448845
2277.000000;3.046582
2276.000000;2.897596
2275.000000;2.747292
2274.000000;2.640207
2273.000000;2.587663
2272.000000;2.577036
2271.000000;2.583750
2270.000000;2.632048
2269.000000;2.757701
2268.000000;2.956919
2267.000000;2.874658
2266.000000;2.654441
2265.000000;2.572363
2264.000000;2.634380
2263.000000;2.806824
2262.000000;2.881109
2261.000000;2.649738
2260.000000;2.478733
2259.000000;2.424521
2258.000000;2.449578
2257.000000;2.523615
2256.000000;2.653799
2255.000000;2.907057
2254.000000;3.140926
2253.000000;2.911289
2252.000000;2.827756
2251.000000;2.835678
2250.000000;2.800524
2249.000000;2.692144
2248.000000;2.596412
2247.000000;2.532004
2246.000000;2.523565
2245.000000;2.596248
2244.000000;2.764422
2243.000000;3.016420
2242.000000;3.301800
2241.000000;3.315635
2240.000000;3.095612
2239.000000;2.998303
2238.000000;3.284173
2237.000000;2.994270
2236.000000;2.725410
2235.000000;2.685541
2234.000000;2.703409
2233.000000;2.705275
2232.000000;2.739156
2231.000000;2.652993
2230.000000;2.541985
2229.000000;2.644151
2228.000000;3.121586
2227.000000;2.791158
2226.000000;2.540678
2225.000000;2.553706
2224.000000;2.597663
2223.000000;2.467362
2222.000000;2.317557
2221.000000;2.252424
2220.000000;2.252841
2219.000000;2.296376
2218.000000;2.366795
2217.000000;2.476428
2216.000000;2.675317
2215.000000;2.862566
2214.000000;2.748183
2213.000000;2.607580
2212.000000;2.520581
2211.000000;2.483282
2210.000000;2.518039
2209.000000;2.585457
2208.000000;2.579936
2207.000000;2.485384
2206.000000;2.412435
2205.000000;2.423747
2204.000000;2.528920
2203.000000;2.709943
2202.000000;2.843324
2201.000000;2.793888
2200.000000;2.719890
2199.000000;2.666096
2198.000000;2.642948
2197.000000;2.647041
2196.000000;2.652285
2195.000000;2.664974
2194.000000;2.727790
2193.000000;2.750191
2192.000000;2.649256
2191.000000;2.577546
2190.000000;2.568091
2189.000000;2.551909
2188.000000;2.499164
2187.000000;2.434544
2186.000000;2.405016
2185.000000;2.448073
2184.000000;2.511628
2183.000000;2.535315
2182.000000;2.619741
2181.000000;2.903570
2180.000000;2.734836
2179.000000;2.494866
2178.000000;2.421695
2177.000000;2.452807
2176.000000;2.514736
2175.000000;2.480498
2174.000000;2.396708
2173.000000;2.369800
2172.000000;2.431946
2171.000000;2.605949
2170.000000;3.003499
2169.000000;3.240453
2168.000000;2.984421
2167.000000;3.197371
2166.000000;3.154715
2165.000000;2.958849
2164.000000;2.854139
2163.000000;2.677367
2162.000000;2.598599
2161.000000;2.675587
2160.000000;2.824232
2159.000000;2.782190
2158.000000;2.760757
2157.000000;2.749727
2156.000000;2.584642
2155.000000;2.519136
2154.000000;2.630784
2153.000000;2.966504
2152.000000;3.070240
2151.000000;2.984530
2150.000000;3.254095
2149.000000;3.623060
2148.000000;3.007234
2147.000000;2.891142
2146.000000;2.858212
2145.000000;2.850723
2144.000000;2.825304
2143.000000;2.817409
2142.000000;2.809674
2141.000000;2.776991
2140.000000;2.711756
2139.000000;2.619297
2138.000000;2.543300
2137.000000;2.518415
2136.000000;2.538062
2135.000000;2.602101
2134.000000;2.763327
2133.000000;3.015090
2132.000000;2.752905
2131.000000;2.542523
2130.000000;2.472105
2129.000000;2.444860
2128.000000;2.442803
2127.000000;2.465508
2126.000000;2.521488
2125.000000;2.631516
2124.000000;2.763777
2123.000000;2.620540
2122.000000;2.461590
2121.000000;2.428530
2120.000000;2.464772
2119.000000;2.492206
2118.000000;2.455598
2117.000000;2.358517
2116.000000;2.296301
2115.000000;2.328971
2114.000000;2.456112
2113.000000;2.629127
2112.000000;2.696906
2111.000000;2.585826
2110.000000;2.464264
2109.000000;2.412946
2108.000000;2.437825
2107.000000;2.536268
2106.000000;2.686777
2105.000000;2.827184
2104.000000;2.766822
2103.000000;2.609587
2102.000000;2.503849
2101.000000;2.444955
2100.000000;2.428037
2099.000000;2.466227
2098.000000;2.576148
2097.000000;2.776583
2096.000000;3.136768
2095.000000;3.906901
2094.000000;3.251196
2093.000000;3.109780
2092.000000;3.253166
2091.000000;3.391342
2090.000000;2.890413
2089.000000;2.646050
2088.000000;2.519794
2087.000000;2.487100
2086.000000;2.531687
2085.000000;2.655424
2084.000000;2.859434
2083.000000;3.068866
2082.000000;3.080983
2081.000000;2.911364
2080.000000;2.744976
2079.000000;2.703539
2078.000000;2.813376
2077.000000;3.142585
2076.000000;3.052940
2075.000000;2.815403
2074.000000;2.711440
2073.000000;2.694944
2072.000000;2.801288
2071.000000;3.144138
2070.000000;3.299290
2069.000000;3.109287
2068.000000;3.263536
2067.000000;2.809566
2066.000000;2.553389
2065.000000;2.469254
2064.000000;2.466401
2063.000000;2.435340
2062.000000;2.351892
2061.000000;2.283498
2060.000000;2.258257
2059.000000;2.266681
2058.000000;2.277604
2057.000000;2.277635
2056.000000;2.293544
2055.000000;2.373428
2054.000000;2.549854
2053.000000;2.923939
2052.000000;3.052414
2051.000000;2.842716
2050.000000;2.810122
2049.000000;2.879731
2048.000000;2.936699
2047.000000;2.776429
2046.000000;2.528685
2045.000000;2.373532
2044.000000;2.331907
2043.000000;2.389742
2042.000000;2.537514
2041.000000;2.757675
2040.000000;2.746163
2039.000000;2.577823
2038.000000;2.546931
2037.000000;2.598719
2036.000000;2.598924
2035.000000;2.493718
2034.000000;2.394045
2033.000000;2.349969
2032.000000;2.371491
2031.000000;2.420885
2030.000000;2.421973
2029.000000;2.374870
2028.000000;2.366008
2027.000000;2.457784
2026.000000;2.651898
2025.000000;2.513216
2024.000000;2.338389
2023.000000;2.319689
2022.000000;2.390110
2021.000000;2.424969
2020.000000;2.395422
2019.000000;2.394887
2018.000000;2.390806
2017.000000;2.396076
2016.000000;2.531929
2015.000000;2.828508
2014.000000;2.716649
2013.000000;2.708650
2012.000000;3.024684
2011.000000;3.357700
2010.000000;3.035853
2009.000000;2.670826
2008.000000;2.414392
2007.000000;2.307660
2006.000000;2.314432
2005.000000;2.457518
2004.000000;2.531631
2003.000000;2.368653
2002.000000;2.263926
2001.000000;2.255592
2000.000000;2.307530
1999.000000;2.370847
1998.000000;2.394649
1997.000000;2.379679
1996.000000;2.367480
1995.000000;2.375696
1994.000000;2.391835
1993.000000;2.409165
1992.000000;2.447781
1991.000000;2.545269
1990.000000;2.734066
1989.000000;3.098351
1988.000000;2.971843
1987.000000;2.559051
1986.000000;2.374693
1985.000000;2.327542
1984.000000;2.414365
1983.000000;2.800075
1982.000000;3.035263
1981.000000;2.519064
1980.000000;2.428147
1979.000000;2.402962
1978.000000;2.473838
1977.000000;2.613895
1976.000000;2.722512
1975.000000;2.697338
1974.000000;2.658637
1973.000000;2.571433
1972.000000;2.476372
1971.000000;2.437080
1970.000000;2.472395
1969.000000;2.590125
1968.000000;2.707745
1967.000000;2.691565
1966.000000;2.661136
1965.000000;2.630008
1964.000000;2.531629
1963.000000;2.450779
1962.000000;2.438004
1961.000000;2.473320
1960.000000;2.513124
1959.000000;2.537339
1958.000000;2.557814
1957.000000;2.583121
1956.000000;2.641329
1955.000000;2.693803
1954.000000;2.580756
1953.000000;2.424025
1952.000000;2.341897
1951.000000;2.327464
1950.000000;2.364956
1949.000000;2.439148
1948.000000;2.549582
1947.000000;2.670818
1946.000000;2.763071
1945.000000;2.802639
1944.000000;2.736834
1943.000000;2.626975
1942.000000;2.531083
1941.000000;2.466395
1940.000000;2.430568
1939.000000;2.409500
1938.000000;2.407059
1937.000000;2.438542
1936.000000;2.498483
1935.000000;2.561426
1934.000000;2.644845
1933.000000;2.917363
1932.000000;2.965771
1931.000000;2.517939
1930.000000;2.433174
1929.000000;2.545148
1928.000000;2.813124
1927.000000;3.230432
1926.000000;3.094572
1925.000000;2.521867
1924.000000;2.322669
1923.000000;2.316109
1922.000000;2.523829
1921.000000;3.153536
1920.000000;2.902535
1919.000000;2.688500
1918.000000;2.827503
1917.000000;2.887411
1916.000000;2.893954
1915.000000;3.025438
1914.000000;3.254630
1913.000000;2.902699
1912.000000;2.587415
1911.000000;2.467943
1910.000000;2.541917
1909.000000;2.830050
1908.000000;2.831210
1907.000000;2.756726
1906.000000;2.699129
1905.000000;2.477275
1904.000000;2.361869
1903.000000;2.345656
1902.000000;2.380616
1901.000000;2.413159
1900.000000;2.418296
1899.000000;2.400099
1898.000000;2.364680
1897.000000;2.306969
1896.000000;2.259662
1895.000000;2.272660
1894.000000;2.361761
1893.000000;2.491378
1892.000000;2.622052
1891.000000;2.759302
1890.000000;3.036494
1889.000000;3.136390
1888.000000;2.774972
1887.000000;2.612608
1886.000000;2.591519
1885.000000;2.648270
1884.000000;2.776482
1883.000000;3.059606
1882.000000;3.591168
1881.000000;2.971763
1880.000000;2.936409
1879.000000;2.933601
1878.000000;2.637702
1877.000000;2.460876
1876.000000;2.386512
1875.000000;2.374709
1874.000000;2.425399
1873.000000;2.524412
1872.000000;2.584922
1871.000000;2.565334
1870.000000;2.499447
1869.000000;2.393362
1868.000000;2.297641
1867.000000;2.254344
1866.000000;2.285203
1865.000000;2.418702
1864.000000;2.693064
1863.000000;2.957499
1862.000000;3.129653
1861.000000;3.387815
1860.000000;3.062304
1859.000000;3.030551
1858.000000;3.319151
1857.000000;3.062943
1856.000000;2.993750
1855.000000;2.720887
1854.000000;2.453157
1853.000000;2.329769
1852.000000;2.294640
1851.000000;2.300833
1850.000000;2.314731
1849.000000;2.359063
1848.000000;2.487177
1847.000000;2.954330
1846.000000;3.098729
1845.000000;2.638061
1844.000000;2.740989
1843.000000;2.922454
1842.000000;2.723359
1841.000000;2.555108
1840.000000;2.563661
1839.000000;3.121304
1838.000000;2.911372
1837.000000;2.447131
1836.000000;2.302114
1835.000000;2.233865
1834.000000;2.218893
1833.000000;2.237813
1832.000000;2.309913
1831.000000;2.450288
1830.000000;2.636504
1829.000000;2.793982
1828.000000;2.986294
1827.000000;3.226449
1826.000000;3.026428
1825.000000;2.596528
1824.000000;2.380781
1823.000000;2.292128
1822.000000;2.296835
1821.000000;2.384752
1820.000000;2.564255
1819.000000;2.677560
1818.000000;2.575428
1817.000000;2.531726
1816.000000;2.613500
1815.000000;2.896657
1814.000000;3.195626
1813.000000;3.023195
1812.000000;3.089791
1811.000000;3.171992
1810.000000;2.908610
1809.000000;2.813747
1808.000000;2.812635
1807.000000;2.727995
1806.000000;2.664036
1805.000000;2.634308
1804.000000;2.566434
1803.000000;2.515213
1802.000000;2.514245
1801.000000;2.534227
1800.000000;2.534576
1799.000000;2.509882
1798.000000;2.477138
1797.000000;2.434857
1796.000000;2.387389
1795.000000;2.353091
1794.000000;2.358302
1793.000000;2.426723
1792.000000;2.535629
1791.000000;2.537534
1790.000000;2.444790
1789.000000;2.410644
1788.000000;2.459512
1787.000000;2.590920
1786.000000;2.758294
1785.000000;3.033595
1784.000000;2.761082
1783.000000;2.435345
1782.000000;2.296373
1781.000000;2.267288
1780.000000;2.314645
1779.000000;2.362604
1778.000000;2.344208
1777.000000;2.307397
1776.000000;2.306336
1775.000000;2.322272
1774.000000;2.310445
1773.000000;2.313231
1772.000000;2.432036
1771.000000;2.717098
1770.000000;2.809992
1769.000000;2.657553
1768.000000;2.651055
1767.000000;2.860579
1766.000000;3.367383
1765.000000;2.913448
1764.000000;2.570293
1763.000000;2.407647
1762.000000;2.333260
1761.000000;2.341771
1760.000000;2.418407
1759.000000;2.551592
1758.000000;2.703249
1757.000000;2.748151
1756.000000;2.620881
1755.000000;2.555029
1754.000000;2.649330
1753.000000;3.167394
1752.000000;2.610174
1751.000000;2.341370
1750.000000;2.231417
1749.000000;2.155982
1748.000000;2.117798
1747.000000;2.143586
1746.000000;2.244362
1745.000000;2.408196
1744.000000;2.650870
1743.000000;3.149943
1742.000000;2.971859
1741.000000;2.624517
1740.000000;2.509720
1739.000000;2.460800
1738.000000;2.487650
1737.000000;2.527282
1736.000000;2.516144
1735.000000;2.447950
1734.000000;2.366042
1733.000000;2.313171
1732.000000;2.307562
1731.000000;2.337659
1730.000000;2.377755
1729.000000;2.407176
1728.000000;2.389183
1727.000000;2.343021
1726.000000;2.335569
1725.000000;2.375752
1724.000000;2.426906
1723.000000;2.456500
1722.000000;2.447501
1721.000000;2.425342
1720.000000;2.430383
1719.000000;2.464258
1718.000000;2.499209
1717.000000;2.510696
1716.000000;2.538370
1715.000000;2.597291
1714.000000;2.576181
1713.000000;2.486462
1712.000000;2.450166
1711.000000;2.470842
1710.000000;2.498807
1709.000000;2.512304
1708.000000;2.564652
1707.000000;2.675608
1706.000000;2.971777
1705.000000;3.340065
1704.000000;2.828094
1703.000000;2.588552
1702.000000;2.515772
1701.000000;2.503173
1700.000000;2.516685
1699.000000;2.522009
1698.000000;2.545322
1697.000000;2.666686
1696.000000;2.921056
1695.000000;2.593320
1694.000000;2.467881
1693.000000;2.477889
1692.000000;2.463569
1691.000000;2.382145
1690.000000;2.337178
1689.000000;2.392152
1688.000000;2.507591
1687.000000;2.386940
1686.000000;2.178714
1685.000000;2.091183
1684.000000;2.129005
1683.000000;2.273290
1682.000000;2.398240
1681.000000;2.390024
1680.000000;2.278565
1679.000000;2.183230
1678.000000;2.164190
1677.000000;2.199317
1676.000000;2.213963
1675.000000;2.167387
1674.000000;2.115986
1673.000000;2.117875
1672.000000;2.187153
1671.000000;2.323518
1670.000000;2.525039
1669.000000;2.777156
1668.000000;2.936155
1667.000000;2.831974
1666.000000;2.707759
1665.000000;2.620990
1664.000000;2.544472
1663.000000;2.474454
1662.000000;2.422137
1661.000000;2.396146
1660.000000;2.398754
1659.000000;2.412389
1658.000000;2.411608
1657.000000;2.431014
1656.000000;2.513131
1655.000000;2.721226
1654.000000;2.676109
1653.000000;2.350476
1652.000000;2.203128
1651.000000;2.164082
1650.000000;2.170076
1649.000000;2.175141
1648.000000;2.175097
1647.000000;2.209406
1646.000000;2.334036
1645.000000;2.549486
1644.000000;2.733379
1643.000000;2.812165
1642.000000;2.709612
1641.000000;2.482455
1640.000000;2.390553
1639.000000;2.445515
1638.000000;2.525272
1637.000000;2.434670
1636.000000;2.303607
1635.000000;2.254150
1634.000000;2.288045
1633.000000;2.375445
1632.000000;2.497575
1631.000000;2.667771
1630.000000;2.955731
1629.000000;2.849567
1628.000000;2.560869
1627.000000;2.458163
1626.000000;2.480628
1625.000000;2.634899
1624.000000;3.129926
1623.000000;3.032996
1622.000000;2.733142
1621.000000;2.687796
1620.000000;2.654647
1619.000000;2.603183
1618.000000;2.546881
1617.000000;2.527236
1616.000000;2.485388
1615.000000;2.393868
1614.000000;2.317145
1613.000000;2.267017
1612.000000;2.258236
1611.000000;2.311335
1610.000000;2.376494
1609.000000;2.344645
1608.000000;2.275609
1607.000000;2.243159
1606.000000;2.247790
1605.000000;2.284864
1604.000000;2.340566
1603.000000;2.397545
1602.000000;2.395897
1601.000000;2.404790
1600.000000;2.444980
1599.000000;3.058219
1598.000000;2.831467
1597.000000;2.333489
1596.000000;2.233696
1595.000000;2.208755
1594.000000;2.254593
1593.000000;2.326673
1592.000000;2.410171
1591.000000;2.495349
1590.000000;2.604632
1589.000000;2.575198
1588.000000;2.392206
1587.000000;2.280873
1586.000000;2.280045
1585.000000;2.392055
1584.000000;2.591836
1583.000000;2.766107
1582.000000;2.847170
1581.000000;2.696303
1580.000000;2.572027
1579.000000;2.648111
1578.000000;2.730980
1577.000000;2.539524
1576.000000;2.366582
1575.000000;2.250960
1574.000000;2.179734
1573.000000;2.129405
1572.000000;2.073045
1571.000000;2.034502
1570.000000;2.048103
1569.000000;2.137440
1568.000000;2.306837
1567.000000;2.552318
1566.000000;2.552003
1565.000000;2.380944
1564.000000;2.281970
1563.000000;2.216600
1562.000000;2.185812
1561.000000;2.229714
1560.000000;2.346671
1559.000000;2.419717
1558.000000;2.450891
1557.000000;2.468866
1556.000000;2.393449
1555.000000;2.360376
1554.000000;2.478636
1553.000000;2.924761
1552.000000;3.194336
1551.000000;2.732339
1550.000000;2.588719
1549.000000;2.417638
1548.000000;2.327926
1547.000000;2.285305
1546.000000;2.260884
1545.000000;2.229811
1544.000000;2.201582
1543.000000;2.183637
1542.000000;2.184252
1541.000000;2.214521
1540.000000;2.269827
1539.000000;2.277077
1538.000000;2.268494
1537.000000;2.320249
1536.000000;2.385118
1535.000000;2.377241
1534.000000;2.320836
1533.000000;2.316998
1532.000000;2.399116
1531.000000;2.502598
1530.000000;2.520211
1529.000000;2.476295
1528.000000;2.443924
1527.000000;2.422184
1526.000000;2.391292
1525.000000;2.373512
1524.000000;2.403471
1523.000000;2.463510
1522.000000;2.481209
1521.000000;2.488486
1520.000000;2.557497
1519.000000;2.667593
1518.000000;2.808884
1517.000000;3.119258
1516.000000;3.471186
1515.000000;3.170222
1514.000000;3.005914
1513.000000;2.807500
1512.000000;2.582373
1511.000000;2.455257
1510.000000;2.420798
1509.000000;2.429473
1508.000000;2.409968
1507.000000;2.338363
1506.000000;2.336757
1505.000000;2.501144
1504.000000;2.920222
1503.000000;2.922732
1502.000000;2.687092
1501.000000;2.677900
1500.000000;2.940483
1499.000000;2.814684
1498.000000;2.474673
1497.000000;2.425592
1496.000000;2.542235
1495.000000;2.788636
1494.000000;2.788314
1493.000000;2.676985
1492.000000;2.748729
1491.000000;2.888200
1490.000000;2.519030
1489.000000;2.251270
1488.000000;2.166454
1487.000000;2.190127
1486.000000;2.292161
1485.000000;2.404455
1484.000000;2.451594
1483.000000;2.405901
1482.000000;2.356103
1481.000000;2.383072
1480.000000;2.510088
1479.000000;2.679116
1478.000000;2.717354
1477.000000;2.605364
1476.000000;2.471368
1475.000000;2.381518
1474.000000;2.343936
1473.000000;2.344403
1472.000000;2.351757
1471.000000;2.333854
1470.000000;2.304477
1469.000000;2.311349
1468.000000;2.365450
1467.000000;2.411449
1466.000000;2.422957
1465.000000;2.450901
1464.000000;2.363542
1463.000000;2.191042
1462.000000;2.117401
1461.000000;2.172436
1460.000000;2.337837
1459.000000;2.482127
1458.000000;2.371490
1457.000000;2.220521
1456.000000;2.161716
1455.000000;2.224806
1454.000000;2.464708
1453.000000;3.000181
1452.000000;2.512991
1451.000000;2.422514
1450.000000;2.630888
1449.000000;3.149385
1448.000000;2.484748
1447.000000;2.264437
1446.000000;2.145317
1445.000000;2.111807
1444.000000;2.148696
1443.000000;2.271109
1442.000000;2.463576
1441.000000;2.664318
1440.000000;2.681793
1439.000000;2.570442
1438.000000;2.555769
1437.000000;2.660938
1436.000000;2.825993
1435.000000;2.858342
1434.000000;2.850207
1433.000000;2.974558
1432.000000;2.943378
1431.000000;2.864233
1430.000000;2.631996
1429.000000;2.384679
1428.000000;2.258069
1427.000000;2.238654
1426.000000;2.326502
1425.000000;2.555556
1424.000000;2.587566
1423.000000;2.412136
1422.000000;2.409305
1421.000000;2.472533
1420.000000;2.485071
1419.000000;2.433854
1418.000000;2.353157
1417.000000;2.270925
1416.000000;2.222478
1415.000000;2.214643
1414.000000;2.180507
1413.000000;2.173838
1412.000000;2.239918
1411.000000;2.788879
1410.000000;2.782633
1409.000000;2.311180
1408.000000;2.264234
1407.000000;2.299401
1406.000000;2.424251
1405.000000;2.563866
1404.000000;2.689192
1403.000000;2.757988
1402.000000;2.484247
1401.000000;2.330428
1400.000000;2.365579
1399.000000;2.548274
1398.000000;2.759617
1397.000000;2.739168
1396.000000;2.460621
1395.000000;2.236962
1394.000000;2.123788
1393.000000;2.096271
1392.000000;2.145581
1391.000000;2.293562
1390.000000;2.320097
1389.000000;2.103109
1388.000000;1.965947
1387.000000;1.921870
1386.000000;1.971714
1385.000000;2.111190
1384.000000;2.367487
1383.000000;2.443677
1382.000000;2.243602
1381.000000;2.146509
1380.000000;2.143151
1379.000000;2.190018
1378.000000;2.222898
1377.000000;2.192080
1376.000000;2.161122
1375.000000;2.213138
1374.000000;2.364534
1373.000000;2.534117
1372.000000;2.663168
1371.000000;3.109782
1370.000000;2.602344
1369.000000;2.244314
1368.000000;2.104940
1367.000000;2.080484
1366.000000;2.120053
1365.000000;2.199418
1364.000000;2.311333
1363.000000;2.426162
1362.000000;2.464589
1361.000000;2.383143
1360.000000;2.261686
1359.000000;2.197648
1358.000000;2.217453
1357.000000;2.332315
1356.000000;2.460888
1355.000000;2.973088
1354.000000;2.755539
1353.000000;2.355899
1352.000000;2.271607
1351.000000;2.289020
1350.000000;2.365999
1349.000000;2.426832
1348.000000;2.440014
1347.000000;2.414633
1346.000000;2.432412
1345.000000;2.591839
1344.000000;2.903912
1343.000000;2.718963
1342.000000;2.646913
1341.000000;2.718480
1340.000000;2.806003
1339.000000;2.820279
1338.000000;2.685838
1337.000000;2.428542
1336.000000;2.196171
1335.000000;2.058540
1334.000000;2.042534
1333.000000;2.176489
1332.000000;2.481211
1331.000000;2.519449
1330.000000;2.416375
1329.000000;2.494249
1328.000000;2.550426
1327.000000;2.551599
1326.000000;2.373870
1325.000000;2.201044
1324.000000;2.172282
1323.000000;2.293139
1322.000000;2.753935
1321.000000;2.860599
1320.000000;2.443986
1319.000000;2.296033
1318.000000;2.200841
1317.000000;2.093815
1316.000000;2.004299
1315.000000;1.979084
1314.000000;2.047049
1313.000000;2.228448
1312.000000;2.679547
1311.000000;2.911994
1310.000000;2.304752
1309.000000;2.136071
1308.000000;2.055280
1307.000000;2.077377
1306.000000;2.141396
1305.000000;2.206321
1304.000000;2.224192
1303.000000;2.127277
1302.000000;2.017771
1301.000000;1.978334
1300.000000;1.984655
1299.000000;2.015434
1298.000000;2.086722
1297.000000;2.198803
1296.000000;2.352200
1295.000000;2.557342
1294.000000;3.757471
1293.000000;2.624758
1292.000000;2.411286
1291.000000;2.476396
1290.000000;2.880162
1289.000000;2.678919
1288.000000;2.362741
1287.000000;2.267252
1286.000000;2.307830
1285.000000;2.481470
1284.000000;2.938867
1283.000000;3.548014
1282.000000;2.658604
1281.000000;2.385969
1280.000000;2.225080
1279.000000;2.174273
1278.000000;2.216519
1277.000000;2.339350
1276.000000;2.480881
1275.000000;2.646699
1274.000000;2.921240
1273.000000;3.171175
1272.000000;3.307110
1271.000000;3.177907
1270.000000;2.829156
1269.000000;2.572498
1268.000000;2.382453
1267.000000;2.333006
1266.000000;2.507713
1265.000000;2.757004
1264.000000;2.334925
1263.000000;2.194401
1262.000000;2.240308
1261.000000;2.553920
1260.000000;2.986431
1259.000000;2.482727
1258.000000;2.566357
1257.000000;3.011427
1256.000000;3.160719
1255.000000;2.775674
1254.000000;2.632193
1253.000000;2.542899
1252.000000;2.599402
1251.000000;2.568494
1250.000000;2.551808
1249.000000;2.804037
1248.000000;2.882012
1247.000000;2.710571
1246.000000;2.760910
1245.000000;2.744873
1244.000000;2.627512
1243.000000;2.578867
1242.000000;2.637246
1241.000000;2.887473
1240.000000;2.886444
1239.000000;2.609532
1238.000000;2.473216
1237.000000;2.411365
1236.000000;2.402927
1235.000000;2.430446
1234.000000;2.379830
1233.000000;2.247186
1232.000000;2.179801
1231.000000;2.238916
1230.000000;2.467006
1229.000000;3.008429
1228.000000;3.027742
1227.000000;2.401920
1226.000000;2.162130
1225.000000;2.103717
1224.000000;2.187515
1223.000000;2.348991
1222.000000;2.509328
1221.000000;2.429351
1220.000000;2.281714
1219.000000;2.298630
1218.000000;2.366423
1217.000000;2.235452
1216.000000;2.129020
1215.000000;2.128449
1214.000000;2.217816
1213.000000;2.433961
1212.000000;2.976526
1211.000000;2.896148
1210.000000;2.601340
1209.000000;2.471293
1208.000000;2.492645
1207.000000;2.535421
1206.000000;2.318412
1205.000000;2.147595
1204.000000;2.118449
1203.000000;2.221288
1202.000000;2.489941
1201.000000;2.789607
1200.000000;2.572177
